title:C                                                                               , recorded:01.07.20 12.46.05, sampling:128, subject:C                                                                               , labels:COUNTER INTERPOLATED AF3 F7 F3 FC5 T7 P7 O1 O2 P8 T8 FC6 F4 F8 AF4, chan:37, units:emotiv,,,,,,,,,
6,0,4216.410153,4262.563998,4211.281948,4216.922974,4227.179384,4218.974256,4221.025538,4211.281948,4218.461435,4207.179384,4202.051179,4216.922974,4222.051179,4189.230667
7,0,4217.948615,4263.076819,4213.33323,4217.435794,4286.153741,4218.974256,4228.717845,4214.358871,4222.051179,4234.358871,4199.999897,4221.025538,4221.538358,4194.871692
8,0,4217.948615,4259.999896,4213.33323,4214.871692,4236.922973,4224.102461,4233.33323,4216.922974,4224.102461,4214.871692,4196.922974,4223.07682,4223.07682,4194.358872
9,0,4215.384512,4255.384511,4212.82041,4216.922974,4166.153744,4217.435794,4222.051179,4213.33323,4216.410153,4199.487077,4205.640923,4222.563999,4230.256307,4195.384513
10,0,4215.384512,4253.84605,4214.871692,4216.922974,4187.692205,4211.281948,4216.410153,4214.358871,4214.871692,4199.999897,4217.948615,4223.58964,4230.769127,4197.435795
11,0,4216.922974,4251.794768,4212.307589,4211.281948,4253.333229,4216.922974,4218.974256,4212.82041,4215.384512,4182.05118,4216.922974,4227.179384,4221.538358,4194.358872
12,0,4215.897333,4248.205024,4207.692205,4212.82041,4239.487076,4215.897333,4214.358871,4201.025538,4212.307589,4179.999898,4200.512718,4226.666563,4217.948615,4193.333231
13,0,4216.922974,4254.871691,4212.307589,4219.487076,4212.82041,4214.358871,4213.846051,4199.999897,4215.384512,4211.281948,4193.846051,4221.538358,4227.179384,4195.897333
14,0,4222.051179,4263.589639,4215.384512,4219.999897,4218.461435,4216.922974,4216.922974,4212.307589,4218.974256,4213.846051,4208.205025,4224.102461,4233.33323,4194.358872
15,0,4229.230666,4262.051178,4213.33323,4217.435794,4215.897333,4218.461435,4216.410153,4215.384512,4217.948615,4197.435795,4223.07682,4228.717845,4232.820409,4198.974256
16,0,4234.358871,4261.538357,4220.512717,4218.461435,4206.153743,4221.538358,4217.948615,4208.205025,4218.974256,4215.384512,4217.435794,4212.82041,4234.358871,4207.179384
17,0,4229.743486,4261.025537,4220.512717,4221.025538,4212.82041,4217.948615,4218.461435,4203.589641,4218.974256,4219.999897,4199.487077,4189.230667,4232.820409,4202.051179
18,0,4215.897333,4252.307588,4205.640923,4217.435794,4221.025538,4208.717846,4214.871692,4204.615282,4215.384512,4188.205026,4196.922974,4179.487077,4226.666563,4193.333231
19,0,4210.769128,4244.615281,4202.051179,4208.205025,4235.897332,4213.33323,4216.410153,4211.281948,4215.897333,4185.640923,4209.230666,4183.589641,4228.717845,4197.948615
20,0,4221.538358,4246.153742,4215.384512,4210.769128,4215.897333,4221.025538,4222.051179,4214.871692,4221.538358,4201.025538,4217.435794,4189.743487,4232.307589,4205.640923
21,0,4231.794768,4254.871691,4221.538358,4223.07682,4174.871693,4217.435794,4224.615281,4213.846051,4220.512717,4204.615282,4223.07682,4197.435795,4237.948614,4211.794769
22,0,4233.33323,4259.999896,4217.435794,4221.538358,4219.999897,4216.922974,4222.563999,4214.871692,4216.410153,4208.717846,4229.230666,4199.999897,4245.128101,4216.922974
23,0,4236.922973,4260.512716,4222.051179,4220.512717,4252.307588,4220.512717,4218.461435,4215.384512,4223.07682,4221.025538,4229.743486,4197.435795,4246.666563,4216.922974
24,0,4245.128101,4263.589639,4232.307589,4231.794768,4237.948614,4222.563999,4218.461435,4213.33323,4233.33323,4234.358871,4227.179384,4203.589641,4246.153742,4217.948615
25,0,4247.179383,4264.10246,4231.794768,4231.794768,4210.256307,4216.410153,4221.025538,4216.410153,4229.743486,4233.33323,4231.281948,4211.281948,4249.230665,4224.102461
26,0,4247.179383,4263.589639,4229.743486,4227.692204,4149.743488,4207.179384,4217.435794,4218.461435,4218.461435,4220.512717,4234.358871,4210.256307,4250.256306,4224.102461
27,0,4245.128101,4262.051178,4229.743486,4229.743486,4188.717846,4209.230666,4213.33323,4212.82041,4214.871692,4215.384512,4224.615281,4205.128102,4242.563999,4214.358871
28,0,4238.461435,4255.897332,4225.128102,4222.051179,4298.461433,4218.974256,4217.435794,4211.794769,4217.435794,4217.435794,4210.769128,4205.128102,4233.84605,4209.743487
29,0,4233.33323,4248.717845,4217.435794,4211.281948,4259.487075,4216.922974,4219.999897,4215.384512,4217.435794,4207.692205,4209.230666,4203.07682,4232.820409,4210.256307
30,0,4231.281948,4246.666563,4214.358871,4216.922974,4176.922975,4207.179384,4214.358871,4206.153743,4214.358871,4190.256308,4215.384512,4197.948615,4234.871691,4204.102461
31,0,4227.179384,4249.743486,4216.410153,4223.58964,4184.102462,4209.743487,4212.307589,4198.461436,4212.307589,4183.589641,4214.358871,4201.538359,4233.84605,4201.538359
32,0,4233.33323,4259.487075,4228.205025,4223.58964,4178.974257,4216.922974,4217.435794,4210.769128,4214.358871,4204.615282,4214.358871,4210.256307,4234.871691,4214.358871
33,0,4243.076819,4259.999896,4233.33323,4224.102461,4210.769128,4217.948615,4216.410153,4216.410153,4215.897333,4236.410153,4217.435794,4212.82041,4239.999896,4219.999897
34,0,4232.820409,4245.128101,4223.07682,4220.512717,4286.666562,4214.871692,4214.358871,4204.615282,4215.384512,4232.307589,4217.435794,4212.307589,4237.948614,4212.307589
35,0,4226.153743,4249.743486,4220.512717,4219.487076,4252.307588,4212.82041,4213.846051,4197.435795,4212.82041,4210.769128,4215.384512,4212.82041,4232.307589,4208.205025
36,0,4244.10246,4275.384511,4227.692204,4231.281948,4160.512719,4213.33323,4212.82041,4201.025538,4210.769128,4194.358872,4214.871692,4214.358871,4233.33323,4208.205025
37,0,4254.35887,4285.1281,4227.179384,4237.948614,4191.281949,4219.487076,4216.410153,4205.128102,4216.410153,4184.615282,4209.743487,4210.256307,4229.743486,4204.102461
38,0,4248.205024,4278.461434,4221.025538,4231.794768,4267.692203,4218.461435,4213.33323,4204.615282,4214.358871,4192.82041,4192.30759,4201.025538,4216.922974,4195.897333
39,0,4248.717845,4280.512716,4218.461435,4231.794768,4237.948614,4204.102461,4200.512718,4201.025538,4202.051179,4199.999897,4182.564,4202.564,4211.281948,4191.794769
40,0,4246.666563,4281.025536,4217.435794,4232.307589,4199.999897,4202.051179,4198.974256,4202.564,4203.07682,4201.538359,4191.281949,4211.794769,4214.871692,4193.333231
41,0,4240.512717,4271.794767,4215.897333,4223.58964,4204.615282,4212.307589,4208.717846,4204.102461,4207.692205,4201.538359,4201.025538,4213.33323,4215.897333,4193.846051
42,0,4243.076819,4271.794767,4218.461435,4224.102461,4217.948615,4217.435794,4215.897333,4199.487077,4203.07682,4185.640923,4201.538359,4212.307589,4216.410153,4192.30759
43,0,4239.999896,4273.846049,4216.922974,4229.743486,4231.794768,4216.922974,4215.897333,4199.487077,4204.615282,4180.512718,4200.512718,4215.897333,4217.948615,4195.897333
44,0,4232.820409,4267.179383,4212.82041,4225.640922,4237.435794,4216.410153,4211.281948,4203.589641,4212.82041,4216.410153,4199.999897,4213.33323,4217.948615,4196.922974
45,0,4233.33323,4264.61528,4213.846051,4219.999897,4230.769127,4214.871692,4211.794769,4203.07682,4216.410153,4226.666563,4199.999897,4210.256307,4219.487076,4194.358872
46,0,4234.871691,4266.153742,4215.384512,4218.461435,4204.102461,4212.82041,4212.82041,4201.538359,4212.82041,4174.871693,4203.07682,4213.33323,4219.999897,4196.410154
47,0,4233.33323,4265.640921,4218.974256,4220.512717,4184.615282,4212.307589,4209.230666,4203.07682,4203.589641,4164.615283,4203.07682,4213.846051,4217.435794,4202.564
48,0,4231.281948,4261.025537,4220.512717,4221.538358,4222.051179,4214.871692,4209.743487,4205.640923,4199.999897,4199.999897,4198.461436,4212.82041,4216.922974,4203.589641
49,0,4232.307589,4261.538357,4219.487076,4223.07682,4267.179383,4218.461435,4217.435794,4212.307589,4212.82041,4197.435795,4197.435795,4215.897333,4218.974256,4203.589641
50,0,4232.307589,4261.025537,4219.999897,4227.179384,4235.384512,4213.33323,4219.999897,4217.435794,4216.922974,4183.589641,4202.564,4218.461435,4222.563999,4204.102461
51,0,4225.640922,4255.384511,4221.025538,4226.153743,4183.076821,4207.692205,4215.384512,4215.384512,4205.640923,4199.487077,4203.07682,4213.846051,4223.07682,4203.589641
52,0,4222.563999,4250.769127,4219.487076,4221.538358,4186.153744,4211.281948,4215.897333,4213.846051,4204.102461,4203.589641,4199.487077,4210.256307,4217.948615,4200.512718
53,0,4226.666563,4254.871691,4221.538358,4227.179384,4224.102461,4218.974256,4222.051179,4218.974256,4214.871692,4186.666564,4208.717846,4214.871692,4217.948615,4204.615282
54,0,4227.179384,4256.922973,4225.128102,4225.640922,4256.410152,4223.07682,4223.07682,4221.538358,4221.025538,4181.538359,4213.846051,4218.974256,4224.102461,4210.256307
55,0,4222.051179,4250.256306,4221.025538,4214.358871,4230.256307,4215.384512,4212.82041,4214.358871,4214.358871,4184.102462,4197.435795,4214.871692,4223.07682,4208.205025
56,0,4219.487076,4250.256306,4215.384512,4223.07682,4192.82041,4203.589641,4203.07682,4214.871692,4207.179384,4201.538359,4191.281949,4212.307589,4216.922974,4203.07682
57,0,4216.410153,4250.256306,4212.307589,4230.256307,4197.435795,4205.640923,4203.589641,4215.897333,4202.564,4211.794769,4199.487077,4211.794769,4216.922974,4202.564
58,0,4216.922974,4245.128101,4211.794769,4219.487076,4212.307589,4213.33323,4209.230666,4205.640923,4203.589641,4186.666564,4201.538359,4209.743487,4220.512717,4207.179384
59,0,4227.179384,4253.333229,4215.384512,4220.512717,4240.512717,4212.82041,4213.33323,4204.615282,4208.205025,4173.333231,4204.102461,4214.358871,4220.512717,4210.256307
60,0,4234.358871,4264.10246,4222.563999,4227.179384,4264.61528,4214.358871,4215.897333,4215.384512,4206.153743,4187.179385,4210.769128,4219.999897,4218.974256,4211.281948
61,0,4230.769127,4255.384511,4227.179384,4225.128102,4216.410153,4216.922974,4218.974256,4215.384512,4203.07682,4192.30759,4204.615282,4217.948615,4221.538358,4209.743487
62,0,4227.692204,4246.153742,4222.563999,4229.230666,4168.205026,4214.871692,4219.487076,4210.256307,4208.205025,4196.922974,4201.025538,4214.358871,4225.640922,4207.179384
63,0,4228.205025,4254.35887,4215.897333,4231.281948,4216.922974,4215.897333,4217.948615,4214.358871,4215.897333,4209.230666,4211.281948,4213.33323,4224.102461,4207.179384
64,0,4222.563999,4256.922973,4215.384512,4219.999897,4267.692203,4218.974256,4216.410153,4216.410153,4215.384512,4199.999897,4211.281948,4215.384512,4219.487076,4204.102461
65,0,4215.384512,4250.769127,4216.922974,4214.871692,4246.666563,4217.948615,4216.410153,4215.897333,4216.410153,4205.128102,4199.999897,4214.358871,4221.025538,4200.512718
66,0,4216.410153,4246.666563,4212.307589,4217.435794,4226.153743,4216.410153,4217.948615,4215.384512,4213.33323,4221.025538,4198.461436,4209.230666,4223.58964,4201.025538
67,0,4217.435794,4241.538358,4209.230666,4217.435794,4217.435794,4213.33323,4214.871692,4211.794769,4207.692205,4192.82041,4201.025538,4208.717846,4218.974256,4199.487077
68,0,4222.051179,4241.538358,4212.82041,4217.948615,4170.256308,4213.846051,4213.846051,4213.33323,4211.281948,4168.205026,4200.512718,4212.307589,4215.384512,4198.461436
69,0,4228.205025,4247.179383,4216.410153,4218.974256,4190.256308,4219.999897,4218.974256,4211.794769,4209.743487,4194.871692,4204.615282,4212.82041,4216.410153,4204.102461
70,0,4220.512717,4246.153742,4213.846051,4218.974256,4263.076819,4212.82041,4217.435794,4202.564,4205.128102,4215.384512,4204.615282,4213.33323,4218.461435,4206.153743
71,0,4218.461435,4244.10246,4212.82041,4220.512717,4224.102461,4204.615282,4213.33323,4206.666564,4210.769128,4193.846051,4197.948615,4216.410153,4217.948615,4199.487077
72,0,4230.769127,4249.743486,4220.512717,4224.615281,4184.102462,4214.871692,4217.435794,4217.435794,4217.948615,4185.128103,4207.692205,4218.461435,4219.487076,4202.051179
73,0,4230.769127,4250.256306,4219.999897,4222.563999,4242.563999,4219.999897,4218.974256,4212.307589,4213.846051,4212.82041,4216.922974,4217.435794,4222.051179,4205.128102
74,0,4225.640922,4245.640922,4217.435794,4216.410153,4262.051178,4212.82041,4216.922974,4208.717846,4211.281948,4221.538358,4210.769128,4218.974256,4226.153743,4203.07682
75,0,4231.794768,4249.743486,4224.102461,4223.58964,4196.922974,4213.33323,4217.948615,4213.846051,4215.384512,4203.589641,4212.307589,4222.563999,4229.743486,4207.179384
76,0,4230.256307,4255.384511,4224.615281,4231.281948,4171.79477,4214.871692,4215.384512,4203.589641,4214.358871,4204.615282,4221.025538,4221.025538,4228.717845,4208.717846
77,0,4222.051179,4257.435793,4218.461435,4227.179384,4221.538358,4213.846051,4214.358871,4198.974256,4213.33323,4212.307589,4215.897333,4221.025538,4225.128102,4203.07682
78,0,4229.230666,4258.974255,4222.563999,4222.051179,4268.717844,4218.974256,4223.58964,4213.33323,4215.897333,4206.666564,4211.794769,4226.153743,4228.205025,4203.589641
79,0,4233.84605,4256.410152,4224.102461,4225.128102,4254.871691,4220.512717,4224.102461,4212.307589,4216.922974,4212.82041,4216.922974,4225.128102,4232.820409,4208.717846
80,0,4227.692204,4249.230665,4216.922974,4224.615281,4209.230666,4214.871692,4213.33323,4198.461436,4211.281948,4221.025538,4215.384512,4219.999897,4225.128102,4206.666564
81,0,4223.58964,4244.10246,4214.871692,4218.461435,4201.538359,4211.794769,4211.794769,4201.025538,4209.230666,4206.666564,4210.256307,4219.487076,4217.948615,4202.564
82,0,4220.512717,4241.538358,4216.922974,4215.897333,4192.30759,4210.256307,4215.897333,4204.615282,4212.307589,4198.461436,4209.743487,4215.384512,4225.640922,4199.999897
83,0,4224.615281,4247.179383,4217.435794,4218.974256,4207.692205,4214.358871,4216.410153,4201.538359,4214.871692,4203.589641,4214.358871,4215.897333,4232.307589,4203.07682
84,0,4227.692204,4248.205024,4217.435794,4218.974256,4258.974255,4218.974256,4217.435794,4202.564,4214.871692,4195.897333,4216.922974,4222.563999,4229.230666,4207.179384
85,0,4222.051179,4237.435794,4216.410153,4215.897333,4233.33323,4214.871692,4216.410153,4205.128102,4213.33323,4206.153743,4215.384512,4222.051179,4228.717845,4207.692205
86,0,4221.025538,4235.897332,4216.410153,4221.025538,4175.384513,4212.82041,4215.897333,4210.769128,4214.358871,4230.769127,4217.435794,4220.512717,4232.307589,4207.692205
87,0,4223.58964,4247.179383,4214.358871,4223.07682,4200.512718,4215.897333,4217.435794,4215.384512,4215.897333,4219.999897,4216.922974,4221.025538,4229.230666,4207.179384
88,0,4222.563999,4246.666563,4209.230666,4213.33323,4254.871691,4218.974256,4221.025538,4212.307589,4217.435794,4202.564,4210.256307,4219.487076,4226.666563,4203.589641
89,0,4226.153743,4244.615281,4212.307589,4219.487076,4247.179383,4226.153743,4227.692204,4212.82041,4220.512717,4226.153743,4212.82041,4228.717845,4230.256307,4206.666564
90,0,4231.281948,4249.743486,4226.153743,4235.384512,4183.589641,4226.666563,4228.205025,4217.435794,4221.538358,4242.051178,4226.666563,4238.461435,4231.794768,4210.256307
91,0,4232.307589,4251.794768,4230.769127,4232.307589,4184.615282,4218.461435,4225.128102,4215.384512,4216.922974,4213.33323,4231.794768,4226.153743,4233.84605,4211.281948
92,0,4233.33323,4247.179383,4227.179384,4221.538358,4278.461434,4219.487076,4226.153743,4213.33323,4216.410153,4206.666564,4225.128102,4227.692204,4233.84605,4213.846051
93,0,4227.692204,4239.487076,4221.025538,4222.563999,4288.717844,4223.58964,4224.102461,4214.871692,4215.897333,4226.153743,4213.846051,4231.794768,4220.512717,4208.205025
94,0,4220.512717,4231.794768,4219.999897,4221.025538,4191.794769,4215.384512,4214.871692,4213.33323,4211.794769,4219.999897,4212.82041,4162.05118,4216.410153,4203.589641
95,0,4228.205025,4232.820409,4224.615281,4216.410153,4185.128103,4212.82041,4215.384512,4212.82041,4214.358871,4208.205025,4226.666563,4074.358875,4234.871691,4213.846051
96,0,4232.307589,4234.358871,4226.153743,4218.974256,4267.692203,4225.640922,4225.128102,4213.846051,4218.974256,4217.948615,4235.384512,4071.794772,4248.717845,4228.205025
97,0,4231.281948,4229.743486,4228.205025,4221.025538,4264.61528,4230.769127,4230.769127,4216.922974,4225.640922,4240.512717,4238.461435,4108.205028,4249.230665,4238.461435
98,0,4235.897332,4231.281948,4231.281948,4218.461435,4211.794769,4229.230666,4232.820409,4220.512717,4229.743486,4250.769127,4243.58964,4112.820412,4251.794768,4239.999896
99,0,4235.384512,4229.743486,4231.281948,4216.922974,4203.07682,4226.153743,4231.281948,4218.461435,4222.563999,4234.358871,4247.692204,4112.820412,4251.794768,4232.820409
100,0,4228.205025,4219.999897,4227.692204,4217.435794,4208.717846,4219.999897,4228.717845,4216.410153,4218.974256,4227.179384,4247.179383,4126.153745,4248.205024,4227.692204
101,0,4229.230666,4222.563999,4227.692204,4216.922974,4208.717846,4223.07682,4230.256307,4218.974256,4222.563999,4238.461435,4248.717845,4135.384514,4251.794768,4232.307589
102,0,4235.384512,4235.384512,4235.384512,4217.948615,4231.794768,4235.384512,4233.84605,4217.948615,4221.025538,4240.512717,4246.666563,4142.051181,4255.384511,4236.410153
103,0,4230.256307,4226.666563,4228.205025,4218.461435,4257.948614,4230.769127,4228.717845,4215.384512,4219.999897,4235.897332,4242.051178,4140.512719,4247.692204,4232.307589
104,0,4223.58964,4213.33323,4216.410153,4216.410153,4197.435795,4216.410153,4222.563999,4217.948615,4226.666563,4235.897332,4245.128101,4141.53836,4245.128101,4224.615281
105,0,4227.692204,4222.051179,4223.58964,4216.410153,4173.333231,4223.07682,4229.230666,4219.487076,4230.769127,4238.461435,4249.743486,4150.769129,4255.384511,4225.640922
106,0,4232.307589,4229.230666,4232.307589,4217.948615,4262.563998,4233.84605,4235.897332,4217.435794,4231.281948,4245.640922,4250.769127,4157.435796,4258.974255,4235.897332
107,0,4227.179384,4219.999897,4221.538358,4215.384512,4284.61528,4230.769127,4232.820409,4222.051179,4232.820409,4244.10246,4246.153742,4153.846052,4248.717845,4230.769127
108,0,4223.58964,4218.974256,4216.410153,4214.871692,4208.717846,4227.179384,4230.256307,4229.230666,4231.794768,4241.025537,4243.58964,4152.820411,4246.666563,4222.563999
109,0,4227.692204,4226.666563,4224.615281,4217.435794,4195.384513,4228.717845,4230.256307,4225.128102,4232.307589,4252.307588,4247.179383,4162.05118,4251.794768,4227.179384
110,0,4228.205025,4223.07682,4223.07682,4216.922974,4249.230665,4230.256307,4229.743486,4217.435794,4232.820409,4256.922973,4248.205024,4168.205026,4250.256306,4227.179384
111,0,4228.205025,4221.025538,4224.615281,4213.846051,4228.205025,4229.230666,4230.256307,4221.538358,4232.820409,4245.128101,4247.692204,4170.769129,4250.256306,4222.563999
112,0,4233.33323,4229.230666,4232.307589,4218.974256,4188.205026,4229.743486,4233.33323,4229.230666,4234.871691,4250.769127,4251.794768,4175.897334,4253.84605,4226.153743
113,0,4229.230666,4226.666563,4223.58964,4221.538358,4229.743486,4229.230666,4233.33323,4230.769127,4234.871691,4253.333229,4246.666563,4177.435795,4251.281947,4223.58964
114,0,4217.948615,4216.922974,4214.358871,4209.230666,4286.153741,4230.769127,4232.820409,4226.666563,4233.33323,4233.33323,4230.256307,4174.871693,4246.666563,4215.384512
115,0,4216.410153,4216.922974,4217.948615,4206.153743,4255.384511,4232.307589,4233.84605,4221.538358,4230.256307,4233.84605,4231.794768,4179.487077,4247.692204,4216.410153
116,0,4216.410153,4218.461435,4214.871692,4211.281948,4170.256308,4223.07682,4226.153743,4218.461435,4226.666563,4243.58964,4239.999896,4182.564,4245.640922,4213.33323
117,0,4214.358871,4214.358871,4207.692205,4212.307589,4172.820411,4218.974256,4222.563999,4217.948615,4229.743486,4234.871691,4235.897332,4185.640923,4245.128101,4211.281948
118,0,4222.051179,4214.871692,4216.410153,4211.794769,4250.256306,4231.794768,4233.33323,4218.974256,4230.769127,4237.948614,4233.84605,4194.871692,4249.230665,4221.025538
119,0,4221.025538,4214.358871,4220.512717,4209.743487,4255.897332,4231.281948,4233.33323,4217.435794,4219.487076,4240.512717,4231.281948,4195.384513,4242.563999,4217.948615
120,0,4213.846051,4214.358871,4212.307589,4210.769128,4209.743487,4219.487076,4223.07682,4214.358871,4212.307589,4215.897333,4221.538358,4195.384513,4232.820409,4205.640923
121,0,4224.102461,4217.948615,4216.922974,4216.922974,4232.820409,4226.666563,4227.179384,4214.358871,4219.487076,4216.922974,4225.128102,4211.794769,4238.974255,4213.846051
122,0,4233.84605,4217.435794,4225.128102,4217.948615,4258.974255,4236.410153,4233.84605,4214.358871,4221.538358,4250.769127,4241.025537,4224.615281,4247.179383,4227.692204
123,0,4228.717845,4216.410153,4221.025538,4211.794769,4223.07682,4229.743486,4229.743486,4213.846051,4217.435794,4251.794768,4244.10246,4224.615281,4245.640922,4224.102461
124,0,4224.615281,4217.948615,4217.435794,4215.384512,4188.205026,4226.153743,4229.230666,4217.435794,4223.58964,4237.435794,4236.922973,4227.179384,4245.640922,4218.974256
125,0,4223.07682,4215.897333,4218.461435,4219.999897,4199.999897,4228.717845,4232.820409,4218.974256,4226.153743,4245.128101,4232.820409,4232.820409,4248.717845,4221.538358
126,0,4218.974256,4210.256307,4213.33323,4213.846051,4232.820409,4226.666563,4232.307589,4215.384512,4222.051179,4241.538358,4234.871691,4233.84605,4245.640922,4219.487076
127,0,4225.640922,4211.794769,4214.358871,4211.794769,4243.076819,4225.640922,4232.307589,4217.435794,4228.205025,4226.666563,4241.538358,4238.974255,4244.10246,4219.487076
128,0,4232.820409,4216.410153,4222.563999,4216.410153,4233.33323,4228.717845,4228.717845,4219.487076,4233.84605,4237.435794,4235.384512,4240.512717,4244.615281,4221.025538
0,0,4230.256307,4217.435794,4222.051179,4221.025538,4191.794769,4227.692204,4229.230666,4216.410153,4226.153743,4254.871691,4227.179384,4238.974255,4244.615281,4218.974256
1,0,4228.717845,4216.410153,4215.897333,4217.435794,4173.846052,4221.538358,4228.717845,4217.435794,4219.999897,4243.076819,4230.256307,4241.538358,4240.512717,4219.487076
2,0,4227.692204,4215.384512,4215.897333,4213.33323,4217.435794,4219.999897,4217.435794,4213.33323,4215.384512,4226.666563,4229.743486,4237.435794,4234.871691,4218.461435
3,0,4226.666563,4215.897333,4218.974256,4216.410153,4269.743485,4229.230666,4216.922974,4208.205025,4213.846051,4228.205025,4225.128102,4236.410153,4234.358871,4212.82041
4,0,4232.307589,4217.435794,4221.538358,4217.435794,4257.948614,4235.897332,4231.794768,4215.897333,4223.58964,4232.307589,4230.256307,4247.692204,4241.538358,4213.33323
5,0,4233.33323,4216.410153,4225.128102,4214.871692,4237.435794,4233.33323,4237.435794,4223.07682,4227.179384,4238.461435,4234.358871,4251.281947,4245.640922,4219.999897
6,0,4230.769127,4214.871692,4228.205025,4214.358871,4238.974255,4231.281948,4231.794768,4218.974256,4219.999897,4249.230665,4229.230666,4246.666563,4237.948614,4220.512717
7,0,4234.358871,4219.487076,4231.281948,4216.922974,4181.538359,4226.666563,4230.256307,4216.410153,4218.974256,4235.384512,4230.256307,4250.769127,4236.410153,4221.538358
8,0,4236.410153,4222.051179,4232.307589,4216.922974,4165.640924,4218.461435,4230.769127,4217.948615,4218.974256,4215.384512,4233.84605,4252.307588,4242.563999,4226.666563
9,0,4235.384512,4220.512717,4230.769127,4216.410153,4222.051179,4216.922974,4227.179384,4214.871692,4215.897333,4230.256307,4231.794768,4249.743486,4243.58964,4228.205025
10,0,4242.051178,4225.128102,4231.794768,4217.435794,4246.153742,4223.58964,4225.640922,4216.410153,4221.538358,4248.205024,4235.384512,4253.84605,4243.076819,4227.692204
11,0,4249.230665,4231.794768,4235.897332,4216.922974,4232.820409,4230.769127,4229.230666,4221.538358,4227.692204,4242.563999,4246.666563,4255.897332,4248.717845,4232.307589
12,0,4244.615281,4228.205025,4230.769127,4218.461435,4219.999897,4229.743486,4231.281948,4221.538358,4228.205025,4248.205024,4241.538358,4252.820409,4248.205024,4231.794768
13,0,4233.84605,4219.999897,4219.999897,4216.922974,4216.410153,4222.563999,4224.102461,4218.461435,4227.179384,4259.487075,4230.256307,4250.256306,4238.974255,4222.563999
14,0,4229.743486,4218.461435,4218.974256,4211.794769,4213.846051,4216.922974,4216.922974,4217.435794,4222.563999,4239.487076,4236.410153,4246.153742,4236.922973,4222.051179
15,0,4231.794768,4217.948615,4223.58964,4214.358871,4220.512717,4217.435794,4217.435794,4218.974256,4217.435794,4226.666563,4240.512717,4248.717845,4238.974255,4227.692204
16,0,4230.769127,4215.897333,4218.974256,4214.871692,4211.794769,4217.948615,4217.948615,4216.922974,4214.871692,4237.948614,4228.205025,4250.256306,4235.897332,4221.538358
17,0,4223.07682,4216.922974,4212.82041,4205.640923,4195.897333,4216.922974,4214.871692,4212.82041,4215.384512,4218.974256,4226.153743,4242.051178,4231.794768,4215.897333
18,0,4213.846051,4209.230666,4213.846051,4203.07682,4215.897333,4220.512717,4222.563999,4217.435794,4216.410153,4197.435795,4229.743486,4236.922973,4230.256307,4216.410153
19,0,4212.307589,4199.487077,4209.230666,4206.153743,4228.205025,4224.615281,4230.769127,4224.615281,4214.871692,4226.666563,4218.974256,4237.435794,4230.256307,4211.794769
20,0,4216.410153,4208.205025,4204.615282,4206.153743,4217.948615,4223.58964,4223.58964,4223.58964,4214.358871,4252.307588,4218.461435,4236.410153,4232.307589,4208.205025
21,0,4218.461435,4218.461435,4210.769128,4210.769128,4197.948615,4217.948615,4212.82041,4211.794769,4213.846051,4229.743486,4230.256307,4236.922973,4231.281948,4211.794769
22,0,4221.538358,4217.435794,4216.922974,4219.487076,4183.076821,4216.410153,4213.846051,4201.538359,4212.82041,4229.743486,4230.256307,4241.025537,4232.307589,4213.33323
23,0,4228.205025,4223.07682,4217.435794,4215.384512,4234.358871,4225.640922,4221.025538,4210.256307,4216.922974,4256.922973,4230.769127,4248.717845,4241.025537,4217.435794
24,0,4233.33323,4233.84605,4218.974256,4210.256307,4275.384511,4234.871691,4229.230666,4222.051179,4218.461435,4241.025537,4234.358871,4244.615281,4240.512717,4219.999897
25,0,4229.230666,4230.769127,4221.538358,4214.871692,4210.256307,4228.205025,4233.84605,4218.974256,4209.743487,4214.871692,4224.102461,4215.897333,4230.769127,4213.33323
26,0,4220.512717,4218.974256,4216.410153,4214.358871,4181.538359,4219.999897,4229.230666,4217.948615,4206.666564,4224.615281,4213.846051,4189.743487,4229.230666,4207.692205
27,0,4222.051179,4216.922974,4215.897333,4210.256307,4250.256306,4224.102461,4227.692204,4234.871691,4219.487076,4231.794768,4222.563999,4191.794769,4230.256307,4210.256307
28,0,4232.307589,4226.666563,4229.230666,4213.846051,4252.307588,4224.102461,4219.487076,4226.153743,4218.461435,4222.051179,4233.33323,4205.128102,4234.358871,4215.897333
29,0,4235.384512,4235.384512,4229.743486,4217.948615,4197.435795,4212.82041,4196.922974,4187.179385,4198.974256,4225.128102,4235.384512,4206.153743,4245.128101,4220.512717
30,0,4232.307589,4233.84605,4218.974256,4215.384512,4219.999897,4214.358871,4191.794769,4176.922975,4198.974256,4234.358871,4232.307589,4201.538359,4244.10246,4218.974256
31,0,4232.820409,4231.794768,4219.487076,4215.384512,4237.435794,4226.666563,4211.794769,4204.615282,4217.435794,4235.897332,4229.743486,4203.589641,4233.84605,4214.358871
32,0,4233.33323,4232.307589,4224.615281,4217.435794,4231.281948,4230.769127,4223.07682,4221.025538,4222.051179,4235.897332,4229.230666,4207.692205,4234.358871,4215.384512
33,0,4227.692204,4232.307589,4221.538358,4215.384512,4244.10246,4230.256307,4214.871692,4214.358871,4212.307589,4232.307589,4227.692204,4203.07682,4239.999896,4217.435794
34,0,4222.051179,4232.820409,4224.102461,4215.384512,4207.692205,4230.769127,4215.384512,4214.358871,4214.358871,4229.230666,4226.666563,4201.538359,4236.922973,4216.922974
35,0,4216.922974,4228.717845,4229.230666,4214.871692,4187.692205,4228.717845,4226.666563,4219.999897,4217.948615,4227.179384,4227.692204,4206.153743,4232.820409,4214.871692
36,0,4215.384512,4227.179384,4224.102461,4215.384512,4243.58964,4228.717845,4228.717845,4218.974256,4216.410153,4216.922974,4230.769127,4206.666564,4234.358871,4216.410153
37,0,4216.410153,4231.281948,4217.948615,4217.435794,4278.461434,4234.358871,4220.512717,4219.999897,4217.948615,4213.33323,4231.794768,4205.640923,4235.384512,4215.897333
38,0,4212.307589,4229.743486,4222.051179,4217.948615,4227.692204,4230.769127,4217.435794,4220.512717,4216.410153,4222.051179,4228.717845,4210.256307,4234.358871,4213.846051
39,0,4203.589641,4218.461435,4227.179384,4214.871692,4171.281949,4217.435794,4217.435794,4216.922974,4213.846051,4213.33323,4228.717845,4213.846051,4232.820409,4212.82041
40,0,4201.538359,4212.82041,4223.07682,4209.230666,4200.512718,4220.512717,4216.410153,4220.512717,4212.307589,4193.846051,4231.281948,4214.358871,4233.84605,4214.871692
41,0,4205.128102,4223.58964,4217.435794,4209.230666,4249.230665,4233.33323,4224.102461,4228.717845,4219.487076,4205.640923,4229.743486,4213.846051,4238.974255,4214.871692
42,0,4202.564,4228.717845,4216.410153,4211.281948,4236.922973,4232.307589,4235.897332,4232.820409,4225.128102,4238.974255,4230.256307,4214.358871,4247.692204,4213.846051
43,0,4201.025538,4222.051179,4217.948615,4212.307589,4191.281949,4225.128102,4230.256307,4231.794768,4221.538358,4238.461435,4235.384512,4218.974256,4248.717845,4213.846051
44,0,4209.743487,4224.102461,4220.512717,4215.897333,4203.07682,4228.205025,4218.461435,4230.256307,4221.538358,4210.769128,4236.410153,4225.640922,4244.10246,4213.846051
45,0,4216.410153,4232.307589,4225.640922,4216.922974,4268.205024,4234.358871,4223.07682,4229.743486,4227.692204,4222.051179,4241.538358,4234.871691,4246.666563,4221.538358
46,0,4216.922974,4233.33323,4228.205025,4213.846051,4267.692203,4229.743486,4228.717845,4230.769127,4230.769127,4254.871691,4249.230665,4242.051178,4252.307588,4230.769127
47,0,4216.410153,4233.33323,4222.563999,4216.410153,4202.564,4222.563999,4222.563999,4232.307589,4227.692204,4245.128101,4242.051178,4238.974255,4251.281947,4231.794768
48,0,4213.846051,4234.358871,4219.487076,4217.435794,4194.871692,4223.07682,4216.922974,4231.281948,4221.025538,4214.358871,4235.897332,4235.897332,4246.666563,4224.102461
49,0,4213.846051,4235.384512,4225.640922,4215.384512,4219.487076,4224.615281,4217.948615,4227.692204,4215.384512,4208.205025,4244.10246,4241.538358,4251.281947,4221.025538
50,0,4221.538358,4243.076819,4232.307589,4219.487076,4203.589641,4225.128102,4227.179384,4232.307589,4227.179384,4218.461435,4252.820409,4246.153742,4257.948614,4224.102461
51,0,4220.512717,4249.230665,4224.615281,4217.948615,4227.692204,4229.230666,4234.358871,4236.410153,4234.871691,4227.692204,4245.128101,4242.051178,4250.769127,4224.102461
52,0,4212.82041,4244.615281,4212.82041,4210.256307,4271.794767,4231.794768,4231.794768,4228.717845,4223.07682,4237.435794,4232.307589,4238.974255,4248.717845,4218.461435
53,0,4221.538358,4244.615281,4219.999897,4215.384512,4221.025538,4226.153743,4230.769127,4227.692204,4220.512717,4236.922973,4238.974255,4247.179383,4262.563998,4220.512717
54,0,4233.84605,4257.948614,4230.769127,4225.128102,4185.128103,4219.999897,4223.07682,4224.615281,4223.58964,4230.769127,4252.820409,4252.307588,4270.769126,4233.33323
55,0,4235.897332,4263.589639,4227.692204,4219.487076,4211.281948,4219.487076,4204.615282,4208.205025,4217.435794,4235.384512,4252.307588,4250.769127,4266.153742,4238.461435
56,0,4231.794768,4252.820409,4224.615281,4214.871692,4201.025538,4218.461435,4201.538359,4206.153743,4213.846051,4231.794768,4247.179383,4248.717845,4265.640921,4233.84605
57,0,4227.179384,4245.640922,4230.256307,4224.102461,4212.82041,4217.435794,4213.846051,4218.974256,4217.435794,4213.33323,4251.281947,4249.743486,4267.692203,4234.358871
58,0,4226.666563,4254.871691,4229.743486,4226.666563,4242.051178,4218.461435,4217.948615,4221.025538,4216.410153,4216.922974,4248.717845,4249.230665,4262.051178,4235.897332
59,0,4229.230666,4254.871691,4223.58964,4216.922974,4227.179384,4219.999897,4218.974256,4217.435794,4213.33323,4239.999896,4235.384512,4244.615281,4258.974255,4229.230666
60,0,4227.692204,4246.153742,4220.512717,4214.358871,4217.435794,4222.051179,4220.512717,4218.461435,4212.307589,4232.307589,4229.743486,4240.512717,4257.948614,4224.102461
61,0,4222.563999,4254.35887,4215.384512,4218.461435,4239.487076,4226.153743,4217.435794,4216.410153,4213.33323,4213.846051,4233.33323,4238.974255,4252.820409,4224.615281
62,0,4223.58964,4261.025537,4214.871692,4216.410153,4251.794768,4229.230666,4221.538358,4217.948615,4216.922974,4227.179384,4233.33323,4239.999896,4249.743486,4223.58964
63,0,4227.179384,4249.743486,4223.58964,4221.538358,4226.666563,4226.153743,4223.58964,4217.948615,4216.922974,4230.769127,4235.384512,4239.999896,4253.333229,4222.563999
64,0,4230.256307,4249.230665,4228.717845,4231.281948,4191.794769,4221.538358,4218.461435,4217.435794,4218.461435,4204.615282,4245.128101,4243.58964,4257.435793,4225.640922
65,0,4230.256307,4257.435793,4230.256307,4230.256307,4191.281949,4217.435794,4222.051179,4218.461435,4218.974256,4199.487077,4248.205024,4245.128101,4256.922973,4226.666563
66,0,4233.84605,4256.410152,4233.84605,4231.281948,4227.692204,4219.487076,4229.230666,4221.025538,4224.102461,4228.205025,4246.666563,4246.666563,4262.563998,4230.769127
67,0,4243.58964,4256.922973,4235.384512,4235.384512,4233.84605,4227.692204,4231.794768,4228.205025,4230.769127,4251.281947,4246.666563,4251.794768,4264.10246,4238.461435
68,0,4241.025537,4256.922973,4233.84605,4230.769127,4222.563999,4231.281948,4230.769127,4232.307589,4225.128102,4244.615281,4243.58964,4251.794768,4258.974255,4239.487076
69,0,4231.281948,4248.717845,4229.743486,4226.153743,4248.205024,4229.743486,4230.256307,4225.128102,4217.435794,4229.230666,4242.051178,4245.128101,4257.948614,4231.281948
70,0,4233.33323,4247.179383,4225.128102,4232.820409,4254.35887,4231.281948,4229.230666,4219.487076,4221.025538,4230.256307,4244.615281,4241.538358,4258.461434,4226.153743
71,0,4228.717845,4247.179383,4217.435794,4231.281948,4225.128102,4229.230666,4225.128102,4223.07682,4221.538358,4232.820409,4237.948614,4238.974255,4256.410152,4222.051179
72,0,4218.461435,4239.999896,4214.358871,4227.179384,4211.281948,4220.512717,4219.487076,4222.563999,4217.435794,4225.128102,4228.205025,4236.410153,4250.256306,4219.487076
73,0,4225.128102,4238.974255,4222.051179,4233.33323,4232.820409,4218.974256,4217.435794,4218.461435,4217.948615,4222.563999,4232.307589,4239.999896,4247.179383,4225.128102
74,0,4228.717845,4237.948614,4222.563999,4228.717845,4242.051178,4220.512717,4218.461435,4215.897333,4215.897333,4218.461435,4234.358871,4242.051178,4248.205024,4227.692204
75,0,4219.999897,4228.717845,4215.384512,4219.487076,4209.230666,4215.384512,4217.948615,4215.897333,4214.358871,4218.461435,4231.794768,4238.974255,4248.205024,4225.128102
76,0,4225.640922,4233.84605,4221.538358,4229.743486,4192.82041,4220.512717,4221.538358,4219.999897,4217.948615,4233.33323,4241.538358,4242.051178,4250.256306,4233.33323
77,0,4233.33323,4245.640922,4231.281948,4238.974255,4214.871692,4229.230666,4227.692204,4222.051179,4218.461435,4234.871691,4249.230665,4245.128101,4249.743486,4236.922973
78,0,4231.281948,4244.615281,4229.743486,4231.794768,4244.615281,4224.102461,4229.743486,4223.07682,4226.666563,4236.410153,4241.025537,4245.128101,4246.153742,4229.743486
79,0,4236.922973,4237.948614,4227.692204,4229.743486,4252.307588,4219.487076,4226.153743,4224.102461,4234.871691,4245.640922,4239.487076,4248.205024,4250.769127,4232.307589
80,0,4248.717845,4242.563999,4232.820409,4240.512717,4224.615281,4221.538358,4218.461435,4223.58964,4225.128102,4234.358871,4258.974255,4254.35887,4264.61528,4248.205024
81,0,4251.794768,4248.205024,4233.84605,4240.512717,4241.025537,4220.512717,4217.435794,4219.487076,4221.538358,4231.281948,4269.743485,4259.999896,4269.743485,4256.410152
82,0,4245.640922,4240.512717,4231.794768,4228.717845,4267.179383,4218.461435,4221.025538,4220.512717,4229.743486,4263.589639,4248.717845,4257.948614,4260.512716,4249.230665
83,0,4239.999896,4230.769127,4230.769127,4230.256307,4220.512717,4217.948615,4219.487076,4219.999897,4223.58964,4270.256306,4232.820409,4250.769127,4252.820409,4243.076819
84,0,4243.076819,4232.307589,4231.794768,4242.051178,4180.512718,4215.897333,4217.948615,4216.922974,4214.358871,4237.948614,4242.563999,4250.769127,4254.871691,4243.58964
85,0,4243.58964,4237.948614,4228.717845,4240.512717,4212.82041,4216.922974,4220.512717,4222.563999,4219.999897,4237.435794,4253.333229,4254.871691,4255.897332,4238.461435
86,0,4233.33323,4232.307589,4221.025538,4228.205025,4250.256306,4219.487076,4220.512717,4224.102461,4219.999897,4244.10246,4250.256306,4246.666563,4247.179383,4230.769127
87,0,4227.179384,4221.025538,4217.435794,4225.128102,4243.58964,4219.487076,4219.999897,4213.33323,4213.33323,4228.205025,4242.563999,4235.897332,4245.128101,4231.281948
88,0,4230.769127,4222.563999,4220.512717,4229.230666,4230.256307,4218.461435,4221.538358,4210.256307,4213.846051,4231.794768,4231.281948,4234.871691,4247.179383,4229.743486
89,0,4230.769127,4227.692204,4225.640922,4229.743486,4207.692205,4214.871692,4219.487076,4213.846051,4215.384512,4249.743486,4233.33323,4237.948614,4240.512717,4227.179384
90,0,4233.33323,4229.230666,4228.717845,4225.128102,4198.461436,4213.33323,4215.897333,4215.384512,4214.871692,4243.076819,4255.384511,4243.076819,4237.435794,4233.33323
91,0,4244.615281,4231.281948,4232.307589,4231.281948,4214.871692,4215.897333,4217.948615,4216.410153,4216.922974,4234.358871,4264.61528,4248.717845,4241.538358,4237.948614
92,0,4247.692204,4234.871691,4233.33323,4241.025537,4223.58964,4217.435794,4218.974256,4216.410153,4222.051179,4237.948614,4262.051178,4252.820409,4244.615281,4237.435794
93,0,4239.999896,4235.384512,4232.820409,4237.948614,4225.640922,4218.974256,4216.410153,4216.922974,4223.58964,4225.640922,4264.10246,4253.333229,4243.58964,4239.999896
94,0,4238.974255,4235.384512,4233.33323,4231.794768,4227.179384,4219.487076,4215.384512,4219.487076,4219.999897,4234.871691,4255.897332,4250.769127,4237.435794,4236.922973
95,0,4241.538358,4229.743486,4226.666563,4232.307589,4229.230666,4216.410153,4214.358871,4212.307589,4211.794769,4252.307588,4235.384512,4239.487076,4228.717845,4224.615281
96,0,4231.794768,4223.07682,4217.435794,4231.281948,4217.435794,4214.358871,4213.33323,4204.102461,4209.743487,4225.640922,4229.743486,4231.281948,4224.615281,4220.512717
97,0,4225.128102,4223.58964,4219.487076,4229.743486,4201.025538,4217.948615,4216.922974,4210.769128,4216.410153,4212.82041,4242.051178,4235.384512,4231.281948,4223.58964
98,0,4229.743486,4222.563999,4221.025538,4233.33323,4205.640923,4218.461435,4219.487076,4217.435794,4218.461435,4237.948614,4247.179383,4238.461435,4234.358871,4223.07682
99,0,4231.281948,4221.025538,4214.871692,4232.307589,4238.974255,4215.897333,4216.922974,4214.871692,4217.435794,4243.076819,4242.563999,4237.435794,4231.281948,4225.640922
100,0,4232.820409,4227.179384,4222.563999,4230.256307,4236.410153,4218.974256,4216.922974,4215.897333,4223.58964,4237.435794,4249.230665,4243.58964,4237.948614,4236.410153
101,0,4237.435794,4229.743486,4232.307589,4233.33323,4206.666564,4221.025538,4219.487076,4219.487076,4225.128102,4242.051178,4259.999896,4249.743486,4247.179383,4239.487076
102,0,4237.435794,4227.179384,4227.179384,4234.358871,4236.410153,4219.487076,4219.487076,4215.384512,4215.897333,4235.897332,4254.35887,4246.153742,4241.025537,4233.84605
103,0,4238.461435,4231.794768,4226.153743,4231.281948,4262.563998,4219.487076,4215.897333,4214.358871,4215.384512,4238.974255,4246.153742,4244.10246,4235.897332,4236.410153
104,0,4244.615281,4234.871691,4232.820409,4231.794768,4211.281948,4218.974256,4215.897333,4217.435794,4221.025538,4246.153742,4255.897332,4250.256306,4244.615281,4241.538358
105,0,4246.153742,4233.84605,4233.33323,4235.384512,4191.794769,4219.487076,4226.153743,4217.435794,4221.538358,4232.307589,4261.538357,4249.230665,4248.205024,4237.435794
106,0,4237.948614,4235.384512,4229.230666,4234.358871,4241.538358,4219.999897,4227.692204,4215.897333,4221.538358,4224.615281,4250.256306,4236.410153,4238.974255,4227.179384
107,0,4229.743486,4232.820409,4228.205025,4230.256307,4236.922973,4218.461435,4221.538358,4215.897333,4217.948615,4229.743486,4240.512717,4232.820409,4231.794768,4223.58964
108,0,4233.84605,4230.256307,4232.307589,4229.743486,4215.897333,4219.999897,4228.205025,4218.974256,4218.974256,4236.922973,4249.743486,4248.205024,4238.461435,4235.384512
109,0,4244.10246,4229.743486,4235.384512,4231.794768,4206.153743,4218.461435,4232.820409,4219.999897,4224.615281,4250.769127,4262.051178,4253.84605,4248.205024,4241.025537
110,0,4247.179383,4235.897332,4233.33323,4235.384512,4204.102461,4214.358871,4222.051179,4216.922974,4222.051179,4255.384511,4256.922973,4247.692204,4246.666563,4237.435794
111,0,4246.153742,4244.10246,4232.307589,4235.897332,4256.922973,4215.384512,4215.384512,4213.33323,4213.33323,4231.281948,4246.153742,4244.615281,4239.487076,4235.897332
112,0,4243.076819,4242.051178,4234.358871,4234.358871,4272.820408,4217.948615,4219.487076,4211.281948,4213.33323,4216.410153,4246.153742,4241.025537,4237.435794,4237.435794
113,0,4235.384512,4232.820409,4232.820409,4231.794768,4229.230666,4224.615281,4228.717845,4219.999897,4226.666563,4241.538358,4246.666563,4241.538358,4236.922973,4240.512717
114,0,4231.281948,4226.666563,4227.179384,4224.615281,4218.461435,4229.230666,4231.281948,4230.769127,4235.384512,4249.230665,4243.58964,4245.128101,4234.358871,4237.948614
115,0,4231.281948,4225.128102,4224.102461,4223.58964,4222.563999,4224.615281,4225.128102,4225.128102,4230.256307,4221.025538,4244.10246,4242.051178,4231.281948,4225.640922
116,0,4230.256307,4227.692204,4226.153743,4232.820409,4217.948615,4219.487076,4226.153743,4215.897333,4225.128102,4229.230666,4246.666563,4239.487076,4234.871691,4224.102461
117,0,4230.256307,4235.384512,4234.358871,4235.384512,4224.615281,4221.025538,4230.256307,4218.974256,4231.794768,4262.051178,4247.692204,4246.153742,4246.153742,4233.84605
118,0,4231.794768,4235.897332,4231.281948,4228.717845,4200.512718,4223.07682,4226.666563,4223.07682,4235.384512,4256.410152,4250.769127,4247.692204,4245.640922,4232.307589
119,0,4228.717845,4231.281948,4221.025538,4228.717845,4191.794769,4225.128102,4228.717845,4219.487076,4223.07682,4240.512717,4247.692204,4241.025537,4237.435794,4223.58964
120,0,4230.256307,4238.461435,4223.58964,4233.33323,4257.435793,4229.743486,4231.281948,4215.897333,4212.82041,4243.076819,4242.563999,4239.487076,4240.512717,4227.179384
121,0,4233.33323,4247.179383,4231.281948,4234.871691,4278.461434,4227.692204,4220.512717,4214.871692,4216.922974,4241.025537,4246.153742,4244.615281,4249.230665,4233.33323
122,0,4228.717845,4248.205024,4224.102461,4229.743486,4229.230666,4223.07682,4213.33323,4214.358871,4221.025538,4238.461435,4247.179383,4243.58964,4243.58964,4229.743486
123,0,4227.179384,4247.179383,4217.435794,4221.025538,4210.256307,4224.102461,4215.384512,4212.82041,4213.846051,4234.358871,4241.025537,4236.922973,4232.307589,4224.102461
124,0,4226.153743,4245.128101,4224.615281,4223.58964,4224.102461,4228.205025,4221.538358,4223.58964,4218.974256,4223.07682,4233.84605,4233.33323,4230.769127,4219.999897
125,0,4224.615281,4243.58964,4230.769127,4233.33323,4235.384512,4232.820409,4227.692204,4234.358871,4234.871691,4235.384512,4231.794768,4235.897332,4232.820409,4218.974256
126,0,4228.717845,4249.230665,4231.281948,4233.84605,4236.410153,4229.743486,4221.025538,4221.025538,4226.666563,4246.153742,4241.538358,4240.512717,4233.33323,4225.128102
127,0,4234.871691,4254.35887,4227.179384,4231.281948,4215.384512,4223.07682,4213.33323,4209.230666,4213.846051,4234.358871,4247.692204,4242.051178,4233.33323,4230.256307
128,0,4229.743486,4248.717845,4218.974256,4233.33323,4201.025538,4226.666563,4221.538358,4216.410153,4221.025538,4238.461435,4237.435794,4236.410153,4231.281948,4222.563999
0,0,4219.487076,4244.10246,4213.33323,4228.205025,4223.58964,4229.743486,4227.692204,4221.025538,4224.615281,4253.333229,4225.128102,4232.820409,4229.743486,4215.897333
1,0,4223.58964,4246.153742,4216.922974,4225.128102,4254.35887,4225.128102,4220.512717,4219.999897,4218.461435,4242.051178,4230.256307,4232.820409,4230.769127,4220.512717
2,0,4233.33323,4248.205024,4221.025538,4232.307589,4239.487076,4222.051179,4214.871692,4215.897333,4214.871692,4222.563999,4234.871691,4233.84605,4230.769127,4223.58964
3,0,4232.820409,4247.692204,4219.487076,4233.84605,4217.435794,4226.666563,4215.384512,4213.846051,4218.461435,4236.410153,4229.743486,4236.410153,4230.256307,4223.58964
4,0,4229.743486,4245.640922,4224.102461,4228.717845,4226.666563,4230.256307,4218.461435,4224.615281,4225.128102,4252.820409,4231.794768,4229.743486,4232.307589,4226.153743
5,0,4234.358871,4242.563999,4231.794768,4231.794768,4231.794768,4228.717845,4219.999897,4226.153743,4223.58964,4245.128101,4235.897332,4205.640923,4232.307589,4225.128102
6,0,4234.358871,4241.025537,4231.794768,4234.358871,4242.051178,4227.179384,4217.948615,4215.384512,4216.410153,4244.615281,4235.384512,4193.333231,4231.794768,4225.640922
7,0,4233.33323,4244.10246,4231.281948,4230.256307,4242.563999,4228.717845,4217.948615,4220.512717,4218.461435,4253.333229,4235.897332,4205.640923,4234.358871,4230.256307
8,0,4238.974255,4246.153742,4235.384512,4230.769127,4198.974256,4230.256307,4226.153743,4226.153743,4221.538358,4242.051178,4235.897332,4211.794769,4234.358871,4227.179384
9,0,4238.461435,4239.999896,4233.33323,4236.922973,4188.205026,4228.717845,4232.820409,4221.538358,4216.410153,4224.615281,4235.384512,4203.07682,4231.794768,4222.563999
10,0,4230.256307,4232.820409,4231.794768,4234.871691,4259.999896,4231.281948,4232.820409,4228.717845,4218.974256,4235.384512,4233.84605,4200.512718,4231.281948,4225.128102
11,0,4225.640922,4234.358871,4234.358871,4230.256307,4284.102459,4232.307589,4231.794768,4235.897332,4222.051179,4247.179383,4230.769127,4202.051179,4230.769127,4221.025538
12,0,4224.102461,4237.948614,4231.281948,4237.948614,4199.487077,4224.102461,4228.717845,4228.205025,4216.922974,4226.153743,4229.743486,4200.512718,4228.717845,4212.82041
13,0,4221.538358,4232.820409,4231.794768,4240.512717,4165.640924,4225.128102,4227.692204,4228.205025,4217.435794,4212.82041,4229.230666,4201.538359,4227.692204,4217.948615
14,0,4219.487076,4227.179384,4234.358871,4231.281948,4246.153742,4233.84605,4231.794768,4235.384512,4222.051179,4236.410153,4228.717845,4200.512718,4230.769127,4222.563999
15,0,4217.948615,4228.205025,4230.769127,4236.922973,4282.051177,4235.384512,4233.84605,4233.33323,4218.974256,4246.153742,4229.230666,4199.487077,4232.820409,4219.999897
16,0,4218.974256,4232.307589,4230.256307,4247.692204,4238.974255,4233.84605,4231.794768,4229.743486,4217.948615,4228.205025,4222.051179,4207.179384,4228.205025,4221.025538
17,0,4218.461435,4230.256307,4234.358871,4240.512717,4217.435794,4234.358871,4232.307589,4233.84605,4227.179384,4232.820409,4218.974256,4208.717846,4229.743486,4226.153743
18,0,4214.871692,4219.487076,4234.358871,4231.281948,4206.153743,4231.794768,4233.33323,4234.358871,4230.769127,4246.666563,4230.256307,4198.461436,4232.307589,4225.640922
19,0,4217.435794,4214.871692,4234.871691,4236.410153,4210.769128,4232.307589,4231.794768,4235.384512,4230.769127,4231.281948,4231.794768,4199.999897,4224.615281,4224.102461
20,0,4216.410153,4218.974256,4233.33323,4239.487076,4256.922973,4233.33323,4229.743486,4237.435794,4232.307589,4216.922974,4221.538358,4206.666564,4221.538358,4220.512717
21,0,4207.692205,4222.051179,4224.615281,4239.487076,4240.512717,4229.230666,4228.717845,4223.58964,4219.999897,4227.179384,4220.512717,4200.512718,4225.128102,4218.461435
22,0,4207.692205,4216.922974,4225.640922,4240.512717,4190.769128,4228.717845,4228.717845,4213.33323,4210.256307,4235.897332,4218.974256,4201.538359,4218.974256,4216.922974
23,0,4210.769128,4211.281948,4231.281948,4241.025537,4223.07682,4233.33323,4231.794768,4228.205025,4223.58964,4230.256307,4214.871692,4210.769128,4212.307589,4212.307589
24,0,4209.743487,4215.384512,4228.205025,4244.615281,4254.35887,4233.33323,4229.230666,4238.461435,4232.307589,4224.102461,4218.461435,4210.256307,4216.410153,4211.794769
25,0,4208.205025,4219.999897,4219.999897,4242.563999,4226.153743,4229.230666,4222.563999,4227.179384,4219.999897,4229.230666,4214.358871,4206.153743,4217.435794,4216.922974
26,0,4204.102461,4211.794769,4217.948615,4238.974255,4218.461435,4229.230666,4225.128102,4225.128102,4212.82041,4235.384512,4208.717846,4208.717846,4213.846051,4215.384512
27,0,4203.589641,4207.179384,4223.07682,4242.051178,4228.205025,4230.256307,4228.717845,4233.33323,4221.025538,4230.769127,4215.384512,4211.794769,4212.307589,4212.307589
28,0,4213.846051,4217.948615,4231.281948,4247.179383,4225.640922,4228.205025,4224.102461,4235.384512,4229.743486,4231.281948,4219.999897,4217.435794,4212.307589,4217.435794
29,0,4221.538358,4222.563999,4235.897332,4248.205024,4228.205025,4227.692204,4219.487076,4232.820409,4228.717845,4235.384512,4218.461435,4223.07682,4217.948615,4224.615281
30,0,4217.948615,4216.922974,4232.307589,4248.205024,4231.281948,4229.743486,4218.461435,4221.538358,4218.461435,4223.58964,4215.897333,4220.512717,4216.410153,4223.07682
31,0,4212.307589,4216.410153,4224.615281,4250.769127,4226.666563,4232.307589,4216.922974,4216.922974,4214.871692,4216.410153,4214.358871,4216.922974,4204.615282,4212.307589
32,0,4204.102461,4216.410153,4217.948615,4248.205024,4232.820409,4229.743486,4216.410153,4218.974256,4213.33323,4217.435794,4215.384512,4219.999897,4198.974256,4206.666564
33,0,4197.948615,4212.82041,4215.384512,4243.58964,4248.717845,4222.051179,4213.33323,4213.33323,4209.230666,4204.102461,4213.33323,4221.025538,4203.589641,4207.692205
34,0,4202.051179,4213.846051,4217.948615,4248.205024,4223.07682,4222.051179,4210.256307,4213.846051,4213.846051,4203.589641,4205.128102,4219.487076,4204.102461,4205.640923
35,0,4208.205025,4214.871692,4218.461435,4255.384511,4170.769129,4224.102461,4214.358871,4227.179384,4219.999897,4227.692204,4203.07682,4223.07682,4201.025538,4206.153743
36,0,4207.179384,4213.33323,4217.948615,4249.743486,4200.512718,4220.512717,4217.435794,4225.128102,4214.358871,4226.153743,4205.640923,4223.07682,4201.538359,4207.692205
37,0,4201.538359,4214.871692,4217.435794,4243.076819,4253.333229,4220.512717,4215.897333,4214.871692,4211.281948,4210.769128,4203.07682,4218.974256,4201.538359,4203.07682
38,0,4201.025538,4214.871692,4213.846051,4247.692204,4220.512717,4222.563999,4216.922974,4223.58964,4219.487076,4231.281948,4201.538359,4221.538358,4200.512718,4202.564
39,0,4201.538359,4212.307589,4204.102461,4247.692204,4186.153744,4218.974256,4214.871692,4228.205025,4219.999897,4228.205025,4198.974256,4218.461435,4199.487077,4201.538359
40,0,4202.564,4212.82041,4203.589641,4243.58964,4244.10246,4220.512717,4213.33323,4217.435794,4212.82041,4196.410154,4196.922974,4215.897333,4199.487077,4201.025538
41,0,4210.769128,4214.871692,4221.025538,4247.692204,4256.922973,4228.205025,4217.435794,4214.358871,4210.769128,4216.410153,4203.07682,4224.102461,4202.564,4206.666564
42,0,4220.512717,4219.487076,4230.769127,4260.512716,4178.461436,4230.256307,4220.512717,4219.487076,4213.846051,4243.58964,4214.871692,4230.769127,4205.128102,4211.794769
43,0,4218.461435,4221.538358,4219.487076,4262.051178,4199.999897,4230.769127,4219.487076,4218.974256,4216.410153,4219.487076,4216.410153,4228.205025,4204.615282,4208.717846
44,0,4208.717846,4214.871692,4210.256307,4248.717845,4276.922972,4228.205025,4217.948615,4215.384512,4215.897333,4204.102461,4206.153743,4224.102461,4202.564,4205.128102
45,0,4205.640923,4210.769128,4212.307589,4245.640922,4244.10246,4219.999897,4217.948615,4215.897333,4213.33323,4216.922974,4198.974256,4218.974256,4201.025538,4204.102461
46,0,4211.794769,4213.33323,4215.897333,4250.769127,4199.487077,4218.461435,4215.897333,4215.897333,4212.307589,4222.563999,4197.435795,4217.435794,4198.974256,4203.589641
47,0,4215.384512,4212.82041,4218.461435,4248.205024,4214.871692,4217.948615,4211.794769,4213.846051,4214.871692,4225.640922,4199.487077,4220.512717,4199.487077,4206.153743
48,0,4214.871692,4215.897333,4219.999897,4247.179383,4206.153743,4216.922974,4212.82041,4213.846051,4217.948615,4226.153743,4207.179384,4224.102461,4204.102461,4211.281948
49,0,4218.974256,4227.179384,4219.999897,4257.948614,4197.435795,4223.58964,4215.897333,4216.410153,4216.410153,4217.948615,4213.33323,4229.230666,4204.102461,4214.358871
50,0,4224.102461,4230.256307,4224.102461,4262.051178,4232.820409,4228.717845,4216.410153,4217.435794,4212.307589,4212.82041,4213.33323,4230.769127,4203.589641,4213.33323
51,0,4227.692204,4228.205025,4231.281948,4258.974255,4250.256306,4225.128102,4217.435794,4218.974256,4214.358871,4212.307589,4224.102461,4231.281948,4212.82041,4218.974256
52,0,4228.717845,4230.256307,4230.256307,4257.948614,4240.512717,4223.58964,4218.974256,4219.999897,4219.487076,4222.051179,4236.410153,4235.897332,4218.974256,4226.666563
53,0,4226.153743,4232.307589,4223.07682,4256.922973,4221.025538,4223.07682,4218.974256,4218.461435,4219.999897,4226.666563,4226.153743,4237.435794,4215.897333,4224.102461
54,0,4225.128102,4231.794768,4218.974256,4255.897332,4211.281948,4217.948615,4218.461435,4217.948615,4216.922974,4221.538358,4215.384512,4232.307589,4216.410153,4219.487076
55,0,4222.051179,4225.128102,4216.922974,4252.307588,4227.692204,4216.410153,4217.435794,4217.435794,4215.384512,4227.179384,4217.435794,4226.666563,4218.461435,4219.487076
56,0,4215.384512,4220.512717,4213.846051,4248.205024,4240.512717,4219.999897,4214.871692,4212.82041,4215.897333,4224.615281,4215.384512,4225.128102,4214.871692,4214.358871
57,0,4215.897333,4225.640922,4213.846051,4247.179383,4212.307589,4220.512717,4213.33323,4211.794769,4215.384512,4206.666564,4212.82041,4227.179384,4214.871692,4209.743487
58,0,4219.999897,4228.717845,4216.922974,4252.307588,4158.461437,4217.948615,4216.410153,4217.435794,4216.410153,4210.256307,4223.07682,4228.717845,4218.461435,4213.846051
59,0,4221.025538,4229.743486,4216.922974,4258.461434,4175.897334,4220.512717,4218.974256,4217.948615,4216.410153,4229.230666,4232.820409,4229.743486,4218.974256,4221.025538
60,0,4222.051179,4230.256307,4219.487076,4253.333229,4278.461434,4232.307589,4219.487076,4220.512717,4219.999897,4233.33323,4230.769127,4231.794768,4219.999897,4220.512717
61,0,4221.025538,4222.563999,4222.563999,4245.640922,4277.435793,4232.307589,4220.512717,4227.179384,4223.58964,4233.84605,4221.538358,4233.33323,4218.461435,4218.974256
62,0,4219.487076,4217.948615,4222.563999,4250.769127,4185.128103,4219.487076,4220.512717,4223.58964,4221.538358,4231.794768,4221.025538,4232.820409,4218.461435,4223.07682
63,0,4222.563999,4219.999897,4223.58964,4259.487075,4191.281949,4220.512717,4217.435794,4217.435794,4217.948615,4221.025538,4231.281948,4234.871691,4223.07682,4222.563999
64,0,4220.512717,4218.974256,4221.538358,4252.820409,4236.922973,4228.717845,4218.974256,4219.487076,4218.461435,4213.33323,4233.84605,4234.871691,4223.58964,4218.461435
65,0,4216.922974,4222.563999,4219.487076,4246.153742,4226.666563,4229.230666,4225.128102,4221.025538,4218.974256,4212.307589,4230.256307,4231.281948,4219.487076,4224.615281
66,0,4218.461435,4225.128102,4222.051179,4248.717845,4214.358871,4224.615281,4220.512717,4217.435794,4217.435794,4225.128102,4229.743486,4231.281948,4217.948615,4227.692204
67,0,4216.922974,4217.948615,4219.999897,4248.717845,4207.692205,4219.999897,4216.410153,4217.948615,4215.897333,4236.410153,4224.102461,4227.179384,4217.435794,4215.897333
68,0,4213.33323,4214.871692,4216.922974,4245.640922,4204.615282,4218.461435,4222.051179,4217.948615,4214.871692,4227.179384,4216.922974,4218.974256,4216.410153,4210.256307
69,0,4214.358871,4217.435794,4214.358871,4246.666563,4221.538358,4220.512717,4217.435794,4212.82041,4213.846051,4214.358871,4217.948615,4214.358871,4215.897333,4213.846051
70,0,4218.461435,4218.974256,4210.769128,4248.717845,4209.743487,4217.435794,4208.205025,4210.256307,4215.384512,4218.974256,4216.410153,4217.948615,4214.871692,4211.281948
71,0,4220.512717,4222.563999,4211.794769,4248.717845,4210.769128,4215.897333,4213.33323,4212.307589,4214.871692,4222.051179,4213.33323,4220.512717,4216.410153,4210.769128
72,0,4221.538358,4220.512717,4218.974256,4250.256306,4213.846051,4221.025538,4219.487076,4217.948615,4215.384512,4215.384512,4221.538358,4223.58964,4217.948615,4218.974256
73,0,4219.999897,4216.410153,4216.410153,4249.230665,4157.948616,4216.922974,4216.410153,4218.461435,4217.948615,4221.538358,4231.281948,4229.230666,4215.897333,4218.974256
74,0,4221.025538,4219.487076,4213.33323,4248.717845,4176.922975,4215.897333,4215.897333,4215.384512,4219.999897,4233.33323,4229.230666,4231.794768,4218.974256,4215.897333
75,0,4226.153743,4220.512717,4218.974256,4250.256306,4274.87169,4225.128102,4215.897333,4216.410153,4219.487076,4237.948614,4225.640922,4231.794768,4222.563999,4220.512717
76,0,4227.692204,4216.410153,4219.999897,4248.717845,4256.922973,4223.07682,4213.846051,4217.948615,4217.435794,4232.820409,4226.666563,4228.717845,4218.461435,4222.563999
77,0,4223.58964,4220.512717,4216.410153,4247.179383,4181.538359,4215.897333,4216.410153,4217.435794,4219.999897,4227.179384,4226.666563,4226.666563,4214.871692,4218.974256
78,0,4219.487076,4227.179384,4215.897333,4247.692204,4204.102461,4221.538358,4218.461435,4217.948615,4221.538358,4230.769127,4219.999897,4225.640922,4216.922974,4220.512717
79,0,4223.58964,4224.102461,4218.461435,4249.743486,4216.410153,4224.102461,4218.461435,4219.487076,4216.922974,4232.820409,4215.897333,4226.666563,4218.461435,4220.512717
80,0,4225.128102,4216.410153,4220.512717,4251.281947,4185.128103,4216.922974,4217.948615,4217.948615,4214.358871,4222.051179,4217.948615,4228.205025,4217.948615,4215.384512
81,0,4214.871692,4218.974256,4217.435794,4249.743486,4210.256307,4216.922974,4217.435794,4214.871692,4216.410153,4214.358871,4217.435794,4226.666563,4215.384512,4211.794769
82,0,4210.256307,4223.58964,4212.307589,4249.230665,4236.410153,4224.615281,4217.948615,4214.358871,4215.897333,4219.999897,4214.358871,4226.153743,4212.82041,4208.717846
83,0,4220.512717,4224.102461,4216.922974,4249.743486,4223.58964,4228.717845,4217.948615,4217.948615,4214.871692,4214.358871,4213.33323,4232.307589,4214.871692,4212.82041
84,0,4231.281948,4223.58964,4224.102461,4249.230665,4216.410153,4228.717845,4216.922974,4218.974256,4216.922974,4210.256307,4218.461435,4231.794768,4217.435794,4221.025538
85,0,4230.256307,4222.563999,4223.07682,4250.256306,4213.846051,4227.692204,4222.563999,4218.461435,4219.487076,4234.871691,4218.974256,4234.871691,4216.410153,4220.512717
86,0,4227.692204,4225.128102,4221.538358,4247.692204,4215.897333,4230.256307,4232.307589,4222.051179,4218.461435,4252.307588,4216.922974,4243.076819,4215.897333,4216.922974
87,0,4233.33323,4230.256307,4229.743486,4249.743486,4246.666563,4233.33323,4230.256307,4226.666563,4219.487076,4247.179383,4226.153743,4190.256308,4218.974256,4223.58964
88,0,4239.487076,4229.743486,4233.33323,4257.435793,4237.435794,4228.717845,4219.999897,4225.128102,4222.563999,4245.640922,4233.84605,4095.897336,4219.487076,4229.230666
89,0,4236.410153,4231.794768,4226.666563,4257.948614,4200.512718,4224.615281,4218.461435,4221.538358,4221.538358,4249.230665,4235.384512,4072.820413,4219.487076,4227.692204
90,0,4232.820409,4238.461435,4220.512717,4254.35887,4204.615282,4226.153743,4221.025538,4222.563999,4219.487076,4245.640922,4235.897332,4103.589643,4218.461435,4225.640922
91,0,4228.205025,4231.794768,4218.974256,4252.307588,4211.794769,4222.563999,4219.487076,4220.512717,4218.461435,4241.025537,4225.640922,4099.487079,4214.871692,4222.051179
92,0,4218.974256,4217.948615,4217.435794,4246.666563,4210.256307,4219.999897,4217.948615,4215.897333,4218.461435,4239.487076,4211.281948,4086.666567,4209.743487,4211.281948
93,0,4211.281948,4216.410153,4208.717846,4242.051178,4221.025538,4224.102461,4217.948615,4216.410153,4215.897333,4220.512717,4212.307589,4103.589643,4205.640923,4204.615282
94,0,4207.179384,4215.897333,4202.564,4244.10246,4244.615281,4224.102461,4217.435794,4217.435794,4212.307589,4207.179384,4212.307589,4107.692207,4205.128102,4202.564
95,0,4212.307589,4219.487076,4212.82041,4246.666563,4235.384512,4219.999897,4217.435794,4216.410153,4213.846051,4231.794768,4208.717846,4105.128105,4210.769128,4205.640923
96,0,4224.102461,4232.307589,4220.512717,4249.743486,4189.743487,4220.512717,4217.435794,4216.922974,4217.948615,4249.230665,4214.871692,4114.871694,4215.384512,4208.205025
97,0,4225.128102,4232.307589,4216.922974,4250.256306,4198.461436,4224.102461,4217.948615,4216.922974,4216.410153,4223.07682,4220.512717,4121.538361,4212.82041,4206.666564
98,0,4215.384512,4217.948615,4215.384512,4244.10246,4255.384511,4225.128102,4217.948615,4212.307589,4212.307589,4209.743487,4219.999897,4125.128104,4211.281948,4203.589641
99,0,4213.846051,4218.461435,4215.897333,4245.640922,4257.948614,4223.07682,4215.384512,4211.794769,4215.384512,4238.974255,4216.922974,4129.230668,4213.33323,4206.153743
100,0,4222.051179,4230.769127,4214.871692,4248.717845,4222.563999,4222.051179,4215.897333,4215.384512,4217.435794,4252.820409,4212.307589,4129.743489,4214.358871,4209.230666
101,0,4226.666563,4233.84605,4220.512717,4248.205024,4221.538358,4225.640922,4219.487076,4217.435794,4216.922974,4237.435794,4214.358871,4132.307591,4216.410153,4211.281948
102,0,4221.538358,4226.666563,4221.025538,4248.205024,4218.974256,4221.025538,4217.948615,4217.435794,4216.410153,4222.563999,4218.974256,4136.410155,4215.897333,4212.307589
103,0,4211.281948,4216.922974,4210.769128,4241.025537,4197.435795,4211.794769,4214.871692,4215.384512,4213.846051,4210.256307,4211.281948,4133.333232,4211.794769,4204.102461
104,0,4212.82041,4217.435794,4210.256307,4234.871691,4215.384512,4217.948615,4216.922974,4215.897333,4213.846051,4218.974256,4208.205025,4137.948617,4211.794769,4201.538359
105,0,4217.435794,4218.974256,4212.307589,4239.999896,4244.10246,4223.07682,4217.948615,4216.922974,4215.384512,4225.640922,4215.897333,4147.179386,4215.384512,4206.666564
106,0,4215.897333,4216.410153,4209.743487,4247.179383,4210.769128,4215.384512,4213.846051,4214.358871,4211.281948,4206.153743,4215.897333,4145.640924,4214.871692,4207.692205
107,0,4222.051179,4224.102461,4214.358871,4249.230665,4185.128103,4219.487076,4214.358871,4214.358871,4212.307589,4206.666564,4213.846051,4147.692206,4214.871692,4209.230666
108,0,4230.256307,4234.871691,4222.051179,4248.205024,4245.128101,4232.307589,4217.948615,4218.974256,4219.487076,4238.974255,4216.922974,4156.410155,4216.410153,4213.846051
109,0,4222.563999,4224.615281,4221.025538,4244.10246,4258.461434,4226.666563,4216.410153,4217.435794,4218.461435,4241.538358,4215.897333,4156.922975,4215.384512,4213.846051
110,0,4216.410153,4214.358871,4218.974256,4244.615281,4191.281949,4212.82041,4212.82041,4213.846051,4212.307589,4213.33323,4212.307589,4155.384514,4215.384512,4211.281948
111,0,4225.640922,4227.692204,4222.563999,4250.769127,4211.794769,4218.974256,4218.461435,4216.410153,4214.871692,4214.871692,4217.435794,4163.076821,4216.410153,4213.33323
112,0,4229.743486,4233.84605,4225.640922,4250.256306,4268.205024,4229.743486,4224.102461,4219.999897,4218.974256,4231.794768,4218.461435,4170.256308,4214.871692,4217.435794
113,0,4219.999897,4220.512717,4227.692204,4245.128101,4227.179384,4227.692204,4221.538358,4218.974256,4218.461435,4219.487076,4213.846051,4168.205026,4214.358871,4217.948615
114,0,4210.769128,4214.358871,4223.58964,4245.640922,4182.05118,4221.538358,4216.922974,4217.948615,4213.33323,4205.128102,4214.871692,4168.717847,4215.897333,4212.82041
115,0,4208.205025,4216.410153,4215.897333,4246.666563,4210.769128,4218.461435,4215.897333,4215.897333,4204.615282,4207.179384,4211.794769,4169.230667,4214.358871,4208.717846
116,0,4211.794769,4218.461435,4219.487076,4247.179383,4252.307588,4218.974256,4214.871692,4214.871692,4204.102461,4210.769128,4207.179384,4168.205026,4211.794769,4213.846051
117,0,4215.384512,4223.58964,4228.717845,4248.205024,4251.281947,4222.563999,4215.384512,4217.435794,4213.846051,4205.640923,4212.307589,4172.30759,4214.871692,4217.948615
118,0,4217.435794,4223.07682,4231.281948,4250.256306,4206.153743,4221.025538,4216.410153,4218.461435,4214.871692,4196.922974,4216.922974,4179.999898,4217.435794,4215.384512
119,0,4217.435794,4219.487076,4228.717845,4250.769127,4188.205026,4217.435794,4217.435794,4216.922974,4210.256307,4196.922974,4215.384512,4185.128103,4215.897333,4216.410153
120,0,4217.948615,4222.563999,4230.769127,4247.179383,4230.256307,4224.615281,4220.512717,4224.102461,4214.871692,4214.358871,4220.512717,4187.692205,4215.384512,4224.615281
121,0,4222.563999,4225.128102,4229.230666,4246.666563,4259.999896,4233.84605,4221.538358,4231.794768,4217.948615,4222.051179,4230.769127,4191.794769,4218.461435,4231.281948
122,0,4227.179384,4224.102461,4228.717845,4252.820409,4238.461435,4228.205025,4216.922974,4227.692204,4216.410153,4213.846051,4229.743486,4194.358872,4219.999897,4232.820409
123,0,4228.205025,4227.179384,4230.769127,4254.35887,4212.307589,4217.435794,4213.33323,4219.999897,4219.999897,4227.179384,4221.025538,4195.897333,4216.922974,4231.794768
124,0,4225.128102,4227.179384,4230.769127,4251.281947,4215.897333,4218.461435,4213.846051,4217.435794,4219.487076,4239.487076,4221.538358,4196.410154,4214.871692,4229.230666
125,0,4227.692204,4226.666563,4233.84605,4250.256306,4219.487076,4221.025538,4214.871692,4224.102461,4217.435794,4221.538358,4231.794768,4202.564,4216.410153,4231.794768
126,0,4226.666563,4225.128102,4235.384512,4247.692204,4222.563999,4218.974256,4215.384512,4231.281948,4220.512717,4212.82041,4233.84605,4208.717846,4216.922974,4232.820409
127,0,4220.512717,4219.487076,4227.692204,4246.153742,4234.358871,4218.974256,4218.461435,4225.128102,4219.999897,4217.948615,4228.205025,4206.666564,4215.897333,4224.615281
128,0,4221.538358,4224.102461,4225.128102,4249.743486,4236.922973,4221.538358,4221.538358,4216.410153,4215.384512,4215.897333,4227.692204,4203.589641,4218.461435,4220.512717
0,0,4221.538358,4227.179384,4226.666563,4249.230665,4218.461435,4219.487076,4218.461435,4216.922974,4213.33323,4213.846051,4218.974256,4202.051179,4213.846051,4223.07682
1,0,4215.384512,4217.435794,4223.58964,4242.051178,4195.384513,4216.410153,4213.33323,4216.922974,4214.358871,4215.897333,4205.640923,4202.051179,4205.128102,4214.871692
2,0,4215.384512,4216.410153,4222.051179,4245.640922,4219.487076,4224.102461,4217.948615,4215.897333,4216.922974,4214.871692,4211.281948,4205.640923,4208.205025,4213.33323
3,0,4217.435794,4221.025538,4217.435794,4249.230665,4238.974255,4226.666563,4223.07682,4218.461435,4216.922974,4203.07682,4218.974256,4207.179384,4214.871692,4221.538358
4,0,4212.307589,4214.871692,4211.281948,4240.512717,4216.410153,4216.922974,4219.999897,4218.974256,4212.82041,4193.846051,4221.538358,4210.256307,4213.846051,4222.563999
5,0,4213.33323,4213.33323,4214.358871,4238.974255,4223.58964,4217.435794,4217.948615,4219.999897,4216.922974,4212.307589,4228.717845,4221.538358,4214.358871,4222.563999
6,0,4224.102461,4223.58964,4221.025538,4248.717845,4257.948614,4225.640922,4217.948615,4224.615281,4222.051179,4237.435794,4233.33323,4228.717845,4219.487076,4231.794768
7,0,4228.205025,4227.692204,4223.58964,4250.769127,4235.897332,4222.051179,4217.435794,4227.692204,4219.999897,4234.871691,4227.179384,4224.615281,4220.512717,4236.922973
8,0,4231.281948,4227.692204,4228.717845,4249.230665,4201.538359,4217.948615,4219.487076,4228.717845,4223.07682,4225.640922,4229.230666,4226.666563,4219.487076,4235.897332
9,0,4233.33323,4230.256307,4227.692204,4250.256306,4227.179384,4222.563999,4222.051179,4229.230666,4225.128102,4233.84605,4231.794768,4233.84605,4217.948615,4234.358871
10,0,4230.769127,4233.33323,4222.563999,4244.10246,4245.128101,4223.58964,4221.538358,4225.640922,4218.974256,4233.84605,4228.717845,4224.615281,4218.974256,4230.256307
11,0,4223.58964,4230.256307,4219.999897,4237.435794,4233.33323,4219.999897,4216.922974,4218.974256,4216.922974,4219.487076,4228.205025,4194.871692,4220.512717,4223.58964
12,0,4210.769128,4216.922974,4211.281948,4231.794768,4228.717845,4215.897333,4213.846051,4213.846051,4217.948615,4214.358871,4218.461435,4174.871693,4216.410153,4212.82041
13,0,4205.640923,4213.846051,4205.640923,4231.281948,4221.025538,4213.33323,4214.871692,4216.410153,4214.358871,4216.410153,4209.230666,4179.487077,4213.33323,4206.153743
14,0,4212.307589,4221.025538,4211.794769,4236.922973,4224.102461,4218.974256,4218.461435,4218.974256,4214.871692,4215.384512,4212.82041,4186.666564,4212.307589,4209.743487
15,0,4216.922974,4220.512717,4216.922974,4241.025537,4227.692204,4223.58964,4220.512717,4215.384512,4217.435794,4210.256307,4214.358871,4190.769128,4213.33323,4211.794769
16,0,4214.871692,4224.102461,4214.358871,4243.076819,4217.948615,4219.999897,4224.615281,4221.025538,4216.410153,4203.589641,4216.410153,4201.538359,4215.897333,4211.794769
17,0,4217.948615,4230.769127,4217.435794,4243.076819,4228.717845,4221.538358,4231.281948,4232.307589,4216.410153,4213.846051,4227.692204,4211.794769,4217.948615,4219.999897
18,0,4219.999897,4222.563999,4222.051179,4237.948614,4236.922973,4223.58964,4228.205025,4227.692204,4216.410153,4218.974256,4228.717845,4211.794769,4217.435794,4222.051179
19,0,4221.538358,4223.07682,4223.58964,4243.076819,4199.487077,4218.461435,4217.435794,4218.974256,4218.461435,4204.615282,4225.640922,4216.922974,4219.487076,4218.461435
20,0,4228.717845,4233.33323,4227.692204,4251.794768,4203.589641,4221.538358,4221.538358,4225.640922,4222.563999,4216.922974,4229.743486,4225.128102,4220.512717,4223.07682
21,0,4226.153743,4223.07682,4226.153743,4241.538358,4264.10246,4227.179384,4230.256307,4232.307589,4222.563999,4248.205024,4221.538358,4220.512717,4216.922974,4223.58964
22,0,4221.025538,4217.948615,4221.025538,4234.871691,4254.35887,4221.025538,4223.58964,4227.692204,4219.999897,4242.563999,4216.922974,4219.999897,4216.410153,4218.461435
23,0,4227.692204,4229.743486,4228.717845,4242.563999,4201.538359,4217.435794,4217.948615,4224.102461,4219.999897,4220.512717,4230.769127,4233.84605,4220.512717,4222.563999
24,0,4228.205025,4228.205025,4232.307589,4242.051178,4213.846051,4221.025538,4222.051179,4221.025538,4218.974256,4218.974256,4231.281948,4236.922973,4220.512717,4226.153743
25,0,4216.922974,4222.563999,4219.999897,4236.922973,4246.153742,4216.410153,4218.974256,4215.897333,4215.897333,4215.384512,4216.410153,4229.743486,4215.384512,4219.487076
26,0,4218.974256,4228.717845,4218.461435,4242.563999,4251.281947,4217.948615,4213.846051,4214.871692,4216.410153,4219.487076,4216.922974,4231.281948,4215.897333,4215.897333
27,0,4228.717845,4230.769127,4231.794768,4245.640922,4246.666563,4227.692204,4223.07682,4215.897333,4219.999897,4236.410153,4227.179384,4238.974255,4220.512717,4221.025538
28,0,4225.640922,4231.794768,4229.230666,4237.435794,4222.563999,4225.640922,4230.256307,4215.384512,4219.999897,4232.307589,4229.743486,4243.58964,4219.999897,4222.563999
29,0,4219.999897,4228.205025,4217.948615,4235.897332,4197.435795,4216.410153,4222.051179,4215.384512,4219.487076,4219.487076,4222.051179,4242.563999,4215.897333,4215.384512
30,0,4214.871692,4219.487076,4213.846051,4244.615281,4215.384512,4217.435794,4213.846051,4215.897333,4217.435794,4218.461435,4212.82041,4239.487076,4218.461435,4209.230666
31,0,4214.871692,4224.102461,4214.358871,4251.281947,4247.179383,4224.102461,4217.948615,4215.384512,4218.461435,4214.871692,4219.487076,4243.076819,4223.07682,4215.384512
32,0,4218.974256,4230.769127,4217.435794,4250.769127,4243.58964,4223.58964,4223.58964,4215.897333,4219.999897,4214.358871,4230.769127,4251.794768,4223.58964,4221.538358
33,0,4219.487076,4227.692204,4217.435794,4247.692204,4227.179384,4220.512717,4217.948615,4216.410153,4216.410153,4223.58964,4220.512717,4251.794768,4218.461435,4214.871692
34,0,4219.487076,4230.769127,4217.435794,4247.179383,4215.384512,4219.487076,4216.410153,4215.384512,4214.871692,4224.102461,4215.897333,4254.35887,4216.922974,4214.358871
35,0,4222.563999,4229.230666,4219.999897,4249.230665,4207.692205,4218.974256,4224.102461,4215.897333,4219.999897,4221.538358,4227.692204,4258.974255,4221.025538,4217.948615
36,0,4219.487076,4218.461435,4218.974256,4245.128101,4221.538358,4219.487076,4224.615281,4219.487076,4223.58964,4236.410153,4226.153743,4255.897332,4222.563999,4213.33323
37,0,4212.82041,4219.999897,4213.846051,4238.461435,4234.358871,4219.999897,4218.461435,4219.487076,4219.999897,4237.435794,4213.33323,4251.281947,4217.948615,4206.666564
38,0,4215.897333,4224.615281,4213.846051,4242.563999,4223.58964,4217.435794,4217.435794,4214.871692,4214.871692,4216.410153,4211.794769,4253.333229,4215.897333,4207.179384
39,0,4217.948615,4217.435794,4217.435794,4246.153742,4226.666563,4216.922974,4218.461435,4213.33323,4213.33323,4214.358871,4216.410153,4256.922973,4221.538358,4208.205025
40,0,4218.461435,4219.999897,4219.487076,4247.179383,4235.897332,4218.974256,4215.897333,4215.897333,4216.410153,4221.538358,4218.974256,4257.435793,4224.615281,4211.794769
41,0,4221.025538,4228.205025,4218.461435,4248.717845,4227.179384,4217.435794,4215.897333,4215.384512,4218.461435,4218.974256,4217.948615,4255.384511,4218.461435,4215.384512
42,0,4218.974256,4221.025538,4217.435794,4242.563999,4236.922973,4217.435794,4220.512717,4215.897333,4216.922974,4221.538358,4215.384512,4257.435793,4215.384512,4213.33323
43,0,4215.384512,4217.948615,4216.922974,4238.974255,4234.871691,4218.974256,4222.563999,4218.974256,4216.410153,4216.410153,4218.461435,4261.025537,4221.025538,4211.281948
44,0,4218.461435,4229.743486,4219.487076,4248.205024,4208.205025,4219.487076,4222.051179,4218.974256,4217.948615,4211.281948,4221.538358,4259.487075,4222.051179,4206.666564
45,0,4219.999897,4233.33323,4220.512717,4251.281947,4227.179384,4227.692204,4228.205025,4223.58964,4218.461435,4223.58964,4215.384512,4254.871691,4215.384512,4197.948615
46,0,4212.307589,4224.615281,4213.33323,4240.512717,4266.666562,4231.794768,4232.820409,4233.84605,4219.487076,4224.102461,4209.230666,4252.307588,4213.33323,4195.897333
47,0,4209.230666,4223.58964,4207.179384,4239.487076,4247.692204,4223.07682,4224.615281,4237.948614,4219.487076,4212.82041,4211.281948,4253.333229,4215.384512,4196.922974
48,0,4217.435794,4231.281948,4214.871692,4246.153742,4206.153743,4219.999897,4218.974256,4236.410153,4218.974256,4223.07682,4215.897333,4257.948614,4216.410153,4198.974256
49,0,4218.461435,4231.794768,4222.051179,4243.58964,4214.871692,4222.563999,4220.512717,4234.358871,4218.461435,4229.743486,4216.922974,4258.974255,4217.948615,4200.512718
50,0,4211.794769,4228.205025,4209.743487,4238.974255,4239.999896,4218.461435,4216.922974,4229.743486,4216.922974,4213.846051,4212.82041,4252.307588,4216.922974,4200.512718
51,0,4213.33323,4231.794768,4201.538359,4245.640922,4226.666563,4215.897333,4213.846051,4228.717845,4216.922974,4210.256307,4211.794769,4250.256306,4213.846051,4198.974256
52,0,4219.487076,4236.410153,4211.794769,4248.205024,4211.794769,4219.487076,4217.435794,4233.33323,4217.435794,4218.974256,4212.82041,4254.35887,4216.410153,4202.564
53,0,4218.461435,4230.256307,4218.974256,4243.076819,4238.974255,4219.487076,4218.974256,4232.307589,4217.948615,4217.948615,4210.256307,4254.35887,4217.948615,4203.589641
54,0,4216.410153,4225.128102,4214.871692,4241.538358,4264.10246,4219.487076,4223.07682,4229.230666,4217.948615,4216.922974,4208.717846,4250.769127,4214.358871,4198.461436
55,0,4216.410153,4228.205025,4214.871692,4239.487076,4231.281948,4219.999897,4222.563999,4230.256307,4214.358871,4215.384512,4210.256307,4252.307588,4212.82041,4199.999897
56,0,4215.897333,4228.717845,4218.974256,4237.435794,4205.640923,4217.435794,4215.384512,4231.281948,4212.307589,4214.871692,4209.743487,4252.820409,4214.358871,4203.07682
57,0,4218.461435,4227.692204,4217.948615,4242.563999,4223.58964,4217.435794,4214.871692,4233.84605,4215.897333,4217.948615,4211.794769,4253.333229,4215.897333,4204.102461
58,0,4219.999897,4228.717845,4216.922974,4242.051178,4240.512717,4217.435794,4216.922974,4235.897332,4217.948615,4209.230666,4213.33323,4254.35887,4217.435794,4206.666564
59,0,4216.922974,4229.230666,4217.948615,4232.820409,4239.487076,4216.410153,4214.358871,4233.33323,4212.82041,4201.538359,4201.025538,4253.84605,4216.410153,4207.692205
60,0,4215.897333,4228.717845,4218.974256,4236.922973,4233.33323,4216.410153,4216.922974,4232.307589,4211.281948,4210.769128,4197.948615,4251.281947,4215.384512,4204.102461
61,0,4219.487076,4232.820409,4218.461435,4247.692204,4233.84605,4218.974256,4218.974256,4236.410153,4215.897333,4219.487076,4209.743487,4253.84605,4216.410153,4204.615282
62,0,4217.948615,4233.33323,4215.897333,4238.974255,4227.179384,4217.948615,4218.974256,4235.897332,4216.922974,4217.435794,4207.692205,4250.769127,4217.435794,4202.564
63,0,4211.794769,4226.666563,4211.794769,4226.666563,4225.128102,4220.512717,4224.102461,4231.794768,4213.846051,4211.281948,4204.102461,4245.128101,4216.410153,4198.461436
64,0,4217.948615,4229.230666,4217.948615,4233.84605,4248.717845,4229.743486,4231.281948,4241.538358,4221.025538,4214.358871,4218.461435,4253.84605,4218.461435,4207.692205
65,0,4226.153743,4238.974255,4226.666563,4244.615281,4260.512716,4234.358871,4234.358871,4251.794768,4230.256307,4232.820409,4224.102461,4260.512716,4222.563999,4215.384512
66,0,4221.538358,4239.487076,4219.487076,4238.461435,4238.461435,4230.769127,4230.256307,4242.051178,4225.128102,4239.999896,4213.33323,4254.35887,4223.07682,4209.230666
67,0,4221.025538,4233.33323,4210.769128,4231.281948,4222.563999,4228.205025,4222.563999,4233.33323,4216.410153,4222.051179,4212.82041,4253.333229,4217.948615,4209.743487
68,0,4229.230666,4231.281948,4217.948615,4235.384512,4233.84605,4229.743486,4222.051179,4241.538358,4218.974256,4213.846051,4217.435794,4258.974255,4218.461435,4215.897333
69,0,4231.794768,4232.820409,4221.538358,4242.563999,4244.615281,4231.794768,4232.307589,4248.717845,4228.717845,4227.692204,4216.410153,4257.435793,4225.640922,4216.410153
70,0,4231.794768,4234.358871,4217.948615,4246.153742,4255.897332,4233.33323,4236.410153,4247.179383,4228.717845,4228.717845,4219.487076,4253.333229,4225.128102,4216.410153
71,0,4229.743486,4234.358871,4219.487076,4245.128101,4248.717845,4232.307589,4231.281948,4246.666563,4220.512717,4217.948615,4221.025538,4254.871691,4217.948615,4215.897333
72,0,4230.256307,4234.871691,4224.102461,4241.538358,4212.307589,4230.256307,4230.769127,4245.640922,4217.435794,4213.846051,4217.435794,4255.897332,4218.461435,4214.871692
73,0,4230.769127,4228.717845,4222.563999,4233.33323,4214.358871,4229.230666,4231.281948,4243.58964,4218.461435,4214.871692,4213.33323,4252.820409,4221.538358,4212.307589
74,0,4223.58964,4222.563999,4217.948615,4233.33323,4251.281947,4230.256307,4230.256307,4244.615281,4218.461435,4214.871692,4214.358871,4251.281947,4219.999897,4207.179384
75,0,4216.410153,4225.640922,4215.384512,4237.948614,4257.435793,4230.769127,4233.33323,4248.205024,4222.051179,4215.897333,4217.948615,4253.333229,4221.025538,4209.230666
76,0,4215.897333,4225.128102,4213.846051,4239.487076,4238.461435,4229.230666,4233.84605,4248.205024,4221.538358,4217.435794,4216.410153,4251.794768,4221.025538,4215.897333
77,0,4215.897333,4216.410153,4218.974256,4241.538358,4225.640922,4228.717845,4229.743486,4242.563999,4212.82041,4210.256307,4214.358871,4247.692204,4215.897333,4212.82041
78,0,4215.384512,4215.384512,4225.128102,4240.512717,4223.58964,4225.128102,4227.179384,4241.538358,4214.358871,4204.615282,4216.922974,4253.84605,4217.948615,4213.33323
79,0,4217.948615,4221.538358,4223.07682,4235.384512,4236.410153,4221.538358,4228.717845,4246.153742,4218.974256,4210.769128,4218.461435,4257.948614,4224.615281,4223.07682
80,0,4224.615281,4227.179384,4224.102461,4239.999896,4257.948614,4226.666563,4232.307589,4248.717845,4219.999897,4218.974256,4216.410153,4254.35887,4225.128102,4227.692204
81,0,4230.769127,4232.307589,4233.33323,4247.692204,4260.512716,4232.820409,4233.84605,4248.205024,4227.692204,4216.922974,4216.922974,4254.35887,4223.58964,4229.230666
82,0,4232.307589,4231.794768,4235.384512,4245.128101,4233.84605,4230.769127,4231.281948,4248.717845,4232.820409,4212.82041,4221.025538,4257.948614,4229.230666,4230.256307
83,0,4231.794768,4227.692204,4230.256307,4243.58964,4204.102461,4227.692204,4230.256307,4248.205024,4229.743486,4216.922974,4222.563999,4259.999896,4232.820409,4230.256307
84,0,4234.358871,4230.769127,4232.820409,4247.692204,4225.128102,4229.230666,4228.205025,4246.666563,4228.205025,4218.461435,4220.512717,4258.974255,4230.256307,4234.358871
85,0,4234.871691,4233.33323,4233.33323,4245.640922,4274.87169,4230.769127,4221.538358,4247.179383,4231.281948,4218.461435,4216.922974,4256.410152,4229.743486,4235.897332
86,0,4233.33323,4228.205025,4228.205025,4245.128101,4259.487075,4225.640922,4216.410153,4244.615281,4229.743486,4222.563999,4214.358871,4252.820409,4226.153743,4228.205025
87,0,4233.33323,4221.538358,4229.230666,4245.640922,4204.615282,4217.948615,4216.922974,4243.58964,4222.051179,4218.461435,4216.410153,4251.794768,4221.538358,4224.102461
88,0,4233.33323,4223.07682,4230.769127,4243.076819,4211.794769,4220.512717,4222.563999,4242.563999,4217.948615,4207.692205,4217.435794,4253.333229,4222.051179,4226.153743
89,0,4234.871691,4230.769127,4232.307589,4243.58964,4254.35887,4228.205025,4228.205025,4236.922973,4218.974256,4207.179384,4214.358871,4250.256306,4220.512717,4227.692204
90,0,4234.871691,4228.717845,4233.33323,4240.512717,4257.435793,4231.794768,4229.743486,4232.820409,4221.025538,4214.871692,4211.794769,4247.692204,4218.974256,4224.102461
91,0,4232.307589,4223.07682,4230.256307,4237.948614,4230.769127,4227.692204,4229.743486,4233.33323,4218.974256,4204.615282,4214.358871,4248.717845,4222.051179,4223.07682
92,0,4226.666563,4222.051179,4224.102461,4239.487076,4211.281948,4221.025538,4226.666563,4232.820409,4216.410153,4183.589641,4217.435794,4246.153742,4218.461435,4223.07682
93,0,4223.58964,4223.07682,4224.102461,4238.461435,4225.128102,4222.563999,4224.102461,4230.769127,4221.538358,4191.281949,4217.435794,4246.666563,4217.435794,4223.07682
94,0,4228.717845,4224.615281,4227.179384,4235.384512,4252.307588,4230.769127,4229.743486,4234.871691,4232.820409,4228.205025,4216.922974,4253.333229,4228.205025,4226.666563
95,0,4233.84605,4222.563999,4228.717845,4234.358871,4261.538357,4232.820409,4234.871691,4241.538358,4233.33323,4242.051178,4216.922974,4254.871691,4231.281948,4229.743486
96,0,4231.281948,4217.435794,4225.128102,4233.33323,4254.871691,4228.205025,4233.33323,4246.153742,4230.256307,4220.512717,4217.435794,4246.153742,4223.58964,4226.666563
97,0,4227.179384,4214.358871,4219.999897,4231.794768,4219.999897,4223.07682,4229.230666,4242.563999,4234.358871,4206.666564,4218.974256,4247.692204,4223.07682,4223.07682
98,0,4226.666563,4217.435794,4223.07682,4233.33323,4199.487077,4223.07682,4226.666563,4233.33323,4233.84605,4225.640922,4222.051179,4254.35887,4227.692204,4225.640922
99,0,4230.256307,4224.615281,4230.769127,4236.410153,4238.461435,4229.743486,4229.230666,4232.307589,4232.307589,4234.871691,4229.230666,4254.871691,4232.307589,4230.256307
100,0,4233.84605,4229.230666,4232.307589,4233.33323,4265.640921,4232.307589,4234.358871,4236.410153,4233.84605,4214.871692,4234.871691,4255.897332,4232.307589,4228.717845
101,0,4229.743486,4229.743486,4227.179384,4230.769127,4235.897332,4229.230666,4229.230666,4233.33323,4229.230666,4213.846051,4229.230666,4253.84605,4226.666563,4227.692204
102,0,4227.179384,4228.205025,4221.538358,4234.358871,4225.128102,4227.179384,4222.051179,4231.794768,4229.230666,4239.999896,4218.461435,4248.717845,4223.07682,4227.179384
103,0,4226.153743,4224.615281,4216.410153,4234.358871,4255.897332,4221.538358,4218.974256,4231.281948,4230.769127,4234.358871,4213.846051,4244.10246,4220.512717,4222.051179
104,0,4219.487076,4216.410153,4213.33323,4226.666563,4255.897332,4215.384512,4214.358871,4221.538358,4219.999897,4198.461436,4213.33323,4240.512717,4216.410153,4214.358871
105,0,4217.948615,4215.897333,4218.974256,4229.230666,4218.461435,4216.410153,4213.846051,4216.410153,4214.871692,4197.435795,4215.897333,4238.461435,4219.999897,4219.487076
106,0,4221.538358,4220.512717,4223.07682,4235.384512,4202.564,4218.461435,4216.410153,4219.999897,4222.563999,4216.922974,4214.358871,4241.538358,4222.563999,4224.102461
107,0,4218.461435,4217.948615,4220.512717,4228.717845,4236.922973,4217.948615,4216.410153,4218.974256,4222.051179,4212.307589,4203.589641,4243.076819,4215.897333,4216.410153
108,0,4216.410153,4216.922974,4216.922974,4225.640922,4276.410152,4218.974256,4214.871692,4216.410153,4216.410153,4193.333231,4198.974256,4240.512717,4213.846051,4209.743487
109,0,4219.487076,4223.07682,4213.33323,4232.307589,4245.640922,4218.461435,4215.384512,4217.435794,4217.435794,4187.179385,4208.717846,4239.487076,4217.435794,4210.769128
110,0,4224.615281,4226.666563,4219.487076,4234.358871,4195.897333,4217.435794,4217.948615,4222.051179,4223.07682,4206.153743,4217.948615,4243.58964,4217.948615,4215.384512
111,0,4231.794768,4228.205025,4229.743486,4231.281948,4211.794769,4222.563999,4221.025538,4228.205025,4228.717845,4225.640922,4219.999897,4248.205024,4222.563999,4222.051179
112,0,4234.871691,4231.794768,4226.666563,4232.820409,4259.487075,4228.717845,4222.051179,4231.794768,4233.84605,4230.256307,4219.487076,4246.666563,4225.640922,4226.666563
113,0,4222.051179,4225.128102,4214.358871,4230.769127,4256.410152,4224.102461,4216.922974,4228.205025,4230.769127,4210.256307,4213.33323,4239.487076,4218.974256,4217.948615
114,0,4213.33323,4213.33323,4215.384512,4226.153743,4216.410153,4216.922974,4212.82041,4222.051179,4221.538358,4190.256308,4209.743487,4234.871691,4215.384512,4208.205025
115,0,4216.922974,4212.82041,4219.487076,4228.717845,4215.384512,4217.948615,4215.384512,4217.948615,4216.410153,4200.512718,4210.769128,4235.384512,4219.487076,4209.230666
116,0,4216.410153,4216.410153,4212.82041,4224.102461,4247.179383,4219.487076,4215.384512,4216.922974,4218.974256,4219.487076,4206.153743,4236.410153,4220.512717,4210.769128
117,0,4207.179384,4213.33323,4204.615282,4218.461435,4250.256306,4216.410153,4204.615282,4217.435794,4222.051179,4222.051179,4197.948615,4231.281948,4215.384512,4203.589641
118,0,4201.538359,4212.307589,4199.487077,4223.07682,4233.33323,4215.384512,4198.974256,4215.897333,4218.974256,4210.256307,4198.461436,4227.692204,4211.794769,4201.025538
119,0,4208.205025,4215.384512,4203.589641,4223.07682,4233.84605,4217.948615,4210.256307,4218.461435,4217.948615,4199.999897,4204.615282,4232.307589,4214.871692,4208.205025
120,0,4216.410153,4215.897333,4210.256307,4219.999897,4234.358871,4219.999897,4216.410153,4218.974256,4219.487076,4199.487077,4204.615282,4233.33323,4217.948615,4208.717846
121,0,4214.871692,4214.358871,4207.179384,4226.153743,4217.435794,4217.948615,4206.666564,4212.307589,4216.410153,4199.999897,4199.999897,4227.179384,4213.33323,4204.615282
122,0,4211.794769,4215.384512,4204.102461,4231.281948,4228.205025,4214.871692,4200.512718,4208.205025,4212.82041,4196.410154,4197.435795,4226.666563,4210.256307,4204.615282
123,0,4214.871692,4215.897333,4209.230666,4227.692204,4249.230665,4214.358871,4204.102461,4210.769128,4213.33323,4195.384513,4199.487077,4232.820409,4214.358871,4207.179384
124,0,4217.435794,4214.871692,4214.358871,4227.692204,4217.435794,4215.897333,4210.769128,4214.871692,4216.922974,4201.025538,4207.692205,4237.435794,4217.948615,4212.307589
125,0,4215.384512,4214.871692,4212.82041,4232.820409,4198.461436,4219.487076,4217.435794,4218.461435,4217.948615,4206.153743,4211.281948,4240.512717,4216.922974,4215.384512
126,0,4214.871692,4215.384512,4211.281948,4228.717845,4247.692204,4221.025538,4218.461435,4218.974256,4216.922974,4209.743487,4207.179384,4241.025537,4215.384512,4211.281948
127,0,4215.897333,4216.410153,4213.33323,4222.051179,4269.743485,4218.974256,4215.897333,4219.999897,4217.948615,4214.871692,4207.692205,4238.461435,4215.897333,4209.230666
128,0,4217.435794,4216.922974,4216.922974,4223.58964,4224.102461,4216.922974,4216.922974,4222.563999,4221.025538,4209.743487,4214.358871,4237.435794,4217.435794,4209.743487
0,0,4216.922974,4215.897333,4217.435794,4226.666563,4211.794769,4218.974256,4218.974256,4221.538358,4219.487076,4198.974256,4215.897333,4240.512717,4217.435794,4211.281948
1,0,4213.846051,4213.846051,4215.897333,4222.051179,4249.743486,4219.487076,4216.922974,4219.487076,4217.435794,4205.640923,4214.358871,4232.820409,4215.384512,4216.410153
2,0,4220.512717,4219.487076,4217.948615,4226.666563,4238.974255,4218.974256,4220.512717,4226.666563,4227.179384,4229.743486,4216.922974,4211.281948,4216.922974,4222.563999
3,0,4227.179384,4226.666563,4218.461435,4235.897332,4214.871692,4223.58964,4225.640922,4233.33323,4233.33323,4236.410153,4216.410153,4196.410154,4216.922974,4221.025538
4,0,4221.538358,4223.07682,4216.922974,4228.205025,4254.35887,4231.794768,4223.07682,4226.153743,4222.563999,4211.281948,4217.435794,4199.487077,4213.846051,4219.999897
5,0,4218.461435,4216.410153,4219.999897,4225.640922,4273.333229,4231.794768,4222.563999,4219.487076,4215.897333,4204.102461,4216.410153,4201.538359,4215.384512,4223.07682
6,0,4222.051179,4217.948615,4215.384512,4231.281948,4221.025538,4219.999897,4223.07682,4218.461435,4219.487076,4214.871692,4207.179384,4194.358872,4211.794769,4218.974256
7,0,4215.897333,4219.487076,4202.564,4222.563999,4204.615282,4213.33323,4216.410153,4215.384512,4218.461435,4205.640923,4197.948615,4189.230667,4203.07682,4209.743487
8,0,4209.230666,4214.358871,4201.025538,4219.487076,4239.487076,4214.871692,4212.82041,4213.846051,4215.384512,4189.230667,4197.948615,4194.358872,4206.153743,4208.717846
9,0,4221.538358,4214.358871,4212.307589,4228.717845,4235.897332,4215.384512,4216.922974,4215.897333,4217.435794,4200.512718,4209.743487,4207.179384,4217.948615,4217.948615
10,0,4229.230666,4218.461435,4215.897333,4231.794768,4219.999897,4218.461435,4219.487076,4216.922974,4221.025538,4218.461435,4221.538358,4211.794769,4219.487076,4224.615281
11,0,4219.999897,4217.435794,4211.794769,4227.692204,4231.794768,4221.025538,4216.922974,4216.410153,4223.58964,4212.82041,4217.435794,4203.589641,4211.794769,4217.435794
12,0,4218.974256,4215.897333,4213.846051,4230.256307,4232.307589,4218.461435,4216.922974,4217.948615,4228.717845,4215.897333,4208.205025,4200.512718,4211.281948,4213.33323
13,0,4228.205025,4215.897333,4218.974256,4232.820409,4208.205025,4215.384512,4217.435794,4217.948615,4230.769127,4231.281948,4210.256307,4206.666564,4215.384512,4215.897333
14,0,4229.230666,4219.487076,4217.948615,4232.307589,4218.974256,4221.538358,4219.487076,4223.07682,4229.743486,4229.743486,4218.974256,4209.743487,4216.922974,4217.435794
15,0,4225.128102,4220.512717,4214.871692,4230.256307,4262.051178,4228.717845,4221.538358,4227.692204,4232.307589,4213.846051,4224.102461,4212.82041,4216.922974,4217.948615
16,0,4228.205025,4217.435794,4215.384512,4228.717845,4255.384511,4225.640922,4219.999897,4220.512717,4231.281948,4212.307589,4222.051179,4217.948615,4218.974256,4221.538358
17,0,4229.743486,4217.948615,4215.897333,4230.769127,4208.717846,4218.461435,4216.922974,4214.358871,4221.538358,4227.692204,4216.922974,4217.948615,4218.461435,4223.07682
18,0,4228.717845,4216.922974,4214.358871,4229.230666,4216.922974,4216.922974,4215.897333,4216.410153,4218.461435,4231.794768,4215.897333,4216.922974,4216.410153,4221.025538
19,0,4233.84605,4218.974256,4217.435794,4228.205025,4269.743485,4224.102461,4217.948615,4217.435794,4227.179384,4226.666563,4214.871692,4218.974256,4218.461435,4224.102461
20,0,4235.384512,4224.615281,4218.461435,4231.281948,4248.717845,4224.615281,4218.461435,4216.922974,4229.743486,4222.563999,4209.230666,4221.025538,4214.358871,4223.58964
21,0,4235.897332,4224.615281,4217.435794,4233.33323,4203.589641,4219.487076,4216.922974,4217.948615,4227.692204,4230.769127,4210.769128,4229.230666,4217.435794,4223.58964
22,0,4237.948614,4218.461435,4219.487076,4231.281948,4239.487076,4224.102461,4218.461435,4217.435794,4230.769127,4237.948614,4222.051179,4237.948614,4228.717845,4229.743486
23,0,4238.461435,4215.384512,4223.07682,4229.230666,4266.666562,4230.256307,4217.948615,4220.512717,4231.281948,4218.974256,4229.743486,4238.974255,4229.743486,4228.717845
24,0,4230.256307,4216.922974,4217.948615,4226.153743,4245.128101,4227.692204,4216.410153,4220.512717,4228.205025,4203.589641,4228.205025,4236.922973,4222.563999,4222.051179
25,0,4221.538358,4215.384512,4209.230666,4221.538358,4237.435794,4223.58964,4222.051179,4217.435794,4229.743486,4232.820409,4218.461435,4236.410153,4222.563999,4223.07682
26,0,4225.128102,4212.82041,4211.281948,4223.07682,4223.58964,4226.666563,4231.281948,4223.58964,4233.33323,4255.897332,4216.922974,4237.948614,4226.666563,4227.179384
27,0,4228.205025,4211.281948,4217.435794,4228.205025,4191.794769,4228.717845,4234.358871,4234.358871,4235.384512,4240.512717,4224.615281,4241.025537,4224.615281,4224.615281
28,0,4223.07682,4212.307589,4216.922974,4228.717845,4224.102461,4229.230666,4231.794768,4232.307589,4233.84605,4230.256307,4223.58964,4237.948614,4224.102461,4219.999897
29,0,4219.487076,4215.384512,4214.871692,4225.640922,4274.87169,4230.256307,4230.256307,4221.538358,4226.666563,4218.461435,4218.974256,4232.307589,4222.563999,4217.435794
30,0,4222.051179,4214.871692,4217.435794,4227.179384,4272.307588,4229.743486,4227.179384,4216.410153,4224.615281,4214.358871,4216.922974,4233.84605,4218.974256,4214.871692
31,0,4227.692204,4216.410153,4225.128102,4230.256307,4261.538357,4231.281948,4225.128102,4217.948615,4230.769127,4233.33323,4215.897333,4236.410153,4222.051179,4219.487076
32,0,4234.871691,4220.512717,4233.33323,4231.794768,4232.820409,4231.281948,4229.743486,4221.025538,4227.179384,4227.692204,4222.051179,4237.948614,4228.717845,4227.692204
33,0,4229.743486,4217.435794,4228.205025,4231.794768,4221.538358,4230.256307,4226.153743,4217.948615,4216.922974,4212.82041,4222.051179,4239.487076,4226.153743,4226.153743
34,0,4220.512717,4213.846051,4216.410153,4231.281948,4261.025537,4229.230666,4218.461435,4212.307589,4217.435794,4227.692204,4206.153743,4238.974255,4218.974256,4214.358871
35,0,4226.666563,4216.922974,4217.948615,4231.794768,4269.230665,4229.230666,4221.538358,4213.33323,4219.487076,4222.563999,4203.589641,4239.999896,4220.512717,4211.794769
36,0,4231.281948,4216.922974,4223.58964,4229.230666,4245.128101,4229.743486,4223.58964,4216.922974,4216.922974,4197.948615,4215.897333,4243.076819,4223.07682,4219.487076
37,0,4224.615281,4214.358871,4218.974256,4226.153743,4238.974255,4230.769127,4222.563999,4218.974256,4221.538358,4212.307589,4216.922974,4244.10246,4223.58964,4218.461435
38,0,4216.922974,4213.33323,4211.281948,4226.153743,4227.692204,4227.692204,4228.205025,4218.974256,4224.102461,4226.153743,4210.769128,4237.435794,4219.999897,4210.256307
39,0,4209.743487,4205.640923,4207.179384,4225.640922,4208.205025,4223.07682,4232.820409,4221.538358,4217.948615,4200.512718,4211.794769,4229.743486,4211.794769,4203.07682
40,0,4212.307589,4200.512718,4213.846051,4222.563999,4231.794768,4227.692204,4233.84605,4230.256307,4217.435794,4193.846051,4215.384512,4231.281948,4211.281948,4205.128102
41,0,4214.871692,4205.128102,4218.974256,4218.974256,4261.538357,4230.256307,4231.281948,4232.307589,4222.051179,4219.999897,4213.846051,4233.84605,4214.871692,4211.281948
42,0,4205.128102,4206.153743,4212.82041,4216.922974,4254.871691,4220.512717,4221.025538,4221.538358,4219.487076,4222.563999,4212.82041,4231.794768,4212.307589,4210.769128
43,0,4204.102461,4205.128102,4217.435794,4222.563999,4229.230666,4214.358871,4213.846051,4215.897333,4215.897333,4195.384513,4215.897333,4233.84605,4209.230666,4208.205025
44,0,4222.051179,4214.358871,4232.307589,4232.307589,4219.999897,4219.999897,4220.512717,4221.025538,4217.948615,4199.487077,4218.974256,4239.999896,4214.871692,4217.435794
45,0,4227.179384,4218.461435,4227.692204,4233.33323,4249.743486,4221.025538,4220.512717,4219.999897,4217.435794,4218.461435,4218.461435,4236.922973,4218.461435,4224.102461
46,0,4217.948615,4208.205025,4214.871692,4224.102461,4278.974254,4218.461435,4215.897333,4215.384512,4214.871692,4210.769128,4212.82041,4228.717845,4212.82041,4214.871692
47,0,4215.897333,4201.025538,4214.871692,4217.948615,4247.692204,4217.948615,4218.974256,4213.846051,4213.846051,4195.384513,4207.692205,4226.666563,4207.692205,4208.205025
48,0,4216.410153,4202.564,4219.487076,4221.025538,4207.179384,4216.410153,4221.025538,4214.358871,4214.871692,4192.82041,4210.769128,4226.666563,4210.256307,4212.307589
49,0,4217.948615,4208.205025,4224.102461,4228.717845,4227.179384,4217.435794,4222.051179,4219.487076,4216.922974,4202.051179,4215.897333,4233.33323,4215.384512,4214.871692
50,0,4221.538358,4211.794769,4230.256307,4231.794768,4234.358871,4219.487076,4224.102461,4223.07682,4218.461435,4215.897333,4215.897333,4238.461435,4215.897333,4214.871692
51,0,4222.051179,4215.384512,4230.256307,4229.230666,4207.179384,4219.487076,4224.102461,4223.07682,4220.512717,4223.07682,4216.922974,4238.974255,4214.871692,4220.512717
52,0,4219.999897,4213.33323,4223.07682,4224.615281,4239.487076,4218.974256,4219.487076,4223.07682,4219.999897,4214.358871,4219.999897,4237.948614,4217.435794,4226.666563
53,0,4216.922974,4205.640923,4218.974256,4218.974256,4274.87169,4219.487076,4217.948615,4223.07682,4218.974256,4201.538359,4218.461435,4236.922973,4214.871692,4222.051179
54,0,4217.435794,4203.07682,4222.051179,4219.487076,4232.820409,4218.461435,4223.07682,4223.58964,4222.051179,4205.128102,4216.922974,4235.897332,4212.82041,4215.384512
55,0,4219.999897,4205.640923,4222.563999,4224.615281,4226.153743,4218.974256,4226.666563,4223.58964,4223.58964,4218.461435,4219.999897,4236.410153,4214.358871,4219.999897
56,0,4217.948615,4203.07682,4214.871692,4219.487076,4277.948613,4221.025538,4221.538358,4219.487076,4217.948615,4213.33323,4216.922974,4234.358871,4213.33323,4223.58964
57,0,4218.461435,4204.615282,4216.410153,4217.435794,4247.692204,4218.974256,4215.897333,4215.897333,4215.384512,4193.333231,4214.871692,4233.33323,4212.307589,4223.07682
58,0,4224.102461,4211.794769,4225.640922,4225.640922,4199.487077,4216.922974,4221.538358,4219.487076,4226.153743,4203.07682,4222.563999,4236.410153,4215.384512,4226.666563
59,0,4225.640922,4206.666564,4225.640922,4223.58964,4238.974255,4219.487076,4228.717845,4221.538358,4234.358871,4219.999897,4223.07682,4235.897332,4216.410153,4225.128102
60,0,4219.999897,4204.102461,4223.07682,4217.948615,4274.35887,4220.512717,4225.128102,4218.461435,4227.179384,4207.179384,4214.871692,4234.871691,4214.871692,4219.487076
61,0,4221.025538,4213.846051,4228.717845,4224.615281,4257.435793,4217.948615,4224.102461,4222.563999,4219.487076,4201.538359,4222.051179,4242.051178,4217.435794,4227.692204
62,0,4228.205025,4217.948615,4232.820409,4229.743486,4231.794768,4218.974256,4232.307589,4231.794768,4226.666563,4220.512717,4235.384512,4246.666563,4218.974256,4236.410153
63,0,4228.205025,4215.384512,4231.794768,4227.692204,4229.230666,4222.563999,4235.384512,4231.794768,4232.820409,4219.999897,4231.794768,4244.615281,4218.461435,4232.307589
64,0,4218.461435,4209.743487,4224.102461,4221.025538,4261.538357,4219.487076,4222.051179,4219.487076,4223.07682,4202.564,4219.487076,4234.871691,4216.410153,4223.07682
65,0,4210.769128,4201.538359,4210.256307,4214.358871,4283.589639,4214.871692,4212.307589,4214.358871,4214.358871,4212.82041,4209.743487,4226.153743,4210.769128,4213.846051
66,0,4214.871692,4207.179384,4209.743487,4216.410153,4230.256307,4216.410153,4224.615281,4221.538358,4218.974256,4219.487076,4217.435794,4229.743486,4215.384512,4211.281948
67,0,4221.025538,4215.384512,4217.435794,4220.512717,4198.974256,4219.487076,4232.307589,4224.102461,4222.051179,4201.025538,4231.281948,4232.307589,4218.974256,4214.871692
68,0,4216.922974,4207.692205,4209.230666,4215.384512,4268.717844,4218.974256,4221.025538,4217.948615,4218.974256,4203.589641,4212.82041,4224.615281,4207.179384,4212.307589
69,0,4213.846051,4203.07682,4200.512718,4213.33323,4291.281946,4217.435794,4213.846051,4213.846051,4218.461435,4223.58964,4194.358872,4219.999897,4205.128102,4206.153743
70,0,4216.410153,4207.179384,4210.256307,4216.410153,4232.307589,4217.435794,4217.948615,4215.897333,4218.974256,4214.871692,4210.256307,4225.128102,4216.410153,4207.692205
71,0,4216.922974,4204.615282,4213.846051,4216.410153,4214.871692,4217.948615,4218.461435,4216.922974,4217.948615,4198.461436,4220.512717,4226.666563,4215.384512,4212.307589
72,0,4216.410153,4201.025538,4207.179384,4216.922974,4243.076819,4219.999897,4220.512717,4217.948615,4219.999897,4203.07682,4210.256307,4223.58964,4211.794769,4215.384512
73,0,4216.410153,4206.666564,4210.769128,4216.922974,4252.307588,4217.948615,4221.025538,4216.922974,4218.974256,4203.07682,4209.743487,4224.102461,4215.897333,4215.384512
74,0,4221.025538,4216.922974,4219.487076,4219.487076,4236.410153,4216.410153,4221.025538,4214.871692,4216.410153,4204.615282,4221.025538,4232.820409,4217.948615,4215.897333
75,0,4224.615281,4215.384512,4218.974256,4219.999897,4244.10246,4220.512717,4225.640922,4216.410153,4217.948615,4216.410153,4222.563999,4234.871691,4216.922974,4219.487076
76,0,4220.512717,4203.589641,4217.435794,4215.897333,4255.897332,4218.974256,4224.102461,4216.410153,4217.435794,4217.948615,4208.205025,4225.640922,4211.794769,4218.974256
77,0,4213.33323,4204.102461,4217.948615,4218.461435,4249.743486,4215.384512,4216.922974,4213.33323,4216.410153,4216.922974,4202.051179,4221.025538,4208.205025,4213.33323
78,0,4212.307589,4210.769128,4209.230666,4220.512717,4242.051178,4221.025538,4216.922974,4212.307589,4218.461435,4210.256307,4214.358871,4224.102461,4212.82041,4214.871692
79,0,4214.358871,4208.717846,4205.640923,4215.897333,4241.025537,4230.256307,4227.179384,4216.922974,4220.512717,4197.435795,4222.563999,4224.102461,4217.948615,4216.410153
80,0,4215.897333,4210.256307,4211.281948,4216.922974,4243.58964,4231.281948,4232.307589,4219.487076,4219.487076,4210.256307,4214.358871,4221.538358,4215.897333,4211.794769
81,0,4214.871692,4216.922974,4213.33323,4221.538358,4229.230666,4223.07682,4222.051179,4217.435794,4218.461435,4235.384512,4209.230666,4219.999897,4214.358871,4207.692205
82,0,4215.897333,4215.384512,4212.82041,4218.461435,4224.615281,4217.948615,4215.897333,4216.410153,4222.563999,4235.897332,4218.974256,4222.563999,4215.897333,4214.358871
83,0,4222.563999,4211.794769,4216.410153,4215.384512,4254.871691,4223.58964,4226.153743,4219.487076,4230.769127,4227.179384,4232.307589,4226.666563,4218.461435,4221.025538
84,0,4229.230666,4213.33323,4217.948615,4218.974256,4276.410152,4229.230666,4229.743486,4219.487076,4232.307589,4224.615281,4231.281948,4227.692204,4218.974256,4220.512717
85,0,4229.743486,4215.384512,4216.410153,4221.538358,4250.769127,4224.102461,4219.999897,4219.487076,4229.230666,4225.640922,4221.025538,4228.717845,4217.435794,4220.512717
86,0,4230.769127,4217.435794,4223.07682,4218.461435,4214.358871,4218.461435,4222.563999,4226.153743,4229.743486,4234.871691,4223.07682,4232.820409,4217.435794,4225.128102
87,0,4232.307589,4215.384512,4231.281948,4216.410153,4215.897333,4219.487076,4229.230666,4226.153743,4230.256307,4232.307589,4231.794768,4235.384512,4221.025538,4229.743486
88,0,4235.384512,4216.410153,4233.33323,4225.128102,4228.717845,4224.615281,4230.769127,4225.128102,4228.205025,4221.025538,4232.820409,4237.948614,4226.666563,4229.230666
89,0,4238.974255,4219.487076,4234.358871,4229.230666,4237.948614,4227.692204,4232.307589,4229.230666,4229.743486,4231.281948,4231.281948,4237.948614,4226.153743,4228.717845
90,0,4231.281948,4215.897333,4228.717845,4218.461435,4234.358871,4223.58964,4230.769127,4225.128102,4230.769127,4242.051178,4228.205025,4231.794768,4216.922974,4224.102461
91,0,4224.615281,4212.82041,4218.974256,4214.871692,4222.563999,4218.974256,4228.205025,4218.461435,4230.769127,4230.256307,4233.33323,4231.281948,4217.435794,4222.563999
92,0,4224.615281,4212.82041,4214.358871,4221.538358,4232.820409,4215.897333,4228.717845,4220.512717,4231.281948,4217.948615,4237.435794,4232.820409,4222.563999,4225.640922
93,0,4223.58964,4213.846051,4216.410153,4221.025538,4259.999896,4221.538358,4228.205025,4223.07682,4231.281948,4228.205025,4227.179384,4227.179384,4219.999897,4226.153743
94,0,4221.025538,4215.384512,4215.897333,4214.871692,4260.512716,4228.717845,4229.743486,4221.538358,4230.769127,4240.512717,4220.512717,4224.615281,4216.410153,4222.563999
95,0,4219.999897,4216.922974,4214.358871,4218.974256,4215.897333,4223.07682,4231.794768,4219.999897,4229.230666,4217.948615,4227.692204,4226.153743,4219.487076,4219.999897
96,0,4220.512717,4215.897333,4217.948615,4225.640922,4198.974256,4219.487076,4229.230666,4218.461435,4227.179384,4203.07682,4229.743486,4226.666563,4221.025538,4221.538358
97,0,4229.230666,4215.384512,4224.102461,4227.179384,4236.922973,4228.717845,4233.33323,4224.615281,4229.743486,4231.794768,4229.743486,4230.769127,4221.025538,4225.640922
98,0,4239.999896,4219.487076,4229.743486,4227.179384,4257.435793,4233.33323,4239.487076,4231.281948,4233.84605,4254.871691,4238.974255,4235.384512,4224.102461,4232.307589
99,0,4238.461435,4221.025538,4231.281948,4224.615281,4244.615281,4229.230666,4235.384512,4229.230666,4234.871691,4245.128101,4239.487076,4233.84605,4225.128102,4233.33323
100,0,4237.435794,4216.922974,4229.230666,4223.58964,4229.743486,4229.743486,4236.410153,4230.769127,4235.897332,4248.717845,4231.794768,4233.84605,4226.666563,4229.743486
101,0,4240.512717,4217.948615,4230.256307,4231.794768,4229.743486,4232.307589,4244.10246,4233.84605,4236.922973,4252.820409,4238.974255,4237.435794,4230.256307,4233.33323
102,0,4235.897332,4221.538358,4232.820409,4233.84605,4236.410153,4230.256307,4239.999896,4224.615281,4229.230666,4224.102461,4242.563999,4235.897332,4225.640922,4238.461435
103,0,4228.205025,4218.461435,4226.153743,4220.512717,4239.999896,4222.563999,4230.769127,4215.897333,4222.051179,4213.33323,4227.692204,4230.256307,4215.384512,4232.820409
104,0,4224.615281,4213.846051,4217.948615,4213.846051,4231.794768,4217.435794,4231.281948,4216.410153,4224.102461,4229.230666,4222.051179,4228.717845,4211.794769,4223.07682
105,0,4229.743486,4214.358871,4225.640922,4223.58964,4221.538358,4224.102461,4233.33323,4217.435794,4229.230666,4232.307589,4232.307589,4222.051179,4215.897333,4225.640922
106,0,4232.820409,4215.897333,4232.307589,4230.769127,4210.769128,4227.692204,4231.794768,4221.538358,4230.769127,4229.743486,4235.384512,4201.025538,4215.897333,4230.769127
107,0,4231.794768,4216.410153,4226.153743,4226.666563,4227.179384,4227.179384,4233.84605,4229.230666,4231.281948,4232.820409,4231.794768,4182.564,4214.358871,4227.692204
108,0,4229.230666,4217.435794,4223.58964,4225.128102,4272.820408,4227.692204,4235.384512,4228.717845,4231.281948,4235.384512,4231.281948,4184.615282,4215.384512,4225.128102
109,0,4230.769127,4217.948615,4227.179384,4227.692204,4253.84605,4221.025538,4229.743486,4218.461435,4223.58964,4231.281948,4230.769127,4189.230667,4216.410153,4224.615281
110,0,4233.84605,4219.487076,4231.281948,4227.692204,4206.153743,4217.435794,4227.692204,4215.897333,4218.974256,4217.435794,4229.230666,4188.717846,4215.897333,4224.102461
111,0,4231.794768,4218.461435,4229.230666,4222.051179,4210.256307,4219.999897,4230.769127,4217.435794,4218.461435,4204.615282,4227.179384,4187.692205,4212.82041,4222.051179
112,0,4233.33323,4217.435794,4224.102461,4224.102461,4220.512717,4218.461435,4228.205025,4213.33323,4217.435794,4217.948615,4227.179384,4187.692205,4210.769128,4222.563999
113,0,4239.487076,4218.974256,4224.615281,4229.230666,4226.666563,4218.974256,4225.128102,4218.974256,4224.615281,4237.435794,4229.230666,4188.205026,4212.307589,4223.58964
114,0,4238.461435,4217.435794,4229.743486,4228.717845,4253.333229,4229.230666,4229.743486,4229.230666,4231.281948,4234.871691,4228.205025,4190.769128,4214.358871,4223.07682
115,0,4231.281948,4213.33323,4226.666563,4226.153743,4263.589639,4231.794768,4234.871691,4224.615281,4224.615281,4224.615281,4223.07682,4191.281949,4214.358871,4221.025538
116,0,4232.820409,4213.846051,4220.512717,4220.512717,4231.794768,4221.025538,4228.717845,4214.871692,4217.948615,4219.487076,4219.487076,4189.230667,4214.871692,4216.922974
117,0,4233.84605,4214.358871,4221.025538,4220.512717,4216.410153,4215.897333,4217.948615,4215.384512,4218.461435,4214.358871,4219.487076,4188.717846,4216.410153,4219.487076
118,0,4232.820409,4217.948615,4225.128102,4226.153743,4213.33323,4217.435794,4220.512717,4217.948615,4216.922974,4209.743487,4225.128102,4191.281949,4216.922974,4228.205025
119,0,4240.512717,4225.640922,4230.256307,4228.717845,4227.692204,4223.07682,4231.794768,4217.435794,4217.435794,4221.025538,4235.384512,4194.871692,4218.461435,4230.769127
120,0,4243.58964,4225.640922,4229.743486,4227.179384,4259.487075,4227.692204,4231.794768,4218.974256,4222.563999,4236.410153,4232.307589,4197.435795,4217.948615,4224.615281
121,0,4232.820409,4218.974256,4223.58964,4228.205025,4229.743486,4222.051179,4221.538358,4221.538358,4220.512717,4235.897332,4215.897333,4196.410154,4213.846051,4219.999897
122,0,4231.281948,4216.410153,4225.640922,4228.717845,4200.512718,4218.974256,4225.640922,4223.58964,4218.461435,4228.205025,4215.897333,4195.897333,4213.846051,4222.563999
123,0,4241.538358,4222.051179,4231.794768,4226.153743,4245.640922,4227.179384,4233.84605,4222.563999,4220.512717,4223.07682,4232.820409,4201.025538,4217.948615,4227.692204
124,0,4241.025537,4225.128102,4227.692204,4228.717845,4279.999895,4233.33323,4228.717845,4223.07682,4219.487076,4216.922974,4236.410153,4209.743487,4218.461435,4230.256307
125,0,4233.84605,4222.051179,4221.538358,4231.281948,4246.153742,4229.743486,4223.58964,4229.230666,4217.948615,4216.410153,4232.307589,4214.871692,4216.410153,4230.769127
126,0,4236.410153,4221.025538,4224.615281,4229.743486,4212.82041,4225.128102,4227.692204,4228.717845,4219.487076,4224.615281,4230.769127,4214.358871,4217.435794,4233.33323
127,0,4245.640922,4228.205025,4231.794768,4231.794768,4226.153743,4227.692204,4230.256307,4220.512717,4219.999897,4232.820409,4228.717845,4211.794769,4219.487076,4235.384512
128,0,4244.10246,4231.281948,4230.256307,4231.281948,4235.897332,4230.256307,4228.717845,4218.461435,4218.461435,4234.358871,4229.230666,4213.846051,4217.948615,4236.410153
0,0,4236.922973,4224.102461,4225.128102,4225.640922,4222.563999,4225.640922,4229.743486,4221.025538,4218.974256,4233.33323,4226.153743,4217.948615,4217.948615,4236.410153
1,0,4234.358871,4221.538358,4223.07682,4226.153743,4225.640922,4219.487076,4222.563999,4219.999897,4219.999897,4232.307589,4222.051179,4219.487076,4222.051179,4238.461435
2,0,4237.948614,4223.07682,4223.07682,4230.256307,4238.461435,4217.948615,4214.358871,4221.025538,4218.974256,4222.563999,4231.794768,4226.666563,4222.563999,4244.615281
3,0,4238.461435,4219.487076,4224.102461,4226.153743,4233.33323,4223.07682,4224.102461,4230.256307,4219.999897,4216.922974,4238.461435,4230.769127,4218.461435,4247.692204
4,0,4233.33323,4217.948615,4221.025538,4218.461435,4236.410153,4228.205025,4230.256307,4232.307589,4219.999897,4222.563999,4231.281948,4225.640922,4217.435794,4244.10246
5,0,4235.897332,4218.974256,4216.922974,4221.538358,4230.256307,4223.07682,4221.025538,4223.07682,4217.948615,4210.256307,4227.692204,4223.07682,4217.948615,4239.999896
6,0,4242.051178,4217.435794,4216.922974,4227.692204,4193.846051,4214.871692,4215.897333,4217.435794,4214.358871,4194.871692,4224.615281,4225.128102,4214.871692,4234.871691
7,0,4248.205024,4214.358871,4216.922974,4226.153743,4218.461435,4221.538358,4219.999897,4218.461435,4214.358871,4209.230666,4215.384512,4219.999897,4211.281948,4229.743486
8,0,4262.051178,4217.435794,4221.538358,4227.179384,4271.281947,4231.281948,4225.128102,4223.58964,4218.974256,4225.128102,4220.512717,4218.461435,4213.846051,4235.384512
9,0,4270.256306,4221.025538,4224.102461,4230.256307,4249.743486,4226.666563,4228.205025,4229.230666,4221.538358,4216.922974,4233.84605,4225.640922,4216.922974,4243.076819
10,0,4266.666562,4219.999897,4221.025538,4226.153743,4211.794769,4225.128102,4231.281948,4230.256307,4218.974256,4214.358871,4229.743486,4225.128102,4216.410153,4245.640922
11,0,4261.538357,4215.897333,4223.07682,4223.58964,4221.025538,4229.743486,4233.33323,4229.743486,4216.410153,4215.384512,4217.948615,4217.435794,4216.922974,4244.615281
12,0,4257.435793,4213.33323,4226.666563,4226.666563,4246.666563,4232.307589,4231.794768,4228.717845,4216.410153,4207.179384,4213.33323,4213.33323,4212.82041,4238.974255
13,0,4249.743486,4215.384512,4220.512717,4229.230666,4233.33323,4230.256307,4228.205025,4224.615281,4214.871692,4207.179384,4211.281948,4213.33323,4205.128102,4235.897332
14,0,4248.205024,4214.358871,4214.358871,4229.743486,4192.30759,4224.615281,4224.102461,4221.538358,4211.281948,4196.410154,4207.692205,4211.281948,4202.051179,4238.974255
15,0,4246.153742,4207.179384,4216.410153,4223.07682,4226.666563,4224.615281,4226.666563,4226.153743,4211.794769,4176.410154,4203.07682,4209.230666,4205.640923,4236.410153
16,0,4240.512717,4202.051179,4216.410153,4215.384512,4295.38451,4230.769127,4233.33323,4229.743486,4215.384512,4195.384513,4199.999897,4208.205025,4207.692205,4229.743486
17,0,4239.487076,4202.564,4213.846051,4216.410153,4257.948614,4232.307589,4231.794768,4232.307589,4218.974256,4224.102461,4206.666564,4208.205025,4208.717846,4231.794768
18,0,4243.076819,4203.07682,4213.846051,4216.922974,4189.743487,4228.205025,4222.051179,4231.794768,4218.461435,4207.179384,4215.897333,4210.769128,4208.205025,4241.025537
19,0,4252.820409,4209.743487,4215.384512,4216.922974,4216.410153,4228.205025,4223.07682,4229.230666,4219.487076,4190.769128,4217.948615,4218.461435,4213.846051,4248.717845
20,0,4261.538357,4219.487076,4219.487076,4225.128102,4268.205024,4232.307589,4232.307589,4232.820409,4225.640922,4214.358871,4224.102461,4228.205025,4223.07682,4253.84605
21,0,4263.589639,4218.461435,4222.563999,4227.692204,4265.640921,4231.794768,4227.179384,4234.871691,4224.102461,4225.128102,4230.256307,4229.230666,4224.102461,4260.512716
22,0,4272.820408,4218.461435,4227.179384,4225.128102,4205.640923,4225.128102,4215.897333,4228.717845,4216.922974,4215.384512,4229.230666,4226.666563,4224.615281,4267.692203
23,0,4289.230664,4234.358871,4232.307589,4232.307589,4197.948615,4224.102461,4215.384512,4224.615281,4215.897333,4211.281948,4226.153743,4231.281948,4233.84605,4278.974254
24,0,4298.974254,4245.640922,4228.717845,4233.84605,4276.922972,4230.256307,4216.410153,4225.640922,4218.974256,4209.743487,4229.743486,4231.794768,4238.461435,4294.358869
25,0,4314.871689,4247.179383,4229.230666,4230.769127,4272.307588,4225.640922,4215.897333,4225.128102,4217.948615,4216.922974,4242.051178,4232.307589,4244.10246,4314.358869
26,0,4345.640919,4261.025537,4243.076819,4243.076819,4206.153743,4220.512717,4217.435794,4225.128102,4216.410153,4214.871692,4251.794768,4245.128101,4251.281947,4342.051176
27,0,4370.769124,4278.974254,4253.333229,4256.922973,4238.974255,4225.640922,4219.999897,4226.666563,4213.33323,4201.025538,4252.307588,4256.410152,4255.897332,4368.205021
28,0,4381.538354,4281.538357,4250.256306,4251.794768,4279.487075,4223.58964,4218.461435,4220.512717,4205.128102,4205.640923,4247.179383,4249.230665,4256.922973,4373.333226
29,0,4380.512713,4275.384511,4246.666563,4245.128101,4216.922974,4215.897333,4216.922974,4214.358871,4197.948615,4222.051179,4247.692204,4243.58964,4254.871691,4362.051175
30,0,4369.743483,4272.307588,4249.743486,4249.230665,4193.846051,4221.538358,4219.487076,4225.128102,4202.051179,4218.974256,4252.307588,4247.692204,4250.769127,4354.871688
31,0,4352.307586,4264.10246,4243.076819,4242.051178,4254.35887,4225.640922,4221.025538,4232.307589,4211.281948,4209.230666,4244.10246,4239.999896,4246.153742,4343.589637
32,0,4329.743484,4248.205024,4232.820409,4228.717845,4249.230665,4215.384512,4215.897333,4222.563999,4206.666564,4204.615282,4230.769127,4224.102461,4236.410153,4318.461433
33,0,4313.333228,4239.487076,4235.897332,4234.358871,4207.692205,4213.846051,4217.948615,4222.051179,4202.564,4199.999897,4235.897332,4225.128102,4230.769127,4304.102459
34,0,4306.666561,4245.640922,4242.051178,4240.512717,4224.102461,4220.512717,4226.153743,4233.84605,4212.307589,4206.666564,4243.076819,4233.33323,4232.820409,4299.487074
35,0,4296.922972,4246.153742,4238.461435,4233.33323,4230.769127,4219.999897,4221.025538,4234.358871,4217.435794,4221.538358,4231.281948,4230.769127,4233.33323,4284.102459
36,0,4287.179382,4236.410153,4236.922973,4230.256307,4222.563999,4224.102461,4219.487076,4230.256307,4215.384512,4232.820409,4231.794768,4231.281948,4230.769127,4273.846049
37,0,4283.589639,4232.307589,4239.487076,4233.84605,4255.897332,4232.307589,4229.230666,4232.307589,4217.948615,4231.281948,4248.205024,4239.487076,4231.794768,4277.435793
38,0,4275.384511,4233.84605,4236.922973,4233.33323,4259.487075,4228.205025,4227.179384,4232.307589,4217.948615,4215.897333,4245.128101,4239.487076,4232.820409,4274.35887
39,0,4263.076819,4230.256307,4232.307589,4230.769127,4206.666564,4221.538358,4218.974256,4232.307589,4215.897333,4213.33323,4232.820409,4231.794768,4228.205025,4261.025537
40,0,4251.281947,4222.563999,4225.128102,4224.615281,4220.512717,4221.025538,4217.948615,4226.153743,4217.948615,4225.640922,4225.128102,4224.102461,4218.974256,4248.205024
41,0,4243.58964,4214.358871,4219.487076,4217.948615,4259.999896,4218.461435,4218.974256,4217.435794,4215.384512,4216.410153,4224.102461,4222.563999,4215.384512,4240.512717
42,0,4244.10246,4215.384512,4221.538358,4222.051179,4214.358871,4223.58964,4226.153743,4222.563999,4213.33323,4198.974256,4231.794768,4226.153743,4221.025538,4241.538358
43,0,4239.487076,4214.871692,4217.948615,4223.07682,4186.666564,4228.205025,4230.256307,4228.717845,4215.384512,4206.153743,4224.615281,4221.025538,4217.948615,4237.948614
44,0,4229.230666,4204.615282,4209.743487,4216.922974,4237.948614,4221.025538,4221.025538,4225.128102,4214.871692,4221.025538,4212.307589,4217.435794,4212.307589,4231.794768
45,0,4228.205025,4205.128102,4209.230666,4214.871692,4273.333229,4223.07682,4221.538358,4226.666563,4215.897333,4216.410153,4221.538358,4223.07682,4216.410153,4232.820409
46,0,4232.820409,4215.384512,4215.897333,4218.974256,4238.461435,4228.717845,4231.281948,4232.820409,4215.384512,4209.743487,4225.640922,4222.563999,4216.922974,4229.230666
47,0,4234.871691,4216.410153,4225.128102,4226.153743,4190.769128,4223.58964,4230.256307,4233.33323,4217.948615,4226.666563,4214.871692,4220.512717,4215.384512,4224.615281
48,0,4238.461435,4216.922974,4235.897332,4231.794768,4201.538359,4225.128102,4229.230666,4233.84605,4227.179384,4236.410153,4222.051179,4225.128102,4217.435794,4231.794768
49,0,4238.974255,4217.948615,4231.794768,4226.153743,4249.230665,4232.820409,4232.307589,4234.871691,4226.666563,4223.58964,4234.358871,4226.666563,4216.922974,4236.410153
50,0,4231.281948,4216.410153,4219.487076,4216.922974,4268.717844,4230.769127,4231.281948,4233.84605,4219.999897,4217.948615,4229.743486,4224.102461,4215.384512,4230.256307
51,0,4227.179384,4213.846051,4216.922974,4217.435794,4246.153742,4229.230666,4230.769127,4236.922973,4224.615281,4224.102461,4227.179384,4222.051179,4215.897333,4225.640922
52,0,4227.692204,4212.82041,4218.974256,4221.538358,4233.84605,4228.717845,4228.717845,4237.435794,4230.769127,4226.666563,4233.33323,4221.538358,4214.358871,4223.58964
53,0,4223.58964,4213.846051,4215.897333,4222.051179,4233.84605,4224.102461,4221.025538,4230.769127,4223.07682,4226.666563,4230.769127,4218.461435,4214.871692,4223.07682
54,0,4217.948615,4212.82041,4214.358871,4222.051179,4218.461435,4225.128102,4214.358871,4227.692204,4216.410153,4232.820409,4223.58964,4215.897333,4216.922974,4223.58964
55,0,4217.948615,4205.128102,4216.410153,4219.487076,4220.512717,4228.205025,4216.410153,4230.769127,4223.07682,4228.205025,4226.666563,4214.871692,4213.846051,4220.512717
56,0,4217.435794,4205.128102,4216.922974,4217.435794,4236.410153,4230.256307,4226.666563,4232.820409,4230.769127,4213.33323,4230.256307,4217.435794,4212.307589,4213.846051
57,0,4216.410153,4215.384512,4216.410153,4219.999897,4238.461435,4231.794768,4234.871691,4233.84605,4232.307589,4217.948615,4222.051179,4218.461435,4215.384512,4214.871692
