title:C                                                                               , recorded:01.07.20 12.48.44, sampling:128, subject:C                                                                               , labels:COUNTER INTERPOLATED AF3 F7 F3 FC5 T7 P7 O1 O2 P8 T8 FC6 F4 F8 AF4, chan:37, units:emotiv,,,,,,,,,
16,0,4228.205025,4141.53836,4210.256307,4182.564,4256.410152,4231.794768,4239.999896,4247.179383,4267.179383,3602.051194,4138.974258,4304.102459,4200.512718,4317.948612
17,0,4217.948615,4142.051181,4201.538359,4181.025539,4281.538357,4230.256307,4221.025538,4245.128101,4256.410152,3564.615297,4160.512719,4310.256305,4200.512718,4310.769125
18,0,4219.999897,4167.179385,4204.615282,4182.564,4295.897331,4227.692204,4218.461435,4247.692204,4256.410152,3587.179399,4159.999898,4308.205023,4204.615282,4318.461433
19,0,4231.794768,4178.974257,4218.461435,4186.153744,4249.743486,4228.205025,4237.948614,4250.769127,4271.281947,3623.076834,4147.692206,4305.64092,4206.153743,4328.717843
20,0,4223.58964,4161.025539,4208.717846,4183.589641,4290.769126,4233.33323,4233.33323,4246.666563,4278.461434,3592.820425,4145.640924,4303.076818,4202.051179,4317.435792
21,0,4214.358871,4156.410155,4197.948615,4182.564,4319.999894,4229.230666,4223.58964,4242.051178,4272.307588,3554.358887,4138.974258,4302.051177,4197.435795,4310.256305
22,0,4221.025538,4172.820411,4206.153743,4188.717846,4243.58964,4235.384512,4235.384512,4245.640922,4262.051178,3593.846066,4117.435797,4300.512715,4196.922974,4317.948612
23,0,4213.846051,4167.179385,4202.051179,4183.589641,4238.461435,4233.33323,4226.666563,4235.897332,4237.435794,3624.615296,4082.051182,4292.307587,4193.846051,4304.615279
24,0,4210.769128,4155.897334,4200.512718,4186.153744,4289.230664,4216.922974,4212.82041,4230.769127,4231.794768,3590.769143,4077.435798,4301.538356,4199.487077,4296.410151
25,0,4229.230666,4170.769129,4219.999897,4203.589641,4285.640921,4227.692204,4231.794768,4253.333229,4268.205024,3589.230681,4083.076823,4318.461433,4209.743487,4318.461433
26,0,4234.871691,4187.692205,4222.051179,4202.051179,4296.410151,4255.897332,4242.563999,4261.538357,4279.999895,3636.922988,4037.948619,4308.205023,4204.615282,4323.076817
27,0,4216.922974,4178.974257,4201.025538,4188.717846,4266.666562,4237.435794,4212.82041,4241.538358,4256.410152,3651.794782,3993.333236,4287.179382,4194.871692,4297.948613
28,0,4207.179384,4162.05118,4201.538359,4189.230667,4180.512718,4209.230666,4197.435795,4239.487076,4261.538357,3642.564013,3996.922979,4290.769126,4194.358872,4291.794767
29,0,4216.410153,4157.435796,4218.974256,4193.333231,4269.230665,4226.153743,4218.461435,4251.794768,4272.820408,3642.564013,4002.051184,4302.563997,4199.999897,4310.769125
30,0,4231.281948,4169.743488,4219.487076,4185.640923,4386.666559,4243.076819,4225.640922,4254.35887,4252.307588,3648.205039,3973.846057,4304.102459,4198.461436,4316.410151
31,0,4245.128101,4186.666564,4214.871692,4190.769128,4247.692204,4224.102461,4211.794769,4245.640922,4236.410153,3643.076834,3944.615288,4307.179382,4196.922974,4313.333228
32,0,4253.84605,4193.333231,4227.692204,4207.179384,4135.897335,4206.666564,4212.82041,4238.974255,4253.333229,3621.025552,3951.794775,4310.769125,4207.179384,4332.307586
33,0,4254.871691,4185.640923,4247.179383,4204.102461,4281.025536,4226.666563,4236.410153,4253.333229,4275.384511,3635.384526,3970.769134,4317.948612,4219.487076,4361.538355
34,0,4269.743485,4186.153744,4253.84605,4199.999897,4366.66656,4249.743486,4241.538358,4268.717844,4271.281947,3690.769141,3974.358877,4332.820407,4221.025538,4367.692201
35,0,4286.666562,4192.30759,4243.58964,4210.769128,4234.358871,4232.307589,4220.512717,4252.820409,4249.743486,3708.205038,3970.256313,4283.589639,4211.794769,4351.794765
36,0,4288.717844,4190.769128,4240.512717,4214.871692,4169.743488,4212.82041,4215.897333,4241.025537,4235.384512,3683.589654,3995.897338,4186.153744,4216.410153,4351.281945
37,0,4282.563998,4186.153744,4247.692204,4209.230666,4228.205025,4224.615281,4229.743486,4253.84605,4243.076819,3674.358885,4019.487081,4152.820411,4219.487076,4356.92297
38,0,4264.10246,4184.102462,4239.487076,4204.102461,4242.563999,4222.051179,4222.051179,4248.205024,4266.153742,3690.769141,3988.717851,4170.256308,4204.102461,4337.948612
39,0,4246.666563,4181.538359,4228.717845,4197.948615,4247.692204,4205.640923,4208.205025,4231.794768,4264.61528,3725.128114,3967.17939,4176.410154,4204.102461,4323.076817
40,0,4253.333229,4179.999898,4242.563999,4201.538359,4271.794767,4219.487076,4224.615281,4240.512717,4239.487076,3736.410165,3994.358877,4187.692205,4218.461435,4336.922971
41,0,4265.640921,4186.666564,4253.333229,4212.307589,4289.230664,4243.076819,4236.922973,4252.820409,4251.281947,3695.897346,4013.846056,4205.640923,4221.025538,4345.128099
42,0,4250.769127,4186.666564,4241.025537,4208.717846,4265.640921,4233.33323,4218.461435,4246.153742,4271.794767,3705.128115,4006.153748,4202.564,4213.33323,4326.15374
43,0,4241.025537,4181.025539,4235.897332,4205.128102,4205.128102,4214.358871,4209.230666,4241.538358,4246.153742,3765.128113,3989.743492,4196.410154,4205.640923,4312.307587
44,0,4249.743486,4186.153744,4241.025537,4208.717846,4237.435794,4215.384512,4222.051179,4249.743486,4233.84605,3763.076831,3977.948621,4199.999897,4202.051179,4315.38451
45,0,4241.025537,4185.128103,4233.33323,4204.102461,4308.717843,4217.435794,4220.512717,4245.640922,4246.666563,3705.640935,3976.92298,4199.487077,4205.128102,4313.846048
46,0,4228.205025,4176.922975,4218.461435,4201.025538,4241.538358,4222.051179,4214.358871,4237.948614,4237.435794,3712.820422,3966.66657,4198.974256,4206.153743,4306.666561
47,0,4230.256307,4180.512718,4213.33323,4205.128102,4164.615283,4221.538358,4225.640922,4245.640922,4232.307589,3777.435805,3933.333237,4196.410154,4195.897333,4304.615279
48,0,4233.84605,4187.692205,4222.051179,4209.230666,4229.743486,4207.692205,4230.256307,4251.794768,4247.692204,3777.435805,3916.922981,4199.487077,4199.999897,4310.769125
49,0,4233.33323,4183.589641,4230.256307,4208.717846,4262.051178,4215.384512,4228.205025,4249.230665,4240.512717,3745.128114,3921.025545,4206.153743,4211.281948,4313.846048
50,0,4233.33323,4182.564,4225.640922,4206.666564,4230.256307,4236.410153,4231.281948,4246.666563,4231.281948,3802.051189,3910.769135,4205.128102,4208.717846,4311.281946
51,0,4227.692204,4182.564,4213.846051,4199.487077,4240.512717,4225.640922,4217.948615,4235.897332,4228.717845,3843.58965,3896.922982,4200.512718,4202.564,4308.717843
52,0,4232.307589,4186.666564,4219.999897,4205.128102,4201.538359,4210.769128,4211.281948,4229.230666,4215.897333,3762.564011,3901.538366,4209.743487,4203.07682,4313.333228
53,0,4242.051178,4193.333231,4226.153743,4212.82041,4210.769128,4215.384512,4223.58964,4238.461435,4228.717845,3734.871704,3888.717854,4213.846051,4203.589641,4310.256305
54,0,4236.922973,4198.461436,4222.051179,4209.743487,4332.307586,4219.487076,4225.128102,4239.999896,4252.820409,3814.358881,3869.230675,4204.102461,4201.025538,4297.948613
55,0,4230.256307,4198.461436,4222.051179,4205.640923,4306.153741,4229.230666,4221.538358,4230.769127,4245.640922,3820.512727,3877.948623,4206.153743,4202.051179,4293.333228
56,0,4228.717845,4192.30759,4220.512717,4204.102461,4209.230666,4228.717845,4225.128102,4230.769127,4221.025538,3798.974266,3891.281956,4212.82041,4200.512718,4290.256305
57,0,4227.692204,4192.30759,4219.999897,4205.128102,4259.999896,4219.487076,4227.692204,4235.897332,4217.435794,3847.179393,3903.589648,4215.384512,4199.999897,4290.256305
58,0,4232.307589,4195.897333,4227.692204,4208.205025,4248.717845,4214.871692,4226.666563,4234.871691,4237.435794,3826.666573,3922.564007,4222.051179,4205.128102,4292.820408
59,0,4232.307589,4192.30759,4227.179384,4206.666564,4171.281949,4203.589641,4216.922974,4234.358871,4251.281947,3785.128113,3911.794776,4222.563999,4202.564,4287.179382
60,0,4221.538358,4185.640923,4217.435794,4201.025538,4270.769126,4217.435794,4213.846051,4233.33323,4244.10246,3859.487085,3887.179392,4214.871692,4201.025538,4285.1281
61,0,4225.640922,4191.794769,4216.410153,4201.025538,4326.666561,4249.743486,4230.256307,4230.256307,4228.205025,3838.461445,3912.820417,4223.58964,4204.615282,4290.256305
62,0,4234.358871,4198.461436,4218.974256,4203.589641,4218.461435,4227.179384,4228.717845,4229.230666,4222.051179,3774.358882,3932.307596,4231.281948,4200.512718,4283.589639
63,0,4224.102461,4197.948615,4216.410153,4201.025538,4187.179385,4194.358872,4217.948615,4229.743486,4221.538358,3867.179393,3905.12811,4224.615281,4197.948615,4273.333229
64,0,4213.33323,4198.461436,4221.538358,4201.025538,4214.871692,4218.974256,4230.769127,4235.384512,4235.897332,3909.743494,3905.64093,4229.230666,4201.538359,4280.512716
65,0,4199.999897,4184.615282,4215.384512,4196.922974,4257.948614,4228.717845,4225.128102,4232.307589,4235.897332,3815.897343,3918.974263,4229.230666,4190.769128,4270.769126
66,0,4191.281949,4186.666564,4209.743487,4198.461436,4237.948614,4209.230666,4207.692205,4226.666563,4229.230666,3818.461445,3917.948622,4225.128102,4183.589641,4257.435793
67,0,4201.538359,4206.666564,4224.102461,4205.640923,4164.615283,4219.999897,4221.538358,4236.410153,4252.820409,3895.38452,3930.769135,4238.974255,4199.999897,4274.35887
68,0,4202.051179,4201.025538,4225.128102,4200.512718,4247.692204,4222.051179,4228.717845,4238.974255,4246.666563,3884.102469,3948.717852,4243.076819,4206.153743,4278.974254
69,0,4191.281949,4186.666564,4215.384512,4198.461436,4343.076817,4206.666564,4215.897333,4228.717845,4217.948615,3885.12811,3953.333237,4232.307589,4197.948615,4263.589639
70,0,4195.897333,4199.999897,4221.025538,4199.487077,4248.205024,4219.999897,4220.512717,4225.640922,4220.512717,3908.205033,3946.66657,4234.871691,4196.922974,4263.076819
71,0,4219.999897,4220.512717,4234.871691,4205.128102,4177.435795,4238.974255,4235.897332,4231.794768,4232.820409,3880.512726,3958.974262,4247.692204,4198.974256,4278.974254
72,0,4233.84605,4222.563999,4235.897332,4216.410153,4249.230665,4239.999896,4237.948614,4237.948614,4252.820409,3887.179392,3984.615287,4253.84605,4205.640923,4284.61528
73,0,4208.717846,4206.153743,4219.999897,4207.179384,4287.692203,4232.820409,4224.615281,4232.820409,4266.153742,3910.256315,3967.692211,4241.538358,4202.051179,4266.666562
74,0,4184.615282,4185.640923,4203.589641,4190.256308,4272.307588,4212.82041,4207.692205,4214.358871,4222.051179,3888.717854,3946.15375,4232.307589,4188.717846,4251.281947
75,0,4199.487077,4196.410154,4212.307589,4199.999897,4223.07682,4203.589641,4212.82041,4216.922974,4192.30759,3885.640931,3981.538364,4249.743486,4195.384513,4266.153742
76,0,4155.384514,4215.897333,4231.794768,4211.794769,4191.794769,4225.640922,4234.358871,4242.563999,4251.794768,3947.179391,3989.230672,4262.563998,4202.564,4278.974254
77,0,4042.564004,4206.153743,4223.07682,4199.999897,4258.974255,4245.128101,4232.820409,4241.025537,4284.61528,3968.717852,3946.66657,4249.743486,4190.256308,4259.999896
78,0,3980.512723,4196.922974,4211.794769,4197.435795,4269.230665,4227.692204,4215.384512,4223.58964,4234.358871,3927.692212,3974.358877,4253.84605,4192.82041,4256.922973
79,0,3914.871699,4202.564,4219.999897,4203.589641,4228.717845,4211.794769,4214.358871,4227.179384,4209.743487,3927.179391,4011.281953,4271.281947,4207.179384,4268.717844
80,0,3787.692215,4196.922974,4217.948615,4202.564,4258.974255,4217.435794,4219.999897,4226.153743,4226.666563,3948.717852,3972.307595,4260.512716,4194.358872,4254.871691
81,0,3731.794781,4193.846051,4211.794769,4207.692205,4214.358871,4210.769128,4214.358871,4212.82041,4230.769127,3928.717853,3976.92298,4256.922973,4188.717846,4247.692204
82,0,3769.230677,4213.33323,4222.051179,4216.410153,4168.205026,4203.589641,4213.33323,4215.897333,4237.435794,3916.922981,4021.025543,4273.333229,4202.564,4263.589639
83,0,3782.05119,4219.487076,4230.769127,4215.384512,4279.999895,4229.230666,4228.717845,4233.33323,4242.051178,3952.820416,4010.769133,4276.410152,4197.435795,4266.153742
84,0,3768.205036,4196.922974,4221.538358,4203.07682,4310.769125,4244.615281,4231.281948,4232.820409,4222.051179,3960.512724,3995.384518,4266.153742,4182.05118,4250.769127
85,0,3771.79478,4188.205026,4210.769128,4198.461436,4218.461435,4214.871692,4214.358871,4218.461435,4216.410153,3958.461442,4009.743492,4261.025537,4187.179385,4245.128101
86,0,3783.589651,4212.82041,4213.846051,4215.384512,4210.256307,4205.640923,4215.384512,4221.538358,4248.205024,3991.281954,4017.435799,4265.640921,4202.051179,4246.666563
87,0,3788.717856,4225.640922,4215.897333,4223.58964,4213.33323,4229.230666,4228.717845,4238.974255,4258.461434,3999.487082,4018.974261,4268.205024,4198.461436,4237.435794
88,0,3772.3076,4207.692205,4202.564,4206.666564,4228.717845,4225.128102,4221.025538,4232.820409,4229.743486,3990.256313,4024.102466,4259.487075,4186.666564,4221.538358
89,0,3761.53837,4206.153743,4194.358872,4202.564,4272.307588,4213.846051,4210.769128,4217.435794,4228.205025,3987.69221,4032.820414,4253.84605,4192.30759,4211.281948
90,0,3775.897344,4217.948615,4204.102461,4216.922974,4244.615281,4233.84605,4226.153743,4224.615281,4246.153742,3980.512723,4041.025542,4263.076819,4201.025538,4215.897333
91,0,3779.999908,4211.794769,4205.128102,4209.743487,4254.35887,4239.999896,4232.307589,4235.384512,4242.563999,4019.487081,4032.307594,4264.61528,4192.82041,4217.948615
92,0,3774.358882,4207.692205,4195.897333,4196.410154,4290.769126,4216.922974,4217.948615,4229.743486,4240.512717,4064.102465,4030.256312,4255.384511,4189.743487,4210.769128
93,0,3787.692215,4218.461435,4206.666564,4209.743487,4212.82041,4219.487076,4219.999897,4228.205025,4244.10246,4010.256312,4060.512721,4264.10246,4205.128102,4214.871692
94,0,3804.615292,4216.410153,4217.435794,4217.948615,4180.512718,4231.794768,4229.230666,4233.33323,4236.922973,3990.256313,4068.205029,4271.794767,4206.153743,4224.615281
95,0,3804.102471,4210.769128,4210.769128,4207.179384,4258.974255,4218.461435,4220.512717,4232.307589,4237.948614,4046.153747,4056.922978,4264.10246,4190.769128,4221.538358
96,0,3807.692215,4225.640922,4211.281948,4211.281948,4265.640921,4217.948615,4219.487076,4228.717845,4249.743486,4031.794773,4073.846054,4265.640921,4190.769128,4217.435794
97,0,3824.102471,4222.563999,4220.512717,4222.051179,4217.948615,4236.410153,4233.33323,4235.384512,4251.281947,4053.846055,4091.281951,4273.846049,4199.999897,4224.102461
98,0,3821.538368,4196.922974,4214.358871,4211.794769,4222.563999,4237.948614,4231.794768,4236.410153,4248.205024,4103.589643,4090.769131,4269.230665,4194.358872,4218.461435
99,0,3806.666574,4201.538359,4201.025538,4205.128102,4238.974255,4216.410153,4217.435794,4219.999897,4233.33323,4025.640927,4086.153746,4256.922973,4179.999898,4201.025538
100,0,3811.794779,4220.512717,4205.640923,4212.307589,4225.128102,4207.179384,4216.922974,4216.922974,4206.153743,4003.076825,4082.051182,4256.410152,4181.025539,4195.897333
101,0,3826.153753,4210.769128,4215.384512,4207.179384,4213.33323,4215.897333,4221.538358,4233.84605,4219.999897,4083.076823,4094.871695,4263.589639,4190.256308,4203.07682
102,0,3831.794778,4199.487077,4215.897333,4202.051179,4229.743486,4222.051179,4221.025538,4236.410153,4261.538357,4067.179388,4114.358874,4264.10246,4189.230667,4209.743487
103,0,3839.487086,4216.410153,4216.410153,4214.871692,4237.435794,4221.538358,4226.666563,4229.743486,4266.666562,4049.743491,4124.102463,4264.61528,4193.846051,4214.871692
104,0,3849.743496,4218.461435,4220.512717,4216.410153,4221.025538,4222.563999,4232.820409,4234.358871,4237.948614,4107.179387,4126.666566,4269.230665,4201.025538,4215.384512
105,0,3847.692214,4199.999897,4216.410153,4205.128102,4214.871692,4217.948615,4223.07682,4232.307589,4214.358871,4097.435797,4107.692207,4263.076819,4193.333231,4203.589641
106,0,3844.615291,4203.07682,4210.256307,4208.205025,4242.051178,4212.82041,4212.82041,4219.487076,4215.897333,4053.846055,4085.128105,4253.333229,4182.05118,4192.82041
107,0,3858.461444,4216.922974,4217.948615,4216.922974,4245.128101,4225.640922,4217.435794,4217.948615,4230.769127,4055.384516,4113.333233,4261.538357,4188.717846,4202.051179
108,0,3859.999906,4207.692205,4213.846051,4209.230666,4205.640923,4222.563999,4216.410153,4216.922974,4234.871691,4064.102465,4130.256309,4259.487075,4191.281949,4202.564
109,0,3851.794778,4196.410154,4197.948615,4197.948615,4212.82041,4208.205025,4211.794769,4210.769128,4229.230666,4078.974259,4089.74349,4239.487076,4179.999898,4184.615282
110,0,3871.794777,4210.256307,4208.205025,4207.179384,4259.999896,4221.538358,4217.948615,4223.58964,4238.974255,4113.846053,4091.794772,4248.717845,4192.30759,4190.256308
111,0,3892.820418,4221.538358,4226.666563,4219.487076,4231.794768,4229.230666,4218.974256,4235.897332,4236.410153,4111.794771,4142.564001,4268.205024,4207.692205,4208.717846
112,0,3884.61529,4206.666564,4210.769128,4207.692205,4191.281949,4221.025538,4217.948615,4221.538358,4218.461435,4067.179388,4143.589642,4256.410152,4191.794769,4196.410154
113,0,3882.564008,4203.589641,4199.487077,4195.897333,4222.051179,4227.692204,4230.256307,4219.999897,4230.769127,4075.897336,4121.02554,4243.076819,4183.589641,4182.05118
114,0,3898.974264,4218.461435,4213.846051,4204.615282,4247.692204,4237.435794,4238.461435,4240.512717,4254.35887,4133.846053,4126.153745,4251.794768,4199.487077,4191.281949
115,0,3897.435802,4208.205025,4211.281948,4206.666564,4254.35887,4231.281948,4228.205025,4234.871691,4242.563999,4131.28195,4131.28195,4253.333229,4199.487077,4191.281949
116,0,3885.640931,4190.256308,4193.333231,4197.948615,4193.333231,4205.128102,4204.102461,4213.33323,4226.153743,4093.846054,4116.922976,4239.999896,4181.025539,4176.922975
117,0,3898.461443,4196.410154,4198.461436,4204.102461,4139.999899,4196.410154,4203.589641,4215.897333,4232.820409,4128.205027,4117.435797,4240.512717,4184.102462,4182.564
118,0,3915.89734,4208.205025,4211.794769,4211.794769,4265.640921,4231.281948,4226.666563,4218.974256,4226.666563,4150.256309,4139.487078,4253.333229,4202.051179,4197.435795
119,0,3923.589648,4211.794769,4209.230666,4212.307589,4347.692201,4238.461435,4215.384512,4208.717846,4224.102461,4119.999899,4127.179386,4249.743486,4203.07682,4196.922974
120,0,3911.281956,4198.461436,4192.82041,4207.179384,4231.794768,4221.025538,4188.205026,4185.640923,4223.07682,4087.179387,4066.153747,4223.58964,4179.487077,4174.871693
121,0,3885.12811,4175.384513,4172.820411,4196.922974,4176.922975,4238.974255,4189.743487,4157.435796,4188.205026,4059.48708,4030.256312,4201.025538,4157.948616,4149.230668
122,0,3904.615289,4185.128103,4189.230667,4203.589641,4249.743486,4228.717845,4208.205025,4187.179385,4194.358872,4133.846053,4075.897336,4223.58964,4178.461436,4165.640924
123,0,3953.846057,4201.538359,4225.640922,4218.974256,4274.35887,4192.30759,4227.179384,4261.538357,4264.10246,4249.230665,4122.051181,4267.179383,4217.948615,4208.205025
124,0,3964.615288,4183.589641,4230.256307,4219.999897,4203.07682,4198.461436,4237.948614,4276.922972,4275.897331,4283.076818,4097.435797,4276.410152,4231.281948,4230.769127
125,0,3955.384519,4154.358873,4217.435794,4214.358871,4107.692207,4215.384512,4227.179384,4243.58964,4221.538358,4307.179382,4068.717849,4265.128101,4225.128102,4237.948614
126,0,3974.871698,4148.205027,4214.871692,4211.281948,4154.871693,4214.871692,4211.281948,4229.743486,4205.640923,4341.025535,4047.179388,4257.948614,4218.974256,4246.153742
127,0,4001.538364,4166.153744,4214.871692,4211.281948,4306.666561,4224.615281,4218.461435,4227.692204,4217.948615,4334.871689,4005.640928,4251.794768,4217.435794,4253.333229
128,0,4016.922979,4187.179385,4213.33323,4215.384512,4279.487075,4234.358871,4224.102461,4224.102461,4215.897333,4341.025535,3976.410159,4248.205024,4221.538358,4264.61528
0,0,4027.179389,4188.205026,4210.256307,4214.358871,4147.692206,4217.948615,4208.205025,4218.974256,4201.025538,4372.820406,3973.333236,4244.10246,4220.512717,4267.179383
1,0,4041.025542,4199.999897,4211.794769,4218.974256,4182.564,4209.230666,4201.538359,4204.615282,4187.692205,4372.307585,3963.589647,4237.948614,4214.871692,4261.025537
2,0,4078.461439,4243.58964,4235.384512,4239.487076,4286.666562,4218.461435,4204.102461,4207.692205,4204.102461,4381.025534,3960.512724,4248.717845,4219.487076,4277.435793
3,0,4121.02554,4271.281947,4262.051178,4251.794768,4250.769127,4223.07682,4205.128102,4234.358871,4239.999896,4422.563994,3993.846056,4271.281947,4236.922973,4309.743484
4,0,4136.922976,4274.35887,4261.538357,4249.230665,4167.179385,4219.999897,4212.82041,4240.512717,4236.410153,4463.589634,4013.846056,4272.820408,4235.384512,4314.358869
5,0,4133.333232,4276.410152,4245.128101,4242.563999,4195.897333,4208.205025,4207.692205,4215.897333,4199.999897,4467.179378,3979.999903,4254.871691,4208.717846,4286.666562
6,0,4134.871694,4283.589639,4241.025537,4237.435794,4289.743485,4208.205025,4192.30759,4204.102461,4194.358872,4406.666559,3944.102468,4243.58964,4194.871692,4270.256306
7,0,4152.820411,4303.589638,4254.871691,4244.10246,4257.948614,4223.58964,4201.538359,4214.871692,4208.717846,4409.230661,3963.589647,4250.769127,4201.538359,4278.461434
8,0,4165.128103,4318.974253,4256.410152,4251.794768,4189.743487,4228.717845,4210.769128,4211.794769,4205.640923,4476.922967,3972.307595,4250.256306,4193.333231,4272.307588
9,0,4163.076821,4324.102458,4244.615281,4248.205024,4223.07682,4209.230666,4189.743487,4195.897333,4192.30759,4459.999891,3938.974263,4234.358871,4177.948616,4249.230665
10,0,4176.410154,4340.512714,4256.922973,4253.333229,4258.461434,4210.256307,4196.922974,4205.640923,4196.410154,4424.615276,3950.256314,4238.974255,4180.512718,4244.10246
11,0,4186.153744,4355.384509,4271.281947,4260.512716,4278.974254,4246.153742,4226.153743,4218.461435,4214.358871,4436.410148,3978.461441,4250.769127,4183.076821,4243.58964
12,0,4170.256308,4348.717842,4261.025537,4254.871691,4258.974255,4242.051178,4217.435794,4209.743487,4223.07682,4441.538353,3963.589647,4238.974255,4170.256308,4226.153743
13,0,4145.128104,4338.974253,4246.153742,4247.692204,4182.564,4218.974256,4198.974256,4196.922974,4207.692205,4423.589635,3943.589647,4219.487076,4151.28195,4197.948615
14,0,4123.589643,4338.461432,4234.871691,4245.128101,4196.922974,4213.846051,4197.435795,4186.153744,4182.564,4395.384508,3948.205032,4208.717846,4137.435796,4169.743488
15,0,4132.820412,4356.41015,4248.717845,4254.871691,4270.769126,4223.58964,4207.692205,4189.230667,4189.230667,4393.333226,3969.230672,4221.538358,4145.640924,4174.358872
16,0,4161.53836,4378.974252,4275.897331,4268.717844,4248.205024,4247.692204,4221.025538,4211.794769,4209.230666,4425.640917,3991.281954,4239.487076,4158.461437,4192.82041
17,0,4141.02554,4356.92297,4251.794768,4252.307588,4219.487076,4239.999896,4205.128102,4203.07682,4206.153743,4416.410148,3971.281954,4213.846051,4138.461437,4156.922975
18,0,4104.102464,4331.794766,4215.384512,4236.922973,4236.410153,4205.128102,4173.846052,4167.179385,4196.922974,4361.538355,3944.102468,4178.974257,4113.333233,4113.333233
19,0,4132.820412,4364.615278,4242.563999,4261.538357,4251.794768,4217.435794,4186.153744,4175.384513,4199.487077,4353.333227,3993.333236,4196.922974,4127.179386,4132.307591
20,0,4161.025539,4384.615277,4265.128101,4273.846049,4312.820407,4264.10246,4215.384512,4199.487077,4210.769128,4358.461432,4043.589645,4217.435794,4141.53836,4148.205027
21,0,4140.512719,4361.025534,4238.461435,4257.435793,4298.974254,4256.922973,4205.640923,4190.256308,4221.025538,4363.589637,4029.230671,4202.564,4129.743489,4122.051181
22,0,4129.230668,4351.794765,4226.153743,4257.948614,4198.974256,4237.435794,4191.281949,4182.05118,4219.487076,4379.487072,4023.589645,4189.230667,4121.538361,4108.205028
23,0,4129.743489,4351.281945,4232.307589,4266.153742,4237.435794,4256.410152,4199.999897,4191.281949,4212.82041,4356.41015,4049.23067,4186.666564,4117.948617,4111.281951
24,0,4121.538361,4350.256304,4228.717845,4261.538357,4324.102458,4258.974255,4203.07682,4194.871692,4216.410153,4335.89733,4053.333234,4183.076821,4108.717848,4102.564002
25,0,4123.589643,4364.102457,4231.794768,4266.666562,4246.153742,4251.794768,4197.948615,4188.717846,4209.230666,4351.794765,4039.487081,4186.153744,4106.666566,4097.948618
26,0,4125.640925,4364.102457,4231.794768,4272.307588,4193.333231,4261.025537,4196.922974,4184.102462,4198.461436,4346.66656,4028.71785,4177.948616,4100.51272,4092.307592
27,0,4117.435797,4350.256304,4219.999897,4266.153742,4292.307587,4259.487075,4196.410154,4180.512718,4208.205025,4313.333228,4024.615286,4162.564001,4086.666567,4075.897336
28,0,4120.51272,4358.974252,4224.102461,4270.769126,4313.846048,4248.205024,4201.538359,4186.153744,4223.58964,4324.102458,4048.71785,4163.589642,4087.692208,4071.794772
29,0,4116.922976,4356.92297,4222.051179,4273.333229,4213.846051,4242.563999,4197.948615,4190.769128,4214.358871,4350.769124,4063.589644,4161.025539,4086.153746,4071.794772
30,0,4103.589643,4334.871689,4202.564,4262.563998,4206.153743,4248.717845,4190.256308,4182.05118,4192.82041,4333.846048,4052.820414,4148.717847,4070.769131,4058.461439
31,0,4103.076823,4326.15374,4201.025538,4258.461434,4265.640921,4268.717844,4198.461436,4178.974257,4198.974256,4347.692201,4052.307593,4151.28195,4070.769131,4056.410157
32,0,4109.743489,4321.025535,4216.410153,4267.692203,4236.922973,4279.999895,4216.922974,4194.871692,4226.153743,4397.94861,4061.538362,4162.05118,4085.640926,4075.384516
33,0,4116.410156,4308.717843,4219.999897,4267.179383,4217.435794,4267.179383,4224.102461,4208.717846,4216.410153,4416.410148,4075.384516,4171.281949,4099.9999,4097.435797
34,0,4106.153746,4288.205023,4202.564,4247.179383,4234.358871,4239.999896,4200.512718,4188.717846,4181.025539,4397.94861,4074.871695,4167.692206,4095.897336,4090.769131
35,0,4103.076823,4280.512716,4202.051179,4246.666563,4192.30759,4227.692204,4187.692205,4185.128103,4197.948615,4385.128098,4061.538362,4164.102462,4095.897336,4087.179387
36,0,4128.205027,4288.205023,4223.07682,4262.563998,4184.615282,4252.820409,4213.33323,4216.922974,4239.487076,4402.563995,4073.333234,4177.948616,4120.51272,4113.846053
37,0,4135.384514,4279.487075,4222.051179,4254.35887,4253.84605,4270.769126,4219.999897,4218.461435,4230.769127,4441.025532,4090.769131,4183.589641,4132.820412,4128.717848
38,0,4126.666566,4266.666562,4207.179384,4241.538358,4237.435794,4248.205024,4198.461436,4195.897333,4208.205025,4453.846045,4084.615285,4173.333231,4127.692207,4123.589643
39,0,4133.333232,4267.179383,4208.717846,4249.743486,4188.717846,4239.487076,4202.051179,4197.435795,4211.794769,4429.230661,4088.717849,4172.820411,4134.358873,4128.205027
40,0,4132.307591,4256.922973,4208.717846,4248.717845,4226.666563,4247.179383,4215.897333,4205.640923,4222.563999,4417.435789,4095.897336,4178.461436,4143.076822,4131.28195
41,0,4127.179386,4241.538358,4204.615282,4241.025537,4225.640922,4244.615281,4218.974256,4209.743487,4231.281948,4452.820404,4087.692208,4177.435795,4147.692206,4129.743489
42,0,4151.28195,4253.84605,4223.58964,4248.717845,4210.256307,4265.128101,4233.33323,4221.538358,4235.897332,4503.589633,4107.179387,4190.256308,4167.692206,4152.820411
43,0,4162.05118,4256.922973,4232.307589,4252.307588,4232.307589,4279.487075,4232.307589,4216.410153,4226.666563,4505.640915,4117.948617,4196.410154,4175.384513,4167.179385
44,0,4145.640924,4236.922973,4219.999897,4245.128101,4208.205025,4253.333229,4213.33323,4198.974256,4206.153743,4467.692198,4090.769131,4185.128103,4167.179385,4159.487078
45,0,4147.179386,4236.410153,4215.897333,4243.076819,4192.82041,4236.922973,4213.33323,4197.948615,4203.07682,4488.205018,4090.25631,4183.589641,4176.410154,4159.999898
46,0,4158.461437,4249.743486,4223.07682,4246.153742,4265.640921,4248.717845,4222.563999,4204.102461,4211.281948,4533.846043,4111.794771,4194.358872,4186.666564,4169.743488
47,0,4159.999898,4249.743486,4230.256307,4248.717845,4251.281947,4252.307588,4219.999897,4204.102461,4208.205025,4516.410146,4114.871694,4198.461436,4187.179385,4179.487077
48,0,4149.230668,4230.256307,4216.922974,4240.512717,4149.230668,4244.615281,4210.769128,4201.025538,4215.384512,4486.666557,4097.948618,4188.205026,4186.666564,4178.974257
49,0,4141.02554,4217.435794,4203.589641,4232.820409,4221.538358,4243.076819,4222.051179,4203.589641,4226.153743,4501.538351,4088.205028,4182.05118,4183.589641,4170.256308
50,0,4138.974258,4215.897333,4208.717846,4232.820409,4258.974255,4241.538358,4231.794768,4203.07682,4201.538359,4506.153736,4090.769131,4185.640923,4179.999898,4166.666565
51,0,4139.999899,4213.33323,4214.358871,4230.256307,4145.128104,4245.640922,4221.538358,4199.487077,4183.589641,4497.948608,4092.820413,4187.179385,4187.179385,4170.769129
52,0,4161.53836,4227.692204,4223.58964,4238.974255,4198.974256,4254.35887,4222.563999,4212.307589,4219.487076,4505.128095,4106.153746,4193.333231,4203.589641,4188.205026
53,0,4173.333231,4236.410153,4232.820409,4250.769127,4255.384511,4252.307588,4236.922973,4229.743486,4240.512717,4523.589633,4128.717848,4202.051179,4210.256307,4195.384513
54,0,4158.974257,4218.974256,4227.179384,4241.538358,4138.461437,4241.538358,4234.871691,4225.640922,4228.205025,4509.230659,4131.794771,4205.128102,4205.640923,4185.640923
55,0,4162.564001,4221.538358,4223.07682,4235.897332,4207.179384,4249.743486,4230.769127,4216.410153,4232.307589,4503.589633,4109.743489,4201.025538,4201.025538,4186.153744
56,0,4184.102462,4252.307588,4231.794768,4248.205024,4334.871689,4264.61528,4232.820409,4219.487076,4228.717845,4578.974247,4096.922977,4195.897333,4205.128102,4192.82041
57,0,4171.281949,4255.384511,4227.692204,4248.717845,4199.487077,4244.10246,4218.974256,4216.410153,4202.051179,4578.461427,4100.51272,4187.692205,4199.487077,4174.871693
58,0,4161.025539,4254.35887,4223.58964,4246.666563,4148.717847,4224.102461,4210.769128,4210.769128,4208.205025,4484.102454,4102.564002,4187.179385,4179.487077,4159.999898
59,0,4183.076821,4277.435793,4234.871691,4255.384511,4293.846049,4241.538358,4221.025538,4216.922974,4241.025537,4489.230659,4098.461438,4190.769128,4176.410154,4161.53836
60,0,4174.358872,4270.769126,4229.743486,4251.794768,4256.410152,4238.461435,4215.897333,4210.769128,4205.128102,4543.076812,4075.897336,4174.871693,4176.922975,4144.615283
61,0,4160.512719,4254.871691,4223.58964,4252.307588,4119.999899,4221.538358,4210.769128,4201.025538,4159.487078,4517.948607,4077.435798,4161.53836,4170.769129,4139.999899
62,0,4180.512718,4262.051178,4233.33323,4258.974255,4203.07682,4233.33323,4215.897333,4209.230666,4209.230666,4526.153735,4082.051182,4163.076821,4174.358872,4158.461437
63,0,4192.82041,4262.051178,4236.922973,4254.871691,4337.435791,4240.512717,4218.974256,4219.487076,4254.871691,4570.769119,4073.846054,4166.666565,4186.153744,4158.461437
64,0,4185.128103,4255.384511,4232.307589,4253.333229,4256.410152,4238.461435,4226.666563,4217.435794,4225.640922,4487.179377,4094.358874,4172.820411,4191.281949,4152.307591
65,0,4179.999898,4250.256306,4225.128102,4251.281947,4164.102462,4244.10246,4232.820409,4212.82041,4204.102461,4439.999891,4107.692207,4175.384513,4186.153744,4155.384514
66,0,4182.05118,4245.128101,4223.07682,4245.128101,4236.410153,4237.435794,4227.692204,4214.871692,4207.179384,4537.435786,4092.820413,4168.205026,4186.153744,4156.410155
67,0,4187.179385,4247.179383,4231.794768,4248.717845,4258.461434,4233.33323,4231.281948,4221.538358,4204.102461,4574.871683,4093.333233,4170.769129,4197.948615,4160.512719
68,0,4189.230667,4245.128101,4231.794768,4252.307588,4171.281949,4247.179383,4236.410153,4222.051179,4213.33323,4499.99989,4119.487079,4182.05118,4203.07682,4166.666565
69,0,4187.179385,4233.33323,4221.538358,4246.153742,4211.794769,4245.128101,4222.563999,4211.281948,4211.794769,4476.922967,4125.640925,4178.461436,4193.846051,4161.53836
70,0,4191.281949,4236.410153,4220.512717,4243.58964,4293.333228,4230.256307,4214.358871,4210.769128,4214.871692,4517.435787,4109.230669,4168.717847,4193.846051,4157.435796
71,0,4192.30759,4240.512717,4222.051179,4242.051178,4250.256306,4225.128102,4216.922974,4215.384512,4234.358871,4479.48707,4098.974259,4169.743488,4204.102461,4160.512719
72,0,4193.333231,4232.820409,4222.563999,4243.076819,4165.128103,4230.769127,4219.487076,4212.82041,4201.025538,4441.025532,4117.435797,4176.922975,4201.025538,4162.05118
73,0,4202.564,4235.897332,4231.794768,4247.692204,4179.487077,4247.692204,4228.205025,4217.435794,4192.82041,4492.307582,4135.897335,4182.564,4201.025538,4166.666565
74,0,4189.230667,4230.256307,4221.025538,4235.384512,4262.563998,4243.076819,4225.128102,4219.999897,4241.025537,4517.435787,4103.076823,4169.743488,4200.512718,4157.948616
75,0,4178.461436,4224.102461,4210.256307,4232.820409,4204.102461,4222.563999,4216.922974,4211.794769,4229.743486,4470.256301,4093.333233,4161.53836,4196.410154,4148.717847
76,0,4198.461436,4238.461435,4226.153743,4247.179383,4172.30759,4234.358871,4228.205025,4212.82041,4202.051179,4450.256301,4127.692207,4175.384513,4199.999897,4162.05118
77,0,4204.615282,4241.025537,4230.256307,4241.538358,4286.666562,4255.897332,4236.922973,4219.487076,4234.871691,4499.487069,4132.307591,4181.538359,4206.153743,4172.30759
78,0,4186.153744,4224.615281,4213.846051,4226.153743,4287.692203,4248.205024,4225.128102,4210.256307,4238.974255,4489.74348,4114.871694,4167.692206,4201.025538,4161.53836
79,0,4184.615282,4226.666563,4213.846051,4231.281948,4152.820411,4235.384512,4217.948615,4195.897333,4197.435795,4427.692199,4122.051181,4164.102462,4198.974256,4162.564001
80,0,4197.948615,4238.974255,4227.692204,4241.025537,4151.28195,4240.512717,4227.179384,4205.128102,4213.33323,4459.48707,4127.179386,4174.871693,4208.717846,4175.384513
81,0,4202.051179,4236.922973,4230.769127,4236.922973,4262.563998,4254.871691,4237.435794,4220.512717,4231.794768,4508.717838,4126.153745,4180.512718,4214.358871,4177.948616
82,0,4203.589641,4233.84605,4228.717845,4236.410153,4233.84605,4248.205024,4236.410153,4218.974256,4200.512718,4478.461429,4143.076822,4178.974257,4213.33323,4175.897334
83,0,4209.230666,4240.512717,4227.692204,4241.538358,4199.999897,4232.307589,4229.743486,4214.871692,4216.922974,4466.153737,4152.820411,4176.410154,4211.281948,4177.435795
84,0,4206.153743,4240.512717,4222.563999,4238.974255,4276.922972,4244.10246,4231.794768,4219.999897,4252.307588,4484.102454,4142.051181,4174.358872,4212.307589,4177.948616
85,0,4201.025538,4233.33323,4216.922974,4233.84605,4281.538357,4252.307588,4234.358871,4218.461435,4230.769127,4457.435788,4125.128104,4169.743488,4207.179384,4172.820411
86,0,4200.512718,4231.794768,4213.33323,4234.358871,4187.179385,4241.025537,4225.640922,4205.640923,4202.051179,4431.281943,4127.179386,4165.640924,4202.051179,4169.743488
87,0,4202.051179,4233.84605,4213.33323,4234.358871,4193.333231,4239.487076,4220.512717,4200.512718,4207.179384,4458.97425,4138.974258,4165.640924,4204.615282,4170.256308
88,0,4205.640923,4233.33323,4219.487076,4234.871691,4246.153742,4241.025537,4230.769127,4210.256307,4207.692205,4488.717839,4141.53836,4168.717847,4206.666564,4169.743488
89,0,4217.435794,4242.051178,4231.794768,4243.076819,4223.07682,4233.33323,4238.461435,4219.487076,4222.051179,4481.025531,4144.615283,4174.358872,4208.717846,4177.435795
90,0,4225.640922,4246.153742,4230.769127,4241.025537,4272.307588,4248.205024,4235.384512,4217.948615,4225.128102,4468.717839,4158.461437,4177.948616,4219.487076,4193.846051
91,0,4207.692205,4225.640922,4214.358871,4227.692204,4281.025536,4255.897332,4227.692204,4211.794769,4166.666565,4504.615274,4159.487078,4170.769129,4227.179384,4187.179385
92,0,4199.999897,4213.846051,4213.33323,4228.205025,4176.410154,4233.33323,4230.769127,4214.358871,4193.333231,4502.051172,4158.461437,4170.769129,4231.281948,4183.076821
93,0,4216.410153,4214.871692,4223.58964,4231.281948,4186.153744,4244.10246,4246.666563,4223.58964,4284.102459,4436.922968,4183.589641,4187.692205,4247.179383,4208.717846
94,0,4206.153743,4198.974256,4212.307589,4219.999897,4256.410152,4252.820409,4235.384512,4214.358871,4241.025537,4447.692199,4193.333231,4186.666564,4251.281947,4211.281948
95,0,4184.102462,4187.179385,4198.461436,4210.769128,4223.07682,4221.538358,4210.769128,4201.538359,4178.461436,4509.743479,4169.230667,4170.256308,4232.820409,4187.179385
96,0,4207.692205,4208.205025,4212.82041,4221.538358,4208.205025,4223.07682,4221.025538,4212.82041,4229.743486,4499.487069,4159.999898,4177.435795,4229.743486,4198.461436
97,0,4227.692204,4217.435794,4226.153743,4229.230666,4241.538358,4255.384511,4244.10246,4228.717845,4251.794768,4453.846045,4177.948616,4189.743487,4241.025537,4216.410153
98,0,4199.487077,4197.435795,4210.769128,4219.487076,4216.410153,4253.84605,4233.84605,4218.974256,4208.717846,4463.076814,4180.512718,4173.333231,4237.435794,4195.897333
99,0,4186.153744,4195.384513,4196.922974,4213.33323,4203.07682,4238.461435,4226.666563,4209.230666,4216.410153,4510.76912,4158.974257,4158.461437,4228.717845,4183.589641
100,0,4197.948615,4205.640923,4204.615282,4218.461435,4265.128101,4247.179383,4246.666563,4219.999897,4239.487076,4524.615274,4147.692206,4166.153744,4228.717845,4196.410154
101,0,4192.82041,4195.384513,4206.666564,4219.487076,4253.84605,4246.153742,4245.128101,4223.07682,4214.871692,4478.461429,4162.05118,4170.256308,4227.692204,4195.897333
102,0,4187.179385,4186.666564,4198.461436,4215.384512,4132.820412,4231.281948,4226.153743,4214.871692,4202.051179,4467.692198,4174.358872,4165.128103,4226.666563,4188.205026
103,0,4208.717846,4202.051179,4207.692205,4219.999897,4151.28195,4234.871691,4234.871691,4223.58964,4251.794768,4517.948607,4167.179385,4173.846052,4238.461435,4201.538359
104,0,4218.974256,4208.717846,4216.922974,4224.102461,4278.461434,4241.538358,4252.307588,4236.410153,4272.820408,4506.153736,4155.384514,4181.538359,4243.58964,4210.256307
105,0,4198.461436,4190.256308,4199.487077,4216.922974,4241.538358,4239.999896,4240.512717,4223.07682,4204.615282,4474.358865,4138.974258,4167.179385,4232.820409,4192.30759
106,0,4195.384513,4188.205026,4193.846051,4215.384512,4162.564001,4237.435794,4228.205025,4213.33323,4174.871693,4505.128095,4128.717848,4162.05118,4229.743486,4186.666564
107,0,4217.435794,4210.769128,4214.871692,4230.256307,4198.461436,4233.33323,4235.384512,4229.743486,4236.410153,4532.307581,4133.846053,4177.435795,4241.025537,4207.179384
108,0,4227.179384,4221.025538,4223.58964,4236.922973,4230.256307,4232.820409,4240.512717,4237.435794,4264.61528,4511.281941,4137.435796,4183.589641,4246.666563,4215.897333
109,0,4220.512717,4212.82041,4216.410153,4223.07682,4224.615281,4241.025537,4234.871691,4223.58964,4229.230666,4481.538352,4129.230668,4176.922975,4237.435794,4205.640923
110,0,4216.410153,4201.538359,4214.358871,4216.410153,4205.128102,4233.84605,4223.58964,4210.256307,4213.33323,4469.23066,4105.640925,4170.256308,4230.769127,4200.512718
111,0,4214.358871,4197.435795,4215.384512,4224.102461,4152.307591,4212.82041,4220.512717,4208.717846,4223.07682,4488.717839,4094.358874,4170.256308,4241.538358,4206.153743
112,0,4222.051179,4211.281948,4216.922974,4227.692204,4202.051179,4224.615281,4232.820409,4215.384512,4229.230666,4521.538351,4117.948617,4179.487077,4251.794768,4211.281948
113,0,4227.692204,4218.461435,4218.461435,4219.999897,4290.256305,4250.256306,4241.538358,4217.948615,4234.871691,4493.333223,4116.922976,4181.025539,4244.10246,4210.769128
114,0,4217.435794,4203.07682,4214.358871,4214.358871,4179.487077,4239.999896,4232.820409,4209.743487,4232.820409,4444.615276,4097.948618,4175.897334,4242.563999,4210.769128
115,0,4213.33323,4206.153743,4214.871692,4218.461435,4132.820412,4222.563999,4222.563999,4205.128102,4212.82041,4476.922967,4115.384515,4181.025539,4253.333229,4210.769128
116,0,4221.025538,4224.102461,4218.461435,4221.025538,4258.461434,4232.307589,4217.948615,4202.564,4202.051179,4512.820402,4110.25631,4175.897334,4238.974255,4202.051179
117,0,4218.974256,4211.794769,4210.256307,4214.871692,4234.358871,4236.922973,4215.897333,4201.538359,4226.666563,4474.358865,4075.384516,4164.615283,4225.640922,4201.538359
118,0,4210.769128,4195.384513,4205.128102,4208.717846,4163.076821,4223.07682,4219.999897,4210.256307,4244.10246,4447.179378,4096.922977,4173.333231,4243.58964,4210.256307
119,0,4210.769128,4205.640923,4208.717846,4209.230666,4244.615281,4224.102461,4227.692204,4217.948615,4228.205025,4498.461428,4110.76913,4178.974257,4249.743486,4203.07682
120,0,4217.435794,4211.794769,4210.769128,4211.794769,4255.897332,4237.435794,4232.307589,4215.897333,4219.487076,4515.897325,4083.589644,4172.30759,4234.871691,4195.897333
121,0,4221.538358,4209.743487,4209.230666,4215.384512,4141.02554,4225.640922,4223.58964,4211.281948,4211.281948,4449.743481,4103.589643,4175.384513,4238.974255,4206.666564
122,0,4223.58964,4214.871692,4213.33323,4217.435794,4173.333231,4226.666563,4221.538358,4212.307589,4223.07682,4460.512711,4114.358874,4177.948616,4254.871691,4211.281948
123,0,4225.640922,4220.512717,4215.384512,4215.897333,4253.84605,4252.307588,4237.435794,4220.512717,4237.435794,4521.02553,4090.25631,4172.30759,4245.640922,4205.128102
124,0,4221.538358,4214.358871,4208.205025,4212.307589,4193.333231,4234.358871,4232.307589,4219.999897,4215.384512,4453.333224,4099.487079,4171.79477,4235.384512,4204.102461
125,0,4210.256307,4194.358872,4197.948615,4202.051179,4168.205026,4205.128102,4212.307589,4210.769128,4216.922974,4392.307585,4108.205028,4168.717847,4242.563999,4198.974256
126,0,4209.230666,4192.30759,4198.974256,4199.487077,4263.076819,4236.410153,4225.640922,4217.948615,4245.640922,4488.717839,4085.128105,4165.128103,4239.999896,4190.256308
127,0,4219.999897,4212.307589,4213.33323,4210.769128,4266.666562,4257.435793,4249.743486,4231.281948,4244.615281,4548.717837,4086.153746,4172.820411,4237.435794,4193.333231
128,0,4220.512717,4214.871692,4219.487076,4213.33323,4164.615283,4232.820409,4241.025537,4222.563999,4228.717845,4466.666557,4102.051182,4176.922975,4244.615281,4199.487077
0,0,4211.794769,4205.640923,4210.769128,4208.205025,4179.487077,4236.410153,4228.205025,4213.33323,4221.538358,4452.307583,4084.615285,4166.666565,4236.922973,4193.333231
1,0,4213.33323,4216.922974,4211.794769,4213.846051,4245.128101,4246.153742,4233.33323,4217.435794,4218.461435,4473.333224,4081.025541,4166.153744,4227.692204,4188.205026
2,0,4218.974256,4222.051179,4218.974256,4218.974256,4219.487076,4228.205025,4233.33323,4219.487076,4228.717845,4407.6922,4100.51272,4173.846052,4237.435794,4192.30759
3,0,4214.358871,4203.07682,4214.871692,4207.692205,4191.281949,4232.820409,4232.307589,4221.025538,4232.820409,4426.666558,4089.230669,4173.333231,4234.871691,4191.794769
4,0,4209.743487,4200.512718,4207.179384,4203.07682,4229.743486,4243.58964,4233.33323,4223.07682,4230.256307,4507.692197,4071.794772,4169.230667,4223.58964,4185.640923
5,0,4213.846051,4213.33323,4210.256307,4209.230666,4267.179383,4236.922973,4228.717845,4222.563999,4248.717845,4470.256301,4099.9999,4175.384513,4239.999896,4194.358872
6,0,4219.999897,4214.358871,4219.999897,4209.743487,4208.205025,4244.615281,4230.256307,4228.205025,4244.10246,4404.102456,4131.794771,4188.717846,4256.922973,4210.769128
7,0,4217.435794,4199.999897,4218.461435,4204.615282,4157.948616,4249.230665,4234.358871,4233.84605,4227.179384,4460.512711,4120.51272,4193.333231,4258.974255,4216.922974
8,0,4205.128102,4183.076821,4205.640923,4198.974256,4215.384512,4232.820409,4229.743486,4231.281948,4241.538358,4516.922966,4118.974258,4189.743487,4269.230665,4218.974256
9,0,4203.589641,4184.615282,4202.564,4201.538359,4212.82041,4225.640922,4227.179384,4229.743486,4250.769127,4460.512711,4141.53836,4187.692205,4278.974254,4223.58964
10,0,4208.205025,4184.102462,4209.230666,4201.025538,4166.153744,4241.025537,4238.461435,4235.384512,4246.666563,4443.076814,4143.589642,4194.358872,4273.333229,4223.58964
11,0,4194.871692,4164.102462,4203.589641,4185.640923,4244.615281,4249.230665,4238.974255,4237.435794,4248.205024,4488.717839,4122.051181,4190.769128,4263.076819,4213.33323
12,0,4181.025539,4156.922975,4190.769128,4178.974257,4223.58964,4227.179384,4215.384512,4229.230666,4234.871691,4461.025532,4121.538361,4178.974257,4263.076819,4206.153743
13,0,4198.974256,4181.025539,4204.102461,4198.974256,4126.153745,4218.974256,4217.948615,4227.692204,4231.794768,4409.743482,4149.230668,4188.717846,4274.35887,4217.435794
14,0,4213.846051,4190.769128,4217.435794,4204.102461,4227.692204,4243.076819,4242.051178,4237.948614,4251.794768,4454.871686,4142.564001,4195.384513,4271.794767,4224.102461
15,0,4198.974256,4166.153744,4204.102461,4186.153744,4209.743487,4240.512717,4232.307589,4233.84605,4239.487076,4508.205018,4122.564002,4182.564,4265.640921,4212.307589
16,0,4199.487077,4160.512719,4202.564,4192.30759,4109.743489,4225.128102,4218.974256,4229.230666,4230.769127,4500.51271,4147.179386,4190.256308,4277.948613,4215.384512
17,0,4218.461435,4175.897334,4218.974256,4204.615282,4254.871691,4236.410153,4230.769127,4241.025537,4259.999896,4469.23066,4156.410155,4204.102461,4281.025536,4227.692204
18,0,4223.07682,4177.948616,4224.102461,4202.051179,4300.512715,4243.58964,4241.538358,4250.256306,4281.538357,4450.769122,4132.307591,4197.435795,4269.743485,4225.640922
19,0,4210.769128,4168.717847,4209.743487,4197.948615,4174.358872,4237.948614,4239.999896,4245.128101,4265.128101,4473.846044,4139.999899,4191.794769,4267.692203,4213.33323
20,0,4204.615282,4163.589642,4203.07682,4196.410154,4214.358871,4238.461435,4239.487076,4244.615281,4237.435794,4490.2563,4169.743488,4198.974256,4273.846049,4211.281948
21,0,4201.025538,4157.435796,4202.051179,4189.230667,4223.58964,4229.743486,4239.487076,4247.179383,4231.281948,4471.794762,4154.358873,4189.743487,4264.61528,4207.692205
22,0,4192.30759,4152.307591,4196.410154,4185.640923,4103.076823,4223.58964,4243.58964,4241.025537,4251.281947,4437.948609,4125.640925,4176.922975,4252.307588,4196.410154
23,0,4184.615282,4147.179386,4191.794769,4180.512718,4157.948616,4235.897332,4251.794768,4242.563999,4264.10246,4424.102456,4132.820412,4181.538359,4255.384511,4194.358872
24,0,4174.871693,4133.846053,4185.640923,4170.256308,4216.922974,4231.281948,4245.640922,4242.563999,4243.58964,4445.640917,4142.051181,4175.897334,4256.922973,4189.743487
25,0,4177.948616,4139.999899,4186.666564,4174.358872,4189.743487,4224.615281,4246.666563,4241.025537,4246.666563,4467.692198,4121.538361,4163.589642,4244.615281,4180.512718
26,0,4191.281949,4156.410155,4192.30759,4181.025539,4251.281947,4241.538358,4251.281947,4243.58964,4262.563998,4455.384506,4109.743489,4167.179385,4242.563999,4182.05118
27,0,4203.589641,4156.922975,4203.07682,4188.205026,4205.128102,4245.128101,4241.538358,4245.128101,4243.076819,4444.615276,4154.871693,4186.153744,4264.10246,4195.897333
28,0,4208.205025,4159.487078,4209.230666,4191.794769,4119.999899,4233.33323,4237.948614,4241.025537,4238.461435,4471.794762,4172.30759,4189.230667,4265.640921,4198.461436
29,0,4208.205025,4169.743488,4204.615282,4186.666564,4225.128102,4233.33323,4241.025537,4235.384512,4257.948614,4464.615275,4137.435796,4176.410154,4247.179383,4192.30759
30,0,4215.384512,4177.435795,4209.743487,4191.794769,4227.179384,4237.948614,4237.435794,4231.794768,4255.384511,4409.743482,4143.076822,4178.461436,4251.794768,4195.897333
31,0,4221.025538,4178.461436,4218.974256,4200.512718,4105.128105,4232.307589,4230.769127,4228.717845,4244.615281,4404.102456,4165.128103,4188.205026,4259.487075,4199.999897
32,0,4216.410153,4169.743488,4210.769128,4186.153744,4223.07682,4233.84605,4234.358871,4232.307589,4247.692204,4461.538352,4144.615283,4183.076821,4249.743486,4197.948615
33,0,4212.82041,4168.205026,4200.512718,4181.025539,4296.410151,4235.897332,4241.025537,4230.256307,4233.33323,4475.384506,4132.820412,4174.871693,4245.640922,4195.897333
34,0,4216.922974,4177.435795,4209.743487,4197.435795,4119.487079,4226.666563,4245.640922,4234.358871,4233.84605,4447.692199,4157.948616,4186.153744,4257.948614,4201.538359
35,0,4219.487076,4181.025539,4212.307589,4196.410154,4141.02554,4229.230666,4251.794768,4251.281947,4264.61528,4452.307583,4165.128103,4194.871692,4259.999896,4205.640923
36,0,4215.897333,4176.922975,4205.128102,4188.717846,4253.333229,4235.897332,4250.256306,4250.256306,4265.128101,4448.71784,4154.358873,4185.640923,4251.794768,4201.538359
37,0,4223.07682,4183.589641,4216.410153,4198.461436,4151.79477,4231.281948,4246.666563,4238.974255,4253.333229,4425.128097,4155.384514,4185.640923,4252.820409,4205.640923
38,0,4229.743486,4188.717846,4219.487076,4197.435795,4161.025539,4228.205025,4235.897332,4230.769127,4236.922973,4413.846046,4162.05118,4188.717846,4255.897332,4208.717846
39,0,4223.07682,4177.948616,4202.564,4187.179385,4285.1281,4230.769127,4217.948615,4220.512717,4206.666564,4406.153738,4155.897334,4179.999898,4251.281947,4196.922974
40,0,4212.82041,4170.256308,4196.922974,4185.128103,4190.769128,4221.538358,4217.948615,4213.33323,4214.871692,4435.897327,4130.76913,4169.230667,4242.563999,4188.717846
41,0,4212.82041,4178.461436,4199.999897,4185.128103,4096.922977,4211.794769,4229.743486,4213.846051,4253.84605,4464.102455,4117.435797,4167.179385,4242.563999,4195.384513
42,0,4222.563999,4192.82041,4199.999897,4189.743487,4200.512718,4213.33323,4228.205025,4214.871692,4245.640922,4420.512712,4136.922976,4170.769129,4247.179383,4196.410154
43,0,4230.769127,4195.384513,4204.615282,4199.487077,4246.666563,4215.897333,4224.102461,4225.128102,4217.435794,4378.974252,4161.53836,4177.435795,4249.230665,4195.384513
44,0,4233.84605,4195.384513,4213.33323,4202.564,4181.025539,4225.640922,4232.820409,4233.33323,4235.384512,4405.128097,4164.615283,4183.589641,4252.820409,4207.692205
45,0,4232.820409,4199.487077,4211.794769,4197.948615,4186.153744,4236.922973,4238.461435,4221.538358,4253.84605,4450.256301,4154.871693,4178.974257,4254.871691,4214.871692
46,0,4230.769127,4194.871692,4201.025538,4193.846051,4232.307589,4230.256307,4231.281948,4217.948615,4241.538358,4446.153737,4143.589642,4172.30759,4252.307588,4207.179384
47,0,4232.820409,4192.30759,4205.640923,4197.948615,4156.410155,4219.487076,4230.256307,4230.769127,4221.538358,4389.743482,4161.025539,4181.538359,4256.922973,4207.179384
48,0,4235.897332,4198.974256,4218.461435,4204.102461,4088.205028,4215.384512,4232.820409,4224.615281,4207.179384,4364.615278,4194.358872,4192.30759,4257.948614,4212.82041
49,0,4238.461435,4200.512718,4215.897333,4200.512718,4232.307589,4215.384512,4233.33323,4214.358871,4233.84605,4411.794764,4168.205026,4182.564,4245.640922,4209.230666
50,0,4233.33323,4187.692205,4202.564,4191.794769,4302.563997,4217.948615,4233.33323,4222.051179,4265.128101,4442.563994,4131.794771,4174.358872,4245.128101,4205.640923
51,0,4229.743486,4182.05118,4199.487077,4196.410154,4109.230669,4214.871692,4230.769127,4228.205025,4245.128101,4411.281943,4163.076821,4179.999898,4254.871691,4208.717846
52,0,4234.358871,4190.256308,4204.102461,4202.051179,4096.922977,4219.487076,4233.33323,4229.743486,4218.461435,4378.461431,4193.846051,4182.05118,4254.35887,4213.846051
53,0,4227.692204,4187.179385,4197.435795,4188.205026,4271.794767,4231.281948,4237.435794,4230.256307,4238.974255,4383.076816,4161.025539,4171.79477,4246.153742,4206.666564
54,0,4218.461435,4177.948616,4191.794769,4180.512718,4218.461435,4227.179384,4230.769127,4218.974256,4255.897332,4408.20502,4130.256309,4167.692206,4238.974255,4198.461436
55,0,4226.666563,4186.666564,4198.974256,4195.384513,4133.846053,4215.384512,4224.615281,4215.897333,4241.538358,4413.846046,4146.666565,4171.79477,4239.999896,4203.589641
56,0,4238.461435,4201.025538,4207.692205,4199.999897,4252.820409,4217.948615,4229.743486,4228.717845,4245.128101,4393.333226,4170.769129,4175.897334,4250.256306,4211.794769
57,0,4242.051178,4200.512718,4207.692205,4192.30759,4290.769126,4222.563999,4231.794768,4228.717845,4250.256306,4390.256303,4170.256308,4176.410154,4249.230665,4213.33323
58,0,4247.692204,4201.538359,4205.640923,4199.999897,4128.205027,4207.692205,4216.922974,4215.384512,4234.358871,4402.563995,4170.256308,4177.435795,4245.640922,4216.922974
59,0,4249.743486,4205.640923,4206.666564,4206.666564,4096.922977,4203.07682,4212.82041,4213.33323,4226.666563,4392.820405,4186.153744,4179.487077,4253.84605,4221.538358
60,0,4246.153742,4202.051179,4206.666564,4196.410154,4245.640922,4217.435794,4226.666563,4215.384512,4230.769127,4382.051175,4173.846052,4176.410154,4251.794768,4219.999897
61,0,4246.666563,4197.435795,4203.07682,4193.333231,4267.179383,4216.922974,4227.179384,4211.794769,4224.615281,4374.358867,4156.410155,4172.30759,4240.512717,4218.974256
62,0,4243.58964,4201.025538,4199.999897,4201.025538,4156.410155,4207.179384,4223.07682,4214.871692,4221.025538,4371.794765,4171.281949,4169.230667,4238.974255,4214.871692
63,0,4245.640922,4212.82041,4204.102461,4201.538359,4135.897335,4213.33323,4226.153743,4215.384512,4236.410153,4387.17938,4164.102462,4167.179385,4242.563999,4212.82041
64,0,4249.743486,4210.256307,4206.666564,4197.948615,4177.948616,4212.307589,4220.512717,4202.051179,4228.205025,4386.666559,4147.692206,4169.743488,4241.538358,4218.974256
65,0,4249.743486,4202.564,4208.205025,4200.512718,4187.692205,4201.538359,4215.897333,4202.564,4208.205025,4373.846047,4180.512718,4177.435795,4244.10246,4222.563999
66,0,4263.076819,4218.974256,4218.974256,4209.230666,4249.743486,4213.33323,4227.692204,4218.974256,4226.666563,4388.205021,4201.538359,4183.076821,4249.230665,4224.102461
67,0,4278.461434,4239.999896,4223.58964,4216.410153,4214.358871,4218.461435,4229.230666,4217.435794,4241.538358,4394.358867,4167.179385,4178.974257,4240.512717,4230.256307
68,0,4285.640921,4244.615281,4221.538358,4215.897333,4108.205028,4199.999897,4210.256307,4196.922974,4215.897333,4349.230663,4146.666565,4174.358872,4230.256307,4234.358871
69,0,4306.666561,4256.410152,4232.307589,4218.461435,4184.102462,4195.897333,4205.640923,4196.410154,4208.717846,4330.256304,4174.871693,4185.128103,4238.974255,4242.563999
70,0,4329.743484,4272.307588,4244.615281,4225.128102,4234.871691,4207.179384,4215.384512,4214.358871,4230.769127,4367.692201,4201.025538,4199.999897,4248.205024,4258.974255
71,0,4328.717843,4269.743485,4243.076819,4227.179384,4159.999898,4210.769128,4216.922974,4218.461435,4225.128102,4389.230662,4188.717846,4196.410154,4238.974255,4260.512716
72,0,4318.974253,4264.10246,4238.461435,4223.58964,4174.871693,4204.615282,4209.743487,4203.589641,4212.307589,4386.153739,4172.820411,4186.666564,4233.84605,4244.615281
73,0,4319.487074,4266.153742,4239.999896,4221.538358,4234.871691,4199.487077,4209.230666,4198.974256,4227.179384,4382.563995,4182.564,4189.743487,4236.922973,4237.948614
74,0,4316.410151,4264.61528,4241.538358,4219.487076,4204.615282,4201.538359,4216.410153,4210.256307,4232.307589,4361.538355,4190.256308,4191.794769,4231.281948,4235.897332
75,0,4307.179382,4254.35887,4237.435794,4215.384512,4162.564001,4202.564,4217.435794,4210.256307,4219.487076,4330.769125,4183.076821,4185.128103,4230.256307,4229.230666
76,0,4303.076818,4246.666563,4231.794768,4210.769128,4165.128103,4198.461436,4215.897333,4201.025538,4215.384512,4329.230663,4176.410154,4179.999898,4233.33323,4223.07682
77,0,4301.025536,4248.717845,4229.743486,4208.717846,4168.717847,4195.897333,4213.846051,4199.487077,4219.487076,4356.92297,4168.717847,4175.897334,4223.07682,4215.897333
78,0,4296.410151,4250.256306,4230.256307,4212.82041,4176.922975,4189.743487,4212.307589,4204.615282,4218.974256,4375.897329,4162.564001,4172.820411,4214.871692,4208.717846
79,0,4304.615279,4253.84605,4234.871691,4218.974256,4195.384513,4189.230667,4213.846051,4204.102461,4202.564,4361.025534,4180.512718,4183.076821,4227.179384,4219.487076
80,0,4316.410151,4259.999896,4238.974255,4217.435794,4224.615281,4200.512718,4215.897333,4201.025538,4194.871692,4336.41015,4192.82041,4190.256308,4236.922973,4233.33323
81,0,4313.333228,4258.974255,4240.512717,4215.384512,4213.846051,4201.538359,4216.410153,4206.153743,4220.512717,4362.051175,4174.358872,4183.076821,4229.230666,4228.717845
82,0,4316.410151,4261.025537,4247.179383,4222.051179,4145.128104,4192.82041,4215.897333,4216.922974,4237.435794,4383.076816,4178.461436,4185.640923,4224.102461,4228.717845
83,0,4326.666561,4262.051178,4254.35887,4224.102461,4135.384514,4196.410154,4216.410153,4218.461435,4221.538358,4343.589637,4209.743487,4197.948615,4227.179384,4238.974255
84,0,4319.999894,4252.820409,4248.205024,4215.897333,4194.358872,4204.102461,4216.410153,4214.358871,4216.922974,4343.589637,4198.974256,4193.846051,4226.666563,4231.794768
85,0,4315.89733,4253.333229,4242.563999,4219.999897,4237.435794,4202.564,4215.897333,4213.846051,4231.794768,4393.846046,4176.410154,4188.717846,4229.230666,4226.153743
86,0,4328.205022,4266.153742,4251.281947,4230.769127,4196.410154,4195.897333,4214.871692,4214.358871,4229.743486,4365.128098,4201.538359,4200.512718,4234.358871,4241.538358
87,0,4337.948612,4273.846049,4262.051178,4234.871691,4157.435796,4193.846051,4214.358871,4213.846051,4222.051179,4320.512715,4233.84605,4211.794769,4241.538358,4256.410152
88,0,4335.89733,4273.333229,4259.999896,4233.84605,4221.025538,4195.384513,4214.358871,4216.922974,4230.769127,4377.948611,4220.512717,4207.692205,4246.666563,4254.871691
89,0,4322.051176,4258.974255,4246.666563,4224.615281,4208.205025,4190.769128,4211.794769,4216.410153,4233.33323,4422.051174,4193.333231,4193.846051,4237.948614,4241.538358
90,0,4309.230664,4244.615281,4239.487076,4214.358871,4142.564001,4183.076821,4213.33323,4209.743487,4221.025538,4365.128098,4205.640923,4192.82041,4229.230666,4234.871691
91,0,4310.769125,4247.692204,4241.025537,4214.358871,4243.076819,4186.666564,4217.948615,4208.717846,4214.358871,4336.922971,4222.051179,4198.974256,4232.820409,4237.435794
92,0,4312.820407,4250.256306,4239.487076,4217.435794,4288.717844,4188.717846,4218.461435,4213.33323,4219.487076,4370.769124,4205.640923,4193.333231,4232.820409,4233.84605
93,0,4311.281946,4252.307588,4241.025537,4222.051179,4132.307591,4183.589641,4224.102461,4214.358871,4214.358871,4372.307585,4200.512718,4188.717846,4227.692204,4230.769127
94,0,4317.435792,4263.589639,4250.769127,4230.256307,4136.922976,4188.205026,4236.410153,4214.358871,4209.230666,4338.461432,4220.512717,4197.948615,4232.307589,4237.435794
95,0,4316.922971,4263.589639,4247.692204,4224.102461,4241.538358,4189.230667,4231.281948,4214.358871,4224.615281,4338.974253,4215.897333,4198.461436,4230.256307,4237.435794
96,0,4311.794766,4257.948614,4238.461435,4216.410153,4156.922975,4178.461436,4217.435794,4211.281948,4233.33323,4362.563996,4209.743487,4193.333231,4231.794768,4235.384512
97,0,4318.974253,4262.563998,4243.58964,4224.102461,4161.53836,4184.102462,4224.102461,4215.384512,4231.281948,4367.17938,4235.897332,4199.487077,4244.615281,4242.051178
98,0,4319.487074,4263.076819,4242.563999,4225.128102,4275.384511,4197.948615,4227.179384,4218.461435,4233.33323,4359.999893,4234.358871,4197.435795,4240.512717,4243.076819
99,0,4317.435792,4265.640921,4233.33323,4222.563999,4211.794769,4186.153744,4211.794769,4212.307589,4225.640922,4352.820406,4215.384512,4195.897333,4235.384512,4242.051178
100,0,4329.743484,4279.999895,4242.051178,4229.743486,4153.846052,4171.79477,4207.692205,4211.794769,4215.897333,4350.769124,4233.84605,4209.743487,4247.692204,4251.281947
101,0,4332.307586,4282.051177,4250.769127,4231.794768,4196.410154,4185.128103,4217.948615,4218.461435,4225.128102,4365.640919,4247.692204,4212.82041,4251.281947,4254.871691
102,0,4329.743484,4276.922972,4246.666563,4228.717845,4192.82041,4193.846051,4218.461435,4221.025538,4246.153742,4365.640919,4239.487076,4206.153743,4245.128101,4254.35887
103,0,4339.999894,4282.563998,4245.128101,4231.281948,4239.487076,4188.717846,4214.871692,4219.999897,4253.333229,4345.640919,4242.563999,4210.256307,4246.153742,4262.051178
104,0,4339.999894,4284.102459,4247.179383,4232.307589,4267.692203,4183.589641,4215.384512,4216.410153,4235.384512,4345.640919,4237.435794,4210.256307,4236.922973,4259.487075
105,0,4329.743484,4280.512716,4249.230665,4234.358871,4152.307591,4186.153744,4220.512717,4215.897333,4214.358871,4350.769124,4218.461435,4204.102461,4222.051179,4249.743486
106,0,4324.102458,4277.948613,4246.666563,4233.33323,4143.076822,4190.256308,4224.102461,4217.948615,4209.743487,4349.743483,4208.205025,4201.538359,4221.025538,4246.153742
107,0,4313.846048,4264.10246,4236.922973,4224.615281,4195.897333,4174.871693,4221.025538,4211.794769,4213.846051,4354.358868,4202.051179,4198.461436,4218.974256,4242.051178
108,0,4304.615279,4257.948614,4241.025537,4224.102461,4187.179385,4172.820411,4230.769127,4215.384512,4223.07682,4343.076817,4206.153743,4199.999897,4214.358871,4241.025537
109,0,4305.1281,4259.999896,4248.717845,4225.640922,4222.051179,4199.487077,4240.512717,4231.281948,4232.820409,4327.179381,4207.179384,4200.512718,4215.384512,4242.051178
110,0,4296.922972,4250.256306,4241.025537,4223.07682,4163.076821,4192.82041,4223.07682,4219.999897,4218.461435,4329.743484,4195.897333,4193.846051,4213.846051,4236.922973
111,0,4296.922972,4249.230665,4242.563999,4228.717845,4107.179387,4169.743488,4206.153743,4195.384513,4209.743487,4342.051176,4212.307589,4199.487077,4217.435794,4240.512717
112,0,4307.179382,4265.128101,4249.230665,4235.384512,4256.410152,4184.102462,4215.384512,4203.07682,4232.307589,4364.615278,4226.153743,4204.615282,4220.512717,4246.153742
113,0,4302.563997,4265.128101,4245.128101,4232.307589,4276.410152,4188.717846,4217.948615,4221.025538,4225.640922,4361.538355,4208.717846,4199.999897,4219.999897,4242.563999
114,0,4303.589638,4257.948614,4252.820409,4231.794768,4131.794771,4176.410154,4215.384512,4213.33323,4196.410154,4333.333227,4215.897333,4203.07682,4226.666563,4244.10246
115,0,4317.435792,4266.153742,4265.640921,4236.922973,4189.230667,4188.205026,4223.58964,4212.307589,4218.461435,4361.538355,4234.871691,4211.794769,4231.281948,4255.897332
116,0,4306.666561,4259.999896,4254.35887,4233.33323,4238.974255,4188.205026,4221.025538,4227.692204,4246.666563,4395.897328,4217.948615,4202.051179,4218.461435,4247.179383
117,0,4286.666562,4242.051178,4239.999896,4228.717845,4124.615284,4178.461436,4222.563999,4221.538358,4222.563999,4342.051176,4211.794769,4191.281949,4210.769128,4227.692204
118,0,4293.846049,4241.538358,4246.666563,4228.205025,4175.384513,4195.897333,4234.871691,4212.307589,4212.307589,4312.307587,4231.794768,4197.948615,4216.410153,4230.769127
119,0,4304.615279,4250.769127,4256.410152,4232.307589,4267.692203,4199.999897,4227.179384,4213.846051,4238.974255,4353.333227,4230.769127,4207.179384,4219.487076,4241.025537
120,0,4297.435792,4251.794768,4252.307588,4234.871691,4172.820411,4181.025539,4211.281948,4206.666564,4228.205025,4358.461432,4223.07682,4202.051179,4214.358871,4230.769127
121,0,4291.281946,4244.10246,4245.640922,4227.179384,4151.79477,4179.487077,4215.384512,4204.102461,4206.666564,4351.281945,4239.999896,4197.435795,4214.358871,4226.666563
122,0,4294.87169,4242.563999,4249.230665,4223.58964,4236.410153,4192.30759,4222.563999,4217.948615,4226.153743,4357.435791,4253.84605,4202.051179,4220.512717,4237.435794
123,0,4301.025536,4246.153742,4251.794768,4229.743486,4192.30759,4187.179385,4218.974256,4218.974256,4234.871691,4337.435791,4243.076819,4198.974256,4217.435794,4231.794768
124,0,4308.205023,4249.743486,4249.230665,4234.871691,4130.76913,4170.256308,4217.948615,4223.07682,4237.948614,4343.589637,4252.307588,4199.487077,4215.384512,4224.102461
125,0,4312.307587,4248.205024,4251.794768,4231.281948,4203.07682,4169.743488,4218.461435,4241.025537,4257.948614,4368.205021,4276.410152,4209.230666,4222.051179,4234.871691
126,0,4302.051177,4237.435794,4251.281947,4221.025538,4233.33323,4187.179385,4222.051179,4226.666563,4237.948614,4350.769124,4257.435793,4202.051179,4212.307589,4228.717845
127,0,4291.794767,4230.256307,4242.563999,4215.384512,4165.640924,4189.743487,4213.846051,4195.897333,4195.897333,4327.179381,4242.563999,4191.281949,4201.538359,4215.897333
128,0,4297.948613,4242.051178,4243.076819,4219.487076,4150.769129,4181.538359,4199.999897,4202.051179,4221.025538,4335.384509,4268.205024,4201.538359,4215.897333,4229.743486
0,0,4297.948613,4246.666563,4247.179383,4221.025538,4175.897334,4186.153744,4208.205025,4230.769127,4261.538357,4358.974252,4279.999895,4208.717846,4226.666563,4236.410153
1,0,4288.717844,4231.281948,4241.538358,4216.410153,4176.922975,4194.871692,4222.051179,4230.256307,4237.435794,4370.769124,4268.205024,4205.640923,4214.871692,4224.615281
2,0,4286.153741,4227.179384,4231.794768,4216.410153,4198.974256,4190.769128,4212.307589,4201.025538,4208.717846,4336.922971,4263.589639,4199.487077,4204.615282,4220.512717
3,0,4288.205023,4235.897332,4230.769127,4218.461435,4208.717846,4183.076821,4204.102461,4194.871692,4222.563999,4317.435792,4261.025537,4192.82041,4204.615282,4227.692204
4,0,4278.461434,4223.58964,4232.307589,4213.846051,4154.871693,4181.025539,4221.538358,4215.897333,4243.076819,4375.384508,4255.384511,4190.769128,4202.051179,4223.58964
5,0,4264.10246,4207.179384,4229.743486,4211.281948,4117.435797,4185.640923,4232.820409,4228.717845,4247.179383,4398.461431,4256.922973,4191.281949,4199.999897,4210.769128
6,0,4269.230665,4223.07682,4229.230666,4215.897333,4172.30759,4192.82041,4224.102461,4226.153743,4241.538358,4352.307586,4261.538357,4192.82041,4202.564,4209.230666
7,0,4286.666562,4243.076819,4234.358871,4218.974256,4236.410153,4198.461436,4218.974256,4223.07682,4224.102461,4367.692201,4262.051178,4192.82041,4199.999897,4213.33323
8,0,4283.076818,4235.897332,4230.769127,4216.410153,4196.922974,4196.410154,4217.435794,4215.384512,4209.743487,4402.563995,4246.666563,4184.615282,4184.615282,4199.999897
9,0,4271.794767,4225.640922,4224.615281,4215.384512,4113.846053,4187.692205,4217.435794,4209.743487,4223.07682,4368.717842,4233.33323,4177.435795,4178.974257,4189.230667
10,0,4289.230664,4234.871691,4237.435794,4222.051179,4149.230668,4184.615282,4223.58964,4223.58964,4244.615281,4363.589637,4254.871691,4197.948615,4196.410154,4208.717846
11,0,4293.846049,4235.384512,4241.025537,4218.461435,4201.538359,4187.179385,4222.563999,4226.666563,4227.692204,4420.512712,4263.076819,4210.769128,4198.974256,4213.846051
12,0,4274.87169,4224.102461,4229.743486,4208.717846,4146.666565,4184.102462,4215.897333,4217.948615,4212.82041,4440.512712,4254.35887,4204.615282,4189.230667,4197.435795
13,0,4281.025536,4228.205025,4233.84605,4210.256307,4167.692206,4188.717846,4225.128102,4228.205025,4250.256306,4429.230661,4271.281947,4210.769128,4201.025538,4205.640923
14,0,4289.230664,4235.384512,4238.974255,4216.410153,4251.281947,4198.974256,4229.230666,4227.692204,4252.307588,4427.692199,4274.87169,4209.230666,4205.128102,4211.281948
15,0,4275.384511,4232.820409,4229.743486,4217.948615,4187.692205,4199.487077,4215.384512,4207.179384,4212.82041,4413.333225,4256.922973,4204.615282,4190.256308,4188.717846
16,0,4273.846049,4230.256307,4231.281948,4218.461435,4092.820413,4186.666564,4213.33323,4218.461435,4230.769127,4412.307584,4273.333229,4192.82041,4194.871692,4187.692205
17,0,4282.563998,4231.281948,4235.384512,4216.922974,4155.384514,4168.717847,4216.922974,4238.461435,4254.35887,4410.769123,4295.38451,4117.948617,4207.179384,4204.615282
18,0,4283.076818,4238.974255,4229.743486,4220.512717,4221.538358,4170.256308,4213.846051,4219.487076,4207.692205,4395.384508,4281.025536,4039.999901,4201.025538,4200.512718
19,0,4285.640921,4247.692204,4233.84605,4228.717845,4176.410154,4194.871692,4221.538358,4205.128102,4186.666564,4444.102455,4278.461434,4052.307593,4204.615282,4199.999897
20,0,4280.512716,4240.512717,4234.358871,4224.102461,4203.589641,4206.666564,4232.307589,4236.410153,4257.435793,4508.717838,4294.358869,4087.179387,4213.33323,4207.179384
21,0,4261.538357,4224.615281,4218.461435,4213.846051,4277.948613,4198.974256,4235.897332,4261.538357,4293.333228,4481.025531,4276.922972,4080.512721,4198.974256,4194.358872
22,0,4256.922973,4223.07682,4212.82041,4215.384512,4195.897333,4197.435795,4231.794768,4235.897332,4236.922973,4448.71784,4248.205024,4086.153746,4196.410154,4188.717846
23,0,4253.84605,4225.128102,4210.769128,4218.461435,4096.922977,4199.487077,4218.461435,4203.07682,4191.794769,4464.615275,4231.281948,4097.948618,4199.487077,4190.256308
24,0,4246.153742,4227.179384,4203.589641,4216.922974,4185.640923,4194.871692,4213.33323,4208.205025,4208.717846,4436.922968,4227.692204,4097.948618,4182.564,4179.999898
25,0,4256.410152,4236.410153,4209.230666,4219.487076,4276.922972,4199.999897,4224.615281,4225.128102,4230.769127,4418.974251,4248.205024,4113.846053,4182.564,4189.743487
26,0,4268.205024,4232.307589,4210.256307,4220.512717,4178.974257,4203.07682,4224.615281,4214.871692,4219.487076,4471.794762,4253.84605,4122.564002,4202.051179,4208.205025
27,0,4261.025537,4216.410153,4199.487077,4215.897333,4122.051181,4191.794769,4209.743487,4198.461436,4207.179384,4498.461428,4239.487076,4120.51272,4205.128102,4200.512718
28,0,4262.563998,4211.794769,4209.230666,4216.410153,4167.692206,4182.564,4220.512717,4223.58964,4228.717845,4498.974249,4260.512716,4140.512719,4207.692205,4207.692205
29,0,4278.461434,4218.461435,4225.640922,4219.487076,4169.230667,4189.230667,4240.512717,4249.743486,4255.897332,4531.28194,4287.692203,4159.999898,4222.051179,4235.897332
30,0,4276.410152,4213.33323,4216.922974,4213.846051,4157.948616,4192.82041,4236.410153,4236.922973,4242.051178,4530.76912,4269.230665,4147.692206,4221.538358,4232.820409
31,0,4260.512716,4199.999897,4209.743487,4208.205025,4192.30759,4191.794769,4236.410153,4238.461435,4223.58964,4502.051172,4249.743486,4136.410155,4210.256307,4211.794769
32,0,4264.61528,4203.07682,4221.025538,4213.33323,4252.307588,4203.07682,4242.563999,4247.179383,4237.948614,4534.871684,4255.897332,4151.28195,4210.256307,4212.82041
33,0,4280.512716,4214.358871,4228.205025,4221.025538,4216.410153,4202.564,4224.615281,4202.051179,4225.640922,4554.358863,4264.10246,4160.512719,4218.461435,4218.974256
34,0,4280.512716,4215.897333,4223.58964,4220.512717,4107.179387,4182.564,4205.128102,4171.281949,4202.051179,4507.179377,4273.846049,4148.205027,4216.922974,4209.230666
35,0,4276.922972,4216.922974,4219.487076,4216.410153,4131.28195,4184.615282,4215.384512,4206.666564,4224.615281,4500.51271,4280.512716,4140.512719,4211.281948,4197.948615
36,0,4288.205023,4225.640922,4223.07682,4215.897333,4261.538357,4203.07682,4227.179384,4224.102461,4243.58964,4524.102453,4286.153741,4149.743488,4218.461435,4197.948615
37,0,4294.358869,4224.615281,4227.179384,4217.435794,4262.051178,4203.07682,4221.025538,4211.281948,4232.307589,4517.948607,4298.974254,4157.435796,4225.128102,4198.461436
38,0,4281.025536,4223.07682,4222.563999,4217.948615,4158.461437,4191.794769,4213.846051,4213.846051,4228.205025,4496.922967,4298.461433,4149.743488,4214.358871,4184.615282
39,0,4278.974254,4230.256307,4221.538358,4218.974256,4165.128103,4191.281949,4220.512717,4217.948615,4238.974255,4472.820403,4293.333228,4150.769129,4211.794769,4182.564
40,0,4291.281946,4224.615281,4232.307589,4219.487076,4213.33323,4202.051179,4235.384512,4221.025538,4238.461435,4473.846044,4301.025536,4165.640924,4224.102461,4198.461436
41,0,4288.717844,4211.794769,4236.922973,4217.948615,4198.461436,4207.179384,4229.230666,4215.897333,4213.33323,4494.358864,4296.922972,4168.717847,4221.538358,4199.999897
42,0,4279.487075,4219.999897,4230.256307,4221.025538,4167.692206,4195.897333,4218.974256,4207.179384,4213.846051,4481.538352,4289.743485,4166.153744,4211.281948,4190.256308
43,0,4291.794767,4232.820409,4233.84605,4230.769127,4166.666565,4187.179385,4226.153743,4217.948615,4249.743486,4468.717839,4301.538356,4178.461436,4215.897333,4195.897333
44,0,4298.974254,4224.615281,4236.410153,4229.743486,4199.487077,4189.230667,4224.102461,4219.999897,4249.743486,4494.358864,4298.974254,4184.102462,4218.461435,4204.102461
45,0,4280.512716,4213.33323,4222.563999,4215.897333,4209.230666,4184.615282,4209.743487,4199.999897,4215.897333,4495.897326,4277.948613,4171.281949,4208.717846,4196.922974
46,0,4272.307588,4214.871692,4216.410153,4213.846051,4181.538359,4186.153744,4211.281948,4200.512718,4210.769128,4474.358865,4278.974254,4172.30759,4202.051179,4193.333231
47,0,4286.666562,4225.128102,4226.153743,4227.179384,4172.30759,4199.999897,4221.025538,4215.897333,4223.58964,4479.99989,4297.435792,4187.179385,4204.615282,4198.974256
48,0,4287.692203,4231.794768,4226.666563,4231.281948,4175.384513,4197.948615,4215.897333,4210.256307,4217.435794,4506.666556,4295.38451,4184.102462,4203.589641,4192.82041
49,0,4283.076818,4231.281948,4225.128102,4228.205025,4162.05118,4184.102462,4210.769128,4204.615282,4209.230666,4534.358863,4288.205023,4176.922975,4204.102461,4189.230667
50,0,4293.333228,4233.33323,4234.358871,4233.33323,4174.871693,4188.717846,4217.435794,4215.384512,4208.717846,4533.846043,4309.743484,4189.230667,4214.358871,4202.564
51,0,4296.410151,4233.33323,4233.84605,4229.743486,4188.205026,4201.025538,4217.435794,4218.461435,4209.743487,4528.717838,4324.615279,4197.948615,4218.974256,4207.692205
52,0,4283.076818,4222.563999,4220.512717,4218.461435,4211.281948,4204.102461,4207.179384,4206.666564,4214.358871,4553.846042,4304.102459,4189.743487,4205.640923,4192.30759
53,0,4273.333229,4215.384512,4219.999897,4217.435794,4221.025538,4195.384513,4205.640923,4198.461436,4221.538358,4565.640914,4285.640921,4186.153744,4194.871692,4180.512718
54,0,4274.35887,4218.461435,4231.794768,4227.692204,4131.794771,4187.692205,4215.384512,4206.153743,4218.974256,4541.02553,4303.589638,4202.051179,4208.717846,4193.333231
55,0,4270.769126,4214.358871,4232.307589,4225.128102,4095.897336,4192.82041,4216.410153,4217.435794,4214.871692,4528.205017,4326.15374,4216.410153,4227.179384,4205.640923
56,0,4270.769126,4209.230666,4228.717845,4219.999897,4211.281948,4199.999897,4214.358871,4217.435794,4224.615281,4546.666555,4327.692202,4222.051179,4231.281948,4203.589641
57,0,4279.999895,4215.384512,4238.974255,4227.179384,4268.205024,4199.487077,4223.07682,4218.974256,4238.461435,4573.333222,4329.743484,4229.230666,4231.794768,4207.179384
58,0,4277.435793,4218.461435,4245.128101,4226.153743,4162.564001,4192.82041,4222.563999,4221.025538,4232.820409,4569.230657,4333.333227,4230.769127,4225.640922,4212.82041
59,0,4264.61528,4210.256307,4231.281948,4219.999897,4118.461438,4186.666564,4203.589641,4205.640923,4219.487076,4530.256299,4332.307586,4222.051179,4213.33323,4199.487077
60,0,4271.281947,4213.846051,4229.230666,4229.230666,4225.640922,4186.153744,4196.922974,4197.948615,4223.07682,4530.76912,4343.076817,4226.666563,4223.07682,4196.922974
61,0,4282.563998,4224.102461,4239.999896,4234.358871,4255.384511,4188.205026,4211.794769,4210.769128,4226.666563,4567.179375,4363.076816,4238.974255,4235.897332,4209.743487
62,0,4276.922972,4221.538358,4240.512717,4225.128102,4178.974257,4189.743487,4220.512717,4215.897333,4224.615281,4558.461427,4361.025534,4236.922973,4225.640922,4209.743487
63,0,4276.410152,4221.025538,4237.435794,4225.128102,4191.794769,4196.410154,4216.410153,4211.794769,4225.640922,4527.179376,4350.256304,4233.84605,4222.051179,4207.179384
64,0,4283.589639,4229.230666,4238.461435,4228.205025,4245.640922,4203.589641,4217.435794,4216.410153,4232.307589,4538.974248,4362.051175,4240.512717,4234.358871,4217.435794
65,0,4278.974254,4223.58964,4236.410153,4221.025538,4216.410153,4201.538359,4217.435794,4220.512717,4238.974255,4563.076811,4371.281944,4239.999896,4234.871691,4217.948615
66,0,4268.717844,4213.846051,4231.281948,4217.948615,4187.692205,4196.410154,4207.692205,4214.358871,4231.281948,4548.717837,4361.025534,4236.922973,4229.230666,4210.769128
67,0,4265.128101,4223.07682,4232.820409,4223.07682,4162.564001,4187.692205,4195.384513,4205.128102,4213.846051,4521.538351,4354.871688,4236.410153,4232.307589,4209.230666
68,0,4274.35887,4234.871691,4238.974255,4229.743486,4139.999899,4178.974257,4193.333231,4199.999897,4208.717846,4532.307581,4363.589637,4237.435794,4235.384512,4211.794769
69,0,4284.61528,4232.307589,4239.999896,4229.230666,4231.794768,4184.615282,4198.974256,4203.07682,4228.205025,4543.076812,4367.692201,4240.512717,4233.84605,4216.922974
70,0,4285.640921,4230.256307,4237.948614,4221.538358,4284.102459,4188.717846,4200.512718,4205.128102,4233.33323,4510.2563,4367.17938,4241.538358,4232.820409,4215.897333
71,0,4283.589639,4235.384512,4235.897332,4222.563999,4198.461436,4185.640923,4199.487077,4198.461436,4214.871692,4489.74348,4361.538355,4235.897332,4232.307589,4209.743487
72,0,4278.461434,4234.358871,4233.33323,4227.179384,4161.025539,4188.717846,4201.025538,4197.948615,4209.743487,4531.794761,4345.128099,4228.205025,4226.666563,4206.153743
73,0,4269.743485,4229.743486,4229.743486,4220.512717,4171.281949,4186.153744,4200.512718,4202.051179,4223.07682,4556.922965,4340.512714,4226.666563,4221.025538,4206.153743
74,0,4267.179383,4230.769127,4229.743486,4215.897333,4200.512718,4188.205026,4200.512718,4202.051179,4222.051179,4487.179377,4356.92297,4229.230666,4222.563999,4208.205025
75,0,4272.307588,4237.948614,4231.794768,4221.538358,4255.384511,4201.025538,4203.07682,4196.922974,4206.153743,4449.743481,4357.435791,4227.179384,4221.538358,4205.128102
76,0,4270.256306,4236.410153,4230.256307,4221.025538,4202.051179,4195.897333,4203.07682,4199.999897,4209.743487,4508.717838,4332.820407,4223.07682,4213.33323,4197.435795
77,0,4267.692203,4231.794768,4229.743486,4217.435794,4160.512719,4182.05118,4208.717846,4212.307589,4227.179384,4530.256299,4333.846048,4226.666563,4218.461435,4199.999897
78,0,4273.846049,4240.512717,4229.743486,4222.563999,4225.640922,4190.769128,4211.794769,4209.743487,4216.410153,4481.025531,4353.846047,4232.820409,4228.717845,4204.615282
79,0,4279.487075,4251.281947,4231.281948,4233.33323,4193.333231,4200.512718,4203.07682,4195.897333,4201.025538,4460.512711,4350.256304,4235.384512,4225.128102,4203.07682
80,0,4281.538357,4251.794768,4235.384512,4229.230666,4169.230667,4199.487077,4202.051179,4197.948615,4219.999897,4486.153736,4344.615278,4236.922973,4224.102461,4207.692205
81,0,4275.897331,4246.666563,4231.794768,4213.846051,4235.384512,4193.846051,4202.564,4204.615282,4233.84605,4493.333223,4338.461432,4228.717845,4223.58964,4204.615282
82,0,4270.769126,4246.666563,4225.640922,4221.025538,4194.871692,4187.692205,4199.487077,4198.974256,4218.974256,4492.307582,4325.128099,4220.512717,4217.948615,4191.281949
83,0,4274.87169,4251.794768,4226.666563,4233.84605,4175.384513,4194.871692,4208.717846,4198.461436,4212.307589,4487.179377,4334.358868,4225.640922,4221.025538,4191.794769
84,0,4267.692203,4248.205024,4227.692204,4221.538358,4265.640921,4205.128102,4216.922974,4206.153743,4218.461435,4478.974249,4347.692201,4228.205025,4228.717845,4199.487077
85,0,4259.487075,4243.076819,4228.205025,4216.922974,4239.487076,4197.948615,4212.82041,4204.615282,4216.922974,4475.897326,4343.589637,4228.717845,4227.179384,4196.922974
86,0,4272.307588,4256.922973,4232.820409,4231.281948,4146.153745,4192.30759,4210.769128,4200.512718,4213.846051,4452.307583,4342.563996,4233.84605,4225.640922,4195.384513
87,0,4286.666562,4277.948613,4234.871691,4234.871691,4164.615283,4198.974256,4206.153743,4198.974256,4209.743487,4443.076814,4335.384509,4230.256307,4222.563999,4195.897333
88,0,4281.025536,4278.974254,4233.33323,4229.743486,4197.948615,4196.922974,4199.487077,4198.461436,4200.512718,4464.102455,4312.307587,4222.051179,4212.82041,4189.743487
89,0,4273.846049,4269.743485,4234.358871,4229.743486,4170.256308,4189.743487,4204.102461,4196.410154,4199.487077,4467.179378,4312.307587,4224.102461,4214.358871,4186.666564
90,0,4282.051177,4278.974254,4243.58964,4235.897332,4137.435796,4195.897333,4210.769128,4201.538359,4211.281948,4450.769122,4338.974253,4235.384512,4231.281948,4197.948615
91,0,4292.820408,4292.307587,4256.410152,4242.563999,4202.051179,4212.307589,4215.384512,4212.82041,4229.230666,4453.846045,4349.230663,4241.538358,4237.435794,4210.256307
92,0,4289.230664,4286.153741,4252.307588,4237.435794,4236.922973,4204.615282,4214.871692,4208.205025,4224.102461,4461.025532,4328.717843,4235.384512,4223.58964,4203.07682
93,0,4274.35887,4275.384511,4235.897332,4229.743486,4120.51272,4184.102462,4201.538359,4199.999897,4198.974256,4443.076814,4314.358869,4224.615281,4220.512717,4185.640923
94,0,4266.153742,4276.922972,4231.281948,4231.794768,4142.564001,4192.82041,4193.846051,4206.666564,4199.487077,4425.640917,4327.692202,4225.128102,4229.230666,4184.102462
95,0,4264.61528,4278.461434,4234.358871,4230.769127,4302.051177,4201.538359,4197.948615,4208.205025,4218.974256,4433.333225,4330.769125,4226.153743,4224.102461,4190.769128
96,0,4262.563998,4274.35887,4233.84605,4228.205025,4238.461435,4186.153744,4199.487077,4198.461436,4221.025538,4441.538353,4318.461433,4220.512717,4217.435794,4190.256308
97,0,4257.948614,4267.179383,4229.743486,4229.743486,4088.205028,4179.487077,4198.461436,4202.564,4209.743487,4429.230661,4321.538356,4220.512717,4218.461435,4185.640923
98,0,4251.281947,4261.025537,4228.205025,4228.205025,4161.53836,4187.179385,4197.435795,4211.794769,4204.615282,4417.435789,4330.769125,4228.205025,4219.487076,4186.153744
99,0,4260.512716,4268.205024,4242.051178,4230.256307,4263.076819,4195.384513,4203.07682,4213.846051,4216.922974,4428.71784,4334.358868,4235.384512,4226.153743,4194.358872
100,0,4279.487075,4278.974254,4258.974255,4241.025537,4206.153743,4203.589641,4218.974256,4227.179384,4232.307589,4439.487071,4344.615278,4242.563999,4237.948614,4204.102461
101,0,4270.256306,4268.205024,4246.153742,4237.435794,4139.999899,4201.025538,4218.461435,4228.205025,4221.025538,4417.435789,4343.589637,4236.922973,4233.33323,4196.922974
102,0,4248.717845,4255.384511,4228.717845,4227.179384,4179.487077,4193.846051,4208.717846,4218.461435,4206.666564,4408.20502,4331.794766,4230.256307,4226.666563,4188.717846
103,0,4251.281947,4260.512716,4233.84605,4228.205025,4225.640922,4204.102461,4213.33323,4223.07682,4208.717846,4435.384507,4330.769125,4229.743486,4229.230666,4192.82041
104,0,4258.974255,4260.512716,4237.948614,4230.256307,4183.076821,4207.179384,4217.435794,4225.128102,4206.153743,4449.743481,4333.846048,4225.640922,4230.256307,4190.769128
105,0,4251.794768,4252.307588,4233.33323,4227.692204,4178.974257,4201.025538,4213.33323,4215.384512,4195.897333,4428.71784,4341.538355,4225.640922,4231.794768,4188.205026
106,0,4247.692204,4252.820409,4232.820409,4230.256307,4250.769127,4210.256307,4215.384512,4215.384512,4188.205026,4407.179379,4346.15374,4231.281948,4231.794768,4189.230667
107,0,4248.717845,4254.35887,4230.769127,4232.820409,4223.58964,4211.281948,4218.974256,4222.563999,4184.615282,4396.922969,4331.794766,4226.666563,4228.205025,4183.076821
108,0,4243.076819,4254.35887,4224.615281,4228.205025,4135.897335,4197.948615,4214.871692,4216.922974,4197.435795,4392.307585,4326.666561,4220.512717,4227.179384,4178.461436
109,0,4252.820409,4264.61528,4233.84605,4238.461435,4173.333231,4208.717846,4217.435794,4216.410153,4218.461435,4412.820405,4349.230663,4233.33323,4233.33323,4196.922974
110,0,4265.128101,4269.743485,4242.563999,4246.666563,4242.051178,4219.999897,4219.487076,4221.025538,4204.102461,4422.051174,4352.307586,4238.461435,4236.410153,4210.256307
111,0,4256.922973,4256.410152,4234.358871,4235.384512,4211.281948,4201.538359,4212.82041,4217.435794,4184.615282,4398.974251,4333.846048,4223.58964,4232.820409,4196.410154
112,0,4251.281947,4250.256306,4231.281948,4229.743486,4198.974256,4202.564,4214.358871,4213.846051,4204.615282,4406.153738,4344.615278,4224.102461,4231.794768,4191.281949
113,0,4260.512716,4255.897332,4241.538358,4239.999896,4210.769128,4220.512717,4218.974256,4219.487076,4221.538358,4423.589635,4361.538355,4238.461435,4233.84605,4205.128102
114,0,4256.922973,4249.743486,4241.025537,4243.58964,4205.640923,4207.179384,4211.794769,4223.58964,4206.153743,4399.999892,4349.230663,4234.358871,4233.84605,4201.538359
115,0,4250.769127,4243.58964,4235.384512,4234.358871,4206.666564,4196.922974,4213.846051,4223.58964,4202.051179,4387.17938,4353.333227,4228.205025,4234.871691,4199.487077
116,0,4259.487075,4248.717845,4244.10246,4231.281948,4217.435794,4212.82041,4228.717845,4229.743486,4221.025538,4405.640918,4379.999893,4237.948614,4235.384512,4210.769128
117,0,4258.461434,4248.205024,4245.128101,4234.871691,4211.794769,4216.922974,4223.07682,4226.153743,4215.897333,4395.897328,4373.846047,4238.461435,4231.281948,4203.589641
118,0,4247.692204,4239.487076,4231.281948,4237.435794,4197.948615,4207.179384,4206.666564,4214.358871,4196.410154,4379.999893,4355.384509,4227.179384,4228.205025,4189.230667
119,0,4246.666563,4232.820409,4228.205025,4234.871691,4197.435795,4205.640923,4205.128102,4208.205025,4194.358872,4381.538354,4370.256303,4225.128102,4231.281948,4203.07682
120,0,4248.205024,4229.230666,4233.84605,4230.256307,4177.435795,4205.128102,4206.666564,4209.230666,4203.07682,4383.076816,4392.820405,4230.256307,4240.512717,4214.871692
121,0,4245.640922,4232.307589,4228.717845,4231.281948,4169.743488,4203.07682,4202.564,4206.153743,4204.615282,4376.92297,4390.256303,4229.743486,4243.58964,4205.128102
122,0,4243.076819,4232.307589,4219.487076,4231.281948,4176.410154,4200.512718,4199.999897,4201.538359,4197.435795,4360.512714,4379.487072,4223.07682,4235.897332,4198.461436
123,0,4243.58964,4229.230666,4219.487076,4229.743486,4214.358871,4200.512718,4198.461436,4204.615282,4198.974256,4360.512714,4382.563995,4216.410153,4230.256307,4197.948615
124,0,4245.640922,4230.256307,4223.58964,4235.384512,4228.717845,4206.153743,4205.640923,4214.358871,4214.871692,4396.410149,4397.94861,4222.051179,4236.410153,4201.025538
125,0,4246.666563,4227.692204,4225.640922,4242.563999,4165.128103,4208.717846,4217.948615,4220.512717,4221.025538,4397.43579,4413.846046,4227.692204,4239.999896,4206.666564
126,0,4243.58964,4217.435794,4223.58964,4235.384512,4163.076821,4203.07682,4214.358871,4213.33323,4213.846051,4349.230663,4416.410148,4222.563999,4234.358871,4204.102461
127,0,4238.461435,4213.846051,4215.897333,4228.205025,4235.384512,4200.512718,4208.205025,4210.256307,4213.33323,4349.230663,4415.384507,4219.999897,4230.769127,4196.922974
128,0,4235.897332,4216.922974,4212.307589,4234.358871,4239.999896,4207.179384,4211.794769,4212.82041,4214.358871,4370.256303,4419.999892,4220.512717,4228.205025,4194.871692
0,0,4242.051178,4215.897333,4223.07682,4234.358871,4171.281949,4217.435794,4220.512717,4215.384512,4212.307589,4373.846047,4436.410148,4222.051179,4231.281948,4203.589641
1,0,4249.230665,4217.948615,4226.153743,4229.230666,4178.461436,4220.512717,4221.538358,4219.487076,4214.358871,4393.333226,4451.794763,4226.153743,4236.922973,4210.256307
2,0,4243.076819,4214.871692,4213.33323,4231.281948,4229.230666,4214.871692,4214.871692,4216.922974,4213.33323,4382.051175,4445.128096,4221.025538,4231.281948,4202.051179
3,0,4243.076819,4205.640923,4222.051179,4235.384512,4207.179384,4213.846051,4221.025538,4214.358871,4218.974256,4350.769124,4443.076814,4218.974256,4228.205025,4199.487077
4,0,4248.717845,4206.153743,4236.410153,4234.871691,4177.435795,4218.461435,4231.281948,4217.948615,4231.794768,4353.333227,4461.025532,4226.153743,4234.871691,4207.179384
5,0,4238.461435,4203.07682,4222.563999,4225.128102,4215.384512,4218.974256,4224.615281,4217.948615,4231.794768,4367.692201,4462.563993,4225.128102,4231.794768,4203.589641
6,0,4233.84605,4199.999897,4216.922974,4222.563999,4234.358871,4221.538358,4223.07682,4215.384512,4228.205025,4355.384509,4451.281942,4220.512717,4225.128102,4197.435795
7,0,4250.256306,4215.897333,4238.461435,4242.051178,4148.205027,4220.512717,4234.871691,4223.58964,4230.769127,4330.256304,4466.666557,4226.666563,4231.281948,4207.179384
8,0,4253.333229,4220.512717,4238.974255,4253.333229,4168.717847,4218.461435,4233.84605,4231.794768,4223.58964,4338.461432,4482.051172,4230.256307,4234.871691,4211.794769
9,0,4244.615281,4201.538359,4220.512717,4242.563999,4290.256305,4223.07682,4229.743486,4229.743486,4215.384512,4368.717842,4473.846044,4227.179384,4230.256307,4203.589641
10,0,4249.743486,4203.589641,4226.666563,4246.666563,4249.230665,4223.58964,4234.871691,4229.743486,4224.615281,4372.307585,4476.922967,4228.717845,4230.769127,4203.07682
11,0,4256.410152,4219.999897,4238.461435,4261.025537,4148.205027,4217.435794,4232.820409,4231.281948,4235.384512,4358.461432,4490.2563,4227.692204,4233.33323,4207.692205
12,0,4257.435793,4209.743487,4239.487076,4255.897332,4177.435795,4221.538358,4232.820409,4232.307589,4234.871691,4361.025534,4491.281941,4227.692204,4235.384512,4209.743487
13,0,4257.435793,4194.871692,4235.897332,4245.128101,4183.589641,4221.538358,4239.487076,4232.820409,4229.230666,4343.589637,4492.307582,4229.230666,4233.84605,4211.281948
14,0,4252.307588,4203.07682,4226.153743,4246.153742,4170.256308,4214.358871,4229.230666,4224.102461,4224.615281,4318.461433,4490.769121,4226.153743,4229.230666,4208.205025
15,0,4250.769127,4215.384512,4220.512717,4252.820409,4254.35887,4224.102461,4225.128102,4217.948615,4229.230666,4342.563996,4484.615275,4227.692204,4227.179384,4204.615282
16,0,4266.666562,4224.615281,4238.974255,4269.743485,4278.461434,4241.025537,4249.230665,4237.948614,4245.640922,4360.512714,4507.179377,4244.615281,4234.358871,4215.897333
17,0,4271.794767,4221.538358,4250.256306,4274.87169,4204.102461,4236.922973,4257.948614,4249.230665,4248.717845,4335.384509,4529.230658,4248.205024,4239.999896,4225.640922
18,0,4251.794768,4207.179384,4227.179384,4249.743486,4166.666565,4222.563999,4232.820409,4230.256307,4229.230666,4319.999894,4502.563992,4224.102461,4234.871691,4211.794769
19,0,4246.666563,4206.153743,4215.384512,4242.051178,4181.025539,4223.58964,4224.615281,4216.922974,4222.563999,4336.922971,4485.128095,4215.384512,4227.179384,4202.051179
20,0,4264.10246,4218.461435,4232.307589,4271.281947,4193.846051,4234.358871,4238.974255,4222.051179,4233.84605,4357.948611,4508.717838,4233.84605,4234.871691,4216.922974
21,0,4265.128101,4218.974256,4236.922973,4273.333229,4239.999896,4232.820409,4238.461435,4226.153743,4234.871691,4350.256304,4515.897325,4235.384512,4242.051178,4223.58964
22,0,4258.974255,4215.897333,4233.84605,4248.717845,4275.384511,4231.281948,4235.897332,4228.717845,4232.820409,4325.128099,4508.717838,4229.230666,4238.974255,4216.410153
23,0,4274.87169,4230.256307,4248.205024,4260.512716,4235.384512,4243.076819,4248.205024,4235.897332,4235.897332,4335.89733,4526.666556,4241.025537,4241.538358,4223.07682
24,0,4286.153741,4239.487076,4252.307588,4279.487075,4212.307589,4242.563999,4247.179383,4231.281948,4228.717845,4364.615278,4536.410145,4244.10246,4244.10246,4232.307589
25,0,4276.922972,4233.33323,4239.999896,4265.640921,4259.487075,4230.256307,4233.84605,4223.07682,4223.58964,4356.41015,4530.256299,4233.33323,4241.025537,4227.179384
26,0,4277.948613,4229.230666,4253.333229,4261.538357,4277.435793,4231.794768,4237.948614,4228.205025,4239.999896,4337.948612,4531.28194,4236.410153,4238.974255,4225.640922
27,0,4282.051177,4229.230666,4262.563998,4271.281947,4220.512717,4234.871691,4246.666563,4233.33323,4253.333229,4333.846048,4533.333222,4242.051178,4238.974255,4227.692204
28,0,4278.461434,4231.281948,4246.666563,4259.999896,4217.435794,4241.025537,4246.153742,4233.33323,4250.256306,4336.922971,4535.897325,4243.076819,4244.10246,4229.743486
29,0,4276.410152,4231.794768,4241.538358,4250.769127,4249.743486,4241.538358,4242.051178,4234.358871,4244.10246,4342.051176,4535.384504,4244.10246,4247.692204,4227.179384
30,0,4280.512716,4238.974255,4247.179383,4265.128101,4238.974255,4230.769127,4242.563999,4235.384512,4242.051178,4341.538355,4543.076812,4248.205024,4245.128101,4227.692204
31,0,4282.563998,4243.58964,4249.743486,4270.256306,4241.025537,4238.461435,4245.128101,4232.307589,4242.051178,4344.615278,4552.820401,4250.769127,4244.10246,4233.33323
32,0,4281.538357,4231.794768,4253.84605,4263.076819,4248.205024,4253.84605,4251.281947,4233.33323,4237.948614,4360.512714,4540.512709,4244.10246,4243.58964,4230.769127
33,0,4281.538357,4228.205025,4253.84605,4259.999896,4232.307589,4243.076819,4252.820409,4237.435794,4228.717845,4341.025535,4525.128094,4238.461435,4237.435794,4225.128102
34,0,4284.102459,4243.076819,4240.512717,4263.589639,4243.58964,4234.871691,4245.640922,4234.871691,4236.922973,4303.589638,4533.846043,4241.538358,4241.025537,4230.769127
35,0,4287.179382,4246.153742,4239.999896,4269.230665,4270.769126,4245.640922,4241.025537,4233.84605,4263.589639,4334.358868,4542.563991,4243.58964,4248.717845,4239.487076
36,0,4285.1281,4238.974255,4252.820409,4265.640921,4254.35887,4248.205024,4246.666563,4240.512717,4268.717844,4374.358867,4535.384504,4244.10246,4245.640922,4237.948614
37,0,4288.717844,4246.153742,4257.948614,4257.948614,4271.281947,4252.307588,4256.922973,4247.179383,4251.794768,4353.846047,4537.948607,4251.794768,4246.153742,4242.563999
38,0,4291.794767,4249.230665,4249.230665,4267.179383,4282.563998,4258.461434,4255.384511,4246.153742,4245.128101,4322.563997,4543.589632,4252.307588,4249.743486,4249.230665
39,0,4285.640921,4243.58964,4242.051178,4269.230665,4190.769128,4241.538358,4245.128101,4243.58964,4247.692204,4326.666561,4537.948607,4247.692204,4250.256306,4246.666563
40,0,4287.692203,4241.538358,4255.384511,4250.769127,4184.615282,4232.820409,4246.666563,4245.128101,4248.205024,4333.846048,4528.717838,4248.205024,4248.717845,4243.076819
41,0,4287.692203,4235.384512,4259.999896,4253.333229,4279.487075,4243.58964,4252.820409,4239.999896,4245.640922,4305.1281,4515.384505,4243.076819,4238.461435,4239.999896
42,0,4278.461434,4234.871691,4245.128101,4266.153742,4255.384511,4243.076819,4244.10246,4231.281948,4241.025537,4301.538356,4507.692197,4239.487076,4234.358871,4233.84605
43,0,4276.410152,4249.230665,4241.025537,4261.538357,4207.692205,4237.435794,4235.897332,4229.743486,4243.58964,4334.871689,4511.794761,4245.640922,4241.538358,4236.922973
44,0,4279.999895,4250.769127,4247.179383,4258.461434,4257.948614,4242.051178,4244.10246,4233.84605,4251.281947,4334.871689,4519.999889,4246.666563,4243.58964,4241.025537
45,0,4283.076818,4234.358871,4254.871691,4260.512716,4293.846049,4248.717845,4251.794768,4234.871691,4245.128101,4301.025536,4524.102453,4247.179383,4244.615281,4241.538358
46,0,4281.538357,4235.384512,4253.84605,4256.410152,4263.076819,4246.666563,4244.10246,4232.307589,4234.871691,4296.922972,4514.871684,4246.666563,4244.615281,4238.974255
47,0,4274.87169,4247.179383,4241.025537,4261.025537,4214.871692,4244.10246,4241.538358,4231.281948,4242.051178,4311.794766,4502.563992,4237.948614,4235.384512,4232.307589
48,0,4270.769126,4241.025537,4238.974255,4261.025537,4213.846051,4248.205024,4249.743486,4233.33323,4248.717845,4306.153741,4508.717838,4235.384512,4230.256307,4229.230666
49,0,4273.333229,4227.179384,4247.692204,4244.10246,4242.051178,4248.205024,4243.58964,4231.794768,4241.025537,4290.256305,4518.974248,4238.461435,4232.307589,4234.358871
50,0,4268.205024,4227.692204,4239.487076,4245.640922,4212.82041,4242.563999,4235.897332,4228.205025,4241.538358,4287.179382,4511.281941,4234.871691,4233.84605,4234.871691
51,0,4266.153742,4242.051178,4229.743486,4264.61528,4217.435794,4249.230665,4248.205024,4231.794768,4249.230665,4312.820407,4501.538351,4235.384512,4239.487076,4235.897332
52,0,4278.974254,4252.307588,4236.410153,4269.230665,4325.64092,4259.487075,4251.281947,4236.410153,4241.538358,4325.64092,4513.846043,4245.640922,4242.563999,4244.615281
53,0,4276.410152,4242.051178,4236.410153,4258.461434,4301.538356,4241.538358,4232.307589,4229.743486,4229.230666,4292.820408,4513.846043,4238.461435,4233.33323,4237.435794
54,0,4262.563998,4228.205025,4228.205025,4258.974255,4161.025539,4222.563999,4225.128102,4223.58964,4233.84605,4281.025536,4493.846044,4224.615281,4228.205025,4222.051179
55,0,4269.230665,4234.871691,4233.84605,4265.640921,4210.256307,4237.948614,4237.435794,4229.743486,4246.153742,4312.307587,4495.897326,4230.769127,4235.897332,4231.281948
56,0,4281.025536,4246.666563,4247.179383,4257.435793,4301.025536,4250.769127,4236.410153,4233.84605,4249.743486,4323.589638,4506.666556,4241.538358,4238.461435,4242.563999
57,0,4277.435793,4246.153742,4244.10246,4251.794768,4231.281948,4237.948614,4228.205025,4231.794768,4248.205024,4301.538356,4497.948608,4238.974255,4232.307589,4239.487076
58,0,4276.922972,4243.076819,4234.358871,4263.076819,4207.179384,4237.435794,4229.230666,4231.281948,4243.076819,4286.666562,4494.358864,4235.897332,4230.256307,4239.999896
59,0,4277.435793,4244.615281,4233.84605,4263.076819,4248.205024,4244.615281,4233.33323,4231.794768,4234.871691,4279.999895,4503.589633,4239.487076,4233.33323,4241.538358
60,0,4269.230665,4244.615281,4242.563999,4251.281947,4242.563999,4238.461435,4236.410153,4230.256307,4236.410153,4281.538357,4495.384505,4239.487076,4235.384512,4238.461435
61,0,4264.10246,4237.948614,4241.538358,4248.717845,4293.333228,4236.922973,4236.922973,4231.281948,4245.128101,4302.563997,4479.99989,4233.84605,4233.84605,4239.487076
62,0,4263.076819,4230.256307,4228.205025,4242.051178,4285.640921,4239.487076,4231.794768,4229.743486,4238.461435,4308.205023,4475.384506,4226.153743,4232.820409,4238.461435
63,0,4256.410152,4235.384512,4219.487076,4238.974255,4156.922975,4229.743486,4225.640922,4225.128102,4224.615281,4287.692203,4459.999891,4219.487076,4228.717845,4226.666563
64,0,4258.461434,4244.615281,4227.692204,4252.820409,4203.07682,4227.692204,4227.179384,4228.205025,4233.33323,4280.512716,4452.820404,4226.153743,4225.640922,4226.666563
65,0,4264.61528,4242.563999,4233.84605,4256.922973,4317.948612,4234.358871,4232.307589,4232.820409,4245.640922,4263.076819,4466.666557,4234.871691,4227.179384,4236.922973
66,0,4263.076819,4241.025537,4227.692204,4249.743486,4218.974256,4230.769127,4230.256307,4231.794768,4237.948614,4253.333229,4468.205019,4233.33323,4230.769127,4237.435794
67,0,4266.153742,4244.10246,4236.410153,4246.666563,4177.435795,4231.281948,4231.794768,4233.84605,4230.256307,4293.333228,4461.025532,4233.33323,4233.84605,4238.974255
68,0,4272.307588,4245.640922,4245.640922,4248.205024,4256.410152,4236.922973,4238.974255,4236.410153,4235.897332,4317.435792,4461.025532,4241.025537,4232.820409,4245.640922
69,0,4268.205024,4249.230665,4235.384512,4251.794768,4249.230665,4236.410153,4241.025537,4234.358871,4236.922973,4291.794767,4454.871686,4239.999896,4232.307589,4240.512717
70,0,4257.948614,4246.153742,4225.128102,4248.205024,4252.307588,4236.410153,4232.307589,4228.717845,4221.538358,4276.410152,4441.025532,4227.179384,4231.794768,4228.205025
71,0,4251.794768,4233.33323,4219.487076,4237.435794,4238.461435,4233.33323,4220.512717,4221.025538,4211.281948,4281.025536,4438.97425,4220.512717,4225.128102,4225.128102
72,0,4253.333229,4233.84605,4217.948615,4237.948614,4172.30759,4228.717845,4223.07682,4220.512717,4223.07682,4267.179383,4442.563994,4225.640922,4217.948615,4227.179384
73,0,4256.410152,4235.897332,4232.307589,4243.58964,4239.487076,4232.307589,4234.871691,4231.794768,4237.948614,4257.948614,4438.46143,4226.666563,4217.948615,4229.743486
74,0,4246.666563,4220.512717,4236.922973,4232.820409,4317.948612,4231.281948,4232.307589,4232.307589,4230.769127,4263.076819,4427.179379,4216.410153,4218.461435,4229.230666
75,0,4232.820409,4219.487076,4211.281948,4222.051179,4234.871691,4219.999897,4220.512717,4218.974256,4216.410153,4262.563998,4413.846046,4213.846051,4215.897333,4222.051179
76,0,4231.794768,4230.769127,4203.589641,4222.051179,4190.769128,4216.922974,4217.435794,4215.897333,4216.922974,4259.999896,4414.871687,4217.948615,4216.410153,4216.922974
77,0,4232.820409,4230.769127,4220.512717,4228.717845,4202.051179,4217.948615,4219.487076,4218.461435,4215.897333,4238.974255,4424.102456,4218.461435,4217.435794,4219.999897
78,0,4229.743486,4229.230666,4217.435794,4239.487076,4149.743488,4212.82041,4215.897333,4217.948615,4210.256307,4212.82041,4422.563994,4221.025538,4217.948615,4221.538358
79,0,4233.33323,4232.820409,4212.307589,4239.999896,4227.692204,4218.461435,4216.922974,4228.717845,4220.512717,4229.743486,4417.94861,4225.640922,4218.461435,4223.07682
80,0,4234.358871,4229.743486,4225.128102,4231.794768,4326.15374,4226.666563,4219.999897,4233.33323,4231.794768,4277.435793,4411.794764,4219.999897,4214.358871,4224.615281
81,0,4227.692204,4222.051179,4229.743486,4231.281948,4189.230667,4215.897333,4214.358871,4221.025538,4219.999897,4275.384511,4409.230661,4211.794769,4211.281948,4221.025538
82,0,4236.922973,4224.615281,4232.820409,4237.435794,4133.846053,4216.410153,4221.538358,4222.563999,4214.358871,4242.563999,4434.358866,4222.563999,4222.563999,4226.153743
83,0,4245.128101,4231.281948,4234.358871,4235.384512,4305.1281,4232.307589,4236.922973,4236.410153,4229.743486,4251.281947,4450.769122,4231.794768,4232.307589,4234.871691
84,0,4228.717845,4232.820409,4212.307589,4227.692204,4301.538356,4226.153743,4225.640922,4230.256307,4233.33323,4274.87169,4426.153738,4216.922974,4223.58964,4227.692204
85,0,4222.563999,4230.256307,4205.128102,4231.794768,4198.974256,4213.846051,4201.538359,4217.435794,4222.051179,4252.820409,4415.384507,4210.769128,4212.82041,4221.538358
86,0,4234.871691,4222.051179,4223.07682,4231.794768,4272.820408,4220.512717,4198.461436,4216.410153,4209.743487,4214.871692,4430.256302,4218.974256,4214.871692,4226.153743
87,0,4230.256307,4215.897333,4222.051179,4227.179384,4225.128102,4216.410153,4209.230666,4215.384512,4199.487077,4215.384512,4430.256302,4214.871692,4216.410153,4223.58964
88,0,4230.769127,4224.615281,4215.897333,4238.461435,4114.358874,4211.281948,4213.846051,4215.384512,4208.205025,4247.179383,4431.794763,4215.897333,4215.384512,4220.512717
89,0,4249.743486,4231.281948,4232.307589,4246.666563,4265.640921,4226.666563,4215.384512,4218.974256,4227.692204,4260.512716,4453.333224,4229.230666,4218.974256,4230.769127
90,0,4243.58964,4222.563999,4228.205025,4231.281948,4352.307586,4227.692204,4208.205025,4216.922974,4223.07682,4245.640922,4460.512711,4227.179384,4219.487076,4232.307589
91,0,4230.769127,4219.487076,4207.692205,4226.153743,4201.538359,4214.358871,4209.230666,4218.461435,4213.33323,4247.692204,4454.871686,4218.974256,4217.435794,4223.07682
92,0,4247.179383,4223.07682,4223.58964,4240.512717,4156.410155,4217.948615,4227.692204,4230.769127,4227.179384,4256.922973,4458.97425,4227.692204,4220.512717,4224.615281
93,0,4249.743486,4214.871692,4237.435794,4235.897332,4241.025537,4221.538358,4228.717845,4231.281948,4231.281948,4235.897332,4454.871686,4226.666563,4218.461435,4228.205025
94,0,4229.743486,4215.897333,4215.384512,4223.58964,4243.076819,4214.358871,4211.794769,4221.025538,4216.922974,4220.512717,4449.743481,4219.487076,4214.871692,4227.179384
95,0,4236.410153,4224.102461,4213.33323,4231.794768,4186.153744,4217.435794,4214.358871,4225.128102,4215.384512,4240.512717,4458.461429,4223.58964,4219.999897,4231.794768
96,0,4255.384511,4222.563999,4231.281948,4241.538358,4169.743488,4224.102461,4226.666563,4232.307589,4220.512717,4259.999896,4459.999891,4224.615281,4224.102461,4234.358871
97,0,4248.205024,4222.051179,4224.102461,4235.897332,4200.512718,4221.025538,4219.487076,4228.717845,4220.512717,4247.692204,4457.948609,4221.025538,4221.538358,4228.205025
98,0,4236.922973,4226.153743,4218.974256,4222.563999,4220.512717,4222.563999,4217.948615,4226.666563,4224.102461,4238.461435,4466.153737,4221.025538,4217.948615,4228.205025
99,0,4243.58964,4228.205025,4225.640922,4225.640922,4227.179384,4231.794768,4231.794768,4231.794768,4232.820409,4253.333229,4463.589634,4223.07682,4219.999897,4230.769127
100,0,4251.794768,4232.307589,4219.487076,4238.461435,4264.10246,4232.820409,4232.820409,4231.281948,4235.897332,4252.820409,4452.307583,4224.615281,4230.256307,4231.794768
101,0,4249.743486,4229.743486,4214.358871,4237.435794,4266.666562,4223.58964,4222.051179,4223.07682,4224.102461,4233.33323,4457.948609,4225.128102,4232.820409,4232.820409
102,0,4249.230665,4221.025538,4219.999897,4225.640922,4188.205026,4211.281948,4212.307589,4217.435794,4209.230666,4239.999896,4468.717839,4223.07682,4222.563999,4233.84605
103,0,4245.640922,4215.384512,4218.461435,4225.640922,4145.128104,4205.640923,4209.743487,4214.871692,4215.384512,4251.281947,4465.640916,4217.435794,4221.025538,4229.230666
104,0,4236.410153,4214.358871,4215.897333,4229.743486,4232.820409,4218.461435,4221.538358,4218.974256,4236.410153,4232.820409,4461.538352,4214.871692,4230.769127,4226.153743
105,0,4239.487076,4222.563999,4220.512717,4231.281948,4326.15374,4234.871691,4228.717845,4225.128102,4240.512717,4240.512717,4459.48707,4215.384512,4227.692204,4228.205025
106,0,4250.769127,4234.358871,4221.025538,4237.948614,4239.999896,4225.128102,4214.871692,4223.07682,4226.666563,4253.333229,4452.307583,4211.794769,4214.358871,4225.640922
107,0,4253.333229,4238.974255,4222.051179,4245.128101,4099.487079,4210.769128,4209.743487,4215.384512,4218.461435,4219.999897,4446.666558,4208.205025,4213.846051,4218.974256
108,0,4255.897332,4242.051178,4228.717845,4238.461435,4185.640923,4225.640922,4222.051179,4218.461435,4221.538358,4217.948615,4442.051173,4212.82041,4216.922974,4219.487076
109,0,4255.897332,4237.435794,4224.615281,4218.461435,4311.794766,4233.33323,4217.948615,4216.922974,4217.948615,4237.435794,4431.794763,4213.846051,4207.179384,4221.538358
110,0,4242.051178,4227.692204,4209.230666,4220.512717,4249.743486,4214.871692,4203.07682,4204.102461,4207.179384,4212.82041,4421.025533,4205.640923,4201.538359,4214.871692
111,0,4251.281947,4234.871691,4228.205025,4248.205024,4221.025538,4223.07682,4224.615281,4216.410153,4219.487076,4221.538358,4430.256302,4217.948615,4217.435794,4224.615281
112,0,4264.61528,4243.076819,4250.256306,4254.35887,4244.615281,4238.461435,4240.512717,4230.769127,4228.717845,4238.461435,4434.358866,4229.230666,4223.07682,4232.307589
113,0,4242.563999,4230.256307,4223.07682,4233.33323,4184.615282,4219.487076,4210.769128,4213.33323,4205.128102,4191.794769,4414.358866,4211.281948,4206.666564,4213.33323
114,0,4229.743486,4224.102461,4201.025538,4224.102461,4222.051179,4212.307589,4199.487077,4205.128102,4198.461436,4193.846051,4406.153738,4201.538359,4204.102461,4204.102461
115,0,4242.051178,4233.84605,4218.974256,4230.769127,4314.358869,4231.794768,4221.025538,4219.487076,4222.563999,4256.922973,4410.256302,4209.743487,4208.205025,4214.358871
116,0,4243.58964,4234.871691,4221.538358,4235.384512,4219.999897,4226.153743,4221.538358,4219.999897,4225.128102,4236.410153,4409.743482,4210.769128,4206.153743,4212.307589
117,0,4240.512717,4227.179384,4211.794769,4239.487076,4154.358873,4212.307589,4216.922974,4212.307589,4210.256307,4180.512718,4416.410148,4211.794769,4210.769128,4210.256307
118,0,4249.230665,4224.615281,4227.179384,4233.84605,4255.897332,4225.128102,4230.256307,4217.948615,4218.974256,4201.538359,4432.820404,4219.999897,4215.897333,4223.07682
119,0,4249.230665,4227.179384,4228.205025,4229.230666,4232.820409,4229.230666,4225.128102,4222.051179,4231.794768,4227.692204,4426.153738,4221.538358,4215.897333,4227.179384
120,0,4244.615281,4230.256307,4216.410153,4241.538358,4146.666565,4221.538358,4215.897333,4217.435794,4224.102461,4222.563999,4407.179379,4219.999897,4215.897333,4222.051179
121,0,4247.179383,4228.205025,4221.538358,4242.563999,4235.384512,4228.205025,4226.666563,4215.897333,4215.384512,4225.640922,4403.076815,4219.999897,4212.307589,4221.538358
122,0,4245.128101,4222.563999,4222.563999,4233.84605,4307.179382,4229.230666,4224.102461,4215.897333,4213.846051,4215.384512,4399.999892,4213.33323,4210.769128,4217.435794
123,0,4242.563999,4222.051179,4215.384512,4235.897332,4206.666564,4216.922974,4215.897333,4215.384512,4217.435794,4201.538359,4395.384508,4208.205025,4212.82041,4212.82041
124,0,4244.615281,4224.615281,4222.563999,4245.128101,4148.717847,4212.82041,4221.538358,4214.871692,4225.128102,4217.948615,4392.820405,4210.256307,4206.153743,4213.846051
125,0,4243.58964,4225.640922,4222.051179,4246.153742,4228.205025,4219.999897,4225.640922,4216.410153,4223.58964,4221.538358,4388.717841,4213.846051,4204.615282,4213.33323
126,0,4236.922973,4225.640922,4207.179384,4239.487076,4286.666562,4222.051179,4218.461435,4215.897333,4214.358871,4197.435795,4386.666559,4216.922974,4214.358871,4211.281948
127,0,4238.974255,4229.230666,4212.307589,4235.897332,4236.410153,4217.435794,4215.384512,4215.384512,4221.025538,4212.82041,4392.307585,4219.487076,4215.384512,4218.461435
128,0,4258.974255,4237.435794,4234.358871,4244.615281,4195.384513,4220.512717,4225.640922,4224.102461,4237.435794,4241.025537,4398.461431,4226.666563,4216.410153,4232.820409
0,0,4262.563998,4234.358871,4236.922973,4251.281947,4202.564,4225.640922,4232.307589,4228.717845,4231.794768,4221.538358,4389.230662,4224.102461,4219.487076,4229.743486
1,0,4244.615281,4223.58964,4216.922974,4242.051178,4179.999898,4219.999897,4222.051179,4218.974256,4217.948615,4209.743487,4368.717842,4210.256307,4212.307589,4214.358871
2,0,4235.384512,4223.07682,4209.230666,4233.84605,4172.820411,4214.358871,4213.33323,4211.794769,4214.871692,4214.358871,4358.974252,4204.102461,4206.153743,4208.717846
3,0,4239.999896,4225.640922,4215.897333,4236.922973,4233.84605,4217.435794,4217.435794,4213.846051,4213.846051,4177.948616,4362.563996,4208.205025,4207.692205,4214.871692
4,0,4239.999896,4221.538358,4205.640923,4235.897332,4275.897331,4219.999897,4216.922974,4215.384512,4213.846051,4165.640924,4359.487073,4206.666564,4207.692205,4215.384512
5,0,4238.461435,4211.794769,4199.487077,4223.07682,4225.128102,4216.410153,4213.33323,4212.307589,4217.435794,4213.846051,4350.256304,4204.102461,4203.07682,4209.743487
6,0,4234.358871,4204.102461,4207.692205,4217.435794,4165.640924,4206.666564,4210.256307,4204.615282,4218.974256,4224.102461,4352.307586,4205.128102,4201.538359,4206.153743
7,0,4227.179384,4205.640923,4200.512718,4232.307589,4183.076821,4200.512718,4204.102461,4198.461436,4215.384512,4193.333231,4358.974252,4205.640923,4208.717846,4207.179384
8,0,4236.410153,4211.281948,4192.30759,4238.974255,4210.256307,4207.179384,4206.153743,4205.640923,4214.871692,4197.948615,4356.41015,4207.692205,4213.846051,4211.794769
9,0,4245.128101,4214.358871,4201.538359,4228.717845,4223.07682,4217.435794,4213.33323,4215.897333,4217.435794,4206.666564,4348.717842,4210.256307,4213.846051,4212.82041
10,0,4238.974255,4218.461435,4207.692205,4227.692204,4206.666564,4217.435794,4213.846051,4212.82041,4213.846051,4184.102462,4342.563996,4208.205025,4214.871692,4209.743487
11,0,4243.076819,4216.410153,4214.871692,4231.794768,4179.999898,4214.871692,4212.82041,4211.794769,4211.794769,4184.615282,4345.128099,4210.256307,4217.435794,4212.82041
12,0,4249.743486,4216.410153,4219.487076,4228.717845,4202.051179,4215.897333,4212.307589,4215.897333,4218.461435,4202.051179,4351.281945,4215.384512,4214.358871,4218.461435
13,0,4250.256306,4227.692204,4216.410153,4237.435794,4238.461435,4217.948615,4212.307589,4217.435794,4221.538358,4207.692205,4354.871688,4216.922974,4216.410153,4219.999897
14,0,4245.128101,4225.128102,4214.358871,4238.974255,4256.410152,4221.025538,4215.384512,4215.897333,4217.435794,4205.640923,4340.512714,4208.205025,4217.435794,4213.33323
15,0,4234.871691,4211.281948,4204.615282,4224.102461,4155.384514,4210.769128,4212.82041,4214.871692,4217.948615,4192.82041,4323.076817,4196.922974,4207.179384,4206.153743
16,0,4233.84605,4217.435794,4195.897333,4230.256307,4067.179388,4206.153743,4210.256307,4217.435794,4218.974256,4179.999898,4334.358868,4201.538359,4209.743487,4207.692205
17,0,4241.025537,4222.051179,4203.07682,4237.948614,4216.410153,4223.58964,4215.384512,4216.922974,4213.33323,4187.692205,4347.179381,4211.794769,4216.922974,4211.281948
18,0,4237.948614,4211.794769,4209.743487,4221.538358,4351.281945,4228.205025,4214.358871,4209.230666,4212.82041,4203.07682,4327.692202,4211.281948,4204.102461,4208.717846
19,0,4234.358871,4213.846051,4206.153743,4220.512717,4223.07682,4213.846051,4205.128102,4205.128102,4217.435794,4207.692205,4316.410151,4209.230666,4199.487077,4209.743487
20,0,4237.948614,4219.999897,4206.666564,4233.33323,4144.615283,4211.281948,4202.051179,4208.717846,4214.871692,4192.82041,4334.871689,4211.281948,4215.384512,4215.384512
21,0,4229.230666,4213.846051,4205.640923,4227.692204,4261.025537,4218.974256,4206.666564,4211.281948,4212.307589,4163.589642,4332.820407,4205.128102,4212.307589,4208.205025
22,0,4228.205025,4212.82041,4203.589641,4223.58964,4238.974255,4219.999897,4215.384512,4213.33323,4215.897333,4171.281949,4310.769125,4201.538359,4196.922974,4203.07682
23,0,4239.999896,4218.461435,4203.07682,4231.794768,4142.051181,4217.948615,4217.948615,4215.384512,4216.410153,4202.051179,4310.256305,4205.128102,4202.564,4207.692205
24,0,4236.922973,4216.922974,4208.205025,4229.743486,4197.948615,4218.461435,4212.82041,4216.922974,4216.410153,4197.948615,4323.589638,4208.205025,4213.33323,4210.256307
25,0,4239.999896,4218.974256,4223.07682,4227.179384,4225.128102,4223.58964,4213.33323,4218.461435,4218.974256,4189.743487,4331.281945,4213.846051,4212.82041,4215.384512
26,0,4257.435793,4232.820409,4226.666563,4235.897332,4172.30759,4227.692204,4219.999897,4218.974256,4219.487076,4214.358871,4329.743484,4222.051179,4216.410153,4226.153743
27,0,4255.897332,4232.820409,4216.922974,4235.384512,4196.922974,4222.051179,4219.999897,4215.897333,4216.410153,4218.461435,4319.999894,4221.538358,4220.512717,4223.58964
28,0,4243.58964,4219.487076,4214.871692,4227.692204,4251.794768,4217.435794,4214.358871,4212.307589,4218.461435,4191.281949,4306.153741,4211.794769,4210.769128,4209.743487
29,0,4245.640922,4217.948615,4219.487076,4233.84605,4219.999897,4219.487076,4214.871692,4210.769128,4215.897333,4174.871693,4303.076818,4208.205025,4201.025538,4206.666564
30,0,4246.666563,4218.461435,4216.410153,4237.948614,4186.153744,4219.487076,4214.358871,4204.615282,4198.974256,4162.05118,4307.179382,4210.256307,4202.564,4208.205025
31,0,4230.769127,4211.794769,4202.564,4221.025538,4212.307589,4214.871692,4209.230666,4199.487077,4198.974256,4171.281949,4302.563997,4205.640923,4200.512718,4203.07682
32,0,4225.640922,4212.307589,4195.897333,4213.846051,4210.256307,4214.871692,4210.769128,4206.666564,4220.512717,4197.948615,4298.974254,4203.589641,4197.948615,4203.07682
33,0,4238.974255,4218.974256,4206.153743,4232.820409,4185.640923,4223.07682,4217.435794,4217.948615,4225.640922,4195.897333,4305.1281,4211.281948,4208.205025,4210.769128
34,0,4249.743486,4218.974256,4215.384512,4235.384512,4243.076819,4231.794768,4221.025538,4219.487076,4216.410153,4190.769128,4313.333228,4216.410153,4217.435794,4214.358871
35,0,4248.205024,4214.871692,4213.33323,4216.922974,4271.794767,4228.205025,4221.538358,4216.922974,4218.974256,4206.666564,4311.794766,4215.384512,4214.871692,4216.410153
36,0,4246.153742,4218.461435,4213.846051,4222.563999,4186.153744,4219.487076,4218.974256,4216.410153,4219.487076,4199.999897,4308.717843,4218.974256,4213.846051,4220.512717
37,0,4248.205024,4230.256307,4216.922974,4239.487076,4157.948616,4222.051179,4217.948615,4217.435794,4220.512717,4175.897334,4313.333228,4222.563999,4216.922974,4223.58964
38,0,4248.205024,4231.281948,4212.82041,4232.307589,4233.33323,4227.179384,4224.615281,4219.999897,4232.820409,4189.743487,4315.38451,4219.999897,4216.410153,4221.538358
39,0,4247.179383,4219.487076,4212.82041,4224.615281,4241.025537,4223.07682,4221.538358,4218.974256,4226.153743,4218.461435,4311.281946,4218.974256,4215.897333,4220.512717
40,0,4248.717845,4220.512717,4216.922974,4233.33323,4182.05118,4216.410153,4211.794769,4215.384512,4209.743487,4216.410153,4308.205023,4221.538358,4216.922974,4223.07682
41,0,4249.230665,4227.179384,4214.358871,4231.794768,4202.564,4219.487076,4221.025538,4213.846051,4217.948615,4198.974256,4311.281946,4225.128102,4216.410153,4226.666563
42,0,4248.717845,4223.07682,4210.769128,4222.563999,4241.538358,4225.128102,4230.256307,4215.384512,4232.307589,4193.846051,4313.846048,4222.563999,4217.948615,4225.640922
43,0,4246.666563,4215.897333,4208.205025,4228.717845,4234.871691,4231.794768,4219.487076,4223.58964,4232.820409,4211.794769,4308.205023,4221.025538,4218.974256,4225.640922
44,0,4245.128101,4215.384512,4211.794769,4235.384512,4171.281949,4232.307589,4218.974256,4229.743486,4230.769127,4208.717846,4309.743484,4226.666563,4217.948615,4226.666563
45,0,4255.897332,4226.666563,4221.538358,4233.33323,4108.205028,4219.487076,4230.769127,4223.58964,4228.717845,4169.230667,4315.38451,4230.769127,4219.999897,4228.205025
46,0,4263.076819,4237.435794,4216.410153,4231.794768,4162.05118,4216.922974,4223.58964,4214.871692,4219.487076,4159.999898,4302.051177,4223.07682,4216.410153,4224.615281
47,0,4250.256306,4235.384512,4201.025538,4224.102461,4297.948613,4231.281948,4214.871692,4216.410153,4216.922974,4202.564,4279.999895,4211.281948,4205.128102,4214.871692
48,0,4236.410153,4228.205025,4199.487077,4221.538358,4302.051177,4230.769127,4216.922974,4217.435794,4219.487076,4217.948615,4264.10246,4205.640923,4199.487077,4203.07682
49,0,4244.10246,4230.256307,4216.410153,4232.307589,4141.53836,4213.33323,4214.871692,4214.358871,4210.769128,4169.743488,4264.10246,4207.179384,4202.051179,4200.512718
50,0,4254.871691,4232.820409,4224.102461,4238.974255,4115.384515,4215.897333,4214.358871,4213.33323,4204.102461,4147.179386,4273.846049,4210.769128,4200.512718,4209.230666
51,0,4249.743486,4230.256307,4212.307589,4234.358871,4273.846049,4231.281948,4218.974256,4213.33323,4211.281948,4178.461436,4267.692203,4208.205025,4197.435795,4213.33323
52,0,4237.435794,4228.205025,4204.615282,4229.230666,4330.769125,4228.205025,4218.461435,4214.358871,4211.281948,4179.999898,4248.205024,4202.564,4200.512718,4204.615282
53,0,4226.153743,4226.153743,4202.564,4230.769127,4170.256308,4214.358871,4213.846051,4214.871692,4199.487077,4149.230668,4241.538358,4198.974256,4197.435795,4194.358872
54,0,4226.153743,4229.743486,4200.512718,4235.384512,4104.102464,4217.435794,4215.384512,4213.33323,4205.640923,4157.435796,4248.717845,4197.435795,4192.82041,4195.897333
55,0,4225.128102,4227.179384,4193.846051,4227.692204,4233.84605,4225.640922,4214.358871,4213.846051,4219.999897,4172.820411,4247.692204,4188.717846,4193.333231,4196.410154
56,0,4217.435794,4216.922974,4190.256308,4220.512717,4239.999896,4218.461435,4207.179384,4214.871692,4212.82041,4161.53836,4242.563999,4192.82041,4196.410154,4194.871692
57,0,4212.82041,4212.82041,4194.871692,4219.487076,4179.487077,4213.846051,4204.615282,4214.358871,4205.640923,4163.589642,4245.128101,4193.333231,4197.948615,4196.922974
58,0,4214.871692,4214.871692,4196.410154,4218.974256,4221.025538,4215.897333,4202.051179,4215.384512,4211.281948,4168.205026,4249.230665,4132.820412,4199.999897,4198.461436
59,0,4222.563999,4217.435794,4195.384513,4223.07682,4270.769126,4216.410153,4202.564,4218.974256,4214.871692,4166.666565,4252.820409,4054.358875,4202.564,4203.589641
60,0,4222.563999,4218.461435,4197.435795,4227.179384,4208.205025,4214.871692,4208.205025,4216.922974,4214.871692,4168.205026,4248.205024,4044.615286,4203.589641,4207.179384
61,0,4214.871692,4218.461435,4201.538359,4224.102461,4119.999899,4212.82041,4208.717846,4214.358871,4216.922974,4158.974257,4246.153742,4076.410157,4203.589641,4203.589641
62,0,4218.461435,4219.487076,4199.999897,4227.692204,4181.025539,4214.871692,4200.512718,4214.358871,4214.871692,4159.999898,4251.794768,4085.640926,4203.07682,4205.128102
63,0,4232.820409,4222.051179,4206.153743,4234.871691,4307.692202,4219.999897,4202.051179,4208.205025,4212.82041,4181.025539,4247.179383,4081.538362,4202.051179,4211.281948
64,0,4231.281948,4220.512717,4213.33323,4227.179384,4296.410151,4219.999897,4208.205025,4201.025538,4212.307589,4173.846052,4237.435794,4087.692208,4201.025538,4208.717846
65,0,4217.435794,4215.897333,4202.051179,4223.07682,4150.769129,4213.33323,4204.102461,4205.640923,4204.102461,4150.256309,4241.538358,4096.922977,4198.461436,4203.07682
66,0,4219.999897,4216.410153,4196.410154,4228.717845,4126.153745,4212.82041,4206.666564,4215.897333,4204.102461,4148.205027,4253.333229,4106.153746,4199.999897,4208.717846
67,0,4228.717845,4214.871692,4203.07682,4221.538358,4242.563999,4218.461435,4217.948615,4218.461435,4218.461435,4157.948616,4250.256306,4107.692207,4202.564,4212.82041
