title:C                                                                               , recorded:01.07.20 12.52.15, sampling:128, subject:C                                                                               , labels:COUNTER INTERPOLATED AF3 F7 F3 FC5 T7 P7 O1 O2 P8 T8 FC6 F4 F8 AF4, chan:37, units:emotiv,,,,,,,,,
56,0,4196.410154,4262.563998,4213.846051,4243.076819,4243.076819,4230.769127,4215.384512,4204.102461,4224.615281,4262.051178,4189.743487,4235.384512,4238.461435,4239.487076
57,0,4200.512718,4265.128101,4216.410153,4245.128101,4241.538358,4232.307589,4218.461435,4213.846051,4214.871692,4256.922973,4205.128102,4244.10246,4241.025537,4241.538358
58,0,4201.538359,4264.61528,4219.999897,4250.256306,4201.025538,4234.358871,4219.487076,4218.461435,4210.769128,4248.717845,4215.384512,4249.230665,4246.153742,4241.025537
59,0,4203.07682,4266.153742,4222.563999,4250.769127,4203.07682,4232.820409,4218.461435,4214.358871,4216.922974,4276.410152,4205.128102,4242.563999,4242.563999,4243.076819
60,0,4204.615282,4267.692203,4222.051179,4248.205024,4204.102461,4231.794768,4216.922974,4213.846051,4216.410153,4287.179382,4196.410154,4234.871691,4236.410153,4241.538358
61,0,4196.410154,4262.051178,4217.948615,4246.153742,4202.564,4231.281948,4217.948615,4219.999897,4216.922974,4263.589639,4198.461436,4233.84605,4234.358871,4233.84605
62,0,4188.205026,4259.487075,4216.922974,4245.128101,4219.999897,4232.307589,4219.487076,4217.435794,4218.461435,4262.563998,4199.999897,4235.384512,4234.358871,4233.84605
63,0,4189.230667,4258.974255,4218.974256,4247.179383,4207.179384,4233.33323,4218.974256,4209.743487,4211.281948,4279.487075,4202.564,4239.999896,4234.871691,4236.410153
64,0,4190.256308,4251.794768,4218.461435,4246.666563,4195.384513,4229.743486,4218.461435,4210.256307,4206.153743,4261.025537,4206.153743,4240.512717,4235.897332,4233.33323
65,0,4177.435795,4241.025537,4211.281948,4235.384512,4210.769128,4226.153743,4217.948615,4207.692205,4203.589641,4220.512717,4196.922974,4231.281948,4230.256307,4226.666563
66,0,4171.281949,4241.025537,4206.666564,4230.769127,4198.461436,4228.717845,4216.410153,4201.025538,4198.974256,4222.563999,4190.256308,4230.256307,4228.717845,4227.692204
67,0,4183.589641,4248.205024,4212.307589,4238.461435,4185.128103,4232.307589,4215.384512,4204.102461,4205.128102,4250.256306,4198.974256,4238.974255,4234.871691,4234.871691
68,0,4187.179385,4247.692204,4215.384512,4239.487076,4203.07682,4229.743486,4213.33323,4204.615282,4215.897333,4248.205024,4201.538359,4240.512717,4236.410153,4235.897332
69,0,4181.538359,4243.076819,4213.846051,4232.307589,4211.281948,4228.205025,4213.846051,4204.615282,4218.461435,4251.794768,4197.435795,4238.461435,4233.84605,4231.794768
70,0,4185.640923,4246.666563,4217.435794,4235.384512,4187.179385,4231.281948,4217.948615,4214.871692,4217.948615,4267.179383,4202.564,4242.051178,4235.384512,4233.84605
71,0,4190.769128,4248.717845,4219.999897,4240.512717,4166.666565,4230.256307,4217.948615,4217.948615,4218.461435,4241.025537,4204.615282,4241.025537,4234.871691,4235.897332
72,0,4187.179385,4245.640922,4216.410153,4236.410153,4179.487077,4228.205025,4217.435794,4214.871692,4215.384512,4230.256307,4200.512718,4238.974255,4232.307589,4232.307589
73,0,4185.640923,4246.153742,4216.410153,4234.871691,4207.692205,4233.84605,4222.563999,4216.410153,4215.897333,4258.461434,4203.589641,4242.051178,4232.820409,4231.794768
74,0,4185.128103,4247.692204,4216.410153,4235.384512,4207.692205,4230.256307,4214.871692,4208.717846,4210.769128,4246.153742,4195.897333,4237.435794,4232.820409,4231.794768
75,0,4184.102462,4244.615281,4213.33323,4232.820409,4186.153744,4217.435794,4201.538359,4199.487077,4195.384513,4223.58964,4188.205026,4231.794768,4231.281948,4231.281948
76,0,4185.128103,4242.563999,4210.769128,4230.769127,4196.922974,4221.538358,4208.717846,4206.666564,4197.948615,4234.358871,4192.82041,4233.84605,4230.769127,4231.281948
77,0,4184.102462,4243.58964,4210.769128,4231.794768,4210.256307,4232.820409,4220.512717,4214.358871,4211.281948,4244.615281,4193.333231,4233.33323,4230.769127,4231.281948
78,0,4184.615282,4245.128101,4211.794769,4232.307589,4186.666564,4229.230666,4214.358871,4208.205025,4208.205025,4239.487076,4192.82041,4231.281948,4230.769127,4231.794768
79,0,4186.666564,4245.640922,4211.794769,4230.256307,4182.564,4223.58964,4209.743487,4205.128102,4197.435795,4220.512717,4197.948615,4231.281948,4229.230666,4231.794768
80,0,4183.589641,4245.640922,4210.769128,4232.307589,4211.794769,4229.230666,4216.922974,4212.307589,4197.948615,4219.487076,4197.948615,4231.794768,4229.230666,4228.205025
81,0,4181.538359,4252.820409,4213.33323,4243.58964,4210.256307,4231.281948,4219.999897,4216.410153,4209.743487,4258.461434,4198.974256,4231.281948,4234.871691,4231.281948
82,0,4188.205026,4258.461434,4219.999897,4249.230665,4195.384513,4232.307589,4224.102461,4216.922974,4218.974256,4271.281947,4203.07682,4233.84605,4239.487076,4238.461435
83,0,4187.692205,4250.769127,4214.358871,4237.948614,4194.358872,4238.974255,4232.307589,4219.487076,4217.435794,4234.871691,4199.487077,4232.307589,4235.384512,4235.897332
84,0,4174.358872,4244.10246,4203.07682,4229.743486,4188.205026,4238.461435,4234.871691,4221.025538,4213.846051,4225.640922,4195.897333,4228.205025,4228.717845,4230.256307
85,0,4173.333231,4248.205024,4206.153743,4238.461435,4204.615282,4234.358871,4229.230666,4219.999897,4216.410153,4246.666563,4201.025538,4228.717845,4229.743486,4232.307589
86,0,4184.102462,4247.179383,4215.897333,4244.615281,4226.666563,4232.820409,4222.051179,4220.512717,4216.410153,4243.076819,4201.025538,4231.794768,4232.820409,4234.871691
87,0,4186.666564,4246.666563,4213.846051,4238.461435,4201.025538,4231.794768,4217.435794,4218.974256,4208.717846,4219.999897,4201.025538,4230.769127,4232.307589,4235.384512
88,0,4185.640923,4253.84605,4212.307589,4232.307589,4172.820411,4227.692204,4213.846051,4215.384512,4209.743487,4238.461435,4203.589641,4229.230666,4230.769127,4235.384512
89,0,4184.615282,4249.230665,4213.33323,4233.84605,4188.717846,4227.179384,4214.871692,4215.897333,4217.948615,4263.076819,4199.999897,4229.230666,4230.256307,4232.820409
90,0,4182.564,4246.666563,4210.769128,4240.512717,4215.897333,4232.307589,4215.897333,4217.948615,4213.33323,4234.871691,4195.897333,4229.230666,4229.230666,4231.281948
91,0,4192.30759,4268.205024,4215.897333,4247.692204,4210.256307,4232.820409,4215.384512,4217.435794,4208.717846,4238.461435,4195.897333,4226.666563,4229.743486,4232.307589
92,0,4205.128102,4284.61528,4220.512717,4248.205024,4202.564,4234.871691,4226.666563,4217.435794,4214.871692,4272.307588,4192.30759,4221.538358,4229.230666,4232.820409
93,0,4195.897333,4276.410152,4213.33323,4243.58964,4230.256307,4246.666563,4238.461435,4218.974256,4210.769128,4243.076819,4187.692205,4217.948615,4221.538358,4229.230666
94,0,4186.153744,4274.35887,4215.897333,4246.153742,4223.07682,4248.717845,4226.666563,4218.461435,4205.640923,4221.025538,4188.205026,4220.512717,4217.435794,4224.615281
95,0,4186.666564,4277.948613,4217.948615,4244.615281,4185.128103,4234.871691,4212.307589,4217.435794,4214.358871,4253.333229,4187.179385,4219.487076,4219.487076,4222.563999
96,0,4179.487077,4267.692203,4204.615282,4236.922973,4225.640922,4235.897332,4219.999897,4215.897333,4211.281948,4244.615281,4180.512718,4212.82041,4217.435794,4221.025538
97,0,4173.333231,4261.025537,4198.461436,4238.461435,4275.384511,4244.10246,4217.948615,4215.384512,4202.051179,4212.307589,4182.05118,4212.82041,4213.846051,4218.461435
98,0,4175.384513,4266.153742,4202.051179,4239.487076,4220.512717,4232.820409,4202.051179,4217.435794,4206.666564,4229.743486,4187.179385,4213.846051,4217.435794,4218.461435
99,0,4172.30759,4263.589639,4198.974256,4232.820409,4170.769129,4225.128102,4203.07682,4215.384512,4209.230666,4229.743486,4185.640923,4205.640923,4217.435794,4218.461435
100,0,4166.666565,4254.871691,4195.384513,4229.743486,4201.538359,4233.33323,4214.358871,4208.205025,4202.564,4221.025538,4182.564,4203.07682,4211.794769,4215.384512
101,0,4168.205026,4257.948614,4201.025538,4230.256307,4219.999897,4235.384512,4215.384512,4208.717846,4203.07682,4246.153742,4186.666564,4211.794769,4214.871692,4216.410153
102,0,4169.743488,4265.640921,4205.128102,4231.794768,4214.358871,4232.307589,4214.871692,4216.922974,4209.230666,4225.128102,4192.30759,4219.487076,4222.051179,4222.563999
103,0,4168.717847,4259.487075,4201.538359,4234.871691,4212.82041,4233.33323,4221.025538,4218.461435,4214.358871,4182.564,4188.717846,4214.871692,4219.999897,4218.974256
104,0,4168.717847,4252.307588,4199.999897,4233.84605,4210.769128,4234.358871,4222.051179,4213.846051,4216.410153,4220.512717,4183.589641,4207.692205,4213.846051,4211.794769
105,0,4166.666565,4253.84605,4200.512718,4230.769127,4206.666564,4231.281948,4215.384512,4210.256307,4212.307589,4259.999896,4181.538359,4207.692205,4214.871692,4212.307589
106,0,4167.179385,4255.384511,4200.512718,4231.794768,4197.948615,4227.692204,4213.33323,4209.743487,4211.281948,4219.999897,4182.05118,4209.230666,4218.974256,4215.897333
107,0,4169.230667,4247.692204,4199.999897,4230.256307,4196.410154,4232.307589,4215.897333,4215.384512,4214.358871,4191.794769,4186.153744,4209.743487,4219.487076,4216.922974
108,0,4169.743488,4246.153742,4201.025538,4231.281948,4194.358872,4236.410153,4220.512717,4218.461435,4217.435794,4216.922974,4188.717846,4212.82041,4217.435794,4217.435794
109,0,4169.743488,4256.410152,4202.564,4233.33323,4201.538359,4235.384512,4224.615281,4214.871692,4216.922974,4237.948614,4186.153744,4215.897333,4218.461435,4219.487076
110,0,4169.230667,4258.974255,4199.999897,4231.794768,4229.230666,4237.948614,4221.025538,4214.871692,4212.82041,4229.743486,4183.076821,4212.82041,4223.58964,4217.435794
111,0,4171.281949,4255.897332,4202.051179,4239.487076,4234.358871,4244.10246,4221.025538,4218.974256,4215.897333,4208.205025,4190.256308,4211.794769,4227.179384,4216.922974
112,0,4175.384513,4261.025537,4211.281948,4251.281947,4202.051179,4246.153742,4228.717845,4219.487076,4214.871692,4204.615282,4193.846051,4215.384512,4224.102461,4220.512717
113,0,4173.333231,4265.640921,4215.384512,4248.717845,4199.999897,4244.615281,4225.128102,4217.948615,4209.230666,4210.256307,4186.153744,4214.358871,4221.025538,4218.974256
114,0,4171.281949,4261.538357,4213.846051,4245.128101,4233.33323,4245.128101,4214.871692,4217.948615,4212.307589,4204.615282,4188.717846,4214.871692,4226.666563,4217.948615
115,0,4181.025539,4264.10246,4218.461435,4246.153742,4232.820409,4245.640922,4216.410153,4219.487076,4218.974256,4195.897333,4198.974256,4217.435794,4232.307589,4225.640922
116,0,4186.153744,4271.794767,4223.07682,4237.435794,4217.948615,4245.640922,4219.487076,4222.563999,4215.384512,4201.025538,4200.512718,4219.999897,4230.769127,4230.769127
117,0,4176.922975,4267.179383,4217.948615,4227.692204,4214.871692,4245.128101,4215.384512,4221.538358,4214.871692,4223.07682,4196.410154,4217.948615,4230.256307,4227.692204
118,0,4169.743488,4260.512716,4215.897333,4227.692204,4205.640923,4239.487076,4215.384512,4216.922974,4220.512717,4235.897332,4198.974256,4214.358871,4231.794768,4226.666563
119,0,4169.743488,4260.512716,4218.974256,4228.205025,4205.128102,4234.871691,4215.897333,4217.948615,4212.307589,4217.435794,4202.051179,4213.846051,4230.769127,4222.563999
120,0,4169.230667,4263.076819,4218.974256,4231.281948,4207.179384,4236.922973,4215.384512,4225.128102,4205.128102,4210.769128,4196.922974,4213.846051,4228.205025,4217.948615
121,0,4172.30759,4263.589639,4218.974256,4236.410153,4214.358871,4244.10246,4217.435794,4229.743486,4216.410153,4218.461435,4198.461436,4217.948615,4230.256307,4226.666563
122,0,4175.897334,4261.538357,4218.974256,4235.897332,4238.461435,4245.640922,4216.922974,4229.743486,4222.563999,4201.025538,4211.794769,4222.563999,4233.84605,4235.384512
123,0,4173.846052,4264.61528,4219.487076,4241.025537,4243.076819,4241.025537,4215.897333,4230.769127,4218.974256,4201.025538,4218.461435,4223.07682,4234.871691,4232.820409
124,0,4175.384513,4265.128101,4220.512717,4245.640922,4221.025538,4236.922973,4217.948615,4228.717845,4218.461435,4225.128102,4207.692205,4218.974256,4232.820409,4230.769127
125,0,4174.358872,4254.35887,4219.999897,4235.897332,4211.281948,4233.33323,4217.435794,4220.512717,4213.33323,4212.307589,4199.487077,4215.384512,4230.769127,4228.717845
126,0,4166.153744,4249.230665,4218.461435,4229.230666,4205.640923,4230.769127,4212.82041,4216.410153,4209.743487,4189.743487,4202.051179,4216.410153,4231.794768,4228.205025
127,0,4167.179385,4255.897332,4216.922974,4232.820409,4203.589641,4230.769127,4211.794769,4219.487076,4215.384512,4193.846051,4198.974256,4215.897333,4229.230666,4232.307589
128,0,4173.333231,4255.897332,4214.871692,4234.358871,4223.58964,4232.307589,4215.384512,4219.487076,4210.769128,4199.999897,4189.743487,4211.794769,4224.615281,4228.205025
0,0,4167.692206,4254.35887,4211.794769,4234.871691,4234.358871,4232.820409,4214.871692,4217.435794,4200.512718,4200.512718,4185.640923,4209.230666,4224.615281,4217.435794
1,0,4163.589642,4259.999896,4213.846051,4237.948614,4202.564,4230.769127,4213.33323,4216.922974,4200.512718,4208.205025,4192.82041,4211.794769,4228.717845,4218.461435
2,0,4172.820411,4263.589639,4223.07682,4243.58964,4171.281949,4232.820409,4217.948615,4221.538358,4208.205025,4200.512718,4203.589641,4216.922974,4230.256307,4228.205025
3,0,4181.025539,4263.589639,4231.281948,4248.205024,4209.743487,4236.922973,4221.538358,4231.281948,4214.871692,4179.999898,4206.153743,4219.487076,4230.769127,4233.33323
4,0,4182.05118,4263.076819,4232.820409,4245.640922,4260.512716,4235.384512,4218.461435,4229.743486,4215.897333,4189.230667,4196.922974,4216.922974,4231.281948,4231.794768
5,0,4183.076821,4261.538357,4230.256307,4242.563999,4250.769127,4232.820409,4217.948615,4222.051179,4216.410153,4220.512717,4195.897333,4218.974256,4229.743486,4230.769127
6,0,4189.743487,4262.563998,4233.33323,4247.179383,4213.846051,4237.435794,4221.538358,4225.128102,4214.871692,4220.512717,4218.461435,4228.717845,4235.384512,4234.358871
7,0,4185.640923,4255.384511,4229.743486,4245.128101,4197.948615,4233.84605,4218.974256,4226.666563,4204.615282,4202.564,4218.461435,4227.179384,4236.922973,4235.384512
8,0,4167.692206,4243.58964,4216.922974,4231.794768,4204.615282,4216.922974,4211.794769,4215.384512,4202.051179,4201.025538,4187.179385,4213.846051,4223.58964,4225.640922
9,0,4168.205026,4244.10246,4214.358871,4227.692204,4218.461435,4216.410153,4212.82041,4212.82041,4214.871692,4194.871692,4183.076821,4213.846051,4219.999897,4222.051179
10,0,4185.128103,4251.281947,4225.128102,4239.999896,4215.384512,4233.84605,4226.153743,4225.128102,4218.974256,4185.640923,4210.769128,4226.666563,4234.358871,4232.820409
11,0,4189.230667,4252.820409,4232.307589,4246.153742,4207.692205,4237.435794,4234.358871,4232.307589,4213.33323,4205.128102,4223.58964,4230.256307,4239.999896,4238.974255
12,0,4184.615282,4249.743486,4224.615281,4236.410153,4232.820409,4229.743486,4226.153743,4230.256307,4212.82041,4224.615281,4213.846051,4223.07682,4231.281948,4232.820409
13,0,4186.666564,4248.205024,4216.922974,4229.230666,4223.58964,4229.743486,4215.897333,4226.666563,4214.358871,4221.538358,4201.538359,4219.487076,4229.743486,4231.794768
14,0,4187.179385,4245.640922,4216.410153,4230.769127,4192.30759,4231.281948,4219.999897,4224.102461,4217.435794,4218.461435,4197.435795,4217.948615,4233.33323,4232.820409
15,0,4184.102462,4240.512717,4216.922974,4231.281948,4214.358871,4233.84605,4228.717845,4226.666563,4215.384512,4198.461436,4208.205025,4216.410153,4233.33323,4230.769127
16,0,4191.281949,4242.051178,4218.974256,4232.307589,4233.33323,4239.999896,4232.820409,4231.281948,4213.33323,4184.102462,4216.922974,4224.615281,4233.84605,4235.897332
17,0,4199.999897,4247.692204,4228.717845,4237.435794,4232.820409,4241.025537,4233.84605,4233.33323,4224.102461,4221.025538,4214.358871,4231.281948,4233.84605,4248.717845
18,0,4193.333231,4241.538358,4233.33323,4236.410153,4227.692204,4234.358871,4227.179384,4230.256307,4226.666563,4242.563999,4214.871692,4223.58964,4233.84605,4249.230665
19,0,4186.153744,4229.230666,4222.563999,4232.820409,4195.384513,4229.230666,4222.563999,4228.205025,4211.281948,4214.358871,4217.435794,4217.435794,4233.33323,4237.435794
20,0,4195.384513,4232.820409,4218.461435,4234.358871,4197.948615,4232.307589,4228.205025,4230.769127,4213.33323,4207.179384,4214.871692,4220.512717,4232.307589,4236.410153
21,0,4194.871692,4239.999896,4221.538358,4232.820409,4267.179383,4235.897332,4230.769127,4232.307589,4227.179384,4211.794769,4210.256307,4217.948615,4231.281948,4245.640922
22,0,4186.666564,4237.435794,4218.974256,4231.281948,4268.717844,4234.871691,4228.717845,4231.281948,4224.102461,4195.384513,4216.922974,4218.461435,4231.794768,4249.743486
23,0,4193.846051,4236.410153,4218.461435,4234.871691,4178.461436,4232.307589,4227.692204,4232.820409,4219.999897,4211.281948,4225.640922,4226.153743,4232.820409,4249.743486
24,0,4196.410154,4234.871691,4218.974256,4234.871691,4178.974257,4231.281948,4226.666563,4233.84605,4222.051179,4242.563999,4219.487076,4221.538358,4230.769127,4247.692204
25,0,4186.153744,4229.230666,4216.410153,4229.743486,4265.640921,4232.307589,4227.179384,4228.205025,4217.948615,4229.230666,4211.794769,4213.33323,4229.230666,4242.563999
26,0,4184.615282,4232.307589,4215.897333,4230.256307,4252.820409,4233.84605,4235.384512,4226.666563,4215.897333,4196.922974,4218.461435,4218.461435,4232.820409,4243.076819
27,0,4188.717846,4233.84605,4219.999897,4230.256307,4184.615282,4234.358871,4234.358871,4232.820409,4217.435794,4186.666564,4217.948615,4223.07682,4231.281948,4245.128101
28,0,4184.102462,4222.051179,4216.922974,4221.025538,4221.025538,4230.769127,4221.025538,4231.794768,4213.846051,4197.435795,4201.025538,4212.82041,4221.538358,4236.922973
29,0,4181.538359,4217.435794,4208.205025,4217.435794,4247.692204,4229.230666,4218.461435,4220.512717,4212.307589,4198.461436,4193.333231,4202.051179,4215.897333,4229.230666
30,0,4186.153744,4230.256307,4206.666564,4228.205025,4182.05118,4232.307589,4229.743486,4217.435794,4215.384512,4196.922974,4202.051179,4203.589641,4220.512717,4233.33323
31,0,4188.717846,4233.84605,4211.794769,4231.281948,4198.974256,4234.871691,4230.256307,4223.07682,4213.846051,4209.743487,4206.153743,4204.615282,4221.538358,4235.897332
32,0,4182.05118,4224.102461,4212.82041,4221.538358,4289.230664,4235.384512,4220.512717,4219.487076,4213.33323,4210.256307,4197.435795,4202.051179,4216.410153,4231.281948
33,0,4182.05118,4216.922974,4210.769128,4215.384512,4252.307588,4232.820409,4216.922974,4212.82041,4213.846051,4181.025539,4196.410154,4206.666564,4214.871692,4230.256307
34,0,4194.871692,4219.999897,4214.358871,4221.025538,4165.128103,4232.820409,4218.974256,4224.615281,4213.33323,4175.384513,4211.281948,4217.948615,4220.512717,4235.897332
35,0,4196.410154,4224.615281,4216.922974,4225.128102,4202.051179,4236.922973,4224.102461,4232.307589,4217.435794,4209.230666,4210.769128,4215.897333,4226.666563,4236.410153
36,0,4191.281949,4222.051179,4214.871692,4219.999897,4258.461434,4232.307589,4230.769127,4220.512717,4217.948615,4221.025538,4196.410154,4205.640923,4227.179384,4230.256307
37,0,4196.410154,4219.999897,4215.384512,4217.948615,4223.07682,4229.230666,4232.307589,4219.999897,4213.846051,4210.256307,4205.128102,4208.205025,4227.179384,4235.897332
38,0,4202.051179,4227.179384,4218.461435,4223.07682,4216.410153,4240.512717,4232.820409,4236.922973,4223.58964,4221.025538,4219.487076,4218.974256,4231.794768,4245.128101
39,0,4199.487077,4228.205025,4218.461435,4227.692204,4270.256306,4242.563999,4230.256307,4236.922973,4235.384512,4222.051179,4208.205025,4217.948615,4232.820409,4239.999896
40,0,4195.384513,4222.051179,4215.897333,4227.692204,4247.179383,4229.230666,4218.974256,4219.487076,4220.512717,4189.743487,4197.435795,4207.179384,4224.102461,4230.769127
41,0,4193.846051,4224.102461,4212.82041,4223.58964,4197.948615,4227.692204,4213.846051,4219.999897,4204.615282,4175.897334,4202.564,4205.128102,4221.025538,4232.820409
42,0,4196.922974,4229.743486,4213.846051,4218.974256,4222.051179,4235.897332,4222.563999,4231.794768,4212.307589,4195.384513,4202.564,4213.33323,4224.615281,4233.84605
43,0,4203.07682,4232.307589,4217.435794,4221.538358,4243.58964,4236.410153,4229.230666,4232.820409,4219.999897,4212.82041,4201.538359,4216.922974,4227.179384,4231.281948
44,0,4196.922974,4227.179384,4211.794769,4223.58964,4222.051179,4234.358871,4225.640922,4229.230666,4215.384512,4217.435794,4206.666564,4210.769128,4227.692204,4232.307589
45,0,4190.256308,4218.461435,4207.692205,4212.307589,4218.974256,4233.33323,4221.025538,4230.256307,4214.871692,4199.487077,4207.179384,4206.666564,4224.615281,4232.820409
46,0,4194.358872,4221.538358,4212.307589,4207.179384,4226.666563,4231.281948,4224.102461,4230.769127,4216.922974,4187.692205,4201.538359,4208.717846,4217.948615,4230.769127
47,0,4195.897333,4232.820409,4215.384512,4211.794769,4218.974256,4236.410153,4224.615281,4228.717845,4217.948615,4212.307589,4200.512718,4207.692205,4219.999897,4229.743486
48,0,4187.179385,4228.205025,4209.230666,4207.179384,4239.487076,4242.051178,4216.410153,4229.230666,4222.563999,4216.922974,4201.538359,4202.051179,4226.153743,4230.256307
49,0,4186.153744,4221.025538,4205.640923,4202.051179,4261.025537,4237.435794,4214.358871,4232.307589,4222.051179,4203.07682,4199.999897,4202.564,4222.051179,4229.230666
50,0,4196.410154,4228.205025,4208.717846,4209.230666,4236.922973,4233.84605,4221.538358,4230.256307,4214.871692,4211.794769,4198.461436,4208.717846,4217.435794,4228.717845
51,0,4196.410154,4225.128102,4206.666564,4216.410153,4204.102461,4233.84605,4222.563999,4220.512717,4212.82041,4196.922974,4196.922974,4206.666564,4217.948615,4229.743486
52,0,4195.384513,4213.846051,4202.564,4213.846051,4205.640923,4233.33323,4218.461435,4219.999897,4215.384512,4174.871693,4199.999897,4206.666564,4219.487076,4228.717845
53,0,4195.897333,4217.435794,4202.564,4211.794769,4230.769127,4237.948614,4218.974256,4229.743486,4215.897333,4199.999897,4201.538359,4210.256307,4220.512717,4230.256307
54,0,4192.82041,4221.538358,4206.153743,4214.358871,4248.717845,4247.179383,4225.640922,4232.307589,4221.025538,4208.205025,4196.922974,4208.717846,4219.487076,4233.84605
55,0,4192.30759,4215.897333,4212.307589,4219.487076,4236.922973,4247.179383,4231.794768,4232.820409,4230.256307,4184.615282,4199.999897,4210.769128,4220.512717,4234.871691
56,0,4192.82041,4214.358871,4217.435794,4221.025538,4202.564,4245.128101,4234.871691,4236.922973,4234.358871,4199.487077,4208.205025,4216.922974,4221.025538,4231.281948
57,0,4189.743487,4215.897333,4211.794769,4216.922974,4215.897333,4245.640922,4233.84605,4236.410153,4229.743486,4222.563999,4206.666564,4214.358871,4218.974256,4229.743486
58,0,4193.333231,4215.897333,4202.051179,4216.410153,4242.563999,4236.922973,4221.538358,4231.794768,4218.461435,4212.82041,4199.999897,4207.692205,4219.999897,4232.307589
59,0,4205.640923,4221.025538,4209.743487,4220.512717,4226.666563,4232.307589,4215.384512,4233.33323,4215.384512,4204.615282,4207.692205,4214.358871,4228.717845,4235.384512
60,0,4204.102461,4222.051179,4219.999897,4222.563999,4224.615281,4244.615281,4223.58964,4233.33323,4221.538358,4205.640923,4215.897333,4220.512717,4229.743486,4235.384512
61,0,4198.461436,4217.948615,4215.897333,4218.974256,4236.410153,4245.640922,4221.025538,4225.640922,4218.461435,4189.743487,4206.666564,4210.256307,4219.999897,4231.281948
62,0,4199.999897,4221.025538,4211.794769,4217.948615,4232.820409,4234.871691,4213.846051,4223.58964,4212.82041,4182.564,4197.435795,4202.564,4216.922974,4229.230666
63,0,4201.538359,4229.743486,4217.435794,4223.07682,4234.871691,4237.435794,4223.07682,4228.717845,4217.435794,4203.589641,4201.025538,4210.256307,4220.512717,4232.307589
64,0,4201.025538,4228.205025,4218.974256,4223.07682,4215.897333,4239.487076,4223.07682,4222.051179,4218.461435,4207.692205,4204.102461,4211.794769,4219.487076,4232.307589
65,0,4207.179384,4225.128102,4213.33323,4219.487076,4177.948616,4232.820409,4214.871692,4213.33323,4215.897333,4192.82041,4196.410154,4206.153743,4215.384512,4228.717845
66,0,4218.974256,4231.281948,4214.871692,4221.025538,4221.538358,4242.051178,4225.128102,4226.666563,4217.948615,4201.538359,4199.999897,4212.82041,4217.948615,4233.33323
67,0,4211.794769,4232.307589,4217.435794,4219.487076,4296.410151,4249.230665,4227.179384,4234.358871,4216.922974,4210.256307,4210.256307,4217.435794,4219.487076,4236.410153
68,0,4202.051179,4225.128102,4211.794769,4218.974256,4249.743486,4230.769127,4213.846051,4218.461435,4213.846051,4186.153744,4202.051179,4210.256307,4213.846051,4230.256307
69,0,4211.794769,4228.717845,4214.358871,4229.743486,4202.051179,4227.692204,4219.487076,4217.948615,4214.871692,4184.615282,4199.487077,4215.384512,4218.974256,4234.358871
70,0,4221.538358,4241.538358,4228.205025,4235.897332,4251.281947,4252.307588,4230.769127,4234.358871,4222.563999,4220.512717,4214.358871,4229.743486,4233.33323,4249.230665
71,0,4222.051179,4245.640922,4231.281948,4229.743486,4247.692204,4252.820409,4220.512717,4236.410153,4231.794768,4230.769127,4218.461435,4217.948615,4234.358871,4251.794768
72,0,4229.743486,4244.615281,4224.615281,4231.794768,4213.33323,4234.871691,4214.358871,4231.281948,4227.692204,4203.07682,4216.410153,4219.487076,4228.205025,4248.205024
73,0,4233.84605,4243.58964,4224.102461,4236.410153,4250.769127,4236.922973,4221.025538,4234.871691,4219.487076,4198.461436,4226.153743,4232.307589,4230.256307,4251.794768
74,0,4223.07682,4239.487076,4224.102461,4229.230666,4258.974255,4240.512717,4219.999897,4235.384512,4224.102461,4228.205025,4224.102461,4165.640924,4234.358871,4252.307588
75,0,4214.871692,4234.358871,4216.410153,4215.384512,4216.410153,4228.717845,4214.871692,4229.743486,4225.640922,4230.769127,4211.281948,4065.128106,4230.256307,4247.179383
76,0,4216.922974,4233.33323,4216.922974,4212.82041,4233.33323,4229.743486,4217.435794,4227.692204,4217.948615,4207.692205,4212.82041,4057.948619,4224.102461,4247.179383
77,0,4217.435794,4233.33323,4223.58964,4216.410153,4267.179383,4242.051178,4220.512717,4224.102461,4213.33323,4205.640923,4210.256307,4093.333233,4217.948615,4248.717845
78,0,4214.358871,4228.717845,4223.58964,4218.974256,4218.974256,4236.922973,4214.871692,4215.897333,4205.128102,4195.384513,4196.410154,4088.205028,4214.871692,4245.640922
79,0,4218.461435,4230.769127,4225.640922,4222.051179,4174.358872,4227.179384,4215.384512,4215.897333,4195.384513,4163.076821,4194.871692,4090.25631,4214.871692,4242.563999
80,0,4226.666563,4240.512717,4229.230666,4219.487076,4223.07682,4237.948614,4228.205025,4224.615281,4203.589641,4184.102462,4203.07682,4108.205028,4216.410153,4246.153742
81,0,4227.179384,4244.615281,4223.58964,4216.922974,4281.538357,4246.153742,4226.666563,4226.153743,4217.435794,4219.487076,4208.717846,4111.281951,4222.051179,4248.717845
82,0,4224.615281,4245.128101,4222.563999,4226.153743,4247.692204,4234.871691,4212.307589,4221.538358,4215.384512,4206.153743,4211.281948,4117.948617,4228.717845,4248.717845
83,0,4227.692204,4249.230665,4232.307589,4234.358871,4201.538359,4227.179384,4213.33323,4225.640922,4211.794769,4203.07682,4213.33323,4126.666566,4232.307589,4256.410152
84,0,4229.230666,4249.743486,4232.307589,4230.769127,4223.07682,4236.410153,4219.999897,4231.794768,4216.922974,4199.487077,4215.897333,4130.76913,4232.307589,4262.051178
85,0,4220.512717,4244.615281,4225.128102,4228.205025,4248.205024,4244.615281,4215.384512,4231.281948,4219.487076,4174.358872,4219.999897,4135.384514,4230.256307,4259.999896
86,0,4213.846051,4246.666563,4230.256307,4230.256307,4251.794768,4245.640922,4215.384512,4231.281948,4218.461435,4196.410154,4220.512717,4138.974258,4231.794768,4261.025537
87,0,4216.410153,4249.230665,4232.820409,4230.769127,4238.461435,4239.999896,4217.948615,4231.794768,4219.487076,4234.358871,4216.922974,4143.589642,4234.358871,4263.589639
88,0,4219.999897,4244.10246,4227.179384,4230.256307,4219.999897,4233.33323,4214.871692,4231.794768,4221.025538,4217.435794,4220.512717,4150.256309,4234.358871,4262.051178
89,0,4218.974256,4247.692204,4230.256307,4226.153743,4223.58964,4233.84605,4216.922974,4235.897332,4219.487076,4191.281949,4233.33323,4156.410155,4235.384512,4262.051178
90,0,4219.999897,4248.205024,4234.871691,4223.58964,4213.846051,4233.33323,4215.897333,4231.281948,4216.922974,4190.769128,4236.410153,4160.512719,4235.897332,4264.61528
91,0,4218.461435,4236.922973,4226.666563,4226.153743,4209.743487,4229.743486,4205.128102,4219.487076,4216.922974,4204.615282,4222.051179,4159.999898,4229.743486,4260.512716
92,0,4214.871692,4236.410153,4222.563999,4228.717845,4239.487076,4230.769127,4198.974256,4222.563999,4218.461435,4222.563999,4217.948615,4162.05118,4230.256307,4258.461434
93,0,4216.410153,4246.153742,4228.717845,4226.153743,4255.384511,4234.358871,4201.025538,4230.256307,4218.461435,4214.358871,4229.743486,4167.692206,4239.999896,4261.025537
94,0,4218.461435,4246.666563,4229.743486,4224.102461,4208.717846,4233.33323,4202.564,4230.256307,4218.461435,4191.281949,4235.897332,4173.846052,4241.025537,4262.051178
95,0,4217.948615,4244.10246,4229.743486,4228.717845,4178.974257,4230.256307,4202.564,4229.743486,4218.974256,4197.435795,4229.743486,4179.487077,4233.84605,4262.563998
96,0,4215.384512,4246.666563,4230.769127,4229.230666,4216.922974,4229.230666,4199.999897,4224.615281,4213.33323,4215.384512,4219.487076,4177.948616,4231.281948,4260.512716
97,0,4214.358871,4246.666563,4230.769127,4229.230666,4239.487076,4230.769127,4198.461436,4214.871692,4209.230666,4211.794769,4221.538358,4176.410154,4233.33323,4259.487075
98,0,4218.461435,4246.666563,4235.897332,4232.307589,4233.33323,4233.33323,4203.07682,4222.051179,4214.358871,4187.692205,4234.358871,4185.640923,4235.897332,4263.076819
99,0,4218.974256,4246.666563,4238.461435,4226.666563,4229.230666,4232.307589,4203.07682,4232.307589,4220.512717,4184.102462,4232.307589,4189.230667,4233.84605,4262.563998
100,0,4218.461435,4245.128101,4231.794768,4224.615281,4207.179384,4232.307589,4204.102461,4226.666563,4218.974256,4216.410153,4220.512717,4185.128103,4233.33323,4258.461434
101,0,4224.615281,4247.179383,4231.281948,4230.256307,4193.846051,4235.384512,4212.307589,4226.666563,4212.82041,4223.07682,4229.743486,4193.333231,4236.410153,4261.538357
102,0,4223.07682,4247.692204,4235.897332,4224.102461,4225.640922,4235.384512,4214.358871,4231.794768,4207.692205,4203.07682,4234.358871,4202.564,4237.435794,4265.640921
103,0,4216.410153,4246.666563,4233.84605,4213.846051,4226.666563,4231.281948,4210.256307,4224.615281,4202.564,4195.384513,4219.999897,4199.999897,4233.84605,4264.61528
104,0,4223.58964,4248.205024,4234.871691,4219.999897,4203.07682,4231.794768,4212.82041,4217.948615,4201.025538,4198.461436,4221.025538,4201.025538,4233.84605,4266.153742
105,0,4230.256307,4246.666563,4238.461435,4222.051179,4240.512717,4235.897332,4210.769128,4218.461435,4201.538359,4209.743487,4229.230666,4209.230666,4235.384512,4265.640921
106,0,4219.999897,4242.051178,4236.922973,4214.871692,4252.307588,4234.358871,4204.615282,4217.948615,4199.487077,4215.384512,4226.153743,4214.871692,4236.410153,4261.538357
107,0,4214.358871,4245.640922,4233.33323,4223.07682,4205.128102,4231.281948,4208.717846,4222.563999,4205.640923,4204.615282,4226.666563,4215.897333,4236.922973,4259.999896
108,0,4220.512717,4249.230665,4233.33323,4231.281948,4217.948615,4232.820409,4213.33323,4227.179384,4215.897333,4203.589641,4225.128102,4215.897333,4233.33323,4255.897332
109,0,4216.410153,4238.974255,4230.769127,4222.051179,4240.512717,4234.358871,4214.358871,4221.538358,4214.871692,4216.410153,4212.82041,4215.897333,4229.230666,4249.230665
110,0,4204.615282,4228.717845,4219.999897,4213.846051,4193.333231,4231.281948,4211.794769,4216.410153,4207.692205,4198.974256,4209.743487,4214.871692,4230.769127,4246.153742
111,0,4204.102461,4232.820409,4214.358871,4216.410153,4197.948615,4231.794768,4203.07682,4218.461435,4206.666564,4172.30759,4213.846051,4215.384512,4231.281948,4245.640922
112,0,4214.358871,4240.512717,4224.102461,4214.871692,4263.076819,4236.410153,4202.564,4215.897333,4202.051179,4194.871692,4216.922974,4223.58964,4229.230666,4246.666563
113,0,4220.512717,4244.10246,4233.33323,4216.922974,4247.692204,4235.384512,4213.33323,4215.897333,4197.948615,4225.640922,4225.128102,4231.794768,4229.743486,4248.717845
114,0,4220.512717,4244.615281,4233.84605,4227.179384,4189.743487,4234.358871,4216.922974,4224.615281,4208.717846,4211.794769,4227.179384,4233.33323,4232.307589,4249.743486
115,0,4218.974256,4238.461435,4229.230666,4226.153743,4222.051179,4235.897332,4212.82041,4224.102461,4218.974256,4190.256308,4217.435794,4232.307589,4232.307589,4248.717845
116,0,4215.384512,4234.358871,4225.640922,4216.410153,4257.948614,4233.33323,4208.717846,4215.897333,4215.384512,4202.051179,4210.256307,4230.256307,4228.717845,4242.051178
117,0,4214.358871,4237.435794,4230.769127,4218.461435,4210.256307,4228.717845,4207.179384,4216.922974,4205.128102,4206.153743,4213.33323,4231.281948,4227.692204,4235.384512
118,0,4217.948615,4235.384512,4230.256307,4226.666563,4195.897333,4232.820409,4212.307589,4220.512717,4201.025538,4193.333231,4217.435794,4238.461435,4228.205025,4239.999896
119,0,4219.487076,4230.256307,4218.974256,4218.461435,4234.871691,4239.999896,4217.948615,4217.948615,4210.769128,4208.205025,4213.33323,4242.563999,4228.205025,4245.128101
120,0,4221.538358,4233.84605,4222.051179,4189.230667,4246.666563,4246.153742,4219.487076,4223.07682,4220.512717,4219.999897,4217.435794,4243.076819,4231.281948,4246.153742
121,0,4222.563999,4237.435794,4232.820409,4153.333232,4224.102461,4247.179383,4220.512717,4231.794768,4215.384512,4191.281949,4227.179384,4247.179383,4232.307589,4248.717845
122,0,4217.435794,4234.871691,4230.769127,4130.76913,4216.410153,4240.512717,4219.999897,4227.692204,4211.794769,4183.076821,4222.563999,4249.230665,4229.743486,4248.205024
123,0,4216.410153,4232.820409,4229.230666,4119.999899,4221.025538,4239.487076,4218.974256,4219.999897,4216.410153,4217.435794,4214.358871,4248.205024,4230.256307,4245.128101
124,0,4221.025538,4233.84605,4233.84605,4111.281951,4216.410153,4243.58964,4218.461435,4218.461435,4218.461435,4219.487076,4218.974256,4251.794768,4232.820409,4248.205024
125,0,4214.358871,4231.281948,4224.102461,4100.51272,4224.102461,4237.948614,4215.897333,4218.461435,4213.846051,4193.333231,4215.384512,4245.128101,4229.743486,4246.153742
126,0,4200.512718,4224.615281,4212.82041,4089.74349,4232.307589,4234.358871,4216.410153,4217.948615,4206.153743,4197.948615,4210.769128,4236.410153,4228.205025,4238.974255
127,0,4195.384513,4221.538358,4215.384512,4090.25631,4224.615281,4242.051178,4216.410153,4218.461435,4207.179384,4205.128102,4219.487076,4238.974255,4231.794768,4239.487076
128,0,4202.051179,4222.563999,4216.410153,4093.846054,4212.82041,4244.615281,4214.871692,4215.897333,4215.384512,4207.692205,4217.435794,4238.974255,4228.717845,4241.538358
0,0,4212.307589,4227.692204,4215.384512,4092.307592,4232.307589,4241.538358,4222.563999,4220.512717,4220.512717,4225.128102,4210.769128,4239.487076,4227.179384,4243.58964
1,0,4218.461435,4232.307589,4220.512717,4090.769131,4246.153742,4245.640922,4229.230666,4228.717845,4215.897333,4209.230666,4217.435794,4244.10246,4231.794768,4249.230665
2,0,4216.922974,4229.230666,4221.538358,4092.307592,4213.33323,4241.025537,4222.051179,4225.128102,4207.692205,4185.128103,4222.563999,4239.999896,4231.281948,4246.666563
3,0,4212.82041,4225.128102,4216.922974,4091.794772,4199.487077,4232.307589,4215.897333,4215.384512,4205.128102,4198.974256,4212.82041,4231.794768,4227.179384,4237.948614
4,0,4212.82041,4228.205025,4215.384512,4085.640926,4215.384512,4238.461435,4219.487076,4216.922974,4216.922974,4204.102461,4209.743487,4233.84605,4228.205025,4241.025537
5,0,4214.358871,4230.769127,4218.461435,4083.589644,4220.512717,4242.051178,4219.487076,4227.179384,4226.666563,4201.538359,4216.410153,4237.948614,4229.230666,4247.692204
6,0,4214.871692,4231.794768,4222.563999,4089.230669,4218.461435,4235.897332,4216.922974,4231.794768,4220.512717,4220.512717,4219.999897,4241.538358,4229.743486,4245.640922
7,0,4218.461435,4234.871691,4230.769127,4094.871695,4218.461435,4236.922973,4220.512717,4228.717845,4217.948615,4219.487076,4224.615281,4248.717845,4233.84605,4246.666563
8,0,4221.538358,4231.281948,4232.307589,4089.74349,4214.358871,4239.999896,4219.999897,4222.563999,4219.999897,4196.922974,4223.58964,4244.615281,4231.794768,4247.179383
9,0,4212.307589,4224.615281,4220.512717,4084.615285,4218.461435,4232.820409,4214.871692,4217.948615,4216.922974,4195.384513,4210.769128,4232.820409,4227.179384,4237.948614
10,0,4203.07682,4224.102461,4216.410153,4088.717849,4218.974256,4229.743486,4214.358871,4214.871692,4213.846051,4193.846051,4206.153743,4230.256307,4227.179384,4229.230666
11,0,4212.82041,4223.07682,4223.58964,4090.25631,4195.384513,4232.307589,4216.922974,4214.358871,4214.358871,4198.974256,4215.897333,4234.871691,4224.615281,4232.307589
12,0,4216.410153,4218.974256,4224.102461,4087.179387,4209.743487,4233.33323,4217.435794,4215.897333,4216.922974,4224.102461,4215.897333,4235.897332,4223.07682,4241.538358
13,0,4202.564,4217.948615,4215.384512,4086.153746,4250.769127,4238.974255,4221.538358,4214.871692,4215.897333,4209.743487,4204.102461,4230.256307,4224.615281,4241.025537
14,0,4207.179384,4219.999897,4213.846051,4091.281951,4234.871691,4244.10246,4225.640922,4216.410153,4215.384512,4187.179385,4208.717846,4230.769127,4227.692204,4235.897332
15,0,4217.435794,4219.487076,4218.974256,4090.769131,4206.666564,4238.974255,4221.538358,4219.487076,4218.461435,4194.358872,4215.384512,4234.871691,4225.640922,4235.384512
16,0,4205.128102,4217.435794,4214.358871,4083.589644,4216.922974,4231.794768,4215.384512,4218.461435,4216.410153,4193.846051,4210.256307,4234.358871,4220.512717,4236.410153
17,0,4205.128102,4218.461435,4214.871692,4086.153746,4220.512717,4232.820409,4217.948615,4218.461435,4216.410153,4203.07682,4211.281948,4237.435794,4223.58964,4239.999896
18,0,4222.563999,4221.538358,4226.666563,4091.794772,4216.410153,4235.897332,4224.102461,4221.538358,4225.128102,4225.128102,4222.051179,4244.10246,4230.256307,4248.717845
19,0,4217.948615,4221.025538,4226.153743,4093.846054,4209.230666,4232.307589,4219.487076,4219.999897,4226.153743,4212.82041,4220.512717,4239.487076,4228.205025,4246.153742
20,0,4206.666564,4215.897333,4213.846051,4090.769131,4197.948615,4228.205025,4213.846051,4216.410153,4216.922974,4199.999897,4213.33323,4229.230666,4222.563999,4234.871691
21,0,4210.769128,4217.435794,4214.358871,4089.74349,4220.512717,4230.256307,4215.384512,4216.922974,4216.410153,4226.153743,4219.999897,4232.820409,4229.230666,4241.025537
22,0,4206.153743,4219.999897,4217.435794,4089.74349,4251.794768,4232.820409,4215.384512,4217.948615,4220.512717,4222.563999,4226.153743,4238.974255,4232.820409,4249.230665
23,0,4201.538359,4219.999897,4211.794769,4091.794772,4218.461435,4232.307589,4214.871692,4217.435794,4217.948615,4193.333231,4228.205025,4235.897332,4230.769127,4246.666563
24,0,4213.846051,4223.58964,4213.33323,4091.281951,4184.615282,4233.33323,4219.487076,4217.948615,4214.871692,4213.846051,4229.743486,4233.84605,4233.33323,4247.692204
25,0,4219.487076,4227.692204,4215.897333,4088.717849,4232.307589,4235.384512,4221.538358,4217.435794,4215.384512,4235.897332,4223.58964,4233.33323,4233.84605,4249.230665
26,0,4210.256307,4229.230666,4213.846051,4094.871695,4271.281947,4236.410153,4219.487076,4216.922974,4217.948615,4216.410153,4215.384512,4230.769127,4229.743486,4246.666563
27,0,4203.589641,4225.128102,4212.82041,4099.487079,4236.410153,4235.897332,4218.974256,4216.922974,4217.435794,4202.051179,4213.846051,4229.230666,4229.230666,4241.538358
28,0,4201.538359,4218.974256,4206.666564,4094.358874,4203.07682,4233.33323,4216.410153,4216.410153,4213.33323,4217.948615,4216.922974,4228.717845,4231.281948,4235.897332
29,0,4198.974256,4219.999897,4202.051179,4090.25631,4217.435794,4230.769127,4214.871692,4216.922974,4215.384512,4226.666563,4217.948615,4227.179384,4230.769127,4231.794768
30,0,4197.948615,4228.205025,4205.128102,4093.846054,4232.307589,4231.281948,4216.922974,4220.512717,4222.563999,4216.410153,4216.922974,4228.717845,4229.743486,4236.922973
31,0,4198.461436,4229.230666,4204.615282,4096.410156,4228.205025,4231.281948,4215.384512,4219.487076,4221.025538,4213.846051,4223.58964,4231.794768,4232.820409,4237.948614
32,0,4201.025538,4228.205025,4202.564,4094.358874,4239.487076,4231.794768,4212.307589,4214.871692,4216.410153,4220.512717,4229.230666,4231.794768,4237.435794,4234.871691
33,0,4203.589641,4230.769127,4209.230666,4098.461438,4237.948614,4233.33323,4216.410153,4215.897333,4217.948615,4213.846051,4223.07682,4230.769127,4235.384512,4239.999896
34,0,4206.666564,4225.128102,4217.435794,4108.205028,4206.666564,4231.794768,4220.512717,4219.487076,4221.025538,4201.538359,4218.461435,4233.33323,4231.794768,4247.692204
35,0,4209.230666,4218.974256,4214.871692,4106.666566,4203.589641,4232.307589,4219.487076,4217.948615,4220.512717,4219.999897,4224.102461,4234.871691,4232.307589,4246.666563
36,0,4206.666564,4218.974256,4207.179384,4095.897336,4233.84605,4236.410153,4217.948615,4214.358871,4217.435794,4242.563999,4219.999897,4231.281948,4229.743486,4244.615281
37,0,4202.051179,4218.974256,4203.07682,4099.487079,4252.820409,4235.384512,4217.948615,4213.846051,4214.358871,4222.563999,4213.33323,4229.743486,4229.230666,4244.10246
38,0,4201.538359,4218.974256,4207.179384,4105.640925,4234.358871,4233.33323,4220.512717,4216.922974,4215.384512,4194.358872,4218.461435,4230.256307,4231.794768,4238.461435
39,0,4201.025538,4213.33323,4207.692205,4102.051182,4202.564,4234.358871,4223.58964,4217.948615,4216.922974,4202.564,4212.307589,4223.07682,4224.615281,4233.84605
40,0,4200.512718,4209.230666,4202.051179,4104.615284,4210.256307,4234.358871,4218.974256,4216.410153,4216.410153,4218.461435,4198.461436,4213.33323,4215.897333,4232.820409
41,0,4201.538359,4212.307589,4205.640923,4109.743489,4238.461435,4231.794768,4215.897333,4217.435794,4218.461435,4211.794769,4204.615282,4216.410153,4218.461435,4230.769127
42,0,4198.461436,4209.743487,4215.897333,4107.179387,4230.769127,4230.769127,4221.025538,4218.461435,4210.769128,4197.948615,4217.435794,4226.153743,4221.538358,4231.281948
43,0,4196.410154,4200.512718,4213.846051,4104.615284,4209.230666,4231.281948,4222.051179,4214.871692,4198.974256,4199.487077,4212.82041,4223.58964,4216.922974,4231.794768
44,0,4200.512718,4202.564,4204.615282,4106.666566,4238.974255,4233.33323,4217.435794,4213.33323,4207.692205,4203.589641,4197.435795,4217.948615,4214.358871,4229.743486
45,0,4202.051179,4202.564,4199.487077,4105.640925,4261.538357,4233.84605,4217.435794,4215.897333,4221.025538,4201.538359,4189.743487,4216.922974,4214.871692,4223.58964
46,0,4197.435795,4196.410154,4201.025538,4105.640925,4224.615281,4230.769127,4215.897333,4214.871692,4216.410153,4202.051179,4190.769128,4216.922974,4213.846051,4219.999897
47,0,4197.435795,4200.512718,4207.179384,4107.179387,4213.846051,4233.33323,4216.410153,4216.410153,4212.307589,4200.512718,4200.512718,4222.563999,4216.922974,4226.666563
48,0,4208.717846,4205.640923,4214.871692,4109.743489,4231.794768,4237.948614,4223.07682,4221.025538,4218.461435,4203.07682,4209.743487,4230.769127,4224.615281,4235.384512
49,0,4221.538358,4205.640923,4219.487076,4117.948617,4212.82041,4242.051178,4229.743486,4221.538358,4219.999897,4219.999897,4213.33323,4234.871691,4226.666563,4237.435794
50,0,4218.974256,4204.102461,4222.051179,4117.435797,4202.051179,4245.128101,4232.820409,4224.615281,4219.999897,4226.153743,4213.846051,4230.769127,4220.512717,4236.410153
51,0,4204.615282,4193.333231,4213.33323,4106.153746,4246.153742,4242.051178,4230.769127,4225.640922,4219.487076,4206.666564,4207.692205,4221.538358,4216.922974,4232.307589
52,0,4196.922974,4184.615282,4205.640923,4105.128105,4258.461434,4240.512717,4224.102461,4218.974256,4217.435794,4206.153743,4201.025538,4216.410153,4218.974256,4229.743486
53,0,4202.564,4186.666564,4213.33323,4112.820412,4210.769128,4242.051178,4221.025538,4216.922974,4217.435794,4218.461435,4199.487077,4219.487076,4216.922974,4229.230666
54,0,4198.974256,4185.640923,4219.487076,4108.717848,4205.128102,4237.948614,4218.974256,4220.512717,4215.384512,4205.128102,4200.512718,4219.999897,4211.794769,4221.025538
55,0,4188.205026,4182.05118,4213.846051,4105.128105,4230.256307,4231.794768,4217.435794,4218.974256,4212.82041,4197.435795,4200.512718,4214.871692,4212.307589,4214.871692
56,0,4188.717846,4185.128103,4209.743487,4111.281951,4217.435794,4232.307589,4216.922974,4216.410153,4213.33323,4204.615282,4197.435795,4213.33323,4214.358871,4222.051179
57,0,4194.358872,4187.692205,4209.230666,4112.307592,4215.384512,4232.307589,4215.384512,4216.922974,4213.846051,4190.256308,4197.435795,4213.846051,4214.358871,4230.769127
58,0,4190.256308,4185.640923,4210.769128,4114.358874,4246.666563,4230.769127,4212.307589,4216.922974,4211.794769,4176.410154,4202.564,4213.846051,4215.384512,4231.281948
59,0,4187.692205,4188.205026,4214.358871,4122.051181,4248.717845,4233.33323,4211.794769,4218.461435,4213.33323,4205.128102,4203.589641,4214.358871,4214.358871,4231.281948
60,0,4194.871692,4190.769128,4214.358871,4122.051181,4228.717845,4233.33323,4204.615282,4217.948615,4215.384512,4220.512717,4196.922974,4214.358871,4212.307589,4229.743486
61,0,4198.974256,4188.205026,4210.769128,4119.999899,4222.051179,4228.717845,4197.435795,4214.871692,4214.871692,4198.974256,4203.07682,4215.897333,4220.512717,4231.794768
62,0,4200.512718,4185.640923,4210.769128,4123.589643,4221.025538,4231.281948,4207.179384,4219.487076,4215.897333,4204.102461,4218.461435,4218.974256,4232.820409,4242.051178
63,0,4201.025538,4189.743487,4216.410153,4125.128104,4238.974255,4239.487076,4218.461435,4226.666563,4221.025538,4219.487076,4222.051179,4223.58964,4233.84605,4247.179383
64,0,4192.30759,4190.769128,4213.846051,4122.564002,4245.128101,4239.487076,4212.82041,4223.58964,4219.487076,4206.153743,4212.307589,4220.512717,4223.58964,4237.948614
65,0,4181.538359,4181.025539,4203.07682,4121.02554,4206.666564,4228.205025,4200.512718,4214.358871,4205.640923,4189.743487,4200.512718,4212.307589,4213.846051,4226.153743
66,0,4184.615282,4175.897334,4205.128102,4123.076822,4204.615282,4225.640922,4201.538359,4211.794769,4198.461436,4188.717846,4198.461436,4211.281948,4212.82041,4226.153743
67,0,4197.435795,4185.128103,4216.922974,4132.307591,4253.333229,4234.358871,4213.846051,4214.871692,4208.205025,4195.897333,4205.640923,4215.384512,4217.948615,4232.307589
68,0,4199.999897,4192.82041,4216.922974,4136.410155,4259.999896,4237.435794,4215.384512,4215.897333,4217.948615,4207.692205,4204.615282,4215.897333,4217.948615,4233.33323
69,0,4197.948615,4190.769128,4211.794769,4132.820412,4233.33323,4233.33323,4205.128102,4216.410153,4215.897333,4211.794769,4199.487077,4215.897333,4216.922974,4232.820409
70,0,4202.051179,4189.230667,4213.846051,4133.846053,4215.384512,4229.743486,4199.487077,4215.897333,4210.769128,4190.256308,4208.717846,4217.948615,4225.640922,4237.948614
71,0,4206.153743,4194.358872,4216.922974,4135.897335,4215.384512,4229.743486,4201.538359,4216.410153,4212.307589,4184.102462,4221.025538,4221.025538,4231.281948,4244.10246
72,0,4206.153743,4200.512718,4218.974256,4135.897335,4225.640922,4230.256307,4203.07682,4216.410153,4215.384512,4207.692205,4217.435794,4225.640922,4223.58964,4247.692204
73,0,4203.589641,4196.410154,4216.922974,4138.974258,4221.025538,4228.205025,4205.640923,4215.897333,4214.871692,4217.948615,4212.307589,4228.205025,4216.922974,4247.692204
74,0,4205.128102,4187.179385,4212.82041,4139.999899,4220.512717,4230.769127,4214.358871,4221.025538,4217.948615,4209.743487,4221.025538,4230.256307,4225.128102,4248.205024
75,0,4206.153743,4185.640923,4214.871692,4137.435796,4235.897332,4243.58964,4227.692204,4230.769127,4226.153743,4213.33323,4235.384512,4232.307589,4235.384512,4251.281947
76,0,4196.922974,4181.538359,4212.307589,4138.974258,4231.281948,4245.640922,4231.281948,4233.33323,4223.58964,4217.948615,4232.307589,4230.256307,4230.769127,4249.230665
77,0,4190.769128,4173.846052,4207.692205,4138.461437,4222.051179,4234.358871,4221.025538,4227.692204,4216.922974,4208.205025,4218.974256,4226.153743,4219.999897,4243.076819
78,0,4197.435795,4177.948616,4213.33323,4136.922976,4229.743486,4232.820409,4215.897333,4221.025538,4219.487076,4199.487077,4217.435794,4228.717845,4217.948615,4245.640922
79,0,4200.512718,4184.615282,4216.410153,4145.128104,4236.922973,4236.922973,4219.487076,4216.410153,4214.871692,4185.640923,4220.512717,4231.794768,4219.999897,4249.743486
80,0,4194.358872,4184.615282,4210.256307,4151.79477,4226.666563,4233.33323,4212.82041,4213.33323,4205.128102,4189.743487,4215.384512,4225.128102,4217.948615,4244.10246
81,0,4202.564,4190.769128,4212.307589,4151.28195,4215.897333,4230.256307,4206.666564,4214.358871,4210.769128,4218.974256,4212.82041,4220.512717,4218.461435,4241.025537
82,0,4215.897333,4199.999897,4218.461435,4152.820411,4232.820409,4234.871691,4214.358871,4215.897333,4216.410153,4228.717845,4216.922974,4227.179384,4219.487076,4245.640922
83,0,4214.358871,4200.512718,4217.948615,4156.410155,4247.179383,4238.461435,4218.974256,4215.384512,4212.307589,4215.897333,4217.948615,4230.769127,4217.435794,4246.666563
84,0,4213.846051,4203.07682,4218.974256,4161.025539,4238.974255,4238.974255,4217.948615,4216.922974,4215.897333,4198.461436,4226.153743,4228.205025,4219.487076,4248.205024
85,0,4221.025538,4203.07682,4218.974256,4156.922975,4250.769127,4236.410153,4215.897333,4217.435794,4219.487076,4186.666564,4233.84605,4228.205025,4220.512717,4249.743486
86,0,4215.897333,4194.358872,4213.33323,4149.743488,4249.230665,4232.820409,4214.358871,4214.358871,4213.33323,4208.205025,4221.538358,4223.07682,4216.922974,4244.615281
87,0,4201.538359,4194.358872,4213.33323,4153.846052,4208.205025,4232.307589,4214.358871,4214.358871,4212.307589,4227.179384,4211.281948,4217.948615,4216.410153,4242.563999
88,0,4199.487077,4196.922974,4217.948615,4161.025539,4220.512717,4233.84605,4215.897333,4218.974256,4217.435794,4205.640923,4222.563999,4224.615281,4219.999897,4246.666563
89,0,4203.07682,4188.717846,4216.410153,4152.820411,4258.461434,4232.820409,4215.897333,4216.410153,4216.922974,4203.07682,4230.769127,4230.769127,4220.512717,4247.179383
90,0,4201.025538,4189.743487,4212.82041,4148.717847,4233.84605,4231.281948,4215.897333,4215.384512,4215.897333,4221.025538,4227.179384,4228.717845,4218.461435,4244.10246
91,0,4202.051179,4201.025538,4214.871692,4158.974257,4219.999897,4235.384512,4218.461435,4223.58964,4217.948615,4219.999897,4229.230666,4229.743486,4222.051179,4247.179383
92,0,4202.051179,4201.025538,4216.410153,4157.435796,4222.051179,4235.897332,4218.974256,4223.07682,4218.974256,4223.07682,4233.33323,4231.281948,4228.717845,4250.769127
93,0,4204.615282,4195.897333,4214.871692,4153.846052,4204.615282,4232.307589,4217.435794,4217.435794,4218.461435,4214.871692,4232.307589,4228.717845,4228.717845,4248.717845
94,0,4214.871692,4200.512718,4215.897333,4165.640924,4234.871691,4233.84605,4216.922974,4221.025538,4218.974256,4195.384513,4229.743486,4227.692204,4224.615281,4248.205024
95,0,4216.410153,4204.102461,4217.948615,4171.79477,4267.179383,4237.435794,4217.948615,4224.615281,4220.512717,4215.897333,4229.743486,4229.743486,4227.179384,4250.256306
96,0,4209.743487,4202.564,4217.948615,4166.666565,4226.153743,4233.33323,4217.948615,4219.487076,4221.538358,4246.666563,4233.33323,4228.205025,4232.307589,4250.256306
97,0,4211.794769,4201.025538,4217.435794,4165.640924,4211.794769,4232.307589,4214.871692,4215.384512,4217.435794,4227.179384,4235.384512,4227.179384,4229.743486,4247.179383
98,0,4218.974256,4208.205025,4222.563999,4170.256308,4253.333229,4239.999896,4215.897333,4222.563999,4216.922974,4210.769128,4239.487076,4229.743486,4227.692204,4251.794768
99,0,4221.025538,4218.461435,4232.307589,4170.769129,4244.615281,4246.153742,4222.563999,4232.820409,4228.205025,4238.461435,4245.640922,4232.307589,4233.84605,4261.025537
100,0,4218.461435,4215.897333,4234.358871,4168.205026,4226.153743,4243.58964,4222.563999,4232.820409,4231.794768,4247.692204,4242.563999,4232.307589,4235.897332,4258.461434
101,0,4211.281948,4208.717846,4222.563999,4166.666565,4247.692204,4236.410153,4216.922974,4222.051179,4218.974256,4218.461435,4230.256307,4226.666563,4228.205025,4248.205024
102,0,4214.871692,4214.358871,4217.948615,4174.871693,4248.717845,4234.358871,4218.461435,4217.435794,4213.846051,4209.230666,4228.717845,4220.512717,4226.666563,4247.692204
103,0,4226.153743,4214.871692,4223.58964,4178.974257,4222.051179,4235.384512,4222.051179,4221.025538,4221.025538,4218.974256,4233.84605,4219.999897,4230.769127,4249.743486
104,0,4226.153743,4206.666564,4221.025538,4173.333231,4212.82041,4233.84605,4217.948615,4220.512717,4220.512717,4214.358871,4234.358871,4221.538358,4231.281948,4247.179383
105,0,4221.025538,4206.666564,4216.410153,4176.410154,4217.948615,4230.256307,4214.871692,4218.461435,4215.384512,4219.999897,4233.84605,4221.025538,4229.743486,4248.205024
106,0,4218.974256,4211.281948,4214.871692,4180.512718,4227.179384,4232.820409,4216.922974,4216.410153,4217.435794,4232.820409,4232.307589,4218.974256,4229.743486,4249.743486
107,0,4218.461435,4215.897333,4214.358871,4172.820411,4250.256306,4240.512717,4218.461435,4214.871692,4220.512717,4220.512717,4231.281948,4217.948615,4231.794768,4248.717845
108,0,4217.948615,4215.897333,4216.410153,4166.666565,4247.179383,4238.974255,4216.410153,4214.358871,4218.461435,4208.717846,4232.820409,4217.948615,4233.84605,4248.717845
109,0,4215.897333,4207.179384,4217.435794,4175.384513,4216.922974,4231.794768,4221.025538,4215.897333,4218.461435,4224.102461,4233.84605,4219.487076,4233.84605,4247.692204
110,0,4213.846051,4204.615282,4213.846051,4183.076821,4221.538358,4232.820409,4231.281948,4217.948615,4223.07682,4244.615281,4232.820409,4218.461435,4234.358871,4248.205024
111,0,4217.948615,4211.794769,4215.897333,4183.076821,4241.538358,4238.461435,4231.281948,4218.974256,4224.102461,4236.922973,4233.84605,4217.948615,4236.922973,4249.230665
112,0,4220.512717,4208.205025,4222.051179,4183.076821,4235.384512,4236.922973,4221.538358,4218.461435,4221.538358,4213.33323,4234.358871,4218.974256,4236.410153,4246.666563
113,0,4215.897333,4198.461436,4218.974256,4185.128103,4226.666563,4234.871691,4217.948615,4213.33323,4218.461435,4217.948615,4233.33323,4218.974256,4234.871691,4247.692204
114,0,4216.922974,4204.102461,4214.871692,4182.564,4236.922973,4233.33323,4218.974256,4209.743487,4216.922974,4239.487076,4233.33323,4213.33323,4234.871691,4247.692204
115,0,4218.974256,4208.205025,4214.871692,4172.30759,4226.666563,4231.281948,4216.922974,4212.307589,4216.410153,4236.410153,4231.281948,4207.179384,4232.307589,4235.897332
116,0,4217.435794,4207.692205,4214.358871,4169.743488,4222.563999,4238.974255,4225.640922,4215.384512,4220.512717,4223.58964,4232.820409,4212.307589,4232.820409,4233.33323
117,0,4215.897333,4207.692205,4211.281948,4171.79477,4248.205024,4244.615281,4232.820409,4214.871692,4219.487076,4218.461435,4234.871691,4218.461435,4235.897332,4244.615281
118,0,4216.410153,4206.153743,4213.33323,4170.256308,4231.794768,4235.897332,4225.128102,4213.33323,4215.384512,4219.487076,4233.84605,4215.384512,4235.897332,4247.179383
119,0,4217.948615,4207.692205,4218.974256,4172.30759,4190.769128,4231.794768,4217.435794,4215.384512,4224.102461,4233.33323,4242.051178,4216.922974,4242.051178,4245.640922
120,0,4218.461435,4210.256307,4215.384512,4175.897334,4216.410153,4239.999896,4217.435794,4211.281948,4228.717845,4251.281947,4243.58964,4215.897333,4245.128101,4247.179383
121,0,4215.897333,4211.281948,4212.82041,4172.30759,4277.435793,4245.128101,4217.948615,4206.666564,4221.538358,4251.281947,4236.922973,4209.743487,4238.461435,4244.615281
122,0,4216.922974,4209.743487,4215.897333,4173.333231,4259.999896,4241.025537,4219.999897,4206.666564,4218.461435,4232.820409,4239.487076,4211.281948,4237.435794,4243.58964
123,0,4219.487076,4208.717846,4212.82041,4182.05118,4199.999897,4235.384512,4219.999897,4206.153743,4221.538358,4222.563999,4240.512717,4215.897333,4236.922973,4245.128101
124,0,4217.435794,4206.666564,4212.307589,4181.538359,4225.640922,4236.922973,4215.897333,4206.153743,4223.58964,4241.538358,4235.897332,4215.897333,4234.358871,4244.10246
125,0,4220.512717,4204.615282,4218.974256,4178.461436,4273.846049,4244.10246,4221.538358,4210.256307,4223.07682,4257.948614,4243.58964,4217.948615,4238.461435,4247.179383
126,0,4229.743486,4207.179384,4220.512717,4185.640923,4246.666563,4244.615281,4231.794768,4215.384512,4224.102461,4248.205024,4251.794768,4219.999897,4238.461435,4251.281947
127,0,4231.281948,4211.281948,4216.922974,4187.692205,4217.435794,4242.051178,4231.281948,4215.384512,4228.205025,4244.615281,4247.179383,4218.461435,4234.358871,4249.230665
128,0,4230.256307,4217.948615,4216.410153,4181.025539,4252.820409,4245.128101,4228.717845,4216.410153,4228.717845,4250.769127,4247.179383,4217.435794,4239.487076,4246.153742
0,0,4233.33323,4216.410153,4214.871692,4187.692205,4269.230665,4247.179383,4232.307589,4216.922974,4224.615281,4246.666563,4250.256306,4216.410153,4240.512717,4246.666563
1,0,4228.717845,4207.692205,4213.846051,4198.461436,4223.07682,4245.128101,4235.897332,4215.897333,4224.102461,4242.563999,4247.692204,4216.410153,4231.794768,4247.692204
2,0,4221.025538,4202.051179,4215.897333,4194.871692,4215.897333,4246.666563,4237.435794,4216.922974,4228.717845,4239.999896,4245.640922,4216.922974,4230.769127,4247.692204
3,0,4213.846051,4204.615282,4214.358871,4186.666564,4252.307588,4245.128101,4234.871691,4214.871692,4227.179384,4235.897332,4245.128101,4214.358871,4233.84605,4245.128101
4,0,4204.615282,4203.589641,4210.769128,4183.076821,4252.820409,4237.435794,4227.692204,4214.358871,4226.666563,4232.820409,4246.153742,4212.307589,4230.769127,4242.563999
5,0,4208.205025,4198.461436,4214.871692,4183.589641,4223.58964,4233.84605,4227.692204,4216.922974,4228.717845,4246.666563,4248.717845,4213.846051,4230.769127,4245.640922
6,0,4224.102461,4206.666564,4223.58964,4193.846051,4215.384512,4233.84605,4227.692204,4218.974256,4228.717845,4266.153742,4252.307588,4217.435794,4240.512717,4251.794768
7,0,4231.281948,4217.948615,4222.563999,4196.922974,4232.307589,4233.84605,4225.128102,4216.922974,4228.717845,4255.384511,4251.281947,4218.974256,4245.128101,4251.794768
8,0,4227.179384,4218.461435,4214.871692,4187.179385,4248.205024,4237.435794,4229.230666,4216.922974,4228.717845,4231.281948,4250.769127,4216.410153,4241.538358,4247.179383
9,0,4227.692204,4216.922974,4217.435794,4192.82041,4258.974255,4245.128101,4235.897332,4219.999897,4230.769127,4248.205024,4259.999896,4220.512717,4244.10246,4257.435793
10,0,4232.307589,4218.461435,4227.179384,4205.640923,4239.487076,4245.128101,4233.84605,4218.974256,4231.281948,4277.435793,4266.153742,4227.179384,4249.743486,4265.640921
11,0,4229.743486,4216.410153,4224.615281,4199.487077,4215.384512,4236.410153,4228.717845,4216.410153,4228.205025,4262.051178,4261.538357,4223.07682,4245.640922,4255.384511
12,0,4227.692204,4212.82041,4216.410153,4195.384513,4230.256307,4233.84605,4229.743486,4218.974256,4230.256307,4247.179383,4261.538357,4217.948615,4243.076819,4252.820409
13,0,4228.205025,4212.82041,4216.410153,4201.025538,4244.10246,4236.922973,4231.281948,4219.999897,4230.769127,4246.666563,4259.999896,4219.487076,4245.640922,4257.948614
14,0,4226.153743,4210.256307,4218.461435,4199.999897,4226.153743,4236.410153,4231.794768,4214.358871,4223.58964,4231.794768,4250.769127,4217.435794,4243.076819,4249.230665
15,0,4219.999897,4204.615282,4218.461435,4198.974256,4223.58964,4231.794768,4231.794768,4212.307589,4216.922974,4239.487076,4245.640922,4213.846051,4238.461435,4244.615281
16,0,4214.871692,4203.07682,4215.384512,4196.410154,4256.922973,4233.33323,4227.692204,4215.897333,4217.948615,4267.179383,4245.128101,4213.846051,4233.84605,4247.179383
17,0,4213.846051,4201.025538,4206.153743,4186.153744,4254.871691,4234.358871,4218.974256,4210.769128,4218.461435,4254.35887,4242.051178,4210.256307,4230.769127,4238.974255
18,0,4217.435794,4199.999897,4204.615282,4189.230667,4201.538359,4227.692204,4218.974256,4206.153743,4216.922974,4225.640922,4244.615281,4212.82041,4232.307589,4238.974255
19,0,4222.051179,4206.666564,4216.410153,4204.615282,4202.564,4232.820409,4231.281948,4212.82041,4217.948615,4236.410153,4250.769127,4228.205025,4234.358871,4251.281947
20,0,4222.563999,4211.794769,4217.435794,4205.128102,4258.461434,4244.615281,4234.871691,4216.410153,4219.487076,4240.512717,4249.230665,4233.84605,4234.871691,4247.692204
21,0,4225.640922,4212.307589,4212.307589,4199.999897,4255.897332,4240.512717,4230.256307,4214.871692,4226.153743,4236.410153,4251.281947,4230.256307,4239.999896,4241.538358
22,0,4232.820409,4214.871692,4220.512717,4204.102461,4219.999897,4233.33323,4231.794768,4217.435794,4231.794768,4260.512716,4259.999896,4233.84605,4247.179383,4250.256306
23,0,4233.33323,4215.384512,4223.58964,4204.615282,4234.871691,4238.974255,4231.281948,4217.435794,4223.58964,4275.384511,4261.025537,4235.384512,4247.179383,4251.794768
24,0,4231.281948,4212.82041,4218.974256,4204.615282,4243.58964,4242.563999,4228.717845,4214.871692,4216.922974,4265.128101,4256.922973,4233.33323,4244.615281,4247.692204
25,0,4233.33323,4214.871692,4217.435794,4201.538359,4223.07682,4236.922973,4231.281948,4217.435794,4221.025538,4245.640922,4261.538357,4239.999896,4246.666563,4255.897332
26,0,4234.358871,4215.897333,4218.461435,4187.692205,4241.025537,4233.33323,4230.256307,4216.410153,4217.435794,4223.58964,4267.692203,4244.615281,4247.179383,4260.512716
27,0,4231.281948,4211.281948,4223.58964,4184.102462,4261.538357,4232.307589,4225.640922,4213.33323,4213.33323,4234.358871,4262.563998,4235.384512,4243.58964,4250.256306
28,0,4232.820409,4212.82041,4229.743486,4198.974256,4237.948614,4232.820409,4227.692204,4215.384512,4221.025538,4271.794767,4257.948614,4233.33323,4245.128101,4249.230665
29,0,4230.256307,4215.384512,4226.666563,4203.589641,4219.487076,4232.307589,4231.794768,4215.897333,4219.487076,4257.948614,4260.512716,4237.948614,4244.10246,4256.410152
30,0,4223.58964,4213.33323,4225.640922,4197.948615,4227.692204,4234.358871,4232.307589,4213.846051,4213.33323,4227.692204,4264.61528,4236.922973,4238.461435,4255.897332
31,0,4230.256307,4215.384512,4234.871691,4203.07682,4246.153742,4239.999896,4233.84605,4214.871692,4220.512717,4249.743486,4261.538357,4237.948614,4238.974255,4256.410152
32,0,4232.820409,4215.384512,4230.769127,4211.794769,4251.794768,4237.948614,4229.743486,4215.897333,4222.563999,4258.974255,4249.743486,4237.948614,4237.948614,4252.307588
33,0,4220.512717,4207.692205,4221.538358,4210.256307,4231.794768,4232.307589,4219.999897,4214.871692,4215.897333,4230.769127,4251.281947,4232.820409,4235.384512,4247.179383
34,0,4213.846051,4203.589641,4222.563999,4205.640923,4230.769127,4233.84605,4216.410153,4216.410153,4216.922974,4225.640922,4263.589639,4232.307589,4239.999896,4254.871691
35,0,4216.922974,4200.512718,4221.538358,4207.692205,4253.84605,4233.84605,4215.897333,4217.435794,4215.897333,4238.461435,4256.922973,4233.33323,4238.461435,4257.435793
36,0,4215.384512,4199.999897,4222.563999,4215.897333,4241.538358,4230.256307,4214.358871,4215.384512,4213.846051,4239.999896,4249.230665,4231.794768,4228.717845,4249.743486
37,0,4215.384512,4207.179384,4231.794768,4218.974256,4214.358871,4232.307589,4216.410153,4216.922974,4222.051179,4246.153742,4261.538357,4234.358871,4236.922973,4254.35887
38,0,4223.58964,4209.743487,4234.871691,4217.948615,4216.410153,4235.897332,4218.974256,4220.512717,4225.128102,4255.897332,4269.230665,4239.487076,4247.692204,4265.640921
39,0,4232.307589,4202.051179,4228.717845,4217.435794,4232.820409,4234.358871,4216.922974,4218.974256,4217.948615,4245.640922,4261.025537,4237.435794,4238.974255,4262.051178
40,0,4233.84605,4201.538359,4232.307589,4217.435794,4262.051178,4234.358871,4216.922974,4215.897333,4216.410153,4226.666563,4262.051178,4234.871691,4233.33323,4257.948614
41,0,4224.102461,4206.153743,4234.871691,4218.461435,4278.974254,4234.871691,4217.435794,4215.384512,4218.974256,4227.179384,4263.589639,4233.33323,4235.897332,4259.487075
42,0,4217.948615,4207.179384,4225.128102,4220.512717,4255.384511,4234.871691,4218.461435,4217.435794,4218.974256,4245.640922,4258.974255,4230.256307,4233.33323,4259.487075
43,0,4223.07682,4211.794769,4220.512717,4219.487076,4236.410153,4234.358871,4218.974256,4217.435794,4219.487076,4249.743486,4259.487075,4229.230666,4232.820409,4258.974255
44,0,4231.794768,4216.922974,4227.179384,4218.974256,4235.897332,4234.358871,4217.435794,4215.897333,4219.487076,4248.205024,4263.076819,4232.307589,4239.487076,4261.538357
45,0,4233.33323,4216.410153,4233.33323,4221.025538,4228.205025,4235.384512,4218.974256,4216.410153,4219.999897,4252.307588,4265.640921,4234.871691,4242.051178,4265.640921
46,0,4224.102461,4215.384512,4228.205025,4224.615281,4233.33323,4232.307589,4218.461435,4214.871692,4218.461435,4232.820409,4265.128101,4231.281948,4237.435794,4261.538357
47,0,4216.922974,4211.281948,4225.128102,4222.563999,4261.025537,4231.281948,4211.794769,4209.230666,4215.897333,4212.82041,4255.897332,4228.717845,4233.84605,4255.384511
48,0,4218.974256,4207.692205,4230.256307,4218.461435,4259.487075,4235.384512,4214.358871,4211.281948,4218.461435,4237.948614,4248.717845,4230.256307,4234.871691,4258.974255
49,0,4218.974256,4210.256307,4232.820409,4222.051179,4226.153743,4234.358871,4221.538358,4211.794769,4220.512717,4259.487075,4256.410152,4231.281948,4236.410153,4264.10246
50,0,4214.358871,4208.205025,4224.102461,4221.025538,4225.128102,4229.743486,4215.897333,4203.589641,4216.410153,4229.743486,4262.563998,4227.692204,4232.820409,4256.410152
51,0,4216.410153,4206.666564,4219.999897,4216.410153,4234.358871,4230.769127,4212.307589,4205.128102,4214.358871,4222.051179,4258.461434,4226.666563,4230.769127,4249.230665
52,0,4223.07682,4210.769128,4231.281948,4220.512717,4227.692204,4232.820409,4218.974256,4216.410153,4217.435794,4237.435794,4261.538357,4231.794768,4233.84605,4257.948614
53,0,4223.58964,4207.179384,4236.410153,4223.58964,4258.461434,4231.281948,4216.410153,4217.948615,4218.974256,4225.128102,4261.025537,4233.33323,4236.410153,4263.076819
54,0,4214.871692,4195.384513,4220.512717,4213.33323,4299.487074,4230.256307,4207.179384,4209.743487,4214.871692,4231.794768,4246.666563,4226.666563,4231.794768,4252.307588
55,0,4211.281948,4198.461436,4214.358871,4212.307589,4246.666563,4229.230666,4209.743487,4208.717846,4212.307589,4250.256306,4248.205024,4225.128102,4230.769127,4251.794768
56,0,4223.07682,4210.769128,4231.281948,4225.128102,4177.948616,4229.743486,4218.461435,4215.384512,4221.538358,4235.384512,4269.230665,4234.871691,4237.435794,4266.666562
57,0,4226.666563,4207.692205,4233.84605,4226.666563,4222.563999,4232.820409,4221.025538,4215.897333,4227.179384,4232.820409,4269.230665,4234.358871,4235.897332,4264.61528
58,0,4214.358871,4200.512718,4216.922974,4218.461435,4283.076818,4234.871691,4218.974256,4211.794769,4217.435794,4244.615281,4253.333229,4228.717845,4231.281948,4249.743486
59,0,4211.794769,4199.999897,4212.307589,4213.846051,4253.333229,4228.717845,4213.846051,4212.307589,4212.307589,4203.589641,4247.179383,4226.666563,4232.307589,4248.717845
60,0,4214.358871,4201.025538,4215.897333,4214.358871,4204.102461,4216.922974,4211.281948,4215.897333,4217.948615,4193.333231,4248.205024,4222.563999,4232.307589,4250.769127
61,0,4206.666564,4203.07682,4214.358871,4219.487076,4225.128102,4218.461435,4215.384512,4214.871692,4218.974256,4257.435793,4245.640922,4219.487076,4229.230666,4245.640922
62,0,4206.666564,4202.564,4214.358871,4216.922974,4258.974255,4230.769127,4217.435794,4212.307589,4215.897333,4276.410152,4243.58964,4222.563999,4230.256307,4246.153742
63,0,4216.410153,4203.589641,4218.461435,4203.07682,4235.384512,4231.794768,4214.871692,4210.769128,4215.897333,4236.922973,4249.230665,4225.128102,4230.769127,4249.230665
64,0,4216.922974,4208.717846,4219.999897,4201.538359,4218.461435,4226.153743,4213.846051,4209.230666,4213.33323,4194.871692,4256.410152,4225.128102,4228.205025,4250.256306
65,0,4218.974256,4215.384512,4224.615281,4216.922974,4244.10246,4228.717845,4215.384512,4210.256307,4213.846051,4195.384513,4253.333229,4231.281948,4230.256307,4254.871691
66,0,4228.717845,4213.846051,4232.307589,4220.512717,4263.076819,4230.769127,4216.410153,4214.358871,4218.461435,4244.10246,4247.179383,4232.820409,4233.84605,4257.948614
67,0,4228.717845,4212.82041,4228.717845,4215.384512,4244.10246,4229.230666,4217.435794,4214.871692,4218.974256,4257.435793,4245.640922,4223.58964,4232.820409,4254.35887
68,0,4219.487076,4216.410153,4219.487076,4216.410153,4241.538358,4229.743486,4217.435794,4212.307589,4214.871692,4200.512718,4245.640922,4216.410153,4229.743486,4248.205024
69,0,4218.461435,4215.384512,4223.58964,4218.461435,4246.153742,4229.743486,4217.435794,4212.307589,4213.33323,4187.179385,4247.179383,4222.051179,4230.256307,4247.692204
70,0,4225.640922,4215.897333,4230.769127,4220.512717,4227.692204,4229.743486,4219.487076,4216.922974,4218.461435,4243.076819,4251.281947,4234.871691,4233.84605,4257.435793
71,0,4226.666563,4218.974256,4222.051179,4220.512717,4219.999897,4230.256307,4219.999897,4218.974256,4221.538358,4259.487075,4249.230665,4231.281948,4234.358871,4261.538357
72,0,4221.025538,4210.256307,4215.384512,4215.897333,4251.281947,4230.256307,4219.999897,4217.948615,4218.974256,4230.256307,4244.615281,4220.512717,4230.256307,4251.281947
73,0,4213.846051,4199.487077,4217.948615,4215.384512,4274.87169,4230.769127,4219.487076,4215.897333,4216.410153,4217.435794,4244.615281,4218.461435,4228.717845,4244.10246
74,0,4212.82041,4205.640923,4217.948615,4222.051179,4235.897332,4230.256307,4217.435794,4214.871692,4215.897333,4212.307589,4244.10246,4218.974256,4231.794768,4247.692204
75,0,4225.640922,4213.846051,4222.563999,4229.743486,4215.384512,4232.307589,4220.512717,4216.922974,4217.948615,4213.846051,4243.58964,4222.563999,4233.33323,4250.769127
76,0,4234.871691,4213.846051,4227.692204,4232.307589,4254.871691,4234.871691,4225.128102,4218.461435,4218.974256,4228.205025,4245.128101,4226.153743,4231.281948,4250.256306
77,0,4225.640922,4212.307589,4223.58964,4228.717845,4273.333229,4232.820409,4221.538358,4216.410153,4216.922974,4223.07682,4246.153742,4222.051179,4228.717845,4250.256306
78,0,4215.384512,4206.153743,4217.435794,4225.640922,4239.999896,4230.256307,4216.410153,4214.358871,4213.846051,4206.666564,4241.538358,4217.948615,4228.717845,4247.179383
79,0,4218.974256,4201.538359,4219.487076,4228.717845,4202.051179,4229.230666,4218.461435,4214.358871,4213.846051,4212.307589,4241.025537,4220.512717,4231.281948,4245.640922
80,0,4219.999897,4205.128102,4223.07682,4229.230666,4214.358871,4228.205025,4218.974256,4215.897333,4215.384512,4223.58964,4244.10246,4221.025538,4232.307589,4250.769127
81,0,4215.384512,4205.640923,4219.999897,4227.692204,4259.999896,4231.794768,4215.897333,4216.410153,4215.897333,4223.07682,4239.999896,4217.948615,4229.743486,4251.794768
82,0,4214.871692,4203.07682,4215.384512,4228.717845,4264.61528,4229.743486,4215.384512,4214.358871,4215.384512,4218.974256,4228.205025,4217.948615,4229.230666,4246.153742
83,0,4215.897333,4203.07682,4214.871692,4230.256307,4218.974256,4219.999897,4214.871692,4214.358871,4213.846051,4209.743487,4232.307589,4217.948615,4230.769127,4244.10246
84,0,4216.922974,4204.615282,4218.974256,4230.256307,4218.974256,4221.538358,4216.410153,4216.410153,4214.871692,4198.461436,4247.179383,4218.974256,4229.743486,4248.205024
85,0,4219.999897,4207.179384,4219.999897,4228.205025,4253.84605,4233.84605,4220.512717,4217.435794,4218.461435,4217.948615,4241.025537,4220.512717,4229.230666,4249.743486
86,0,4218.974256,4206.153743,4214.871692,4224.615281,4242.051178,4233.33323,4218.461435,4214.871692,4216.922974,4238.974255,4227.179384,4218.461435,4231.281948,4246.666563
87,0,4215.384512,4202.564,4213.846051,4226.153743,4216.410153,4227.179384,4217.435794,4215.384512,4212.82041,4227.179384,4239.487076,4218.461435,4231.794768,4246.153742
88,0,4221.538358,4202.051179,4224.102461,4230.769127,4234.358871,4233.33323,4226.666563,4218.974256,4216.922974,4212.307589,4252.820409,4223.07682,4232.307589,4249.230665
89,0,4231.281948,4200.512718,4232.820409,4230.769127,4257.435793,4233.84605,4228.717845,4217.435794,4220.512717,4224.615281,4237.435794,4222.563999,4235.384512,4251.794768
90,0,4229.230666,4199.487077,4226.153743,4231.794768,4228.717845,4223.58964,4218.461435,4214.871692,4216.410153,4241.025537,4231.794768,4218.461435,4236.922973,4250.769127
91,0,4219.999897,4203.07682,4219.487076,4232.820409,4202.051179,4221.538358,4214.358871,4215.384512,4213.33323,4218.974256,4245.640922,4219.999897,4236.410153,4249.230665
92,0,4216.410153,4202.051179,4221.025538,4229.743486,4244.10246,4228.717845,4219.487076,4215.897333,4214.358871,4205.640923,4241.538358,4219.999897,4233.33323,4246.153742
93,0,4224.102461,4201.538359,4220.512717,4230.769127,4281.538357,4232.307589,4219.999897,4216.410153,4216.922974,4236.410153,4229.743486,4218.974256,4231.794768,4247.179383
94,0,4227.179384,4205.128102,4216.922974,4233.33323,4239.487076,4228.205025,4217.435794,4217.435794,4218.974256,4242.051178,4231.794768,4219.487076,4232.307589,4248.717845
95,0,4221.025538,4203.589641,4221.025538,4231.281948,4196.410154,4227.692204,4219.999897,4216.922974,4217.435794,4224.102461,4237.435794,4218.974256,4236.410153,4248.205024
96,0,4224.102461,4202.564,4229.230666,4232.820409,4239.487076,4231.281948,4224.102461,4216.922974,4215.897333,4226.666563,4241.025537,4225.128102,4239.487076,4254.871691
97,0,4230.769127,4205.128102,4224.615281,4235.897332,4298.461433,4231.281948,4222.051179,4214.871692,4215.897333,4224.615281,4241.538358,4230.769127,4234.871691,4256.922973
98,0,4226.153743,4204.102461,4216.410153,4235.384512,4259.999896,4229.230666,4214.871692,4211.794769,4212.82041,4211.794769,4236.410153,4222.051179,4231.794768,4250.769127
99,0,4226.666563,4202.051179,4221.538358,4229.230666,4215.897333,4230.256307,4214.871692,4214.871692,4212.82041,4233.84605,4234.358871,4216.410153,4234.358871,4248.205024
100,0,4234.358871,4204.615282,4227.179384,4226.666563,4255.897332,4229.743486,4216.922974,4216.410153,4216.410153,4252.307588,4233.84605,4219.999897,4233.33323,4251.281947
101,0,4233.84605,4205.128102,4226.153743,4227.692204,4234.871691,4223.07682,4214.871692,4213.846051,4217.435794,4229.230666,4236.410153,4218.461435,4237.435794,4254.871691
102,0,4229.230666,4198.974256,4225.640922,4222.563999,4185.128103,4223.58964,4215.897333,4217.435794,4219.999897,4228.717845,4250.256306,4217.948615,4247.179383,4258.461434
103,0,4228.717845,4198.461436,4223.07682,4217.435794,4247.179383,4231.794768,4221.025538,4222.563999,4222.051179,4243.076819,4249.230665,4220.512717,4240.512717,4254.871691
104,0,4229.230666,4210.769128,4216.922974,4225.640922,4301.025536,4231.281948,4220.512717,4218.461435,4217.948615,4226.666563,4231.281948,4215.384512,4228.717845,4246.666563
105,0,4232.820409,4219.487076,4215.897333,4233.84605,4256.410152,4225.640922,4214.358871,4213.33323,4212.307589,4219.487076,4226.666563,4213.33323,4231.794768,4245.640922
106,0,4234.358871,4213.846051,4223.58964,4232.307589,4211.794769,4225.128102,4216.410153,4213.846051,4214.871692,4234.358871,4235.384512,4217.948615,4234.871691,4250.256306
107,0,4234.871691,4212.307589,4232.307589,4234.358871,4222.051179,4229.230666,4221.538358,4215.384512,4219.999897,4234.358871,4240.512717,4219.999897,4230.769127,4257.948614
108,0,4234.871691,4215.384512,4228.717845,4232.307589,4253.333229,4230.769127,4223.07682,4216.922974,4217.948615,4221.538358,4242.051178,4218.461435,4229.743486,4257.948614
109,0,4234.358871,4215.384512,4223.58964,4227.179384,4254.35887,4231.281948,4224.615281,4217.435794,4214.871692,4231.794768,4243.58964,4218.461435,4232.820409,4251.281947
110,0,4234.358871,4214.358871,4224.615281,4232.307589,4228.205025,4232.307589,4223.58964,4217.435794,4216.922974,4248.717845,4238.974255,4217.435794,4234.871691,4248.205024
111,0,4232.820409,4208.205025,4221.538358,4234.358871,4242.051178,4230.256307,4217.435794,4217.948615,4216.410153,4237.948614,4234.871691,4217.948615,4233.84605,4252.820409
112,0,4231.794768,4198.974256,4217.435794,4229.230666,4264.61528,4227.179384,4215.384512,4217.948615,4213.846051,4213.33323,4235.897332,4219.999897,4229.743486,4257.948614
113,0,4228.717845,4197.948615,4217.435794,4228.717845,4228.717845,4225.640922,4218.461435,4216.410153,4213.33323,4205.640923,4227.692204,4216.922974,4226.666563,4254.871691
114,0,4227.692204,4203.07682,4219.999897,4232.820409,4232.820409,4231.281948,4219.999897,4215.897333,4215.384512,4222.051179,4224.102461,4213.846051,4228.205025,4248.717845
115,0,4227.692204,4198.461436,4218.461435,4232.307589,4250.256306,4231.281948,4219.999897,4215.897333,4215.897333,4225.640922,4228.205025,4214.358871,4230.256307,4248.717845
116,0,4225.640922,4190.256308,4214.871692,4231.281948,4189.230667,4219.487076,4215.897333,4214.358871,4214.358871,4221.025538,4224.615281,4213.33323,4228.717845,4249.230665
117,0,4228.205025,4193.846051,4222.563999,4228.205025,4222.051179,4221.538358,4213.33323,4214.871692,4213.846051,4242.051178,4223.58964,4213.33323,4229.743486,4249.743486
118,0,4231.281948,4202.051179,4231.794768,4232.307589,4308.205023,4231.281948,4217.435794,4215.897333,4214.871692,4250.256306,4229.230666,4215.384512,4232.820409,4254.35887
119,0,4233.33323,4202.564,4225.640922,4242.563999,4244.615281,4224.615281,4217.948615,4214.871692,4216.410153,4229.230666,4223.58964,4220.512717,4229.743486,4254.35887
120,0,4229.743486,4197.948615,4216.410153,4238.461435,4206.153743,4222.051179,4216.922974,4214.358871,4215.384512,4216.410153,4219.999897,4221.025538,4227.692204,4247.179383
121,0,4219.999897,4197.948615,4214.871692,4227.692204,4284.102459,4230.769127,4215.384512,4214.871692,4212.82041,4227.692204,4228.717845,4206.153743,4232.307589,4246.666563
122,0,4218.461435,4199.487077,4215.897333,4231.281948,4251.281947,4228.717845,4219.999897,4216.410153,4218.461435,4238.974255,4229.230666,4209.743487,4234.871691,4249.743486
123,0,4228.717845,4202.051179,4219.487076,4238.461435,4194.871692,4226.153743,4227.179384,4220.512717,4229.230666,4246.153742,4229.743486,4228.205025,4233.84605,4252.307588
124,0,4230.256307,4202.051179,4221.025538,4231.794768,4279.487075,4231.794768,4224.102461,4219.999897,4226.153743,4243.076819,4233.84605,4168.717847,4230.256307,4250.769127
125,0,4225.128102,4198.974256,4217.948615,4229.230666,4301.538356,4229.743486,4221.025538,4217.948615,4214.358871,4225.128102,4230.769127,4066.666567,4228.717845,4248.205024
126,0,4231.281948,4201.025538,4219.999897,4235.897332,4228.205025,4227.179384,4228.717845,4219.999897,4215.384512,4226.666563,4228.717845,4053.333234,4230.769127,4249.230665
127,0,4232.820409,4197.948615,4220.512717,4235.897332,4217.435794,4229.743486,4233.33323,4218.974256,4218.974256,4242.051178,4230.769127,4090.25631,4230.769127,4250.256306
128,0,4227.179384,4190.769128,4217.435794,4230.256307,4245.640922,4228.205025,4226.153743,4214.358871,4214.871692,4239.999896,4233.84605,4088.717849,4232.820409,4247.692204
0,0,4228.717845,4190.256308,4219.487076,4229.230666,4248.205024,4225.640922,4220.512717,4216.410153,4213.846051,4218.974256,4235.384512,4088.205028,4235.897332,4248.717845
1,0,4231.281948,4195.897333,4219.999897,4233.84605,4221.538358,4228.205025,4222.051179,4219.487076,4217.948615,4203.589641,4230.769127,4108.205028,4231.794768,4253.333229
2,0,4228.717845,4200.512718,4215.384512,4236.410153,4214.871692,4230.769127,4227.692204,4217.948615,4219.487076,4224.102461,4226.666563,4111.281951,4228.205025,4253.333229
3,0,4229.743486,4204.102461,4219.999897,4236.410153,4245.128101,4230.256307,4232.307589,4219.487076,4219.487076,4251.794768,4230.769127,4115.384515,4232.307589,4253.333229
4,0,4231.281948,4203.07682,4226.153743,4235.384512,4263.589639,4231.281948,4231.794768,4224.615281,4218.461435,4234.871691,4237.948614,4128.717848,4235.897332,4255.897332
5,0,4223.58964,4197.948615,4221.538358,4234.871691,4268.205024,4233.84605,4231.794768,4223.58964,4216.922974,4213.33323,4235.384512,4131.794771,4233.33323,4253.333229
6,0,4219.487076,4197.435795,4212.307589,4233.33323,4253.333229,4230.256307,4229.230666,4216.922974,4216.410153,4225.128102,4227.179384,4130.76913,4230.256307,4247.692204
7,0,4226.153743,4202.051179,4215.384512,4234.358871,4198.461436,4227.179384,4228.717845,4214.871692,4217.948615,4229.230666,4229.230666,4135.897335,4229.743486,4248.205024
8,0,4231.794768,4203.07682,4224.615281,4238.461435,4203.589641,4231.794768,4233.84605,4220.512717,4219.999897,4228.205025,4234.871691,4145.128104,4232.820409,4251.794768
9,0,4230.769127,4201.538359,4223.07682,4237.948614,4274.35887,4235.384512,4233.33323,4222.563999,4217.435794,4235.384512,4222.563999,4148.717847,4232.307589,4250.769127
10,0,4222.563999,4199.487077,4214.358871,4236.410153,4268.205024,4232.820409,4230.256307,4216.922974,4214.871692,4209.743487,4214.871692,4149.743488,4228.717845,4249.230665
11,0,4217.435794,4199.999897,4214.358871,4243.58964,4229.230666,4232.820409,4230.256307,4217.435794,4216.410153,4191.794769,4230.769127,4158.461437,4230.769127,4250.256306
12,0,4226.153743,4202.564,4226.666563,4249.743486,4230.769127,4234.358871,4232.307589,4225.128102,4218.461435,4231.794768,4240.512717,4169.743488,4235.384512,4256.922973
13,0,4230.769127,4202.051179,4231.281948,4242.051178,4219.487076,4232.820409,4235.897332,4227.179384,4218.974256,4256.410152,4231.794768,4179.999898,4234.871691,4265.128101
14,0,4219.487076,4197.948615,4219.487076,4234.358871,4242.563999,4232.307589,4230.256307,4221.538358,4216.922974,4230.256307,4226.153743,4182.564,4231.794768,4263.076819
15,0,4214.871692,4196.410154,4216.410153,4242.051178,4293.333228,4233.84605,4219.487076,4217.948615,4214.871692,4214.358871,4232.307589,4184.615282,4232.307589,4257.948614
16,0,4221.538358,4202.564,4229.230666,4249.230665,4247.692204,4232.307589,4222.563999,4225.640922,4218.461435,4222.051179,4234.871691,4193.846051,4235.384512,4261.538357
17,0,4218.974256,4200.512718,4233.84605,4242.051178,4201.025538,4232.307589,4226.666563,4231.794768,4221.025538,4216.922974,4224.615281,4199.999897,4233.84605,4263.589639
18,0,4215.897333,4190.256308,4224.102461,4237.435794,4254.871691,4233.84605,4218.974256,4225.128102,4216.410153,4210.256307,4215.384512,4198.974256,4229.230666,4256.922973
19,0,4217.948615,4190.256308,4218.974256,4242.051178,4273.333229,4232.307589,4214.871692,4217.948615,4214.358871,4232.820409,4218.974256,4205.128102,4229.743486,4251.794768
20,0,4209.743487,4190.769128,4217.435794,4237.435794,4237.948614,4228.717845,4216.922974,4222.051179,4216.922974,4238.461435,4224.102461,4216.410153,4231.281948,4248.205024
21,0,4204.615282,4184.615282,4215.384512,4231.281948,4232.820409,4230.256307,4214.871692,4228.205025,4217.948615,4208.717846,4226.153743,4216.922974,4231.281948,4248.205024
22,0,4215.897333,4190.769128,4218.461435,4241.025537,4221.538358,4232.307589,4215.384512,4231.281948,4220.512717,4210.256307,4231.794768,4219.487076,4233.33323,4255.897332
23,0,4222.563999,4198.974256,4221.025538,4247.179383,4239.487076,4232.307589,4217.948615,4231.794768,4221.538358,4241.025537,4232.820409,4226.153743,4236.410153,4257.948614
24,0,4213.846051,4191.281949,4217.948615,4236.410153,4286.666562,4231.281948,4213.846051,4222.051179,4215.897333,4220.512717,4222.051179,4225.128102,4231.794768,4247.692204
25,0,4210.256307,4187.179385,4216.922974,4229.230666,4245.128101,4229.230666,4214.358871,4216.410153,4214.871692,4187.692205,4214.871692,4224.102461,4226.666563,4245.128101
26,0,4217.948615,4190.256308,4220.512717,4233.33323,4204.102461,4227.692204,4216.410153,4219.999897,4219.487076,4212.307589,4214.871692,4226.666563,4227.692204,4250.256306
27,0,4215.897333,4185.640923,4217.948615,4235.897332,4257.435793,4228.205025,4213.33323,4217.948615,4219.487076,4237.948614,4214.871692,4227.179384,4228.717845,4248.205024
28,0,4207.692205,4183.076821,4214.358871,4232.820409,4279.999895,4230.256307,4212.82041,4219.487076,4216.922974,4226.153743,4216.922974,4228.717845,4227.179384,4246.153742
29,0,4212.82041,4193.333231,4223.58964,4238.461435,4248.717845,4233.84605,4218.461435,4231.794768,4220.512717,4215.384512,4217.435794,4231.794768,4228.205025,4249.230665
30,0,4223.07682,4200.512718,4232.820409,4247.179383,4237.948614,4234.358871,4221.025538,4231.794768,4222.051179,4214.871692,4216.410153,4233.84605,4232.307589,4250.769127
31,0,4221.538358,4198.461436,4229.743486,4245.640922,4242.051178,4230.769127,4217.435794,4219.487076,4217.435794,4221.025538,4225.640922,4233.84605,4231.794768,4255.384511
32,0,4220.512717,4196.410154,4226.153743,4242.563999,4235.384512,4228.205025,4214.871692,4223.07682,4217.435794,4231.281948,4234.871691,4236.410153,4231.794768,4259.999896
33,0,4223.58964,4199.999897,4230.256307,4245.128101,4218.461435,4229.230666,4215.384512,4230.256307,4220.512717,4223.07682,4231.794768,4242.563999,4234.871691,4255.384511
34,0,4219.487076,4200.512718,4232.820409,4242.563999,4219.999897,4231.794768,4218.974256,4224.615281,4219.999897,4213.33323,4232.307589,4245.640922,4234.871691,4248.717845
35,0,4214.358871,4190.769128,4229.230666,4231.281948,4271.281947,4232.820409,4218.461435,4219.487076,4218.461435,4220.512717,4233.33323,4236.922973,4230.769127,4248.205024
36,0,4216.410153,4184.615282,4229.230666,4231.794768,4269.743485,4230.256307,4214.358871,4220.512717,4218.974256,4217.435794,4223.07682,4230.769127,4228.717845,4248.205024
37,0,4216.922974,4186.666564,4232.820409,4242.051178,4195.384513,4225.640922,4215.897333,4220.512717,4218.974256,4214.358871,4214.358871,4233.33323,4230.256307,4247.179383
38,0,4213.33323,4186.666564,4228.205025,4241.025537,4205.128102,4226.666563,4216.922974,4216.922974,4217.435794,4225.640922,4214.358871,4233.33323,4230.769127,4246.666563
39,0,4214.871692,4190.769128,4224.615281,4231.794768,4264.10246,4229.743486,4213.846051,4217.435794,4217.435794,4222.051179,4223.58964,4237.435794,4231.281948,4246.666563
40,0,4216.922974,4198.974256,4229.230666,4232.307589,4247.179383,4231.281948,4215.897333,4225.640922,4218.974256,4205.128102,4236.410153,4243.58964,4233.33323,4247.692204
41,0,4207.692205,4191.794769,4224.615281,4235.384512,4193.333231,4230.256307,4219.999897,4223.58964,4219.999897,4213.33323,4227.692204,4236.410153,4230.256307,4245.640922
42,0,4202.051179,4181.025539,4213.33323,4230.769127,4193.846051,4228.205025,4214.871692,4213.846051,4217.435794,4236.410153,4211.794769,4229.230666,4227.692204,4243.58964
43,0,4214.871692,4192.30759,4216.410153,4233.33323,4246.666563,4230.256307,4214.871692,4221.025538,4216.410153,4234.871691,4221.538358,4235.384512,4230.769127,4247.692204
44,0,4218.974256,4199.999897,4221.538358,4240.512717,4268.717844,4233.84605,4227.179384,4233.84605,4223.58964,4216.410153,4228.717845,4235.897332,4230.769127,4247.179383
45,0,4207.179384,4190.256308,4216.922974,4237.948614,4236.410153,4230.769127,4230.256307,4230.769127,4228.205025,4217.435794,4217.435794,4231.794768,4226.666563,4242.563999
46,0,4205.128102,4187.692205,4216.410153,4233.33323,4212.307589,4227.692204,4218.461435,4227.179384,4222.563999,4232.307589,4213.846051,4231.281948,4229.743486,4243.58964
47,0,4212.307589,4193.846051,4217.948615,4235.384512,4239.999896,4229.743486,4214.871692,4230.769127,4218.461435,4237.948614,4217.948615,4231.281948,4234.358871,4247.692204
48,0,4214.871692,4193.846051,4216.410153,4237.948614,4239.487076,4231.281948,4225.128102,4230.256307,4219.487076,4219.999897,4225.640922,4236.922973,4234.358871,4247.179383
49,0,4215.384512,4191.281949,4220.512717,4236.410153,4194.358872,4230.256307,4231.794768,4229.230666,4218.974256,4196.410154,4233.84605,4240.512717,4233.33323,4247.692204
50,0,4213.846051,4193.846051,4223.07682,4238.461435,4208.205025,4230.256307,4227.179384,4228.205025,4221.538358,4211.794769,4228.205025,4234.358871,4230.769127,4249.743486
51,0,4210.256307,4196.922974,4218.461435,4239.487076,4256.410152,4230.256307,4219.487076,4227.692204,4224.615281,4248.717845,4214.358871,4230.256307,4227.692204,4243.58964
52,0,4209.743487,4189.743487,4214.871692,4233.33323,4231.281948,4230.256307,4217.948615,4225.128102,4218.974256,4241.538358,4215.897333,4231.794768,4227.179384,4238.974255
53,0,4212.82041,4183.589641,4217.435794,4230.769127,4221.025538,4231.794768,4226.153743,4221.538358,4212.82041,4210.256307,4226.666563,4233.84605,4226.666563,4245.640922
54,0,4216.922974,4192.30759,4222.563999,4238.974255,4259.999896,4231.794768,4228.717845,4217.948615,4217.948615,4213.33323,4223.58964,4234.871691,4228.205025,4249.743486
55,0,4218.461435,4200.512718,4229.230666,4245.640922,4236.410153,4230.256307,4224.615281,4217.948615,4226.666563,4226.153743,4216.410153,4235.897332,4230.769127,4247.179383
56,0,4216.922974,4198.461436,4233.33323,4245.128101,4209.743487,4233.33323,4228.717845,4225.640922,4225.640922,4224.102461,4226.153743,4241.025537,4232.820409,4248.717845
57,0,4217.948615,4198.974256,4226.666563,4242.051178,4240.512717,4235.384512,4230.769127,4230.256307,4217.435794,4231.281948,4230.769127,4241.538358,4231.794768,4249.230665
58,0,4221.025538,4199.487077,4224.102461,4242.051178,4227.692204,4232.307589,4224.615281,4229.230666,4218.461435,4237.948614,4217.435794,4236.922973,4229.230666,4244.10246
59,0,4219.999897,4198.461436,4230.769127,4244.10246,4191.794769,4231.794768,4228.205025,4229.230666,4225.128102,4222.563999,4216.922974,4238.974255,4230.256307,4245.640922
60,0,4217.435794,4198.974256,4228.717845,4239.487076,4218.974256,4233.33323,4234.871691,4228.717845,4221.025538,4208.205025,4222.563999,4241.538358,4232.307589,4247.179383
61,0,4216.922974,4199.487077,4221.025538,4233.33323,4239.487076,4230.769127,4229.230666,4226.666563,4218.974256,4221.025538,4219.487076,4239.999896,4230.769127,4244.615281
62,0,4218.461435,4199.999897,4225.640922,4233.33323,4230.769127,4230.769127,4228.717845,4229.743486,4229.230666,4228.717845,4221.025538,4242.563999,4229.743486,4245.128101
63,0,4219.999897,4198.974256,4232.820409,4239.487076,4226.153743,4233.33323,4233.33323,4230.256307,4231.281948,4215.384512,4222.051179,4244.10246,4231.281948,4246.153742
64,0,4215.384512,4196.922974,4229.743486,4244.615281,4215.897333,4229.230666,4223.58964,4220.512717,4217.948615,4205.640923,4221.538358,4241.538358,4231.794768,4243.58964
65,0,4215.897333,4198.461436,4229.743486,4247.692204,4223.07682,4226.153743,4215.897333,4217.435794,4212.82041,4225.128102,4228.205025,4246.153742,4232.307589,4245.128101
66,0,4227.692204,4202.564,4234.871691,4247.692204,4232.820409,4228.717845,4219.999897,4221.025538,4219.487076,4247.692204,4231.794768,4251.281947,4232.820409,4249.743486
67,0,4229.230666,4202.564,4232.307589,4245.128101,4232.307589,4228.205025,4219.999897,4219.487076,4219.999897,4230.256307,4229.230666,4245.128101,4231.281948,4247.692204
68,0,4223.07682,4202.051179,4227.179384,4245.128101,4240.512717,4228.717845,4222.051179,4217.435794,4217.435794,4213.33323,4228.205025,4237.948614,4230.256307,4245.128101
69,0,4226.153743,4205.128102,4230.256307,4247.692204,4228.717845,4231.794768,4228.717845,4218.461435,4219.999897,4220.512717,4222.051179,4239.999896,4230.256307,4244.10246
70,0,4226.153743,4203.589641,4231.794768,4248.717845,4196.922974,4230.769127,4225.128102,4217.948615,4222.051179,4206.153743,4217.948615,4242.051178,4228.717845,4238.974255
71,0,4215.897333,4195.384513,4220.512717,4244.615281,4212.82041,4227.692204,4217.435794,4215.897333,4216.410153,4189.743487,4221.025538,4233.84605,4228.205025,4234.871691
72,0,4221.025538,4196.410154,4219.487076,4243.58964,4242.563999,4229.230666,4217.435794,4216.410153,4214.871692,4227.692204,4220.512717,4231.281948,4229.230666,4243.076819
73,0,4235.897332,4204.615282,4232.820409,4249.743486,4213.33323,4230.256307,4218.461435,4216.922974,4217.948615,4261.025537,4216.410153,4237.948614,4230.256307,4247.179383
74,0,4228.205025,4198.974256,4230.769127,4252.307588,4208.205025,4228.717845,4221.025538,4215.897333,4210.769128,4225.640922,4215.384512,4235.384512,4228.717845,4238.461435
75,0,4222.563999,4191.794769,4223.07682,4247.179383,4253.84605,4232.307589,4230.769127,4215.897333,4207.692205,4199.999897,4216.410153,4231.281948,4229.743486,4236.410153
76,0,4230.769127,4197.948615,4227.692204,4244.10246,4246.666563,4234.871691,4234.871691,4217.435794,4211.794769,4221.025538,4216.922974,4235.384512,4229.230666,4238.461435
77,0,4224.102461,4199.999897,4225.128102,4246.153742,4206.153743,4230.769127,4229.743486,4214.871692,4208.205025,4224.615281,4213.33323,4232.307589,4222.051179,4230.769127
78,0,4216.922974,4195.384513,4221.538358,4249.230665,4205.640923,4229.230666,4225.640922,4211.794769,4206.153743,4214.871692,4210.769128,4229.743486,4223.07682,4228.717845
79,0,4229.230666,4199.487077,4231.794768,4250.256306,4214.871692,4232.820409,4227.692204,4212.307589,4214.871692,4231.281948,4215.384512,4238.974255,4230.769127,4236.922973
80,0,4229.230666,4200.512718,4234.358871,4248.205024,4232.307589,4232.820409,4233.84605,4213.846051,4218.461435,4235.897332,4221.538358,4244.10246,4223.07682,4236.922973
81,0,4214.871692,4193.846051,4225.640922,4246.153742,4245.128101,4228.717845,4226.666563,4212.307589,4212.307589,4210.256307,4217.435794,4234.358871,4215.897333,4230.256307
82,0,4215.897333,4195.897333,4228.717845,4247.179383,4228.205025,4228.205025,4214.358871,4213.846051,4213.846051,4217.435794,4213.33323,4232.307589,4226.666563,4231.281948
83,0,4226.153743,4201.025538,4235.384512,4249.743486,4221.025538,4231.281948,4223.58964,4218.974256,4218.461435,4239.487076,4225.128102,4242.563999,4232.820409,4236.922973
84,0,4231.794768,4198.461436,4231.794768,4250.256306,4201.025538,4230.769127,4231.794768,4216.922974,4216.410153,4224.615281,4232.820409,4247.179383,4229.230666,4234.871691
85,0,4234.871691,4196.410154,4226.666563,4250.256306,4192.30759,4228.205025,4221.025538,4210.769128,4212.82041,4215.384512,4221.025538,4242.051178,4228.717845,4230.769127
86,0,4234.358871,4198.974256,4228.717845,4248.717845,4252.820409,4231.281948,4220.512717,4213.33323,4212.82041,4228.717845,4215.384512,4243.58964,4228.205025,4239.487076
87,0,4235.384512,4200.512718,4231.281948,4247.692204,4256.410152,4233.33323,4230.769127,4216.922974,4217.435794,4234.871691,4222.051179,4247.179383,4229.743486,4246.666563
88,0,4229.743486,4198.461436,4222.563999,4247.179383,4177.948616,4227.179384,4226.153743,4207.692205,4216.922974,4236.410153,4221.538358,4239.487076,4230.256307,4236.922973
89,0,4217.435794,4194.871692,4212.307589,4245.128101,4207.179384,4226.153743,4213.846051,4198.974256,4210.256307,4229.743486,4210.256307,4227.692204,4219.999897,4225.640922
90,0,4219.999897,4194.871692,4218.461435,4244.615281,4270.256306,4233.33323,4215.897333,4206.153743,4209.230666,4213.33323,4208.205025,4229.743486,4217.948615,4228.717845
91,0,4232.820409,4198.974256,4232.307589,4248.717845,4207.179384,4234.358871,4226.666563,4216.410153,4215.897333,4223.07682,4222.563999,4243.076819,4231.794768,4235.897332
92,0,4236.410153,4202.051179,4233.84605,4253.84605,4182.564,4231.281948,4229.230666,4217.435794,4218.974256,4244.10246,4229.230666,4246.666563,4232.820409,4233.84605
93,0,4227.692204,4196.922974,4224.615281,4247.179383,4254.35887,4231.794768,4219.999897,4211.794769,4211.794769,4227.692204,4212.82041,4235.897332,4220.512717,4227.179384
94,0,4218.461435,4189.230667,4222.051179,4239.999896,4255.897332,4227.692204,4213.846051,4209.230666,4207.179384,4211.281948,4203.07682,4230.769127,4222.563999,4226.153743
95,0,4224.615281,4190.769128,4228.205025,4248.717845,4209.743487,4224.102461,4217.948615,4211.281948,4212.307589,4217.435794,4222.563999,4242.051178,4232.820409,4231.281948
96,0,4235.897332,4198.974256,4233.33323,4254.35887,4207.179384,4226.666563,4222.563999,4217.435794,4215.897333,4212.82041,4235.897332,4251.281947,4231.794768,4234.871691
97,0,4230.256307,4203.07682,4230.256307,4247.179383,4217.435794,4226.666563,4219.999897,4213.846051,4214.871692,4217.948615,4224.102461,4244.615281,4229.230666,4233.33323
98,0,4217.435794,4195.384513,4224.102461,4244.10246,4225.640922,4226.666563,4216.410153,4204.102461,4215.897333,4241.025537,4212.307589,4235.384512,4230.256307,4230.256307
99,0,4219.999897,4191.281949,4226.666563,4247.179383,4217.948615,4229.230666,4221.538358,4206.153743,4217.948615,4249.230665,4212.82041,4236.410153,4227.692204,4228.205025
100,0,4230.769127,4198.461436,4230.769127,4249.230665,4214.871692,4232.307589,4232.820409,4216.410153,4217.948615,4242.051178,4224.102461,4246.153742,4228.717845,4232.820409
101,0,4230.256307,4198.974256,4223.07682,4247.692204,4238.974255,4229.743486,4227.179384,4213.33323,4216.922974,4232.307589,4229.743486,4245.128101,4231.281948,4232.820409
102,0,4222.563999,4188.205026,4215.897333,4243.076819,4223.07682,4224.102461,4214.871692,4206.666564,4217.435794,4225.640922,4217.948615,4234.871691,4223.58964,4222.051179
103,0,4223.07682,4182.564,4217.948615,4242.563999,4191.281949,4223.58964,4218.461435,4212.307589,4218.974256,4230.256307,4208.205025,4234.358871,4221.538358,4220.512717
104,0,4231.281948,4190.256308,4220.512717,4246.666563,4209.743487,4230.769127,4227.179384,4215.897333,4219.487076,4233.84605,4222.051179,4244.10246,4229.230666,4232.307589
105,0,4235.384512,4198.461436,4225.128102,4250.256306,4227.179384,4234.871691,4230.769127,4213.33323,4215.897333,4226.666563,4237.948614,4250.256306,4236.410153,4238.974255
106,0,4227.692204,4195.897333,4229.230666,4250.256306,4224.102461,4230.769127,4226.666563,4213.33323,4216.410153,4237.435794,4230.256307,4246.153742,4231.281948,4232.820409
107,0,4224.102461,4189.743487,4223.58964,4247.179383,4253.84605,4229.743486,4221.025538,4214.871692,4225.640922,4249.743486,4215.384512,4241.025537,4222.051179,4226.666563
108,0,4230.256307,4190.769128,4219.999897,4245.640922,4256.410152,4229.743486,4224.615281,4215.384512,4224.615281,4240.512717,4212.82041,4240.512717,4223.07682,4227.179384
109,0,4233.33323,4190.769128,4226.153743,4249.230665,4197.948615,4228.205025,4229.743486,4215.897333,4217.948615,4227.179384,4218.461435,4234.358871,4227.692204,4230.256307
110,0,4232.820409,4188.717846,4230.256307,4252.307588,4192.82041,4228.205025,4223.07682,4214.871692,4221.538358,4222.563999,4216.922974,4244.10246,4226.666563,4231.794768
111,0,4232.820409,4191.281949,4226.666563,4249.230665,4238.461435,4228.717845,4214.871692,4213.33323,4223.07682,4225.640922,4214.358871,4248.717845,4225.640922,4229.743486
112,0,4231.794768,4190.769128,4228.205025,4246.666563,4246.153742,4229.743486,4222.051179,4213.846051,4216.410153,4234.358871,4223.58964,4175.384513,4230.769127,4230.769127
113,0,4231.281948,4184.615282,4229.230666,4247.692204,4198.461436,4228.717845,4231.794768,4214.871692,4216.922974,4247.692204,4226.153743,4074.871695,4230.256307,4232.820409
114,0,4231.281948,4187.179385,4224.102461,4247.692204,4185.640923,4228.205025,4231.794768,4215.384512,4221.025538,4236.410153,4218.461435,4055.897337,4224.615281,4227.692204
115,0,4226.153743,4190.769128,4217.948615,4243.58964,4243.58964,4231.794768,4228.205025,4215.384512,4218.974256,4220.512717,4217.948615,4082.051182,4224.102461,4219.487076
116,0,4224.102461,4184.615282,4217.435794,4241.538358,4245.128101,4230.769127,4228.205025,4214.871692,4222.563999,4229.230666,4217.948615,4081.025541,4227.692204,4221.025538
117,0,4231.281948,4185.640923,4224.102461,4245.640922,4209.230666,4232.307589,4234.871691,4217.435794,4235.384512,4237.948614,4218.461435,4084.102464,4231.281948,4231.794768
118,0,4233.84605,4194.871692,4229.230666,4248.205024,4237.435794,4238.974255,4237.435794,4221.025538,4235.897332,4239.999896,4227.179384,4103.076823,4229.230666,4234.871691
119,0,4231.281948,4198.974256,4230.256307,4247.692204,4252.820409,4237.948614,4233.33323,4218.974256,4222.563999,4236.922973,4230.256307,4107.179387,4229.743486,4231.281948
120,0,4234.358871,4199.999897,4231.794768,4249.743486,4206.153743,4231.281948,4229.230666,4214.871692,4218.974256,4232.820409,4224.102461,4106.153746,4232.820409,4231.794768
121,0,4230.769127,4197.435795,4228.205025,4249.230665,4194.871692,4230.256307,4224.102461,4214.358871,4222.051179,4234.358871,4221.025538,4107.179387,4229.230666,4232.820409
122,0,4218.461435,4186.153744,4217.948615,4243.076819,4229.230666,4230.769127,4213.846051,4213.846051,4213.846051,4233.84605,4216.410153,4104.615284,4225.640922,4228.205025
123,0,4219.999897,4180.512718,4219.487076,4243.58964,4235.384512,4229.230666,4215.384512,4213.33323,4209.743487,4219.487076,4213.846051,4106.666566,4226.666563,4228.205025
124,0,4232.820409,4187.179385,4234.871691,4249.230665,4228.717845,4231.794768,4224.615281,4217.435794,4222.563999,4217.948615,4221.538358,4118.461438,4230.256307,4233.33323
125,0,4227.692204,4189.743487,4236.922973,4248.205024,4230.769127,4232.820409,4222.563999,4218.461435,4225.640922,4238.461435,4215.384512,4121.538361,4228.717845,4230.769127
126,0,4215.897333,4188.205026,4229.743486,4248.205024,4233.84605,4230.769127,4222.563999,4216.410153,4216.410153,4236.410153,4204.615282,4115.384515,4226.666563,4224.615281
127,0,4215.384512,4186.666564,4229.230666,4251.794768,4230.256307,4230.769127,4231.281948,4221.538358,4223.07682,4220.512717,4211.281948,4118.974258,4227.692204,4219.999897
128,0,4218.461435,4185.640923,4229.743486,4248.717845,4227.692204,4229.743486,4228.205025,4229.743486,4234.358871,4217.435794,4219.487076,4125.128104,4230.256307,4221.025538
0,0,4224.102461,4196.410154,4229.743486,4243.58964,4233.33323,4230.769127,4218.974256,4229.743486,4234.871691,4216.922974,4217.435794,4124.102463,4231.794768,4224.615281
1,0,4225.128102,4197.435795,4228.205025,4245.128101,4214.358871,4231.794768,4216.922974,4221.538358,4225.640922,4215.384512,4215.384512,4126.153745,4228.205025,4223.07682
2,0,4218.461435,4187.179385,4227.179384,4247.692204,4198.461436,4230.256307,4217.435794,4217.435794,4221.025538,4221.538358,4219.999897,4134.871694,4227.179384,4216.410153
3,0,4217.948615,4189.743487,4229.743486,4245.128101,4231.281948,4230.256307,4215.897333,4218.461435,4219.487076,4230.256307,4221.538358,4139.487078,4230.256307,4216.922974
4,0,4226.153743,4199.999897,4230.769127,4244.615281,4240.512717,4230.256307,4213.846051,4215.384512,4221.538358,4244.615281,4217.435794,4137.948617,4230.256307,4225.640922
5,0,4229.743486,4200.512718,4230.769127,4247.692204,4222.051179,4231.794768,4212.307589,4214.358871,4230.256307,4247.179383,4218.461435,4142.051181,4229.743486,4230.256307
6,0,4229.230666,4195.897333,4233.33323,4245.640922,4237.435794,4231.281948,4214.358871,4216.410153,4233.84605,4212.82041,4223.58964,4152.820411,4231.281948,4231.281948
7,0,4232.820409,4195.384513,4235.384512,4243.076819,4242.563999,4231.281948,4222.563999,4215.897333,4228.205025,4196.922974,4220.512717,4154.358873,4230.256307,4229.743486
8,0,4229.230666,4196.410154,4232.307589,4245.640922,4219.999897,4231.794768,4233.33323,4219.487076,4226.666563,4235.897332,4213.33323,4150.769129,4226.666563,4227.692204
9,0,4221.025538,4201.025538,4230.256307,4247.692204,4210.256307,4231.794768,4230.256307,4229.743486,4232.307589,4251.281947,4221.025538,4153.846052,4228.717845,4229.743486
10,0,4226.153743,4202.564,4232.820409,4248.717845,4212.82041,4230.769127,4218.461435,4230.256307,4231.794768,4224.615281,4228.205025,4155.384514,4233.33323,4231.281948
11,0,4234.358871,4194.871692,4231.794768,4247.692204,4238.974255,4233.33323,4218.974256,4221.538358,4230.769127,4236.410153,4214.358871,4151.28195,4227.692204,4223.58964
12,0,4228.205025,4187.179385,4227.179384,4242.051178,4245.640922,4232.307589,4217.435794,4215.384512,4230.769127,4238.461435,4204.102461,4150.769129,4218.461435,4217.948615
13,0,4226.666563,4189.743487,4230.769127,4243.58964,4206.153743,4223.07682,4203.07682,4215.897333,4221.538358,4186.666564,4216.922974,4154.871693,4225.640922,4226.153743
14,0,4229.230666,4192.82041,4233.33323,4248.205024,4216.410153,4222.563999,4199.999897,4213.33323,4215.384512,4186.153744,4218.974256,4154.871693,4231.794768,4229.230666
15,0,4217.435794,4186.666564,4224.615281,4238.974255,4234.871691,4226.666563,4206.153743,4204.102461,4218.461435,4234.871691,4202.051179,4149.743488,4219.999897,4217.435794
16,0,4210.769128,4183.076821,4215.897333,4229.743486,4203.07682,4224.102461,4202.051179,4198.461436,4223.07682,4234.871691,4197.948615,4148.205027,4214.871692,4212.82041
17,0,4217.435794,4184.615282,4218.461435,4233.84605,4211.281948,4218.461435,4199.487077,4203.07682,4215.897333,4204.102461,4201.538359,4151.28195,4219.487076,4215.897333
18,0,4214.871692,4182.564,4224.615281,4236.410153,4228.205025,4216.922974,4207.179384,4203.07682,4200.512718,4200.512718,4203.589641,4157.435796,4217.948615,4214.871692
19,0,4215.897333,4185.640923,4229.230666,4232.307589,4203.07682,4224.615281,4215.897333,4201.538359,4208.717846,4210.769128,4215.384512,4166.666565,4219.999897,4219.999897
20,0,4226.666563,4190.769128,4233.84605,4238.461435,4219.999897,4229.743486,4217.948615,4210.256307,4232.307589,4215.897333,4222.563999,4172.30759,4232.307589,4232.307589
21,0,4226.153743,4186.153744,4230.256307,4245.640922,4242.051178,4222.563999,4215.897333,4217.435794,4227.692204,4213.846051,4213.846051,4165.640924,4230.769127,4230.256307
22,0,4218.461435,4185.128103,4220.512717,4241.025537,4211.281948,4222.051179,4214.358871,4215.384512,4212.82041,4208.717846,4210.256307,4156.922975,4219.487076,4221.025538
23,0,4219.999897,4194.358872,4216.922974,4236.922973,4196.922974,4228.205025,4213.846051,4213.846051,4226.153743,4224.102461,4214.358871,4158.974257,4219.487076,4223.58964
24,0,4224.102461,4194.871692,4219.487076,4237.435794,4199.487077,4223.07682,4217.948615,4214.358871,4237.435794,4235.897332,4214.358871,4162.564001,4229.743486,4226.666563
25,0,4224.102461,4187.692205,4217.948615,4234.871691,4205.640923,4223.07682,4216.410153,4214.871692,4226.153743,4222.051179,4214.871692,4160.512719,4228.717845,4219.999897
26,0,4218.461435,4186.666564,4213.33323,4229.743486,4242.051178,4231.281948,4203.589641,4212.307589,4219.999897,4215.384512,4212.82041,4158.461437,4218.974256,4215.384512
27,0,4210.256307,4187.179385,4213.846051,4226.666563,4236.410153,4222.563999,4201.538359,4205.128102,4219.487076,4218.461435,4205.128102,4162.05118,4216.922974,4215.384512
28,0,4207.692205,4185.128103,4216.922974,4226.666563,4189.230667,4214.358871,4214.358871,4202.051179,4215.384512,4217.435794,4200.512718,4159.999898,4218.461435,4214.358871
29,0,4213.846051,4184.615282,4216.922974,4225.128102,4206.153743,4224.102461,4217.435794,4203.07682,4214.871692,4216.922974,4200.512718,4153.846052,4215.384512,4213.846051
30,0,4216.922974,4188.717846,4216.410153,4223.07682,4239.999896,4224.615281,4209.230666,4202.051179,4219.487076,4214.358871,4203.07682,4157.435796,4217.948615,4215.897333
31,0,4217.948615,4192.30759,4217.435794,4223.07682,4225.128102,4216.922974,4211.794769,4207.692205,4218.974256,4215.384512,4212.82041,4168.205026,4223.58964,4221.538358
32,0,4221.025538,4191.794769,4220.512717,4222.051179,4208.717846,4218.461435,4217.948615,4216.410153,4219.487076,4224.102461,4223.07682,4175.384513,4223.58964,4226.153743
33,0,4219.487076,4185.640923,4218.461435,4218.974256,4202.564,4219.487076,4209.743487,4211.794769,4225.128102,4216.410153,4213.33323,4167.179385,4218.974256,4218.461435
34,0,4213.33323,4184.615282,4214.871692,4219.487076,4198.974256,4213.846051,4199.487077,4201.538359,4223.07682,4203.07682,4197.435795,4159.487078,4215.897333,4213.33323
35,0,4215.384512,4188.205026,4215.897333,4220.512717,4226.666563,4216.922974,4197.948615,4201.025538,4219.487076,4213.846051,4197.948615,4164.615283,4216.410153,4221.025538
36,0,4219.487076,4187.179385,4217.435794,4217.435794,4237.948614,4224.615281,4201.538359,4204.102461,4219.487076,4223.07682,4201.025538,4169.230667,4218.461435,4226.153743
37,0,4214.358871,4189.743487,4220.512717,4218.974256,4213.33323,4224.615281,4209.743487,4203.07682,4216.410153,4219.999897,4200.512718,4166.666565,4217.435794,4225.128102
38,0,4216.410153,4196.410154,4227.179384,4221.538358,4228.205025,4222.563999,4211.794769,4204.102461,4216.922974,4217.948615,4207.692205,4169.230667,4216.410153,4228.205025
39,0,4227.692204,4198.974256,4233.33323,4218.461435,4239.999896,4219.999897,4203.07682,4204.102461,4217.948615,4195.384513,4217.435794,4175.897334,4221.025538,4234.358871
40,0,4224.102461,4195.384513,4231.794768,4221.538358,4201.538359,4217.435794,4205.128102,4200.512718,4214.871692,4185.128103,4208.717846,4174.358872,4219.487076,4231.794768
41,0,4214.358871,4190.769128,4228.717845,4226.666563,4202.051179,4222.051179,4216.410153,4199.487077,4214.358871,4217.948615,4192.82041,4167.692206,4212.82041,4221.025538
42,0,4216.922974,4189.743487,4225.128102,4219.999897,4249.230665,4228.717845,4215.384512,4202.051179,4217.435794,4225.128102,4191.794769,4168.205026,4212.307589,4213.846051
43,0,4219.999897,4187.179385,4219.487076,4214.871692,4231.281948,4225.640922,4211.794769,4201.538359,4213.846051,4202.564,4199.999897,4170.256308,4213.33323,4213.846051
44,0,4216.922974,4187.179385,4222.051179,4225.128102,4181.538359,4224.615281,4215.897333,4201.025538,4213.846051,4201.025538,4201.538359,4169.743488,4212.82041,4220.512717
45,0,4219.487076,4195.897333,4229.743486,4234.358871,4207.692205,4228.205025,4217.435794,4207.179384,4216.410153,4190.256308,4198.461436,4173.846052,4214.871692,4228.717845
46,0,4224.615281,4199.999897,4231.794768,4229.230666,4250.256306,4223.07682,4217.948615,4211.281948,4214.358871,4186.153744,4201.538359,4179.487077,4217.948615,4227.692204
47,0,4228.205025,4192.30759,4231.281948,4228.205025,4237.948614,4217.435794,4218.974256,4211.794769,4219.487076,4230.256307,4206.666564,4181.025539,4219.999897,4223.07682
48,0,4226.153743,4187.692205,4226.666563,4228.205025,4202.564,4217.435794,4216.410153,4214.358871,4224.615281,4249.230665,4204.615282,4179.487077,4217.948615,4224.615281
49,0,4218.461435,4187.692205,4222.051179,4220.512717,4199.999897,4216.922974,4216.410153,4216.922974,4217.948615,4215.384512,4198.461436,4179.487077,4213.846051,4222.563999
50,0,4221.538358,4185.640923,4226.153743,4222.563999,4223.07682,4215.384512,4216.922974,4216.922974,4213.33323,4208.205025,4198.974256,4182.564,4214.358871,4221.025538
51,0,4233.33323,4188.205026,4231.794768,4230.256307,4202.564,4219.487076,4217.435794,4216.410153,4221.538358,4217.435794,4213.33323,4187.692205,4218.974256,4232.820409
52,0,4231.794768,4190.769128,4227.179384,4222.563999,4173.846052,4225.640922,4218.461435,4215.897333,4230.769127,4213.33323,4217.435794,4186.666564,4218.974256,4234.871691
53,0,4218.461435,4185.128103,4214.358871,4212.307589,4233.33323,4228.205025,4217.948615,4212.82041,4224.102461,4214.358871,4198.974256,4180.512718,4215.384512,4219.999897
54,0,4215.897333,4182.564,4209.743487,4215.897333,4274.87169,4228.205025,4217.435794,4211.794769,4212.82041,4213.846051,4198.461436,4182.564,4214.871692,4216.922974
55,0,4225.640922,4186.666564,4222.051179,4220.512717,4190.256308,4226.153743,4218.974256,4216.922974,4221.538358,4221.538358,4215.384512,4185.640923,4216.922974,4224.102461
56,0,4229.230666,4189.230667,4229.230666,4223.58964,4170.256308,4229.743486,4218.974256,4216.410153,4232.820409,4236.410153,4209.743487,4184.615282,4215.384512,4219.999897
57,0,4221.538358,4187.179385,4218.461435,4226.666563,4261.025537,4230.256307,4216.410153,4204.102461,4220.512717,4222.563999,4191.794769,4182.564,4212.307589,4215.897333
58,0,4216.410153,4183.076821,4217.948615,4223.07682,4246.153742,4222.051179,4214.871692,4195.897333,4211.281948,4185.640923,4198.461436,4185.640923,4213.33323,4224.615281
59,0,4217.435794,4180.512718,4229.230666,4219.999897,4163.589642,4217.435794,4215.897333,4201.538359,4216.922974,4192.30759,4215.384512,4193.846051,4216.922974,4231.281948
60,0,4218.461435,4179.487077,4228.717845,4217.948615,4188.717846,4218.974256,4215.897333,4205.640923,4214.871692,4230.256307,4213.33323,4195.897333,4216.410153,4226.666563
61,0,4223.07682,4182.564,4225.128102,4217.435794,4253.333229,4223.58964,4217.435794,4201.538359,4215.897333,4229.230666,4205.640923,4195.897333,4215.384512,4225.128102
62,0,4234.358871,4192.30759,4231.794768,4223.58964,4241.025537,4224.615281,4217.948615,4206.153743,4225.640922,4211.794769,4207.692205,4199.487077,4218.461435,4231.794768
63,0,4239.999896,4199.487077,4235.384512,4231.794768,4206.666564,4221.025538,4215.897333,4214.358871,4221.538358,4214.871692,4217.948615,4203.589641,4221.025538,4236.922973
64,0,4228.717845,4199.999897,4227.179384,4232.820409,4221.025538,4223.07682,4215.384512,4211.281948,4213.846051,4221.538358,4218.461435,4202.564,4217.435794,4230.769127
65,0,4219.487076,4192.82041,4215.897333,4223.58964,4246.666563,4228.717845,4216.922974,4209.230666,4217.948615,4217.435794,4202.564,4195.384513,4211.794769,4220.512717
66,0,4226.666563,4188.717846,4216.922974,4219.999897,4211.794769,4227.692204,4216.922974,4213.846051,4222.563999,4217.948615,4193.846051,4190.769128,4211.794769,4220.512717
67,0,4233.33323,4195.897333,4225.640922,4229.230666,4171.79477,4222.563999,4217.948615,4214.358871,4220.512717,4216.410153,4205.128102,4196.410154,4214.871692,4232.307589
68,0,4230.769127,4197.948615,4224.102461,4230.256307,4205.128102,4221.538358,4216.922974,4212.307589,4217.948615,4216.410153,4217.948615,4204.102461,4216.922974,4235.384512
69,0,4230.256307,4191.794769,4221.025538,4222.051179,4238.974255,4219.999897,4214.358871,4213.846051,4218.974256,4220.512717,4214.358871,4201.025538,4216.922974,4229.743486
70,0,4234.358871,4196.410154,4230.769127,4226.666563,4222.563999,4224.102461,4222.051179,4217.948615,4215.897333,4209.230666,4212.307589,4202.564,4217.435794,4230.769127
71,0,4234.871691,4200.512718,4233.33323,4232.307589,4220.512717,4229.743486,4231.794768,4223.07682,4212.82041,4216.410153,4219.487076,4209.743487,4217.948615,4233.33323
72,0,4229.230666,4186.666564,4216.922974,4220.512717,4243.076819,4226.153743,4230.769127,4228.717845,4222.563999,4245.640922,4217.435794,4206.153743,4217.435794,4230.769127
73,0,4225.128102,4186.153744,4211.281948,4218.461435,4229.230666,4225.128102,4230.256307,4232.307589,4238.461435,4247.179383,4214.358871,4206.153743,4216.922974,4229.743486
74,0,4229.230666,4201.025538,4226.666563,4231.281948,4207.179384,4231.281948,4236.410153,4234.358871,4237.435794,4231.794768,4220.512717,4213.846051,4216.922974,4228.717845
75,0,4232.820409,4200.512718,4227.179384,4231.281948,4210.256307,4230.769127,4235.384512,4231.281948,4229.743486,4234.358871,4218.461435,4209.743487,4215.384512,4226.666563
76,0,4227.179384,4196.410154,4217.435794,4226.153743,4206.153743,4225.640922,4231.794768,4230.256307,4233.84605,4228.205025,4215.384512,4203.589641,4215.384512,4227.179384
77,0,4216.410153,4199.487077,4221.025538,4226.666563,4219.999897,4227.179384,4235.897332,4233.84605,4234.871691,4216.410153,4216.410153,4204.615282,4216.410153,4223.58964
78,0,4217.435794,4198.974256,4229.743486,4229.743486,4242.563999,4229.743486,4231.794768,4228.205025,4230.769127,4239.487076,4209.743487,4202.051179,4214.871692,4215.897333
79,0,4228.717845,4196.922974,4228.717845,4230.769127,4238.461435,4227.692204,4218.461435,4216.922974,4225.128102,4251.794768,4205.128102,4203.07682,4213.33323,4218.974256
80,0,4234.358871,4199.487077,4229.743486,4233.84605,4226.153743,4226.666563,4214.358871,4214.871692,4218.974256,4216.410153,4214.871692,4214.871692,4217.435794,4230.769127
81,0,4238.461435,4202.051179,4234.871691,4234.871691,4222.051179,4229.743486,4222.563999,4219.487076,4223.07682,4204.102461,4220.512717,4218.974256,4220.512717,4232.820409
82,0,4241.025537,4201.538359,4234.871691,4232.820409,4211.794769,4231.281948,4229.743486,4219.487076,4229.230666,4244.10246,4216.410153,4213.846051,4216.922974,4221.538358
83,0,4233.33323,4200.512718,4230.769127,4231.281948,4229.230666,4230.256307,4229.743486,4217.948615,4226.666563,4249.230665,4211.794769,4212.307589,4215.897333,4214.871692
84,0,4233.33323,4199.487077,4227.179384,4230.769127,4257.948614,4230.256307,4230.769127,4223.58964,4227.692204,4212.82041,4214.871692,4213.846051,4217.948615,4224.102461
85,0,4245.128101,4201.025538,4230.256307,4231.281948,4227.179384,4231.281948,4233.84605,4232.820409,4233.84605,4221.538358,4228.205025,4217.948615,4219.999897,4234.871691
86,0,4247.179383,4209.230666,4235.384512,4232.307589,4209.230666,4230.256307,4232.820409,4234.358871,4233.84605,4249.230665,4235.897332,4224.615281,4226.666563,4233.33323
87,0,4245.128101,4213.846051,4235.384512,4235.897332,4250.769127,4230.769127,4230.769127,4229.743486,4230.769127,4241.538358,4227.692204,4227.179384,4229.743486,4231.281948
88,0,4248.717845,4207.179384,4235.384512,4238.461435,4248.205024,4231.794768,4229.230666,4226.666563,4232.307589,4233.84605,4223.58964,4222.051179,4222.563999,4233.84605
89,0,4243.076819,4198.461436,4231.281948,4234.358871,4195.384513,4227.179384,4222.051179,4222.051179,4227.692204,4244.615281,4219.487076,4215.384512,4214.871692,4227.692204
90,0,4228.717845,4196.922974,4220.512717,4227.692204,4198.974256,4226.666563,4216.410153,4215.384512,4220.512717,4224.615281,4215.384512,4213.846051,4215.384512,4217.435794
91,0,4220.512717,4195.384513,4215.384512,4227.179384,4242.051178,4225.640922,4217.948615,4214.358871,4215.384512,4182.564,4214.358871,4215.384512,4214.871692,4217.435794
92,0,4224.102461,4194.358872,4220.512717,4230.256307,4242.051178,4219.999897,4218.461435,4217.435794,4213.846051,4193.333231,4207.179384,4215.384512,4213.33323,4219.487076
93,0,4233.33323,4198.461436,4227.692204,4230.256307,4210.769128,4224.615281,4216.922974,4219.999897,4213.846051,4231.794768,4202.051179,4215.384512,4213.33323,4215.384512
94,0,4230.256307,4198.974256,4229.743486,4229.743486,4209.743487,4229.230666,4217.948615,4221.025538,4216.410153,4227.692204,4210.256307,4215.897333,4212.82041,4213.846051
95,0,4219.999897,4197.435795,4228.205025,4229.743486,4226.153743,4220.512717,4218.974256,4223.07682,4223.07682,4213.33323,4217.435794,4216.922974,4216.922974,4223.58964
96,0,4221.025538,4198.974256,4230.769127,4230.256307,4199.999897,4218.974256,4217.948615,4231.794768,4228.205025,4226.666563,4220.512717,4218.974256,4217.948615,4229.743486
97,0,4229.230666,4199.487077,4234.871691,4228.717845,4186.153744,4230.769127,4218.461435,4241.538358,4230.256307,4241.025537,4226.153743,4224.615281,4215.384512,4229.230666
98,0,4233.33323,4199.487077,4234.358871,4230.256307,4249.743486,4234.871691,4222.563999,4244.615281,4232.307589,4238.461435,4233.33323,4229.743486,4224.615281,4237.435794
99,0,4234.871691,4201.538359,4238.974255,4238.974255,4274.87169,4231.794768,4228.205025,4246.153742,4240.512717,4243.58964,4248.205024,4237.948614,4241.025537,4251.794768
100,0,4234.358871,4201.538359,4249.230665,4243.58964,4216.410153,4235.384512,4235.384512,4249.743486,4250.256306,4257.435793,4264.10246,4249.230665,4249.743486,4255.384511
101,0,4231.794768,4197.948615,4246.153742,4236.410153,4210.256307,4240.512717,4238.974255,4250.256306,4252.820409,4273.333229,4257.435793,4244.615281,4246.666563,4249.743486
102,0,4236.922973,4201.025538,4236.410153,4230.256307,4256.922973,4239.487076,4236.922973,4249.230665,4245.640922,4270.256306,4242.051178,4232.307589,4239.487076,4249.743486
103,0,4234.871691,4198.461436,4235.384512,4230.256307,4256.922973,4232.307589,4230.769127,4242.051178,4234.358871,4233.84605,4235.384512,4232.307589,4234.358871,4245.128101
104,0,4220.512717,4185.640923,4233.84605,4230.769127,4215.897333,4227.692204,4226.153743,4232.820409,4228.205025,4216.410153,4230.256307,4232.307589,4232.307589,4232.820409
105,0,4220.512717,4188.205026,4232.307589,4231.794768,4202.051179,4230.769127,4229.230666,4232.820409,4231.794768,4231.794768,4229.743486,4228.717845,4233.33323,4230.769127
106,0,4234.871691,4203.07682,4237.948614,4232.820409,4217.948615,4232.307589,4235.384512,4236.922973,4234.358871,4242.563999,4243.076819,4235.384512,4237.435794,4241.538358
107,0,4236.410153,4196.922974,4239.999896,4229.230666,4230.256307,4230.769127,4235.384512,4234.871691,4233.33323,4247.692204,4250.256306,4238.461435,4238.974255,4247.179383
