title:C                                                                               , recorded:01.07.20 12.54.57, sampling:128, subject:C                                                                               , labels:COUNTER INTERPOLATED AF3 F7 F3 FC5 T7 P7 O1 O2 P8 T8 FC6 F4 F8 AF4, chan:37, units:emotiv,,,,,,,,,
48,0,4226.666563,4219.487076,4215.897333,4215.897333,4212.307589,4210.256307,4215.384512,4214.358871,4226.666563,4203.07682,4228.717845,4216.922974,4214.871692,4231.281948
49,0,4227.692204,4214.871692,4215.384512,4217.435794,4226.153743,4212.82041,4215.384512,4214.358871,4224.102461,4184.615282,4231.794768,4217.435794,4213.33323,4227.179384
50,0,4230.769127,4224.102461,4216.410153,4223.07682,4227.692204,4214.871692,4215.384512,4215.384512,4230.256307,4198.461436,4238.461435,4224.615281,4217.435794,4227.692204
51,0,4231.281948,4228.717845,4221.538358,4225.128102,4218.461435,4213.846051,4215.384512,4217.948615,4234.871691,4229.743486,4242.563999,4229.743486,4220.512717,4231.281948
52,0,4226.666563,4219.999897,4215.897333,4218.461435,4213.33323,4210.769128,4211.281948,4216.410153,4223.58964,4203.589641,4233.84605,4225.128102,4215.384512,4224.102461
53,0,4227.692204,4215.897333,4212.307589,4217.948615,4214.871692,4210.769128,4212.82041,4216.410153,4217.948615,4172.820411,4229.743486,4223.58964,4212.307589,4222.051179
54,0,4238.461435,4228.717845,4226.153743,4226.666563,4222.563999,4216.410153,4219.999897,4222.051179,4230.769127,4203.589641,4244.10246,4231.794768,4220.512717,4233.33323
55,0,4238.974255,4234.358871,4229.230666,4226.153743,4230.769127,4217.948615,4217.948615,4222.051179,4234.871691,4232.820409,4250.769127,4232.820409,4226.666563,4236.922973
56,0,4230.256307,4228.717845,4221.025538,4223.58964,4233.33323,4213.33323,4212.82041,4217.435794,4227.179384,4223.58964,4243.58964,4229.230666,4221.538358,4230.769127
57,0,4232.307589,4229.230666,4224.102461,4231.281948,4224.615281,4213.33323,4216.410153,4216.922974,4230.769127,4216.922974,4245.640922,4229.743486,4217.948615,4230.769127
58,0,4234.358871,4230.769127,4225.128102,4229.743486,4215.384512,4216.922974,4218.461435,4218.461435,4234.358871,4210.769128,4243.076819,4223.07682,4219.999897,4231.794768
59,0,4230.769127,4226.666563,4215.384512,4218.974256,4217.435794,4216.922974,4213.33323,4217.948615,4223.07682,4196.410154,4233.33323,4216.410153,4221.538358,4229.230666
60,0,4231.281948,4226.666563,4215.897333,4219.487076,4223.58964,4214.871692,4213.33323,4217.948615,4216.922974,4203.07682,4238.974255,4217.948615,4219.999897,4230.769127
61,0,4231.281948,4230.769127,4218.461435,4223.58964,4224.102461,4215.897333,4217.435794,4218.461435,4226.153743,4219.999897,4244.10246,4217.948615,4217.435794,4230.256307
62,0,4230.256307,4227.692204,4214.871692,4219.999897,4217.948615,4217.948615,4218.974256,4218.461435,4233.33323,4224.102461,4239.999896,4219.999897,4215.897333,4227.179384
63,0,4232.307589,4222.563999,4222.563999,4225.128102,4214.358871,4217.948615,4216.922974,4219.487076,4230.769127,4219.487076,4242.563999,4225.640922,4218.461435,4226.666563
64,0,4231.794768,4223.07682,4231.794768,4230.769127,4221.538358,4219.487076,4217.948615,4219.999897,4230.769127,4197.435795,4244.615281,4225.128102,4217.948615,4224.102461
65,0,4221.538358,4219.999897,4223.58964,4222.563999,4232.307589,4219.999897,4218.974256,4217.435794,4225.128102,4184.615282,4233.84605,4217.948615,4213.846051,4218.974256
66,0,4212.307589,4212.307589,4213.846051,4214.871692,4227.692204,4216.410153,4216.922974,4213.33323,4216.922974,4208.717846,4224.102461,4213.33323,4213.33323,4216.410153
67,0,4215.897333,4213.846051,4215.384512,4217.948615,4207.692205,4214.358871,4215.384512,4213.846051,4221.538358,4224.102461,4226.153743,4213.846051,4214.358871,4218.974256
68,0,4220.512717,4219.487076,4216.922974,4219.999897,4204.615282,4215.897333,4215.384512,4216.922974,4222.563999,4207.179384,4229.230666,4215.384512,4213.846051,4218.974256
69,0,4217.435794,4216.410153,4212.307589,4217.435794,4219.487076,4216.922974,4214.871692,4215.384512,4212.307589,4193.333231,4229.743486,4213.846051,4212.82041,4215.897333
70,0,4214.871692,4215.384512,4212.82041,4217.948615,4224.615281,4217.435794,4216.922974,4214.871692,4211.281948,4195.384513,4229.230666,4213.846051,4212.307589,4217.435794
71,0,4214.871692,4219.487076,4214.871692,4218.461435,4216.410153,4216.922974,4218.461435,4217.435794,4216.922974,4203.589641,4229.230666,4214.871692,4212.82041,4218.461435
72,0,4219.487076,4219.999897,4215.897333,4219.487076,4214.358871,4215.897333,4217.435794,4217.948615,4216.922974,4217.948615,4229.743486,4215.897333,4215.384512,4216.410153
73,0,4230.256307,4224.102461,4218.461435,4222.051179,4214.358871,4216.922974,4217.435794,4217.435794,4217.948615,4229.743486,4229.743486,4218.461435,4215.897333,4217.948615
74,0,4230.769127,4228.717845,4217.948615,4223.07682,4205.128102,4218.974256,4217.435794,4217.948615,4219.999897,4226.153743,4231.794768,4221.025538,4215.384512,4221.025538
75,0,4227.179384,4230.256307,4215.897333,4223.07682,4205.128102,4217.948615,4218.461435,4217.435794,4217.435794,4204.102461,4239.999896,4223.07682,4218.461435,4225.128102
76,0,4236.410153,4228.717845,4218.461435,4222.051179,4216.922974,4217.435794,4219.487076,4216.922974,4216.922974,4201.538359,4240.512717,4223.58964,4219.999897,4232.307589
77,0,4241.538358,4226.666563,4217.435794,4222.563999,4222.051179,4217.435794,4217.435794,4215.897333,4218.974256,4228.717845,4232.820409,4221.538358,4215.897333,4237.435794
78,0,4245.640922,4227.692204,4216.922974,4228.205025,4218.461435,4218.974256,4217.435794,4216.922974,4217.948615,4229.743486,4236.922973,4225.640922,4221.025538,4248.205024
79,0,4268.205024,4237.435794,4223.07682,4231.281948,4210.256307,4219.487076,4215.384512,4214.358871,4214.871692,4201.538359,4251.281947,4233.33323,4237.948614,4275.384511
80,0,4297.435792,4252.307588,4232.820409,4232.820409,4204.615282,4215.897333,4207.179384,4206.153743,4212.307589,4195.384513,4255.897332,4238.974255,4247.179383,4300.512715
81,0,4322.563997,4266.153742,4244.615281,4242.051178,4208.717846,4213.33323,4207.692205,4207.179384,4214.358871,4205.128102,4259.487075,4249.743486,4247.692204,4320.512715
82,0,4342.563996,4272.307588,4253.333229,4251.281947,4212.82041,4215.384512,4217.435794,4216.922974,4217.435794,4206.153743,4266.153742,4258.974255,4248.205024,4339.999894
83,0,4348.717842,4268.205024,4250.769127,4247.179383,4212.307589,4214.358871,4214.358871,4218.461435,4221.538358,4216.922974,4265.640921,4260.512716,4252.307588,4346.66656
84,0,4344.615278,4265.640921,4248.205024,4244.615281,4214.358871,4213.33323,4204.102461,4212.82041,4215.384512,4219.487076,4268.717844,4261.025537,4256.922973,4343.076817
85,0,4344.615278,4264.61528,4249.743486,4245.640922,4209.230666,4212.82041,4202.051179,4207.179384,4203.589641,4200.512718,4273.846049,4257.435793,4256.410152,4345.128099
86,0,4344.102458,4264.10246,4247.179383,4247.692204,4198.974256,4206.666564,4203.07682,4202.051179,4206.153743,4206.153743,4268.717844,4249.230665,4248.717845,4344.615278
87,0,4340.512714,4264.61528,4247.179383,4246.666563,4199.487077,4204.615282,4207.179384,4204.102461,4217.435794,4221.538358,4265.128101,4248.717845,4249.230665,4334.871689
88,0,4332.820407,4256.922973,4245.640922,4238.974255,4211.281948,4212.82041,4212.82041,4208.205025,4215.897333,4199.487077,4263.076819,4248.717845,4253.333229,4325.64092
89,0,4316.410151,4246.153742,4237.435794,4231.794768,4214.871692,4215.897333,4212.307589,4204.102461,4211.794769,4190.769128,4251.281947,4238.974255,4244.615281,4315.38451
90,0,4297.948613,4243.076819,4229.743486,4230.256307,4207.179384,4213.33323,4211.794769,4204.102461,4216.922974,4221.025538,4243.58964,4230.769127,4235.897332,4299.487074
91,0,4285.1281,4237.948614,4224.615281,4230.769127,4207.179384,4215.384512,4214.871692,4214.358871,4217.948615,4234.358871,4248.205024,4231.281948,4236.922973,4287.692203
92,0,4276.410152,4227.179384,4221.538358,4229.230666,4215.384512,4215.897333,4215.897333,4217.435794,4216.410153,4216.922974,4245.128101,4229.230666,4234.871691,4279.487075
93,0,4269.743485,4227.692204,4226.153743,4229.230666,4213.846051,4214.358871,4214.871692,4209.743487,4212.307589,4195.384513,4241.025537,4229.230666,4230.256307,4270.769126
94,0,4263.076819,4234.358871,4231.281948,4231.281948,4214.871692,4217.435794,4216.410153,4209.230666,4210.256307,4199.999897,4247.179383,4231.794768,4232.307589,4264.61528
95,0,4254.871691,4229.230666,4222.563999,4230.256307,4215.384512,4218.461435,4214.871692,4214.358871,4214.358871,4230.256307,4246.666563,4225.128102,4233.33323,4255.897332
96,0,4245.128101,4221.025538,4214.871692,4229.230666,4199.487077,4214.871692,4215.384512,4212.307589,4216.922974,4237.948614,4239.487076,4214.358871,4230.769127,4245.128101
97,0,4235.897332,4220.512717,4217.948615,4230.769127,4211.794769,4216.922974,4218.461435,4213.33323,4224.615281,4220.512717,4243.076819,4216.922974,4230.769127,4244.615281
98,0,4230.769127,4216.922974,4217.948615,4229.743486,4238.461435,4219.487076,4217.948615,4217.435794,4231.281948,4206.666564,4243.58964,4224.615281,4229.230666,4244.10246
99,0,4227.179384,4205.128102,4213.846051,4223.58964,4218.974256,4218.461435,4215.897333,4215.897333,4221.538358,4204.615282,4234.358871,4222.563999,4225.640922,4235.384512
100,0,4218.461435,4201.538359,4214.358871,4224.102461,4199.999897,4217.435794,4214.871692,4212.307589,4210.256307,4218.974256,4231.794768,4217.948615,4223.07682,4230.769127
101,0,4212.82041,4205.640923,4215.384512,4226.666563,4217.435794,4217.435794,4213.846051,4213.33323,4214.871692,4241.538358,4234.871691,4219.487076,4221.025538,4231.281948
102,0,4217.435794,4205.128102,4215.897333,4222.051179,4219.487076,4222.563999,4216.922974,4215.384512,4219.999897,4234.358871,4236.410153,4221.025538,4219.999897,4230.769127
103,0,4217.435794,4199.487077,4213.846051,4217.948615,4208.205025,4229.230666,4218.461435,4215.384512,4218.974256,4211.281948,4235.897332,4217.435794,4218.974256,4227.179384
104,0,4204.615282,4195.897333,4204.615282,4218.461435,4214.358871,4226.666563,4216.922974,4217.948615,4218.461435,4211.281948,4229.743486,4211.281948,4214.871692,4218.974256
105,0,4197.435795,4199.999897,4199.999897,4215.897333,4217.948615,4218.461435,4217.948615,4216.922974,4216.922974,4224.102461,4226.153743,4211.281948,4213.33323,4213.33323
106,0,4199.999897,4196.922974,4203.589641,4212.82041,4218.974256,4215.384512,4214.358871,4207.692205,4217.435794,4227.179384,4228.205025,4213.33323,4214.358871,4214.358871
107,0,4197.948615,4186.153744,4205.640923,4214.358871,4214.358871,4215.384512,4204.615282,4201.025538,4214.871692,4214.358871,4224.615281,4212.82041,4213.846051,4213.33323
108,0,4197.948615,4189.230667,4211.281948,4219.487076,4201.538359,4214.358871,4205.640923,4203.589641,4212.82041,4209.230666,4224.615281,4213.33323,4216.410153,4212.82041
109,0,4211.281948,4204.102461,4218.461435,4221.538358,4206.153743,4215.384512,4212.307589,4205.640923,4221.538358,4219.487076,4239.487076,4223.07682,4222.563999,4217.435794
110,0,4210.256307,4203.07682,4216.410153,4218.974256,4224.102461,4217.948615,4212.82041,4205.640923,4223.58964,4208.717846,4248.205024,4231.794768,4220.512717,4218.461435
111,0,4199.999897,4195.384513,4214.871692,4220.512717,4218.461435,4221.025538,4212.307589,4210.256307,4216.410153,4196.410154,4246.153742,4230.769127,4217.435794,4216.922974
112,0,4208.205025,4199.999897,4218.974256,4224.615281,4206.666564,4218.974256,4217.435794,4215.897333,4221.538358,4221.538358,4248.205024,4227.692204,4225.640922,4218.974256
113,0,4214.871692,4198.974256,4218.974256,4221.538358,4223.07682,4217.948615,4222.051179,4216.922974,4232.820409,4249.230665,4248.717845,4229.743486,4230.256307,4219.487076
114,0,4203.589641,4188.205026,4217.948615,4218.974256,4233.33323,4227.179384,4223.07682,4217.948615,4231.794768,4241.538358,4245.640922,4229.230666,4222.051179,4213.33323
115,0,4198.461436,4184.102462,4217.435794,4219.999897,4218.461435,4229.743486,4219.999897,4217.948615,4228.717845,4217.435794,4245.640922,4222.051179,4213.33323,4206.153743
116,0,4204.102461,4188.205026,4216.410153,4218.461435,4213.33323,4219.999897,4216.410153,4216.922974,4230.769127,4208.717846,4242.051178,4216.922974,4217.435794,4208.205025
117,0,4204.615282,4191.281949,4217.435794,4216.922974,4220.512717,4217.948615,4218.974256,4219.487076,4232.307589,4218.461435,4236.922973,4217.435794,4226.153743,4215.897333
118,0,4201.538359,4186.666564,4217.435794,4217.435794,4222.051179,4221.538358,4219.999897,4217.948615,4228.717845,4211.794769,4242.051178,4218.974256,4225.128102,4217.435794
119,0,4199.999897,4183.076821,4213.846051,4215.384512,4219.487076,4218.461435,4216.922974,4213.846051,4222.563999,4198.974256,4248.205024,4216.922974,4217.948615,4215.897333
120,0,4207.179384,4187.692205,4215.897333,4217.435794,4219.999897,4216.922974,4215.384512,4215.384512,4224.615281,4218.974256,4244.615281,4219.487076,4219.999897,4217.435794
121,0,4214.358871,4190.769128,4219.999897,4222.563999,4221.538358,4221.025538,4218.461435,4217.948615,4228.205025,4234.871691,4242.563999,4222.563999,4230.769127,4217.948615
122,0,4205.128102,4187.179385,4216.410153,4221.025538,4230.256307,4221.025538,4219.487076,4215.384512,4223.58964,4223.58964,4244.10246,4221.025538,4227.179384,4216.410153
123,0,4203.07682,4187.692205,4213.846051,4217.948615,4231.281948,4218.461435,4215.897333,4213.846051,4225.640922,4229.230666,4244.10246,4218.974256,4218.974256,4213.846051
124,0,4211.794769,4190.769128,4215.897333,4218.974256,4219.999897,4216.922974,4213.846051,4215.384512,4233.33323,4234.871691,4243.076819,4219.999897,4221.538358,4210.769128
125,0,4208.205025,4187.692205,4215.897333,4219.487076,4218.974256,4218.461435,4216.410153,4213.33323,4227.692204,4212.307589,4241.025537,4218.461435,4222.563999,4212.307589
126,0,4199.999897,4183.589641,4214.358871,4216.410153,4220.512717,4223.58964,4217.435794,4212.307589,4218.461435,4213.33323,4241.538358,4214.358871,4218.974256,4211.281948
127,0,4203.589641,4184.102462,4215.384512,4216.922974,4214.358871,4225.640922,4216.922974,4214.871692,4219.487076,4231.794768,4246.153742,4217.948615,4219.487076,4205.128102
128,0,4203.589641,4186.666564,4213.846051,4218.461435,4219.999897,4219.999897,4219.487076,4215.897333,4223.58964,4218.461435,4247.179383,4220.512717,4218.461435,4207.179384
0,0,4199.999897,4186.153744,4212.82041,4217.435794,4230.256307,4216.922974,4225.128102,4216.922974,4227.179384,4209.743487,4244.615281,4215.897333,4217.435794,4213.846051
1,0,4202.564,4183.589641,4217.948615,4221.538358,4221.538358,4224.102461,4227.179384,4219.999897,4229.230666,4229.230666,4250.256306,4216.410153,4225.640922,4215.897333
2,0,4204.102461,4190.769128,4223.58964,4227.179384,4210.769128,4228.717845,4222.563999,4220.512717,4228.205025,4239.999896,4251.794768,4221.538358,4226.666563,4216.922974
3,0,4201.538359,4200.512718,4217.948615,4221.538358,4217.435794,4220.512717,4215.897333,4216.410153,4218.974256,4229.743486,4236.410153,4212.307589,4213.33323,4210.769128
4,0,4197.435795,4198.974256,4211.794769,4216.410153,4221.025538,4214.871692,4215.384512,4213.846051,4218.974256,4218.461435,4227.692204,4199.999897,4209.743487,4201.025538
5,0,4192.30759,4195.897333,4214.358871,4222.051179,4216.922974,4221.025538,4217.948615,4214.358871,4227.692204,4212.307589,4236.410153,4208.717846,4217.435794,4206.153743
6,0,4185.128103,4198.974256,4215.897333,4224.102461,4218.461435,4227.179384,4215.897333,4212.307589,4222.563999,4210.256307,4238.461435,4218.461435,4217.435794,4214.358871
7,0,4187.179385,4200.512718,4213.846051,4217.948615,4221.538358,4229.743486,4214.871692,4211.794769,4217.435794,4211.794769,4234.871691,4215.384512,4212.82041,4211.794769
8,0,4198.461436,4201.025538,4215.897333,4216.922974,4216.922974,4231.281948,4218.974256,4215.897333,4229.230666,4219.999897,4247.692204,4221.538358,4216.922974,4215.384512
9,0,4203.07682,4204.102461,4219.487076,4224.102461,4211.281948,4225.640922,4220.512717,4216.922974,4234.358871,4230.256307,4259.999896,4232.307589,4221.025538,4221.025538
10,0,4197.948615,4204.615282,4220.512717,4227.179384,4216.922974,4222.051179,4218.974256,4217.435794,4229.743486,4236.410153,4253.333229,4225.640922,4221.025538,4219.999897
11,0,4196.410154,4203.589641,4219.999897,4222.051179,4223.58964,4224.615281,4217.948615,4218.974256,4231.794768,4228.205025,4244.10246,4215.897333,4216.922974,4217.948615
12,0,4197.948615,4202.051179,4218.461435,4219.487076,4216.922974,4222.563999,4216.410153,4215.897333,4229.230666,4221.025538,4242.563999,4216.922974,4213.846051,4217.948615
13,0,4200.512718,4204.102461,4218.461435,4223.07682,4213.846051,4218.461435,4215.897333,4214.358871,4222.563999,4232.820409,4243.58964,4217.948615,4216.410153,4218.461435
14,0,4199.487077,4205.128102,4216.410153,4222.051179,4218.974256,4219.487076,4216.410153,4218.461435,4222.051179,4224.615281,4240.512717,4216.922974,4218.974256,4217.948615
15,0,4187.179385,4195.384513,4208.717846,4214.358871,4208.205025,4217.948615,4214.358871,4212.82041,4217.948615,4192.30759,4233.33323,4215.384512,4213.846051,4214.358871
16,0,4179.487077,4191.794769,4200.512718,4213.846051,4196.410154,4214.358871,4211.794769,4202.051179,4213.33323,4205.128102,4230.769127,4214.871692,4211.794769,4212.82041
17,0,4186.153744,4199.487077,4200.512718,4215.897333,4204.102461,4216.922974,4215.384512,4206.666564,4219.487076,4242.563999,4234.871691,4218.974256,4216.410153,4215.897333
18,0,4186.666564,4198.974256,4199.487077,4212.82041,4215.897333,4219.487076,4216.922974,4215.384512,4229.230666,4225.640922,4236.922973,4219.999897,4216.410153,4216.410153
19,0,4182.05118,4196.922974,4199.487077,4214.358871,4218.461435,4218.461435,4214.358871,4214.358871,4229.743486,4203.589641,4235.897332,4217.948615,4215.384512,4216.410153
20,0,4191.794769,4205.128102,4209.743487,4217.948615,4211.281948,4218.461435,4213.846051,4211.281948,4225.640922,4230.769127,4234.358871,4218.974256,4218.461435,4217.435794
21,0,4203.589641,4209.743487,4219.999897,4219.999897,4205.640923,4218.974256,4215.384512,4212.307589,4229.230666,4239.487076,4232.307589,4218.974256,4218.461435,4220.512717
22,0,4201.025538,4203.589641,4218.461435,4222.563999,4213.33323,4218.461435,4216.410153,4214.358871,4228.717845,4214.871692,4233.33323,4217.948615,4214.871692,4222.563999
23,0,4197.948615,4201.538359,4214.358871,4223.07682,4222.563999,4219.487076,4216.410153,4212.307589,4219.999897,4212.82041,4229.743486,4218.461435,4216.410153,4219.487076
24,0,4203.589641,4207.179384,4218.461435,4225.128102,4218.461435,4222.051179,4217.948615,4206.666564,4220.512717,4221.538358,4223.58964,4218.974256,4217.948615,4216.410153
25,0,4205.640923,4212.82041,4220.512717,4227.692204,4216.410153,4219.487076,4217.948615,4204.615282,4227.179384,4216.410153,4226.666563,4217.435794,4217.948615,4219.487076
26,0,4200.512718,4213.846051,4214.358871,4222.563999,4214.871692,4216.410153,4216.922974,4211.281948,4230.256307,4212.307589,4232.820409,4217.948615,4222.563999,4221.538358
27,0,4202.051179,4213.33323,4210.769128,4217.435794,4211.281948,4219.999897,4217.435794,4215.897333,4230.256307,4211.794769,4234.358871,4217.435794,4229.743486,4219.487076
28,0,4203.589641,4215.897333,4212.307589,4225.128102,4222.051179,4220.512717,4216.922974,4209.230666,4226.153743,4216.922974,4234.358871,4216.410153,4231.794768,4218.461435
29,0,4199.999897,4213.846051,4213.33323,4227.179384,4234.358871,4215.897333,4216.922974,4201.538359,4224.615281,4229.743486,4232.307589,4218.461435,4229.230666,4219.999897
30,0,4206.153743,4212.82041,4216.410153,4223.58964,4229.230666,4216.922974,4218.461435,4207.692205,4232.820409,4236.922973,4232.820409,4220.512717,4229.230666,4221.538358
31,0,4215.384512,4213.846051,4221.538358,4226.153743,4219.999897,4220.512717,4217.948615,4213.846051,4235.384512,4230.256307,4234.358871,4217.948615,4227.179384,4219.999897
32,0,4205.640923,4206.666564,4217.435794,4222.563999,4219.999897,4217.435794,4217.948615,4205.640923,4228.205025,4211.281948,4230.769127,4214.871692,4220.512717,4216.410153
33,0,4199.487077,4201.025538,4212.307589,4215.897333,4218.461435,4217.435794,4222.563999,4205.640923,4231.281948,4207.179384,4230.256307,4215.897333,4222.563999,4217.948615
34,0,4207.179384,4205.128102,4215.897333,4217.435794,4216.922974,4224.102461,4222.563999,4214.871692,4230.769127,4216.410153,4230.769127,4220.512717,4226.153743,4219.999897
35,0,4206.153743,4202.564,4217.435794,4215.897333,4222.563999,4222.563999,4216.922974,4209.230666,4219.487076,4207.692205,4227.692204,4218.461435,4224.615281,4217.948615
36,0,4206.666564,4202.564,4214.871692,4212.307589,4229.743486,4221.025538,4216.410153,4202.564,4221.538358,4204.102461,4229.230666,4217.435794,4226.153743,4220.512717
37,0,4212.82041,4209.743487,4215.897333,4214.871692,4228.717845,4226.666563,4218.461435,4211.794769,4230.769127,4214.358871,4234.871691,4220.512717,4231.794768,4228.717845
38,0,4211.281948,4206.666564,4216.922974,4216.410153,4219.999897,4223.58964,4217.948615,4217.435794,4230.769127,4218.461435,4234.358871,4223.07682,4231.794768,4231.281948
39,0,4211.281948,4205.128102,4217.948615,4215.897333,4217.435794,4217.435794,4219.487076,4213.33323,4232.307589,4228.717845,4232.820409,4221.538358,4230.769127,4230.769127
40,0,4218.974256,4215.897333,4219.999897,4219.487076,4225.128102,4223.58964,4222.051179,4213.33323,4236.922973,4234.871691,4233.84605,4220.512717,4231.794768,4232.307589
41,0,4218.461435,4214.358871,4216.922974,4218.974256,4230.769127,4229.743486,4219.999897,4213.846051,4233.33323,4221.025538,4233.33323,4219.487076,4229.230666,4230.256307
42,0,4214.358871,4203.589641,4213.33323,4216.410153,4231.794768,4228.205025,4218.461435,4213.846051,4232.307589,4228.205025,4234.871691,4217.435794,4230.256307,4229.230666
43,0,4208.205025,4204.102461,4213.846051,4214.871692,4226.666563,4225.640922,4217.435794,4212.82041,4234.871691,4236.922973,4233.84605,4216.922974,4231.794768,4226.153743
44,0,4202.051179,4205.128102,4213.846051,4214.358871,4218.461435,4220.512717,4216.922974,4209.230666,4228.717845,4210.769128,4227.692204,4215.897333,4229.230666,4219.487076
45,0,4207.179384,4201.025538,4213.846051,4216.410153,4223.58964,4221.025538,4217.948615,4211.281948,4226.666563,4203.589641,4227.692204,4217.435794,4227.692204,4222.563999
46,0,4212.307589,4201.538359,4215.897333,4217.435794,4230.769127,4226.666563,4220.512717,4214.358871,4230.769127,4214.871692,4232.820409,4219.999897,4229.743486,4230.256307
47,0,4208.717846,4203.07682,4215.897333,4215.384512,4219.487076,4226.153743,4218.461435,4213.846051,4231.794768,4212.82041,4232.820409,4219.487076,4229.743486,4228.717845
48,0,4208.717846,4206.153743,4215.384512,4213.846051,4217.948615,4225.128102,4215.384512,4214.871692,4231.794768,4223.58964,4227.692204,4218.974256,4228.717845,4225.640922
49,0,4213.846051,4209.743487,4215.897333,4214.358871,4231.794768,4229.743486,4216.410153,4215.897333,4231.281948,4230.769127,4231.794768,4220.512717,4230.256307,4229.230666
50,0,4215.384512,4213.846051,4216.922974,4217.948615,4224.615281,4231.281948,4220.512717,4214.358871,4229.230666,4222.051179,4241.025537,4221.538358,4230.256307,4230.256307
51,0,4215.384512,4216.922974,4217.435794,4219.487076,4215.384512,4229.743486,4221.025538,4215.897333,4229.743486,4229.743486,4238.974255,4222.563999,4231.794768,4230.256307
52,0,4214.358871,4217.948615,4215.384512,4217.948615,4228.205025,4229.230666,4217.435794,4218.974256,4232.307589,4237.435794,4235.384512,4221.025538,4232.820409,4230.769127
53,0,4219.487076,4217.948615,4217.435794,4222.563999,4242.051178,4230.769127,4223.58964,4218.974256,4232.307589,4225.640922,4241.538358,4227.692204,4235.384512,4236.922973
54,0,4230.769127,4221.025538,4228.205025,4231.281948,4236.410153,4233.33323,4233.33323,4218.461435,4233.33323,4231.281948,4250.769127,4237.948614,4241.538358,4246.666563
55,0,4227.179384,4221.538358,4231.794768,4231.281948,4218.974256,4227.692204,4227.179384,4217.948615,4234.358871,4238.461435,4250.769127,4215.384512,4239.999896,4242.051178
56,0,4215.897333,4213.33323,4219.999897,4225.128102,4218.974256,4223.58964,4217.435794,4216.410153,4231.281948,4218.974256,4244.10246,4167.179385,4232.307589,4230.256307
57,0,4215.897333,4205.640923,4216.922974,4221.025538,4229.230666,4228.717845,4217.435794,4216.922974,4227.692204,4214.871692,4235.384512,4147.692206,4230.256307,4228.717845
58,0,4217.435794,4206.153743,4222.563999,4217.435794,4223.58964,4230.256307,4219.487076,4214.871692,4228.205025,4235.897332,4230.256307,4154.358873,4231.794768,4229.230666
59,0,4214.871692,4210.769128,4219.487076,4218.974256,4219.999897,4227.692204,4221.025538,4212.82041,4231.794768,4233.84605,4231.281948,4155.897334,4230.769127,4226.153743
60,0,4217.948615,4214.358871,4214.871692,4225.128102,4232.820409,4231.794768,4223.07682,4212.82041,4230.769127,4213.846051,4232.307589,4157.948616,4233.33323,4228.717845
61,0,4222.051179,4216.410153,4217.948615,4225.128102,4232.820409,4231.794768,4218.461435,4212.307589,4226.153743,4215.897333,4231.281948,4166.666565,4235.897332,4228.205025
62,0,4219.487076,4217.948615,4217.948615,4224.102461,4222.051179,4226.666563,4213.846051,4211.794769,4225.640922,4216.410153,4231.281948,4167.692206,4232.307589,4217.948615
63,0,4217.435794,4218.974256,4216.410153,4229.743486,4216.922974,4225.128102,4217.948615,4213.846051,4227.179384,4203.589641,4231.281948,4167.692206,4228.717845,4213.846051
64,0,4219.487076,4218.461435,4217.435794,4232.307589,4216.410153,4221.025538,4221.025538,4214.358871,4227.179384,4211.794769,4232.307589,4170.256308,4228.717845,4217.948615
65,0,4219.487076,4214.871692,4216.410153,4222.051179,4222.051179,4216.922974,4219.487076,4212.82041,4229.230666,4221.025538,4233.33323,4171.79477,4232.307589,4219.487076
66,0,4214.358871,4211.794769,4214.358871,4214.871692,4220.512717,4218.974256,4215.384512,4212.82041,4230.256307,4213.846051,4231.281948,4170.769129,4231.794768,4215.897333
67,0,4215.897333,4213.846051,4217.948615,4219.999897,4216.922974,4218.461435,4216.410153,4214.358871,4230.769127,4216.922974,4229.230666,4171.281949,4228.717845,4218.461435
68,0,4225.128102,4216.410153,4219.999897,4221.538358,4226.153743,4221.025538,4226.666563,4216.922974,4231.794768,4223.58964,4231.794768,4178.974257,4230.769127,4221.025538
69,0,4226.153743,4215.897333,4217.435794,4219.487076,4226.666563,4224.615281,4231.794768,4217.948615,4230.256307,4218.461435,4233.84605,4183.589641,4229.743486,4216.922974
70,0,4224.615281,4214.358871,4221.538358,4224.615281,4216.922974,4222.563999,4228.717845,4217.435794,4229.230666,4227.692204,4234.358871,4183.589641,4228.717845,4218.974256
71,0,4230.256307,4216.922974,4230.256307,4232.307589,4219.487076,4224.615281,4228.717845,4218.974256,4235.897332,4250.256306,4245.128101,4193.333231,4237.948614,4229.230666
72,0,4234.871691,4219.999897,4233.84605,4232.307589,4231.281948,4233.84605,4235.384512,4223.58964,4239.999896,4249.230665,4259.999896,4204.102461,4246.666563,4237.435794
73,0,4234.871691,4220.512717,4230.769127,4230.769127,4233.84605,4232.820409,4235.897332,4223.07682,4235.897332,4231.794768,4257.435793,4204.102461,4241.538358,4229.743486
74,0,4230.256307,4216.922974,4225.640922,4229.743486,4221.538358,4219.487076,4224.615281,4217.435794,4231.794768,4225.128102,4241.538358,4199.487077,4233.84605,4217.948615
75,0,4219.487076,4212.82041,4219.487076,4226.666563,4212.307589,4216.922974,4218.461435,4214.358871,4231.794768,4229.230666,4238.461435,4198.974256,4233.33323,4214.871692
76,0,4214.358871,4212.307589,4214.871692,4226.666563,4223.07682,4225.128102,4222.051179,4216.922974,4231.281948,4234.358871,4246.153742,4198.461436,4234.358871,4216.410153
77,0,4219.487076,4212.82041,4216.922974,4226.153743,4236.922973,4224.615281,4221.538358,4217.435794,4231.794768,4230.769127,4242.051178,4198.461436,4233.84605,4216.922974
78,0,4213.846051,4208.717846,4216.410153,4219.487076,4230.256307,4216.922974,4216.922974,4216.410153,4228.717845,4216.922974,4232.307589,4198.974256,4232.820409,4216.922974
79,0,4199.487077,4201.025538,4206.666564,4212.82041,4217.948615,4220.512717,4223.07682,4214.871692,4223.07682,4210.256307,4231.281948,4198.461436,4231.281948,4215.897333
80,0,4197.435795,4196.410154,4199.999897,4213.846051,4216.410153,4230.256307,4232.307589,4215.897333,4226.153743,4220.512717,4230.769127,4201.025538,4229.230666,4211.281948
81,0,4206.666564,4198.974256,4208.205025,4213.33323,4218.974256,4232.820409,4234.358871,4224.102461,4234.871691,4221.538358,4232.307589,4209.230666,4230.256307,4211.794769
82,0,4212.82041,4202.051179,4217.435794,4204.102461,4217.948615,4230.256307,4232.820409,4227.692204,4237.435794,4218.461435,4239.999896,4216.922974,4232.820409,4215.897333
83,0,4212.307589,4201.025538,4215.384512,4194.871692,4218.461435,4219.999897,4225.128102,4221.025538,4233.33323,4234.358871,4239.999896,4216.922974,4232.307589,4214.358871
84,0,4213.33323,4201.025538,4213.33323,4196.410154,4217.435794,4213.846051,4216.410153,4216.410153,4230.769127,4231.794768,4239.487076,4215.384512,4232.820409,4213.846051
85,0,4215.384512,4203.07682,4217.435794,4200.512718,4212.307589,4221.025538,4217.435794,4218.461435,4229.230666,4213.33323,4246.666563,4223.58964,4234.871691,4216.410153
86,0,4217.435794,4204.615282,4220.512717,4202.564,4224.615281,4229.230666,4223.58964,4218.461435,4233.33323,4225.128102,4251.281947,4229.230666,4233.84605,4218.974256
87,0,4217.948615,4203.07682,4218.974256,4203.07682,4239.999896,4228.205025,4224.102461,4215.384512,4232.820409,4238.974255,4245.640922,4224.102461,4231.281948,4217.948615
88,0,4213.846051,4199.487077,4213.33323,4202.051179,4228.717845,4226.153743,4221.025538,4213.33323,4220.512717,4214.871692,4233.33323,4217.435794,4229.230666,4209.743487
89,0,4210.256307,4198.974256,4211.794769,4201.538359,4222.051179,4226.666563,4221.025538,4212.82041,4216.410153,4203.589641,4226.666563,4215.384512,4227.179384,4202.051179
90,0,4211.281948,4201.025538,4213.846051,4201.538359,4229.743486,4224.102461,4221.025538,4214.871692,4221.025538,4227.179384,4230.256307,4217.948615,4226.153743,4204.615282
91,0,4211.281948,4199.999897,4212.82041,4199.487077,4223.07682,4221.538358,4218.974256,4216.410153,4219.999897,4230.256307,4233.33323,4218.974256,4226.153743,4210.769128
92,0,4211.794769,4202.051179,4210.769128,4199.487077,4216.410153,4226.153743,4223.58964,4217.948615,4222.051179,4215.384512,4230.256307,4217.948615,4227.692204,4209.230666
93,0,4215.897333,4204.102461,4212.82041,4202.564,4224.615281,4230.256307,4233.33323,4219.487076,4229.743486,4216.922974,4231.281948,4216.922974,4230.769127,4206.666564
94,0,4215.384512,4202.051179,4214.358871,4204.615282,4230.769127,4229.743486,4234.871691,4221.025538,4230.769127,4229.743486,4227.692204,4218.974256,4227.179384,4206.153743
95,0,4213.33323,4207.179384,4213.846051,4205.640923,4231.794768,4230.769127,4232.307589,4222.051179,4229.230666,4230.769127,4219.999897,4219.487076,4226.153743,4206.666564
96,0,4217.948615,4215.384512,4214.871692,4204.615282,4229.743486,4231.794768,4233.84605,4221.025538,4227.179384,4221.025538,4219.999897,4216.410153,4229.743486,4210.256307
97,0,4217.948615,4212.307589,4213.33323,4204.615282,4227.692204,4229.743486,4230.256307,4217.435794,4217.948615,4212.82041,4218.461435,4213.33323,4223.07682,4205.128102
98,0,4212.82041,4206.153743,4212.82041,4207.179384,4231.794768,4228.205025,4222.051179,4218.461435,4215.384512,4215.897333,4214.871692,4212.307589,4219.999897,4196.922974
99,0,4212.307589,4203.589641,4215.384512,4206.153743,4233.33323,4228.205025,4221.025538,4218.461435,4224.102461,4232.820409,4221.025538,4214.358871,4230.769127,4201.025538
100,0,4212.82041,4201.538359,4214.358871,4203.589641,4230.256307,4229.230666,4225.640922,4215.897333,4228.205025,4240.512717,4229.230666,4216.410153,4235.897332,4209.230666
101,0,4213.846051,4202.051179,4213.33323,4205.128102,4229.230666,4231.794768,4230.769127,4221.025538,4226.153743,4231.281948,4230.769127,4218.461435,4233.33323,4215.384512
102,0,4218.461435,4204.102461,4214.871692,4205.640923,4228.717845,4233.84605,4232.820409,4232.307589,4229.743486,4230.256307,4233.33323,4222.563999,4234.358871,4214.358871
103,0,4214.358871,4198.461436,4211.794769,4201.538359,4228.717845,4233.84605,4233.84605,4232.307589,4232.820409,4231.794768,4230.256307,4221.025538,4231.794768,4206.153743
104,0,4202.564,4187.179385,4204.615282,4199.487077,4226.666563,4230.769127,4232.307589,4221.538358,4223.58964,4223.07682,4218.461435,4214.871692,4226.666563,4199.487077
105,0,4198.974256,4183.589641,4199.999897,4199.999897,4217.948615,4227.692204,4230.256307,4217.435794,4216.410153,4218.974256,4212.307589,4212.307589,4226.666563,4196.922974
106,0,4200.512718,4192.82041,4203.589641,4201.538359,4221.025538,4227.692204,4231.794768,4219.487076,4217.948615,4221.025538,4213.846051,4214.358871,4227.692204,4194.871692
107,0,4202.051179,4198.461436,4211.281948,4202.051179,4231.281948,4229.230666,4233.84605,4218.461435,4219.999897,4216.410153,4216.410153,4215.897333,4229.230666,4196.410154
108,0,4204.102461,4195.897333,4215.897333,4205.640923,4229.743486,4229.230666,4232.307589,4219.999897,4225.128102,4224.615281,4217.435794,4217.435794,4230.256307,4202.564
109,0,4203.589641,4198.461436,4215.384512,4209.743487,4223.07682,4229.230666,4230.256307,4228.205025,4231.281948,4242.563999,4218.461435,4219.999897,4229.743486,4207.179384
110,0,4202.564,4202.051179,4216.922974,4206.666564,4221.025538,4229.743486,4232.307589,4231.794768,4232.820409,4232.820409,4218.974256,4220.512717,4231.281948,4209.230666
111,0,4206.153743,4201.538359,4218.974256,4204.615282,4222.563999,4229.230666,4233.33323,4228.717845,4230.769127,4216.410153,4218.461435,4217.948615,4232.307589,4205.640923
112,0,4206.153743,4202.051179,4222.051179,4212.82041,4230.769127,4230.256307,4228.717845,4227.692204,4230.256307,4226.666563,4217.435794,4217.948615,4230.256307,4202.051179
113,0,4202.051179,4202.051179,4222.563999,4212.82041,4233.33323,4227.692204,4218.974256,4227.692204,4227.179384,4236.922973,4215.384512,4217.948615,4226.666563,4204.615282
114,0,4201.538359,4198.974256,4219.487076,4204.615282,4220.512717,4222.051179,4214.358871,4225.640922,4221.538358,4219.999897,4212.82041,4215.384512,4223.58964,4203.589641
115,0,4202.564,4197.435795,4217.948615,4205.640923,4214.358871,4222.051179,4222.051179,4228.717845,4219.999897,4197.948615,4213.33323,4214.358871,4224.102461,4201.538359
116,0,4201.538359,4198.974256,4221.025538,4207.179384,4224.102461,4224.102461,4226.153743,4228.717845,4217.435794,4203.07682,4213.846051,4216.922974,4223.58964,4203.07682
117,0,4201.538359,4201.025538,4219.487076,4205.128102,4230.769127,4223.58964,4216.922974,4219.999897,4215.897333,4223.07682,4207.692205,4215.897333,4217.435794,4199.999897
118,0,4200.512718,4201.538359,4216.410153,4208.717846,4222.051179,4227.179384,4214.871692,4221.538358,4222.051179,4234.871691,4206.666564,4213.33323,4218.461435,4197.948615
119,0,4201.538359,4205.128102,4217.948615,4213.846051,4210.769128,4231.281948,4225.640922,4232.307589,4228.205025,4233.84605,4214.358871,4216.922974,4229.230666,4202.051179
120,0,4208.717846,4212.307589,4218.461435,4214.358871,4223.58964,4230.769127,4230.256307,4232.307589,4227.179384,4229.230666,4217.435794,4217.948615,4232.307589,4204.102461
121,0,4214.871692,4215.897333,4220.512717,4215.897333,4244.10246,4230.256307,4227.692204,4228.717845,4228.205025,4231.281948,4216.922974,4218.974256,4226.666563,4202.051179
122,0,4213.846051,4215.384512,4227.692204,4216.922974,4240.512717,4230.769127,4229.230666,4234.358871,4232.307589,4235.897332,4222.051179,4224.102461,4226.666563,4206.666564
123,0,4213.846051,4217.435794,4232.820409,4217.948615,4232.820409,4232.307589,4231.794768,4236.922973,4231.794768,4227.692204,4227.692204,4229.230666,4234.358871,4213.846051
124,0,4217.435794,4226.666563,4234.871691,4223.58964,4241.538358,4235.897332,4233.84605,4235.384512,4233.33323,4224.102461,4231.794768,4231.794768,4238.974255,4214.871692
125,0,4218.974256,4229.743486,4234.358871,4223.07682,4242.051178,4236.410153,4233.33323,4235.384512,4235.897332,4245.128101,4234.871691,4233.84605,4237.435794,4215.897333
126,0,4217.435794,4222.563999,4232.820409,4218.461435,4229.743486,4231.794768,4230.256307,4232.820409,4231.281948,4256.922973,4231.281948,4233.33323,4234.871691,4215.384512
127,0,4215.897333,4216.410153,4234.358871,4218.974256,4228.205025,4231.794768,4228.205025,4231.794768,4228.205025,4244.615281,4224.615281,4232.307589,4234.358871,4208.205025
128,0,4215.384512,4218.974256,4236.922973,4219.999897,4230.769127,4232.820409,4230.256307,4232.307589,4230.256307,4232.820409,4222.051179,4233.33323,4231.794768,4202.564
0,0,4213.846051,4219.487076,4233.84605,4218.461435,4228.717845,4230.769127,4231.281948,4232.307589,4230.769127,4221.538358,4225.640922,4234.358871,4228.205025,4209.230666
1,0,4216.410153,4217.435794,4232.820409,4219.999897,4231.794768,4230.769127,4231.794768,4232.307589,4230.769127,4219.999897,4229.230666,4233.84605,4228.717845,4216.410153
2,0,4218.974256,4217.948615,4234.358871,4219.999897,4232.820409,4228.717845,4229.743486,4230.256307,4229.743486,4230.256307,4223.58964,4232.820409,4231.281948,4208.717846
3,0,4215.384512,4214.871692,4231.281948,4215.384512,4222.051179,4224.615281,4226.153743,4228.717845,4228.717845,4228.717845,4216.410153,4230.256307,4232.307589,4203.07682
4,0,4214.871692,4218.461435,4231.794768,4222.563999,4216.922974,4227.179384,4226.666563,4230.769127,4231.281948,4229.743486,4220.512717,4231.281948,4233.84605,4210.769128
5,0,4219.487076,4226.666563,4237.435794,4230.256307,4224.102461,4233.84605,4232.307589,4233.33323,4233.84605,4250.769127,4232.820409,4234.871691,4234.358871,4218.974256
6,0,4218.974256,4223.07682,4234.871691,4221.025538,4230.256307,4228.717845,4233.84605,4231.794768,4231.794768,4252.307588,4231.794768,4234.358871,4232.307589,4217.435794
7,0,4211.794769,4215.384512,4229.743486,4212.307589,4228.717845,4219.999897,4225.640922,4230.256307,4231.281948,4229.743486,4220.512717,4231.794768,4229.230666,4209.230666
8,0,4211.281948,4215.897333,4231.794768,4216.410153,4220.512717,4224.102461,4221.025538,4230.769127,4231.281948,4223.07682,4216.922974,4231.281948,4228.717845,4203.589641
9,0,4216.410153,4219.487076,4229.743486,4218.461435,4217.948615,4229.743486,4227.692204,4232.307589,4229.743486,4233.84605,4217.948615,4232.307589,4231.794768,4203.07682
10,0,4213.846051,4218.974256,4219.999897,4216.410153,4228.205025,4228.717845,4229.743486,4232.820409,4231.794768,4238.974255,4215.897333,4229.743486,4228.717845,4204.615282
11,0,4205.128102,4216.410153,4216.922974,4219.487076,4232.307589,4225.128102,4221.538358,4229.230666,4229.230666,4222.051179,4210.769128,4227.179384,4221.025538,4202.051179
12,0,4201.538359,4215.384512,4218.461435,4219.487076,4226.666563,4229.743486,4218.461435,4226.153743,4220.512717,4209.743487,4209.230666,4227.692204,4222.563999,4198.461436
13,0,4206.153743,4218.974256,4217.435794,4217.948615,4230.256307,4230.769127,4220.512717,4227.692204,4221.538358,4228.717845,4212.307589,4228.717845,4228.717845,4201.025538
14,0,4212.82041,4221.538358,4221.538358,4222.563999,4228.205025,4222.563999,4217.948615,4230.256307,4229.230666,4242.051178,4214.871692,4229.230666,4228.717845,4206.666564
15,0,4215.384512,4219.487076,4229.743486,4227.692204,4216.410153,4222.051179,4222.051179,4231.281948,4228.205025,4232.820409,4214.358871,4229.230666,4229.230666,4206.666564
16,0,4215.897333,4224.102461,4232.307589,4228.205025,4222.051179,4228.205025,4230.769127,4231.794768,4227.692204,4229.230666,4219.487076,4231.281948,4232.307589,4207.179384
17,0,4217.948615,4231.794768,4232.307589,4229.743486,4230.769127,4229.743486,4233.33323,4231.794768,4233.84605,4232.820409,4230.769127,4235.897332,4234.358871,4216.922974
18,0,4220.512717,4229.743486,4232.820409,4231.281948,4222.051179,4228.205025,4231.794768,4230.769127,4227.692204,4229.743486,4228.205025,4236.922973,4233.84605,4219.487076
19,0,4219.487076,4227.692204,4233.84605,4230.256307,4216.410153,4226.666563,4228.717845,4231.281948,4210.256307,4224.102461,4218.974256,4232.307589,4229.743486,4207.692205
20,0,4217.435794,4230.256307,4229.743486,4228.717845,4221.025538,4225.128102,4222.051179,4230.256307,4205.128102,4219.487076,4213.846051,4225.640922,4228.205025,4200.512718
21,0,4215.897333,4224.102461,4222.563999,4230.256307,4223.07682,4225.640922,4222.051179,4227.692204,4212.307589,4220.512717,4206.666564,4225.640922,4229.743486,4203.07682
22,0,4210.256307,4216.922974,4222.051179,4225.128102,4217.948615,4223.58964,4226.153743,4228.205025,4216.410153,4229.743486,4202.564,4227.179384,4222.563999,4203.589641
23,0,4202.564,4218.461435,4222.051179,4218.974256,4215.897333,4218.974256,4223.07682,4229.230666,4214.358871,4230.256307,4203.07682,4222.051179,4215.897333,4201.538359
24,0,4204.102461,4217.948615,4217.435794,4221.538358,4215.897333,4221.538358,4221.538358,4228.205025,4215.384512,4227.179384,4201.025538,4219.999897,4216.410153,4199.999897
25,0,4212.82041,4218.974256,4220.512717,4226.153743,4214.871692,4228.717845,4229.743486,4230.256307,4218.974256,4239.999896,4207.692205,4228.205025,4218.974256,4201.025538
26,0,4216.410153,4225.640922,4229.743486,4228.205025,4223.07682,4230.256307,4233.33323,4233.84605,4221.025538,4242.051178,4218.461435,4233.84605,4223.07682,4203.589641
27,0,4215.384512,4224.615281,4232.820409,4225.128102,4231.281948,4222.563999,4227.179384,4232.820409,4221.025538,4230.256307,4218.974256,4231.281948,4226.153743,4206.153743
28,0,4207.692205,4217.435794,4227.692204,4220.512717,4223.07682,4219.487076,4222.051179,4230.769127,4219.487076,4231.281948,4214.871692,4230.256307,4222.051179,4204.615282
29,0,4203.589641,4217.948615,4220.512717,4220.512717,4214.871692,4223.07682,4221.538358,4228.717845,4219.999897,4226.153743,4215.384512,4230.769127,4218.461435,4202.051179
30,0,4207.179384,4218.974256,4217.435794,4225.640922,4224.102461,4223.07682,4218.461435,4226.666563,4215.384512,4209.743487,4212.82041,4227.692204,4219.487076,4202.051179
31,0,4206.153743,4217.948615,4218.974256,4227.179384,4225.640922,4222.563999,4216.922974,4227.179384,4210.256307,4222.563999,4204.102461,4221.025538,4216.922974,4201.538359
32,0,4206.153743,4222.563999,4218.974256,4225.640922,4217.948615,4227.692204,4224.102461,4227.692204,4216.922974,4247.179383,4202.564,4221.538358,4214.871692,4200.512718
33,0,4210.769128,4227.179384,4217.435794,4228.205025,4224.615281,4227.179384,4227.692204,4228.205025,4220.512717,4223.07682,4208.205025,4229.230666,4215.897333,4201.025538
34,0,4209.230666,4228.717845,4218.461435,4228.717845,4227.692204,4223.58964,4221.538358,4229.230666,4213.33323,4201.025538,4208.205025,4229.230666,4215.384512,4201.025538
35,0,4207.179384,4226.666563,4219.999897,4228.717845,4219.999897,4225.640922,4217.948615,4228.717845,4215.897333,4227.179384,4205.128102,4223.58964,4216.410153,4201.025538
36,0,4212.82041,4223.58964,4220.512717,4230.769127,4219.487076,4225.128102,4219.999897,4228.205025,4224.615281,4242.563999,4210.256307,4225.640922,4218.461435,4201.025538
37,0,4215.384512,4223.58964,4219.487076,4229.743486,4223.07682,4222.051179,4217.948615,4230.256307,4222.051179,4229.743486,4214.871692,4228.205025,4218.461435,4201.538359
38,0,4215.384512,4223.07682,4221.538358,4229.230666,4219.999897,4225.128102,4216.410153,4230.256307,4216.410153,4226.666563,4212.307589,4227.692204,4219.999897,4202.564
39,0,4215.897333,4218.974256,4225.128102,4229.743486,4216.922974,4227.692204,4224.102461,4226.153743,4218.974256,4221.025538,4209.743487,4227.692204,4220.512717,4204.102461
40,0,4206.153743,4214.871692,4221.538358,4227.179384,4219.487076,4222.051179,4229.230666,4227.179384,4223.07682,4214.871692,4206.666564,4223.58964,4217.435794,4205.128102
41,0,4196.922974,4212.307589,4214.871692,4221.538358,4217.948615,4218.461435,4226.153743,4229.743486,4220.512717,4229.230666,4201.538359,4215.897333,4213.846051,4197.948615
42,0,4195.384513,4210.256307,4212.82041,4217.948615,4213.33323,4218.974256,4223.07682,4229.743486,4217.435794,4236.410153,4198.461436,4213.846051,4211.794769,4187.179385
43,0,4198.461436,4212.307589,4214.871692,4218.461435,4213.33323,4219.487076,4225.128102,4238.461435,4220.512717,4227.692204,4202.564,4216.922974,4213.33323,4189.743487
44,0,4203.589641,4214.871692,4216.410153,4222.563999,4217.948615,4222.051179,4227.179384,4247.179383,4223.58964,4227.179384,4210.256307,4219.999897,4216.922974,4200.512718
45,0,4204.615282,4214.358871,4215.384512,4225.640922,4220.512717,4221.538358,4221.538358,4238.461435,4217.435794,4208.717846,4210.256307,4220.512717,4216.410153,4202.564
46,0,4198.974256,4213.846051,4213.33323,4223.58964,4216.922974,4221.538358,4214.358871,4230.769127,4213.33323,4191.794769,4201.025538,4215.897333,4211.281948,4196.410154
47,0,4200.512718,4214.871692,4214.871692,4225.128102,4216.410153,4225.128102,4221.025538,4239.487076,4223.58964,4228.717845,4203.589641,4217.948615,4212.307589,4193.846051
48,0,4210.256307,4216.922974,4218.974256,4228.205025,4221.025538,4226.153743,4229.230666,4244.10246,4232.820409,4258.461434,4212.82041,4227.692204,4217.948615,4196.410154
49,0,4209.230666,4215.897333,4217.948615,4227.179384,4221.025538,4220.512717,4222.563999,4236.922973,4229.230666,4234.358871,4209.743487,4226.666563,4217.435794,4201.538359
50,0,4202.564,4214.871692,4214.871692,4227.692204,4214.871692,4216.922974,4215.897333,4231.281948,4221.025538,4212.82041,4201.025538,4217.435794,4213.33323,4198.974256
51,0,4202.564,4213.846051,4215.897333,4228.717845,4215.384512,4218.461435,4218.461435,4230.256307,4220.512717,4216.410153,4203.07682,4216.922974,4215.384512,4189.743487
52,0,4201.538359,4213.33323,4212.307589,4222.563999,4218.974256,4218.461435,4219.487076,4230.256307,4225.640922,4213.846051,4207.692205,4221.025538,4218.461435,4187.179385
53,0,4198.461436,4212.82041,4202.564,4216.922974,4215.384512,4216.922974,4216.922974,4230.256307,4221.538358,4214.871692,4204.102461,4218.461435,4217.435794,4187.692205
54,0,4199.999897,4211.794769,4204.102461,4217.948615,4211.281948,4216.922974,4216.922974,4231.281948,4218.974256,4228.717845,4202.051179,4215.897333,4217.948615,4190.769128
55,0,4200.512718,4211.281948,4212.82041,4218.974256,4213.33323,4218.974256,4215.897333,4231.794768,4221.025538,4223.07682,4209.230666,4216.922974,4217.948615,4196.922974
56,0,4197.948615,4213.846051,4213.33323,4219.999897,4215.897333,4218.974256,4214.871692,4231.281948,4222.051179,4210.256307,4213.33323,4215.384512,4214.871692,4195.384513
57,0,4200.512718,4216.922974,4212.307589,4221.025538,4215.897333,4217.948615,4216.922974,4232.307589,4225.640922,4223.58964,4206.666564,4217.948615,4217.435794,4190.256308
58,0,4204.615282,4216.410153,4214.871692,4222.051179,4215.384512,4216.410153,4216.922974,4232.820409,4225.128102,4235.384512,4201.538359,4219.999897,4219.999897,4188.205026
59,0,4202.051179,4214.871692,4212.82041,4226.153743,4215.897333,4216.922974,4215.897333,4230.769127,4217.948615,4215.897333,4207.692205,4216.922974,4213.846051,4187.692205
60,0,4200.512718,4214.871692,4213.33323,4230.256307,4217.948615,4224.102461,4217.948615,4230.769127,4221.025538,4206.666564,4213.33323,4216.410153,4213.33323,4191.281949
61,0,4207.692205,4216.410153,4216.922974,4230.769127,4218.974256,4227.179384,4219.999897,4233.84605,4232.820409,4232.307589,4213.846051,4219.999897,4221.025538,4199.487077
62,0,4214.358871,4218.974256,4216.922974,4231.281948,4223.58964,4225.640922,4219.999897,4233.84605,4231.794768,4239.487076,4213.846051,4219.487076,4218.974256,4198.974256
63,0,4215.897333,4222.563999,4216.922974,4232.307589,4228.205025,4225.128102,4219.487076,4228.717845,4223.58964,4223.58964,4214.358871,4219.487076,4213.846051,4198.461436
64,0,4216.410153,4219.487076,4218.461435,4231.281948,4219.999897,4224.615281,4217.435794,4228.205025,4220.512717,4220.512717,4213.846051,4221.025538,4216.410153,4201.025538
65,0,4215.897333,4219.999897,4218.461435,4231.794768,4215.384512,4226.666563,4220.512717,4233.33323,4223.58964,4223.58964,4213.33323,4215.897333,4216.922974,4200.512718
66,0,4215.384512,4226.153743,4217.435794,4232.820409,4226.153743,4232.307589,4230.769127,4235.384512,4230.769127,4229.743486,4216.410153,4221.025538,4217.435794,4200.512718
67,0,4216.410153,4222.051179,4216.410153,4232.307589,4229.230666,4231.281948,4231.281948,4234.358871,4231.794768,4234.871691,4216.410153,4226.666563,4220.512717,4200.512718
68,0,4217.435794,4221.025538,4216.410153,4231.281948,4226.153743,4227.179384,4224.102461,4233.84605,4230.256307,4227.179384,4215.384512,4223.58964,4220.512717,4200.512718
69,0,4217.948615,4228.717845,4217.435794,4231.281948,4227.692204,4228.717845,4226.666563,4234.871691,4232.307589,4222.563999,4218.461435,4222.051179,4217.435794,4202.564
70,0,4215.897333,4225.128102,4217.435794,4230.256307,4222.051179,4229.743486,4232.307589,4233.33323,4230.769127,4234.358871,4219.487076,4225.128102,4217.435794,4200.512718
71,0,4213.846051,4215.897333,4216.410153,4228.205025,4214.358871,4226.666563,4226.666563,4232.820409,4227.692204,4238.461435,4218.461435,4226.153743,4218.974256,4199.999897
72,0,4216.922974,4219.487076,4216.922974,4230.769127,4219.487076,4223.58964,4218.461435,4235.384512,4229.743486,4228.205025,4219.999897,4227.179384,4218.974256,4205.640923
73,0,4215.384512,4221.538358,4217.435794,4229.230666,4224.102461,4219.999897,4219.999897,4235.384512,4228.717845,4216.922974,4218.461435,4224.615281,4217.948615,4206.153743
74,0,4204.615282,4216.410153,4214.871692,4220.512717,4222.051179,4217.948615,4228.717845,4233.84605,4223.58964,4212.82041,4214.358871,4218.461435,4217.435794,4201.025538
75,0,4200.512718,4218.461435,4215.384512,4222.051179,4222.051179,4219.999897,4231.281948,4233.33323,4220.512717,4222.563999,4216.410153,4219.487076,4217.435794,4202.564
76,0,4204.102461,4219.487076,4217.948615,4230.256307,4221.025538,4220.512717,4224.102461,4234.358871,4219.999897,4223.58964,4217.948615,4221.538358,4215.897333,4203.589641
77,0,4202.051179,4218.461435,4216.922974,4229.743486,4216.410153,4218.974256,4216.922974,4232.307589,4217.948615,4218.974256,4215.384512,4217.435794,4215.384512,4197.948615
78,0,4201.025538,4226.153743,4216.922974,4228.205025,4216.410153,4221.538358,4220.512717,4233.33323,4217.435794,4231.794768,4215.384512,4216.922974,4217.948615,4198.974256
79,0,4207.692205,4234.358871,4218.974256,4232.820409,4222.051179,4228.205025,4225.640922,4239.487076,4226.153743,4230.256307,4218.974256,4223.58964,4221.025538,4209.230666
80,0,4212.82041,4233.84605,4219.487076,4233.84605,4224.615281,4227.692204,4221.538358,4238.974255,4231.794768,4213.33323,4224.615281,4231.281948,4218.461435,4212.307589
81,0,4213.33323,4230.769127,4223.58964,4230.256307,4221.025538,4219.999897,4215.384512,4232.820409,4227.179384,4223.58964,4229.743486,4231.281948,4217.435794,4211.281948
82,0,4214.871692,4232.820409,4230.256307,4230.256307,4216.410153,4216.410153,4216.410153,4232.820409,4223.07682,4234.871691,4227.692204,4230.256307,4225.128102,4214.358871
83,0,4216.922974,4232.820409,4232.307589,4230.769127,4214.871692,4217.435794,4219.487076,4235.897332,4222.051179,4219.487076,4222.051179,4232.307589,4228.205025,4215.384512
84,0,4217.435794,4230.769127,4229.743486,4231.281948,4218.461435,4218.461435,4217.948615,4233.33323,4218.461435,4210.769128,4221.538358,4230.769127,4221.025538,4213.33323
85,0,4215.897333,4232.307589,4227.179384,4230.769127,4218.974256,4215.897333,4213.846051,4232.307589,4217.435794,4218.974256,4221.538358,4227.179384,4217.948615,4213.846051
86,0,4216.410153,4233.84605,4225.640922,4229.743486,4214.871692,4214.871692,4213.33323,4233.33323,4218.974256,4224.615281,4223.07682,4227.692204,4222.051179,4214.871692
87,0,4216.922974,4233.84605,4228.717845,4230.256307,4217.435794,4214.871692,4214.871692,4231.281948,4217.948615,4221.538358,4229.743486,4230.769127,4228.717845,4217.435794
88,0,4215.897333,4234.358871,4227.692204,4229.743486,4225.128102,4215.897333,4215.384512,4232.820409,4222.563999,4221.538358,4232.307589,4230.769127,4231.281948,4219.999897
89,0,4217.435794,4232.820409,4221.025538,4228.717845,4221.025538,4217.948615,4214.358871,4235.384512,4229.230666,4224.615281,4229.743486,4230.256307,4227.179384,4215.897333
90,0,4219.999897,4230.769127,4217.435794,4230.256307,4213.846051,4217.948615,4215.384512,4234.871691,4229.743486,4218.974256,4230.256307,4230.769127,4225.640922,4214.871692
91,0,4217.435794,4230.769127,4219.487076,4230.769127,4218.461435,4216.922974,4216.410153,4234.358871,4229.743486,4212.307589,4233.33323,4230.769127,4229.230666,4218.974256
92,0,4222.563999,4235.384512,4225.128102,4230.256307,4222.563999,4218.461435,4218.974256,4235.384512,4231.281948,4224.615281,4233.33323,4230.769127,4229.743486,4218.974256
93,0,4228.717845,4240.512717,4230.256307,4232.820409,4218.974256,4219.999897,4222.563999,4236.410153,4231.281948,4237.948614,4234.358871,4232.307589,4229.743486,4216.922974
94,0,4219.999897,4236.922973,4230.256307,4233.33323,4215.897333,4217.435794,4219.487076,4234.358871,4229.743486,4229.230666,4231.281948,4233.33323,4229.743486,4216.410153
95,0,4218.974256,4234.358871,4230.769127,4230.769127,4222.563999,4216.922974,4217.435794,4231.281948,4229.743486,4230.769127,4232.820409,4234.358871,4228.717845,4217.948615
96,0,4232.307589,4239.999896,4235.384512,4232.307589,4228.205025,4219.487076,4224.102461,4233.33323,4232.307589,4235.384512,4244.10246,4236.410153,4230.256307,4223.07682
97,0,4227.179384,4239.999896,4234.358871,4233.84605,4223.07682,4218.974256,4224.102461,4236.410153,4232.820409,4219.999897,4244.615281,4236.922973,4231.794768,4222.051179
98,0,4213.33323,4230.769127,4227.179384,4228.717845,4217.435794,4215.897333,4217.948615,4234.871691,4230.769127,4219.999897,4236.922973,4234.358871,4228.205025,4216.410153
99,0,4220.512717,4228.717845,4226.153743,4226.153743,4216.410153,4214.358871,4215.384512,4232.307589,4229.743486,4243.58964,4235.897332,4232.820409,4226.666563,4214.871692
100,0,4231.794768,4235.384512,4230.256307,4231.281948,4214.871692,4214.871692,4216.410153,4232.307589,4228.717845,4239.999896,4241.538358,4235.897332,4228.205025,4221.025538
101,0,4228.717845,4234.358871,4232.307589,4233.33323,4213.846051,4214.871692,4215.384512,4230.256307,4227.692204,4211.281948,4244.615281,4237.948614,4229.230666,4223.58964
102,0,4227.692204,4232.307589,4232.820409,4230.256307,4215.897333,4216.922974,4217.435794,4228.205025,4228.717845,4214.358871,4241.538358,4234.358871,4231.281948,4220.512717
103,0,4232.820409,4239.999896,4233.84605,4232.820409,4221.538358,4223.58964,4224.102461,4229.230666,4230.256307,4226.666563,4238.974255,4231.281948,4231.281948,4223.07682
104,0,4234.358871,4246.666563,4235.384512,4236.922973,4229.230666,4226.153743,4231.281948,4230.256307,4230.256307,4221.025538,4243.076819,4235.897332,4230.256307,4228.205025
105,0,4237.948614,4244.615281,4237.948614,4234.871691,4232.820409,4226.666563,4234.871691,4230.256307,4231.794768,4231.281948,4249.743486,4239.487076,4234.358871,4229.743486
106,0,4241.025537,4244.10246,4237.435794,4231.794768,4230.769127,4229.230666,4231.794768,4230.256307,4232.820409,4253.84605,4246.666563,4237.435794,4236.410153,4229.230666
107,0,4235.384512,4246.666563,4233.84605,4234.358871,4228.205025,4228.717845,4229.230666,4230.256307,4232.307589,4252.820409,4247.692204,4237.948614,4233.33323,4230.256307
108,0,4231.794768,4244.615281,4232.820409,4234.871691,4228.205025,4227.692204,4231.281948,4231.281948,4233.33323,4239.999896,4254.871691,4242.563999,4233.84605,4229.743486
109,0,4236.410153,4244.10246,4234.358871,4233.33323,4228.205025,4233.33323,4233.84605,4233.33323,4235.897332,4245.128101,4254.871691,4244.615281,4237.948614,4230.256307
110,0,4235.897332,4247.692204,4232.820409,4232.307589,4227.179384,4229.743486,4234.358871,4233.84605,4234.871691,4248.205024,4251.794768,4239.999896,4236.922973,4230.769127
111,0,4228.205025,4243.076819,4227.692204,4227.692204,4226.666563,4218.974256,4228.205025,4230.256307,4232.307589,4233.33323,4247.179383,4233.33323,4231.794768,4221.538358
112,0,4226.153743,4236.922973,4226.153743,4226.153743,4226.666563,4222.051179,4221.025538,4230.256307,4230.769127,4218.461435,4244.615281,4231.794768,4230.256307,4217.948615
113,0,4229.230666,4239.487076,4228.205025,4228.205025,4221.025538,4227.179384,4220.512717,4230.256307,4228.717845,4219.487076,4245.128101,4235.384512,4231.794768,4223.07682
114,0,4231.794768,4239.487076,4231.281948,4226.153743,4215.384512,4221.538358,4221.538358,4225.128102,4226.666563,4231.794768,4242.051178,4234.358871,4231.794768,4221.538358
115,0,4230.256307,4233.33323,4231.281948,4223.58964,4218.461435,4216.410153,4217.435794,4221.538358,4227.179384,4236.410153,4238.974255,4232.820409,4229.230666,4220.512717
116,0,4230.769127,4235.897332,4230.769127,4227.692204,4221.025538,4216.922974,4218.461435,4219.999897,4227.179384,4232.820409,4241.538358,4241.025537,4230.769127,4228.717845
117,0,4240.512717,4247.692204,4238.974255,4232.820409,4219.487076,4223.58964,4229.230666,4222.563999,4227.692204,4229.230666,4249.743486,4247.692204,4235.897332,4237.435794
118,0,4248.205024,4247.692204,4246.666563,4233.33323,4219.487076,4227.179384,4231.794768,4231.794768,4232.307589,4236.410153,4254.871691,4251.281947,4238.461435,4237.435794
119,0,4242.051178,4234.358871,4240.512717,4230.769127,4219.999897,4221.538358,4224.615281,4235.384512,4235.384512,4245.640922,4250.256306,4246.666563,4234.871691,4230.769127
120,0,4230.769127,4229.743486,4228.717845,4228.717845,4215.897333,4218.974256,4223.58964,4229.743486,4231.794768,4237.948614,4242.563999,4236.410153,4229.230666,4227.179384
121,0,4229.743486,4239.487076,4230.769127,4229.230666,4213.846051,4228.205025,4229.230666,4230.256307,4232.307589,4234.871691,4244.615281,4236.922973,4229.743486,4229.743486
122,0,4234.871691,4247.179383,4238.974255,4231.281948,4222.563999,4232.307589,4231.794768,4235.384512,4236.922973,4232.820409,4251.281947,4246.153742,4233.33323,4234.871691
123,0,4235.384512,4244.615281,4237.435794,4230.769127,4232.307589,4228.205025,4229.743486,4231.281948,4234.358871,4216.922974,4248.717845,4246.666563,4234.871691,4234.871691
124,0,4233.33323,4243.58964,4233.84605,4230.256307,4231.281948,4227.692204,4230.256307,4228.205025,4228.717845,4223.07682,4246.153742,4241.025537,4234.871691,4235.384512
125,0,4232.820409,4245.128101,4232.820409,4232.820409,4224.102461,4228.205025,4230.256307,4229.230666,4230.256307,4250.256306,4246.666563,4243.58964,4234.871691,4233.84605
126,0,4232.820409,4243.076819,4232.307589,4230.256307,4222.563999,4227.179384,4228.205025,4230.256307,4233.33323,4250.256306,4245.128101,4246.666563,4232.307589,4230.769127
127,0,4235.897332,4244.10246,4236.922973,4228.717845,4222.051179,4226.666563,4229.743486,4226.666563,4231.794768,4244.615281,4251.281947,4247.179383,4233.33323,4235.384512
128,0,4239.999896,4244.10246,4244.615281,4238.461435,4219.487076,4228.717845,4233.33323,4225.640922,4232.820409,4249.230665,4261.025537,4249.230665,4242.051178,4241.538358
0,0,4237.948614,4239.999896,4248.205024,4242.051178,4221.538358,4230.769127,4233.84605,4228.717845,4233.84605,4229.230666,4257.435793,4249.230665,4241.025537,4237.435794
1,0,4231.794768,4239.999896,4244.10246,4236.410153,4226.153743,4228.205025,4232.307589,4230.769127,4232.820409,4219.999897,4248.717845,4247.179383,4231.794768,4231.281948
2,0,4234.871691,4246.153742,4241.025537,4239.999896,4228.205025,4226.666563,4234.358871,4230.769127,4238.974255,4251.281947,4254.871691,4246.666563,4232.307589,4232.820409
3,0,4242.563999,4248.205024,4239.487076,4245.640922,4229.743486,4229.743486,4235.384512,4230.769127,4244.10246,4269.230665,4261.538357,4247.692204,4242.563999,4235.384512
4,0,4245.640922,4246.666563,4235.897332,4236.922973,4230.769127,4230.769127,4230.769127,4229.230666,4237.435794,4258.974255,4256.922973,4246.666563,4244.615281,4232.307589
5,0,4244.615281,4248.205024,4233.84605,4231.281948,4228.205025,4229.230666,4228.205025,4227.692204,4232.820409,4242.563999,4256.922973,4247.179383,4238.461435,4231.281948
6,0,4238.974255,4247.692204,4232.820409,4235.384512,4228.205025,4228.717845,4231.794768,4221.538358,4235.897332,4232.307589,4255.897332,4243.58964,4234.871691,4230.769127
7,0,4229.743486,4243.58964,4228.717845,4232.820409,4226.666563,4230.256307,4233.33323,4215.384512,4233.84605,4235.897332,4246.153742,4234.871691,4232.307589,4227.692204
8,0,4230.256307,4239.999896,4228.205025,4227.692204,4221.538358,4233.33323,4233.33323,4222.051179,4231.794768,4242.563999,4243.58964,4236.410153,4234.871691,4228.717845
9,0,4241.538358,4239.487076,4237.948614,4232.307589,4223.58964,4233.33323,4235.384512,4231.281948,4236.410153,4248.717845,4255.897332,4247.179383,4237.948614,4233.84605
10,0,4245.128101,4243.076819,4245.640922,4238.974255,4226.666563,4229.230666,4235.384512,4227.179384,4234.871691,4253.333229,4264.10246,4251.794768,4237.435794,4235.384512
11,0,4241.538358,4248.205024,4242.051178,4239.999896,4227.692204,4228.205025,4232.307589,4225.128102,4231.281948,4249.230665,4262.051178,4249.743486,4234.871691,4234.871691
12,0,4238.461435,4245.128101,4235.897332,4233.33323,4228.717845,4231.281948,4232.820409,4229.230666,4235.897332,4246.153742,4261.025537,4247.179383,4235.897332,4235.384512
13,0,4234.871691,4235.897332,4230.256307,4223.07682,4222.563999,4229.743486,4234.358871,4225.640922,4236.922973,4249.230665,4259.487075,4246.153742,4235.897332,4234.358871
14,0,4229.743486,4236.922973,4225.640922,4221.538358,4213.33323,4225.128102,4231.281948,4223.58964,4232.307589,4245.128101,4255.384511,4244.615281,4233.84605,4231.794768
15,0,4233.33323,4245.128101,4228.717845,4228.205025,4219.999897,4227.179384,4231.794768,4230.769127,4237.435794,4244.615281,4258.974255,4245.128101,4240.512717,4233.84605
16,0,4243.58964,4249.743486,4237.435794,4230.769127,4232.307589,4233.33323,4242.563999,4235.384512,4247.179383,4250.769127,4266.666562,4246.666563,4245.640922,4239.487076
17,0,4248.717845,4250.769127,4244.615281,4226.666563,4232.307589,4235.897332,4246.666563,4234.871691,4245.128101,4246.666563,4267.179383,4250.769127,4243.58964,4245.640922
18,0,4247.692204,4249.230665,4248.205024,4223.07682,4229.743486,4232.307589,4236.410153,4231.794768,4237.435794,4254.871691,4265.128101,4251.794768,4246.153742,4244.10246
19,0,4240.512717,4246.153742,4245.640922,4221.025538,4230.769127,4228.717845,4230.769127,4225.128102,4234.358871,4265.640921,4263.589639,4248.717845,4246.153742,4235.384512
20,0,4233.33323,4244.615281,4238.461435,4215.384512,4227.692204,4228.205025,4234.871691,4215.897333,4234.358871,4251.281947,4259.999896,4245.128101,4238.974255,4231.281948
21,0,4230.256307,4243.076819,4231.794768,4209.230666,4217.948615,4229.743486,4233.84605,4213.846051,4231.281948,4243.58964,4260.512716,4244.10246,4238.974255,4230.769127
22,0,4232.820409,4242.563999,4231.794768,4210.256307,4218.974256,4231.281948,4232.307589,4221.538358,4231.281948,4250.769127,4261.538357,4247.692204,4246.153742,4231.794768
23,0,4239.487076,4247.179383,4239.487076,4217.435794,4231.794768,4231.794768,4238.461435,4232.820409,4240.512717,4248.205024,4264.10246,4249.743486,4247.179383,4240.512717
24,0,4244.615281,4250.256306,4242.563999,4220.512717,4235.384512,4232.820409,4245.128101,4236.922973,4248.717845,4255.384511,4269.743485,4247.692204,4245.128101,4246.153742
25,0,4247.179383,4249.743486,4237.948614,4216.922974,4229.230666,4233.33323,4246.153742,4235.384512,4250.256306,4268.205024,4269.743485,4247.692204,4247.179383,4239.487076
26,0,4245.640922,4248.717845,4235.384512,4207.692205,4229.230666,4230.256307,4239.487076,4234.871691,4245.640922,4257.435793,4263.589639,4248.205024,4247.179383,4232.307589
27,0,4242.563999,4249.743486,4235.384512,4191.281949,4232.820409,4229.743486,4232.307589,4233.84605,4237.435794,4245.128101,4258.461434,4243.076819,4241.538358,4231.794768
28,0,4243.58964,4250.769127,4236.410153,4186.153744,4232.307589,4233.33323,4235.897332,4231.281948,4233.84605,4239.487076,4257.435793,4242.051178,4242.051178,4233.33323
29,0,4242.563999,4250.769127,4241.538358,4193.846051,4230.769127,4235.897332,4244.10246,4228.717845,4236.922973,4228.717845,4259.999896,4248.717845,4248.205024,4233.84605
30,0,4239.999896,4250.769127,4246.153742,4191.794769,4231.281948,4234.358871,4244.10246,4228.717845,4235.897332,4233.33323,4258.461434,4248.717845,4241.538358,4231.281948
31,0,4240.512717,4250.769127,4243.076819,4184.102462,4231.794768,4232.307589,4241.025537,4229.743486,4234.358871,4253.84605,4250.256306,4243.076819,4234.358871,4228.717845
32,0,4239.487076,4249.743486,4237.948614,4185.640923,4232.307589,4232.820409,4245.640922,4229.230666,4235.897332,4249.743486,4247.692204,4245.128101,4241.025537,4231.794768
33,0,4234.358871,4246.666563,4234.871691,4186.666564,4229.743486,4231.794768,4247.692204,4229.230666,4233.33323,4228.717845,4249.230665,4245.128101,4239.487076,4231.794768
34,0,4232.820409,4244.615281,4234.358871,4179.999898,4227.179384,4229.743486,4240.512717,4229.743486,4231.281948,4230.769127,4246.666563,4235.897332,4233.33323,4229.743486
35,0,4235.384512,4247.179383,4236.410153,4182.564,4231.281948,4229.743486,4238.461435,4229.743486,4233.84605,4237.948614,4246.153742,4236.410153,4238.461435,4231.794768
36,0,4235.384512,4250.256306,4235.384512,4186.153744,4233.84605,4229.230666,4244.615281,4232.307589,4233.84605,4229.230666,4249.743486,4244.615281,4239.999896,4236.922973
37,0,4235.897332,4248.717845,4234.871691,4183.076821,4233.33323,4230.256307,4244.615281,4234.358871,4237.435794,4233.84605,4257.435793,4245.128101,4237.435794,4237.435794
38,0,4241.538358,4250.256306,4244.10246,4185.128103,4235.897332,4233.33323,4246.666563,4233.84605,4243.58964,4249.230665,4263.076819,4244.615281,4241.025537,4235.384512
39,0,4245.640922,4255.897332,4248.717845,4188.205026,4234.358871,4232.307589,4246.153742,4232.820409,4239.487076,4241.538358,4255.384511,4249.230665,4244.10246,4237.435794
40,0,4239.487076,4254.871691,4238.461435,4184.102462,4233.33323,4230.256307,4235.384512,4231.281948,4229.743486,4222.051179,4246.153742,4244.10246,4240.512717,4240.512717
41,0,4233.33323,4257.435793,4235.897332,4184.615282,4241.025537,4232.307589,4237.948614,4231.794768,4236.922973,4231.281948,4254.35887,4237.948614,4241.538358,4244.10246
42,0,4235.384512,4265.128101,4245.128101,4188.717846,4241.538358,4234.358871,4248.717845,4235.384512,4249.230665,4242.563999,4265.640921,4245.128101,4246.153742,4246.153742
43,0,4234.871691,4257.948614,4248.205024,4184.102462,4233.84605,4232.307589,4242.051178,4236.410153,4245.128101,4220.512717,4264.61528,4247.692204,4246.666563,4242.051178
44,0,4232.307589,4248.205024,4243.58964,4181.025539,4232.820409,4230.769127,4230.256307,4231.281948,4234.358871,4212.82041,4257.435793,4240.512717,4238.974255,4234.358871
45,0,4234.871691,4255.897332,4242.051178,4185.128103,4233.84605,4232.307589,4231.281948,4229.743486,4233.84605,4245.128101,4256.410152,4238.974255,4235.384512,4233.84605
46,0,4235.897332,4257.435793,4244.615281,4185.128103,4230.769127,4232.820409,4234.871691,4232.820409,4242.051178,4259.487075,4256.410152,4244.10246,4241.538358,4237.435794
47,0,4233.33323,4248.717845,4243.076819,4181.538359,4230.256307,4228.205025,4230.256307,4234.358871,4244.10246,4235.897332,4252.307588,4245.128101,4245.640922,4234.871691
48,0,4232.307589,4250.256306,4235.384512,4183.076821,4230.769127,4219.999897,4221.538358,4232.307589,4237.948614,4229.230666,4248.717845,4241.538358,4244.10246,4232.307589
49,0,4233.84605,4253.84605,4237.435794,4183.589641,4229.230666,4216.410153,4217.435794,4229.230666,4232.307589,4232.820409,4247.692204,4235.384512,4237.435794,4232.820409
50,0,4234.358871,4250.256306,4244.10246,4176.922975,4225.640922,4218.974256,4219.487076,4227.179384,4230.769127,4214.871692,4248.717845,4231.794768,4234.358871,4233.33323
51,0,4232.820409,4247.179383,4239.999896,4176.410154,4223.58964,4218.461435,4220.512717,4227.692204,4230.769127,4212.307589,4248.717845,4235.384512,4236.410153,4233.33323
52,0,4233.84605,4248.717845,4234.871691,4181.538359,4228.205025,4217.435794,4222.563999,4228.717845,4230.256307,4228.205025,4247.692204,4237.948614,4235.897332,4233.84605
53,0,4235.384512,4249.743486,4236.410153,4180.512718,4230.256307,4218.461435,4222.563999,4228.717845,4230.769127,4227.692204,4246.153742,4233.84605,4235.384512,4232.820409
54,0,4232.820409,4250.256306,4233.84605,4171.79477,4226.153743,4218.461435,4218.461435,4228.205025,4232.820409,4222.051179,4247.179383,4233.84605,4238.974255,4232.307589
55,0,4230.769127,4248.205024,4231.281948,4171.79477,4228.205025,4219.487076,4219.487076,4231.794768,4235.897332,4232.820409,4250.256306,4237.435794,4238.461435,4233.84605
56,0,4230.256307,4246.153742,4232.820409,4178.974257,4230.769127,4218.974256,4220.512717,4231.281948,4234.358871,4222.051179,4247.179383,4234.871691,4234.358871,4232.820409
57,0,4231.281948,4246.153742,4232.820409,4176.410154,4226.666563,4217.435794,4217.435794,4222.563999,4229.743486,4197.948615,4241.538358,4230.769127,4235.384512,4231.794768
58,0,4233.33323,4246.153742,4235.384512,4173.846052,4228.205025,4224.615281,4225.640922,4220.512717,4229.743486,4215.384512,4242.051178,4233.84605,4235.384512,4233.84605
59,0,4232.820409,4248.205024,4235.384512,4182.05118,4233.33323,4231.794768,4233.33323,4228.717845,4233.33323,4242.051178,4246.666563,4235.384512,4235.384512,4234.358871
60,0,4231.794768,4251.281947,4230.769127,4186.666564,4231.281948,4230.256307,4225.128102,4231.794768,4234.871691,4233.33323,4247.179383,4232.307589,4239.487076,4234.358871
61,0,4232.307589,4250.769127,4229.743486,4181.538359,4229.743486,4225.640922,4223.07682,4227.179384,4233.84605,4223.58964,4245.640922,4233.33323,4239.487076,4234.358871
62,0,4231.281948,4248.717845,4232.307589,4177.435795,4233.84605,4228.205025,4230.256307,4228.205025,4231.794768,4228.205025,4248.717845,4235.384512,4234.871691,4233.33323
63,0,4229.743486,4248.205024,4230.769127,4176.410154,4232.820409,4226.666563,4224.102461,4226.153743,4230.769127,4222.563999,4244.10246,4231.794768,4233.84605,4231.281948
64,0,4231.281948,4247.179383,4227.179384,4173.333231,4228.205025,4220.512717,4215.384512,4218.461435,4231.281948,4211.281948,4235.384512,4227.692204,4234.358871,4230.256307
65,0,4228.717845,4246.666563,4229.743486,4171.79477,4230.256307,4221.538358,4224.102461,4221.025538,4232.307589,4212.307589,4236.410153,4229.743486,4231.794768,4229.743486
66,0,4221.538358,4248.717845,4233.33323,4174.871693,4229.743486,4227.692204,4233.33323,4229.230666,4233.33323,4223.07682,4242.563999,4231.794768,4233.33323,4231.281948
67,0,4225.128102,4250.256306,4230.769127,4179.487077,4224.102461,4228.205025,4231.794768,4230.769127,4235.384512,4234.358871,4246.153742,4231.281948,4238.974255,4232.820409
68,0,4232.820409,4246.666563,4228.205025,4176.922975,4226.666563,4228.717845,4232.307589,4229.230666,4238.461435,4233.33323,4246.153742,4231.794768,4237.948614,4231.794768
69,0,4233.33323,4245.640922,4228.717845,4174.358872,4230.256307,4230.256307,4230.256307,4228.205025,4236.922973,4224.102461,4238.461435,4232.307589,4234.871691,4230.256307
70,0,4229.230666,4247.179383,4228.205025,4178.974257,4228.205025,4225.128102,4224.615281,4223.07682,4232.820409,4221.025538,4231.794768,4230.256307,4232.820409,4228.717845
71,0,4226.666563,4239.487076,4228.205025,4178.461436,4228.205025,4222.563999,4226.153743,4217.435794,4232.307589,4217.948615,4231.794768,4230.256307,4229.743486,4228.205025
72,0,4226.153743,4232.820409,4222.563999,4175.897334,4229.230666,4227.692204,4231.794768,4216.922974,4234.358871,4213.846051,4234.358871,4231.281948,4228.717845,4232.307589
73,0,4228.717845,4238.974255,4215.384512,4181.538359,4227.179384,4229.743486,4232.820409,4222.563999,4233.33323,4222.563999,4238.974255,4230.256307,4232.307589,4233.33323
74,0,4231.794768,4247.179383,4222.051179,4184.615282,4228.717845,4228.717845,4232.820409,4230.769127,4235.897332,4240.512717,4247.692204,4233.33323,4236.410153,4232.820409
75,0,4233.33323,4249.743486,4234.358871,4184.615282,4233.33323,4231.281948,4236.410153,4234.358871,4244.615281,4248.717845,4253.333229,4239.487076,4237.948614,4241.538358
76,0,4236.410153,4250.769127,4237.435794,4188.717846,4232.307589,4232.307589,4236.410153,4232.307589,4248.717845,4238.461435,4254.871691,4241.025537,4237.948614,4248.205024
77,0,4234.358871,4246.666563,4235.384512,4188.205026,4229.743486,4228.717845,4231.794768,4230.769127,4241.538358,4233.33323,4251.281947,4235.384512,4235.897332,4237.948614
78,0,4231.281948,4244.615281,4234.871691,4183.076821,4228.205025,4227.179384,4230.769127,4230.256307,4234.871691,4238.974255,4248.205024,4234.358871,4237.435794,4230.256307
79,0,4230.256307,4245.128101,4233.84605,4184.102462,4226.666563,4230.769127,4233.84605,4230.769127,4238.461435,4228.205025,4255.897332,4242.051178,4237.435794,4233.33323
80,0,4229.743486,4239.487076,4234.358871,4187.692205,4228.717845,4233.84605,4235.384512,4232.820409,4244.615281,4218.461435,4256.922973,4241.538358,4232.820409,4232.307589
81,0,4227.692204,4234.871691,4232.820409,4184.102462,4232.820409,4231.794768,4233.33323,4231.281948,4243.58964,4238.974255,4248.205024,4234.871691,4232.820409,4230.256307
82,0,4223.07682,4236.922973,4224.615281,4179.487077,4231.281948,4229.743486,4231.281948,4229.743486,4239.487076,4253.84605,4245.128101,4234.358871,4236.410153,4233.33323
83,0,4216.410153,4235.897332,4217.435794,4181.538359,4228.205025,4230.769127,4233.84605,4230.769127,4235.897332,4242.051178,4249.230665,4236.922973,4234.871691,4234.358871
84,0,4214.358871,4234.871691,4218.461435,4183.589641,4229.743486,4227.692204,4231.794768,4225.640922,4231.794768,4228.717845,4247.179383,4234.358871,4230.256307,4229.230666
85,0,4215.897333,4234.358871,4219.487076,4180.512718,4227.179384,4223.58964,4222.563999,4215.897333,4229.230666,4216.922974,4239.999896,4230.769127,4229.743486,4222.563999
86,0,4214.871692,4233.33323,4216.922974,4182.05118,4222.563999,4226.153743,4221.025538,4214.871692,4230.769127,4220.512717,4240.512717,4230.256307,4233.33323,4221.538358
87,0,4215.384512,4233.84605,4217.435794,4188.205026,4228.205025,4230.256307,4226.666563,4221.025538,4233.84605,4242.563999,4243.076819,4230.769127,4235.384512,4223.07682
88,0,4216.922974,4232.307589,4213.846051,4183.589641,4232.307589,4228.205025,4224.102461,4219.487076,4235.897332,4242.051178,4237.948614,4227.692204,4232.820409,4219.487076
89,0,4213.33323,4230.256307,4203.589641,4175.897334,4224.102461,4225.640922,4221.025538,4216.410153,4233.84605,4227.179384,4232.820409,4219.487076,4230.769127,4216.410153
90,0,4211.794769,4234.358871,4202.564,4181.025539,4223.07682,4227.179384,4229.230666,4221.538358,4233.84605,4232.307589,4238.974255,4219.999897,4232.307589,4217.948615
91,0,4217.435794,4236.410153,4211.794769,4188.205026,4232.820409,4231.794768,4230.769127,4226.666563,4241.025537,4237.948614,4246.666563,4228.205025,4235.897332,4219.487076
92,0,4220.512717,4234.871691,4217.948615,4186.666564,4232.820409,4229.230666,4221.538358,4223.07682,4243.076819,4232.820409,4248.717845,4231.794768,4235.897332,4224.615281
93,0,4217.948615,4234.358871,4217.948615,4185.128103,4226.153743,4222.051179,4215.897333,4216.922974,4235.897332,4232.307589,4247.179383,4230.256307,4232.307589,4227.692204
94,0,4221.025538,4235.384512,4217.948615,4187.692205,4228.717845,4223.58964,4216.922974,4221.025538,4234.871691,4232.307589,4248.717845,4231.794768,4238.461435,4228.717845
95,0,4225.128102,4236.922973,4219.999897,4191.281949,4233.84605,4229.743486,4223.58964,4229.230666,4244.10246,4231.281948,4256.922973,4235.897332,4246.666563,4235.384512
96,0,4221.025538,4235.897332,4218.974256,4190.256308,4231.794768,4228.205025,4229.230666,4231.794768,4247.179383,4233.33323,4256.922973,4232.307589,4241.538358,4234.358871
97,0,4214.871692,4231.794768,4213.846051,4185.640923,4230.256307,4229.230666,4230.769127,4230.256307,4244.615281,4235.384512,4241.538358,4222.051179,4230.256307,4219.999897
98,0,4215.384512,4231.794768,4210.769128,4188.205026,4231.281948,4232.820409,4231.281948,4232.307589,4243.58964,4233.84605,4232.307589,4217.435794,4229.230666,4214.358871
99,0,4217.435794,4234.358871,4213.846051,4191.794769,4229.230666,4229.230666,4229.743486,4232.820409,4238.461435,4229.743486,4235.384512,4218.974256,4231.281948,4218.461435
100,0,4214.871692,4231.281948,4215.384512,4187.179385,4228.205025,4227.692204,4229.743486,4224.615281,4234.358871,4231.281948,4236.410153,4219.487076,4229.230666,4217.435794
101,0,4213.846051,4228.717845,4214.871692,4186.153744,4229.230666,4229.230666,4229.743486,4216.922974,4235.384512,4229.743486,4233.84605,4218.461435,4226.666563,4215.384512
102,0,4216.922974,4231.794768,4213.33323,4191.281949,4227.179384,4224.615281,4225.640922,4218.461435,4233.33323,4222.563999,4232.820409,4216.410153,4223.07682,4217.435794
103,0,4212.82041,4232.820409,4208.205025,4190.256308,4219.487076,4218.461435,4218.461435,4220.512717,4230.256307,4214.358871,4231.794768,4214.358871,4220.512717,4214.871692
104,0,4203.589641,4227.692204,4202.564,4185.640923,4215.897333,4216.922974,4215.897333,4218.974256,4231.281948,4211.281948,4230.769127,4212.82041,4217.435794,4211.794769
105,0,4199.999897,4226.153743,4199.999897,4187.179385,4214.871692,4216.410153,4215.384512,4216.410153,4231.281948,4219.999897,4229.743486,4212.307589,4219.487076,4213.846051
106,0,4201.538359,4229.743486,4203.07682,4189.743487,4216.922974,4217.948615,4216.410153,4217.948615,4230.256307,4231.281948,4233.33323,4213.846051,4228.205025,4215.384512
107,0,4205.640923,4232.307589,4213.846051,4187.692205,4223.07682,4223.58964,4219.487076,4225.128102,4234.358871,4231.281948,4240.512717,4218.461435,4227.692204,4217.435794
108,0,4213.846051,4228.205025,4216.922974,4187.692205,4222.051179,4222.563999,4218.974256,4225.128102,4234.358871,4224.102461,4238.461435,4218.461435,4218.461435,4219.487076
109,0,4212.307589,4221.025538,4205.640923,4188.717846,4213.33323,4215.897333,4215.384512,4215.897333,4229.743486,4214.358871,4227.179384,4212.82041,4213.33323,4214.358871
110,0,4204.102461,4217.948615,4198.974256,4189.230667,4211.794769,4215.897333,4215.384512,4213.33323,4228.717845,4203.589641,4225.640922,4210.769128,4215.897333,4209.743487
111,0,4207.692205,4217.435794,4203.589641,4191.281949,4216.922974,4219.487076,4216.922974,4217.948615,4230.256307,4212.307589,4232.307589,4214.871692,4218.974256,4213.33323
112,0,4217.435794,4217.435794,4206.153743,4192.82041,4218.974256,4219.999897,4218.461435,4217.948615,4231.281948,4230.769127,4234.871691,4217.948615,4220.512717,4218.461435
113,0,4212.82041,4217.435794,4202.051179,4189.230667,4216.922974,4217.435794,4217.948615,4216.410153,4230.256307,4226.666563,4230.769127,4214.358871,4217.435794,4216.410153
114,0,4205.128102,4218.461435,4201.538359,4185.640923,4213.33323,4216.410153,4217.435794,4217.435794,4229.230666,4214.871692,4228.717845,4212.82041,4214.871692,4209.230666
115,0,4209.230666,4219.487076,4208.205025,4190.256308,4212.307589,4217.435794,4218.974256,4217.435794,4230.256307,4213.846051,4231.281948,4215.897333,4217.948615,4208.717846
116,0,4210.769128,4219.487076,4208.717846,4191.794769,4216.410153,4219.999897,4220.512717,4218.461435,4232.307589,4219.487076,4232.820409,4217.435794,4219.999897,4215.384512
117,0,4207.692205,4216.922974,4201.025538,4187.179385,4217.435794,4217.948615,4217.948615,4218.974256,4231.281948,4215.384512,4231.281948,4215.384512,4216.922974,4217.435794
118,0,4211.794769,4214.358871,4200.512718,4186.153744,4213.846051,4216.922974,4215.384512,4217.948615,4230.256307,4202.051179,4230.256307,4214.358871,4215.897333,4212.82041
119,0,4216.922974,4215.897333,4203.589641,4186.666564,4214.358871,4218.974256,4218.461435,4217.435794,4230.769127,4203.07682,4231.794768,4214.358871,4218.461435,4212.307589
120,0,4212.82041,4217.948615,4201.025538,4190.769128,4217.948615,4219.487076,4221.025538,4217.948615,4230.769127,4219.999897,4232.820409,4216.922974,4218.974256,4214.358871
121,0,4214.358871,4219.999897,4208.205025,4198.974256,4219.487076,4219.487076,4219.487076,4219.999897,4230.769127,4220.512717,4235.384512,4219.999897,4217.948615,4215.897333
122,0,4216.410153,4220.512717,4215.897333,4201.538359,4218.974256,4219.999897,4219.487076,4220.512717,4231.281948,4207.692205,4235.897332,4220.512717,4218.974256,4216.922974
123,0,4204.102461,4216.922974,4208.717846,4195.897333,4215.384512,4216.922974,4218.974256,4219.487076,4230.256307,4214.871692,4231.794768,4216.922974,4217.948615,4214.871692
124,0,4201.025538,4215.897333,4205.128102,4196.410154,4213.33323,4214.358871,4216.922974,4217.435794,4227.692204,4218.974256,4228.205025,4214.871692,4216.922974,4213.33323
125,0,4211.794769,4224.615281,4212.307589,4201.538359,4215.384512,4215.384512,4216.922974,4222.563999,4228.717845,4205.128102,4230.769127,4215.384512,4219.487076,4214.871692
126,0,4216.410153,4230.256307,4216.922974,4200.512718,4218.461435,4216.922974,4219.999897,4230.769127,4233.33323,4206.666564,4231.794768,4215.897333,4219.999897,4216.410153
127,0,4214.871692,4224.102461,4217.948615,4199.487077,4216.922974,4216.410153,4218.461435,4229.743486,4233.33323,4217.435794,4232.307589,4218.461435,4217.435794,4217.948615
128,0,4215.384512,4223.07682,4216.922974,4201.538359,4215.384512,4216.922974,4215.384512,4226.666563,4230.769127,4219.999897,4238.974255,4225.128102,4223.58964,4224.615281
0,0,4214.871692,4232.307589,4217.948615,4203.589641,4221.538358,4219.999897,4223.58964,4232.820409,4237.435794,4224.102461,4248.205024,4230.769127,4233.33323,4232.820409
1,0,4215.897333,4233.84605,4224.102461,4203.07682,4226.153743,4222.563999,4233.84605,4237.435794,4249.230665,4237.435794,4257.948614,4234.358871,4235.384512,4235.384512
2,0,4221.025538,4229.743486,4223.07682,4202.051179,4221.025538,4220.512717,4228.205025,4232.820409,4247.692204,4236.410153,4261.538357,4232.307589,4232.820409,4236.922973
3,0,4216.410153,4230.769127,4215.384512,4202.051179,4216.922974,4216.922974,4216.922974,4230.769127,4236.410153,4216.410153,4248.717845,4222.051179,4230.769127,4230.769127
4,0,4210.769128,4230.769127,4215.384512,4199.999897,4219.487076,4216.410153,4215.384512,4229.743486,4230.769127,4210.769128,4239.487076,4214.358871,4227.692204,4217.948615
5,0,4215.897333,4230.256307,4217.435794,4201.538359,4218.974256,4215.897333,4216.922974,4222.563999,4232.820409,4223.58964,4246.153742,4219.999897,4226.666563,4219.999897
6,0,4219.999897,4230.256307,4216.922974,4208.717846,4216.922974,4213.33323,4216.410153,4222.563999,4231.281948,4226.153743,4250.769127,4224.615281,4227.179384,4229.230666
7,0,4214.871692,4228.717845,4218.461435,4207.179384,4216.922974,4212.82041,4216.410153,4228.205025,4232.307589,4217.435794,4246.153742,4222.563999,4227.179384,4227.179384
8,0,4211.794769,4232.307589,4216.922974,4203.07682,4217.948615,4214.871692,4216.410153,4229.230666,4235.897332,4219.487076,4244.10246,4221.538358,4228.205025,4222.051179
9,0,4215.897333,4237.948614,4217.435794,4206.153743,4222.051179,4216.922974,4217.948615,4228.717845,4237.435794,4228.205025,4250.256306,4226.666563,4230.256307,4222.563999
10,0,4221.025538,4236.410153,4223.07682,4208.205025,4223.58964,4218.974256,4219.999897,4231.281948,4240.512717,4231.281948,4259.487075,4230.256307,4232.820409,4225.640922
11,0,4220.512717,4235.384512,4225.640922,4207.692205,4220.512717,4218.974256,4218.974256,4233.33323,4243.58964,4232.307589,4258.974255,4229.743486,4232.820409,4230.769127
12,0,4216.922974,4236.410153,4223.58964,4210.256307,4215.384512,4216.922974,4216.410153,4231.281948,4238.974255,4228.717845,4249.743486,4226.153743,4229.743486,4231.281948
13,0,4215.384512,4233.84605,4221.025538,4212.307589,4215.897333,4216.410153,4216.410153,4233.84605,4232.307589,4216.922974,4245.640922,4222.051179,4230.256307,4227.692204
14,0,4216.922974,4232.307589,4219.999897,4211.281948,4222.563999,4216.410153,4217.948615,4242.051178,4230.256307,4208.205025,4246.153742,4218.461435,4230.256307,4228.205025
15,0,4215.384512,4229.743486,4218.974256,4205.128102,4219.999897,4214.358871,4217.435794,4242.563999,4231.794768,4212.82041,4242.563999,4216.410153,4221.025538,4222.563999
16,0,4214.358871,4227.179384,4218.974256,4199.999897,4211.281948,4213.846051,4216.410153,4233.33323,4232.820409,4217.948615,4237.948614,4217.435794,4216.410153,4216.922974
17,0,4215.384512,4230.769127,4216.410153,4206.666564,4213.846051,4216.922974,4215.897333,4230.769127,4224.615281,4208.205025,4231.281948,4215.897333,4220.512717,4215.897333
18,0,4213.846051,4238.974255,4212.82041,4214.871692,4218.974256,4217.435794,4216.922974,4231.794768,4216.922974,4199.999897,4226.153743,4208.717846,4213.33323,4207.692205
19,0,4214.871692,4246.153742,4213.846051,4214.358871,4216.922974,4216.410153,4217.948615,4227.692204,4226.153743,4204.615282,4227.692204,4207.692205,4203.07682,4202.051179
20,0,4219.487076,4251.281947,4217.435794,4215.384512,4223.58964,4219.487076,4217.948615,4225.640922,4233.33323,4205.640923,4227.692204,4214.358871,4207.692205,4209.743487
21,0,4221.538358,4250.769127,4218.974256,4219.487076,4230.769127,4221.538358,4218.461435,4227.692204,4229.230666,4203.589641,4225.128102,4212.82041,4212.307589,4214.871692
22,0,4219.999897,4245.640922,4216.410153,4214.358871,4222.051179,4218.461435,4217.948615,4227.179384,4227.692204,4204.102461,4226.666563,4207.692205,4210.256307,4214.358871
23,0,4216.410153,4244.10246,4213.846051,4204.102461,4216.410153,4214.871692,4215.897333,4226.666563,4227.692204,4196.410154,4227.179384,4208.205025,4208.205025,4211.794769
24,0,4212.82041,4244.615281,4211.794769,4206.666564,4219.487076,4215.897333,4214.358871,4227.692204,4226.666563,4188.717846,4221.538358,4205.640923,4205.640923,4203.589641
25,0,4215.384512,4245.128101,4213.846051,4216.922974,4218.461435,4217.435794,4215.897333,4227.692204,4228.717845,4197.435795,4215.897333,4200.512718,4203.589641,4203.589641
26,0,4218.974256,4245.640922,4218.461435,4217.435794,4217.948615,4219.487076,4218.461435,4226.666563,4230.256307,4210.256307,4219.999897,4205.128102,4206.153743,4212.307589
27,0,4218.974256,4246.153742,4217.435794,4214.358871,4220.512717,4219.999897,4217.948615,4227.692204,4230.256307,4210.769128,4228.205025,4213.846051,4211.794769,4215.897333
28,0,4224.615281,4245.128101,4218.974256,4217.948615,4215.384512,4217.948615,4218.461435,4230.769127,4230.769127,4210.769128,4233.33323,4217.948615,4214.358871,4213.846051
29,0,4229.230666,4243.58964,4224.615281,4219.999897,4214.871692,4218.461435,4223.07682,4229.230666,4230.769127,4215.897333,4233.84605,4219.487076,4215.384512,4213.33323
30,0,4222.051179,4247.692204,4222.563999,4218.974256,4225.640922,4219.999897,4222.563999,4226.666563,4230.256307,4212.82041,4233.33323,4216.922974,4215.384512,4214.871692
31,0,4215.897333,4247.179383,4215.384512,4218.974256,4225.640922,4221.025538,4218.461435,4228.717845,4229.230666,4210.769128,4230.256307,4214.358871,4215.384512,4215.384512
32,0,4215.897333,4237.948614,4213.846051,4216.922974,4217.435794,4219.999897,4224.615281,4233.33323,4229.743486,4209.230666,4228.205025,4216.410153,4213.846051,4214.871692
33,0,4216.922974,4231.794768,4217.435794,4215.897333,4221.025538,4217.948615,4230.769127,4232.820409,4232.820409,4207.692205,4234.871691,4216.410153,4213.33323,4216.410153
34,0,4219.999897,4237.435794,4218.974256,4217.435794,4230.256307,4224.102461,4228.717845,4235.384512,4235.384512,4218.974256,4243.076819,4215.897333,4216.922974,4220.512717
35,0,4219.999897,4240.512717,4219.487076,4218.461435,4231.794768,4231.281948,4230.256307,4241.538358,4237.948614,4237.948614,4245.640922,4222.051179,4218.461435,4219.999897
36,0,4218.974256,4233.84605,4221.025538,4216.922974,4225.128102,4225.128102,4229.230666,4239.487076,4237.435794,4233.84605,4242.051178,4223.58964,4216.922974,4219.487076
37,0,4223.07682,4232.307589,4224.102461,4216.922974,4219.999897,4217.948615,4221.538358,4232.820409,4232.820409,4215.897333,4236.922973,4216.410153,4213.846051,4221.538358
38,0,4225.640922,4236.922973,4223.58964,4220.512717,4217.948615,4219.999897,4217.948615,4227.179384,4229.743486,4214.358871,4232.820409,4214.358871,4216.922974,4220.512717
39,0,4222.563999,4236.922973,4217.948615,4221.025538,4215.897333,4219.487076,4217.435794,4224.615281,4229.743486,4210.256307,4227.692204,4212.82041,4214.358871,4216.922974
40,0,4217.948615,4233.33323,4214.871692,4215.897333,4215.384512,4215.897333,4222.051179,4225.128102,4227.179384,4201.538359,4223.58964,4204.615282,4205.640923,4214.358871
41,0,4214.358871,4231.281948,4215.897333,4213.846051,4216.922974,4216.922974,4230.256307,4227.179384,4226.153743,4205.640923,4224.615281,4204.615282,4207.692205,4213.846051
42,0,4215.384512,4232.307589,4217.435794,4217.435794,4217.948615,4218.974256,4229.743486,4228.205025,4229.743486,4205.128102,4227.179384,4212.82041,4215.897333,4216.410153
43,0,4217.435794,4234.358871,4218.461435,4219.487076,4216.922974,4217.948615,4227.692204,4227.692204,4231.281948,4197.948615,4228.717845,4214.358871,4214.358871,4219.487076
44,0,4216.922974,4234.358871,4218.461435,4217.948615,4219.487076,4220.512717,4230.769127,4229.743486,4230.769127,4207.179384,4232.820409,4213.846051,4212.307589,4218.461435
45,0,4221.025538,4232.820409,4216.410153,4218.974256,4218.974256,4220.512717,4229.230666,4230.256307,4228.717845,4219.487076,4231.794768,4215.897333,4215.384512,4216.922974
46,0,4227.692204,4236.410153,4216.922974,4224.102461,4218.461435,4216.922974,4225.640922,4229.230666,4230.769127,4216.922974,4232.307589,4216.922974,4215.384512,4222.051179
47,0,4231.794768,4244.10246,4226.666563,4230.769127,4225.128102,4224.102461,4231.794768,4231.794768,4238.974255,4223.07682,4251.794768,4225.128102,4220.512717,4234.358871
48,0,4239.999896,4247.179383,4236.922973,4234.358871,4231.794768,4232.820409,4236.410153,4239.999896,4244.10246,4242.563999,4268.205024,4235.897332,4230.256307,4240.512717
49,0,4246.666563,4245.640922,4234.871691,4234.358871,4231.794768,4225.640922,4233.84605,4239.999896,4244.10246,4245.640922,4260.512716,4235.384512,4232.307589,4237.435794
50,0,4243.076819,4247.692204,4230.256307,4233.33323,4228.205025,4215.897333,4226.666563,4233.33323,4242.563999,4231.794768,4251.794768,4230.256307,4230.256307,4236.922973
51,0,4235.897332,4247.692204,4234.871691,4232.307589,4228.205025,4218.974256,4222.051179,4233.84605,4236.410153,4228.205025,4249.743486,4224.615281,4226.153743,4233.33323
52,0,4232.307589,4237.435794,4230.256307,4229.743486,4229.743486,4221.025538,4219.999897,4229.743486,4229.743486,4231.794768,4241.025537,4217.435794,4218.461435,4222.563999
53,0,4229.230666,4230.256307,4216.922974,4229.230666,4230.256307,4216.922974,4217.948615,4219.999897,4228.717845,4223.07682,4231.281948,4216.410153,4213.33323,4216.410153
54,0,4225.128102,4231.281948,4219.487076,4230.256307,4230.769127,4217.435794,4221.538358,4218.461435,4229.230666,4214.358871,4229.743486,4217.948615,4213.846051,4217.435794
55,0,4227.179384,4232.820409,4231.794768,4229.743486,4231.281948,4222.563999,4229.230666,4222.051179,4228.717845,4218.461435,4235.897332,4218.461435,4215.384512,4220.512717
56,0,4231.794768,4232.307589,4232.307589,4231.794768,4230.256307,4227.692204,4233.84605,4225.128102,4230.769127,4218.974256,4245.640922,4224.102461,4216.922974,4223.58964
57,0,4230.256307,4231.794768,4227.692204,4234.358871,4229.230666,4227.179384,4231.281948,4228.717845,4229.743486,4216.410153,4242.563999,4227.179384,4216.922974,4222.051179
58,0,4225.640922,4232.307589,4229.230666,4229.230666,4229.230666,4220.512717,4227.179384,4228.205025,4226.153743,4216.922974,4232.820409,4225.128102,4215.384512,4216.922974
59,0,4228.205025,4233.33323,4230.769127,4228.717845,4229.743486,4220.512717,4228.205025,4228.717845,4228.205025,4212.307589,4238.461435,4228.717845,4217.435794,4222.563999
60,0,4232.307589,4233.84605,4232.820409,4239.487076,4230.256307,4227.179384,4231.794768,4233.84605,4231.794768,4217.435794,4248.205024,4232.820409,4220.512717,4232.307589
61,0,4231.281948,4232.820409,4231.281948,4241.025537,4230.769127,4229.743486,4232.307589,4233.33323,4232.307589,4230.769127,4245.128101,4229.743486,4218.974256,4228.717845
62,0,4231.281948,4233.33323,4223.58964,4234.358871,4232.307589,4228.205025,4229.743486,4229.230666,4231.794768,4232.307589,4243.58964,4227.692204,4219.487076,4217.435794
63,0,4230.769127,4233.84605,4217.948615,4232.820409,4234.871691,4228.205025,4231.281948,4231.794768,4230.769127,4228.717845,4249.230665,4227.692204,4225.128102,4217.435794
64,0,4221.025538,4232.307589,4215.384512,4233.33323,4232.820409,4229.743486,4229.230666,4233.33323,4230.256307,4226.153743,4247.692204,4222.563999,4221.538358,4222.051179
65,0,4211.281948,4229.743486,4213.846051,4229.230666,4229.743486,4226.666563,4221.538358,4228.717845,4232.307589,4218.974256,4235.384512,4216.922974,4213.33323,4217.948615
66,0,4214.358871,4227.179384,4215.384512,4227.692204,4232.307589,4222.051179,4216.922974,4228.205025,4228.205025,4215.384512,4230.256307,4217.948615,4214.358871,4212.307589
67,0,4218.461435,4226.666563,4215.384512,4230.256307,4230.256307,4218.974256,4218.461435,4228.717845,4220.512717,4214.871692,4232.307589,4218.974256,4218.461435,4215.384512
68,0,4218.461435,4230.769127,4212.82041,4232.307589,4222.563999,4217.435794,4224.615281,4223.07682,4224.102461,4214.358871,4236.410153,4217.435794,4216.922974,4218.974256
69,0,4222.051179,4232.820409,4215.384512,4233.84605,4225.640922,4216.922974,4226.666563,4220.512717,4229.230666,4226.153743,4240.512717,4221.538358,4216.922974,4218.461435
70,0,4222.563999,4230.769127,4219.999897,4232.820409,4230.769127,4218.974256,4227.179384,4222.563999,4223.07682,4231.794768,4238.461435,4224.102461,4218.974256,4217.435794
71,0,4217.948615,4229.230666,4217.435794,4232.307589,4227.692204,4219.999897,4230.769127,4224.102461,4222.051179,4219.999897,4232.820409,4218.461435,4217.948615,4218.461435
72,0,4217.948615,4227.179384,4214.871692,4232.307589,4227.179384,4218.974256,4226.666563,4225.640922,4228.717845,4211.794769,4231.281948,4215.384512,4215.384512,4218.461435
73,0,4216.922974,4223.58964,4215.897333,4229.230666,4229.230666,4218.461435,4217.435794,4227.692204,4229.230666,4214.871692,4231.281948,4216.922974,4211.794769,4213.846051
74,0,4218.461435,4225.128102,4214.871692,4230.256307,4227.692204,4217.948615,4219.999897,4228.717845,4228.717845,4222.563999,4234.871691,4222.563999,4214.871692,4219.487076
75,0,4229.743486,4229.743486,4220.512717,4238.974255,4226.666563,4221.538358,4230.769127,4231.794768,4233.33323,4226.666563,4251.794768,4231.794768,4225.640922,4238.461435
76,0,4238.974255,4233.33323,4232.820409,4247.692204,4230.256307,4228.717845,4233.33323,4235.384512,4235.384512,4232.307589,4266.666562,4236.410153,4233.84605,4248.717845
77,0,4236.410153,4233.33323,4232.820409,4246.666563,4233.33323,4232.307589,4233.33323,4233.84605,4233.33323,4241.538358,4260.512716,4234.871691,4232.307589,4244.10246
78,0,4227.179384,4226.153743,4218.461435,4236.922973,4232.307589,4226.153743,4232.820409,4228.717845,4228.717845,4238.974255,4248.205024,4230.256307,4224.102461,4234.358871
79,0,4222.563999,4222.563999,4213.33323,4228.717845,4229.230666,4221.538358,4230.256307,4227.179384,4226.153743,4227.692204,4243.076819,4225.128102,4222.563999,4228.205025
80,0,4229.230666,4229.230666,4224.615281,4236.410153,4228.717845,4227.692204,4231.281948,4228.717845,4232.307589,4229.230666,4247.179383,4228.205025,4227.692204,4230.769127
81,0,4235.384512,4233.84605,4228.205025,4250.769127,4233.33323,4229.230666,4234.871691,4223.58964,4231.281948,4230.256307,4247.692204,4230.256307,4225.128102,4231.281948
82,0,4227.692204,4227.179384,4218.974256,4245.640922,4230.256307,4221.025538,4230.769127,4215.897333,4218.974256,4213.33323,4236.922973,4219.999897,4216.410153,4219.487076
83,0,4222.051179,4222.051179,4215.897333,4230.256307,4220.512717,4217.435794,4226.153743,4216.410153,4216.410153,4208.717846,4230.256307,4215.384512,4213.846051,4214.358871
84,0,4229.230666,4224.615281,4222.051179,4235.384512,4224.102461,4219.999897,4228.717845,4223.07682,4225.128102,4225.128102,4236.922973,4226.153743,4216.922974,4225.128102
85,0,4232.820409,4229.230666,4226.153743,4247.179383,4232.820409,4219.487076,4231.794768,4228.205025,4228.205025,4234.358871,4245.640922,4232.820409,4223.58964,4232.307589
86,0,4232.820409,4230.256307,4231.281948,4244.10246,4225.128102,4221.538358,4230.769127,4229.230666,4226.666563,4233.84605,4247.692204,4232.820409,4230.769127,4231.281948
87,0,4233.33323,4226.666563,4231.794768,4243.076819,4219.999897,4223.58964,4230.769127,4228.205025,4229.230666,4232.820409,4248.205024,4232.307589,4230.769127,4231.794768
88,0,4230.256307,4224.102461,4221.025538,4245.640922,4228.717845,4219.999897,4233.33323,4229.743486,4231.794768,4232.820409,4248.717845,4231.281948,4227.179384,4232.820409
89,0,4228.717845,4222.051179,4215.897333,4238.461435,4230.256307,4219.999897,4232.820409,4231.281948,4231.794768,4236.922973,4249.743486,4232.820409,4227.179384,4232.820409
90,0,4230.769127,4220.512717,4219.487076,4235.897332,4226.153743,4225.128102,4233.33323,4231.281948,4231.281948,4231.281948,4252.307588,4234.358871,4228.717845,4235.897332
91,0,4225.640922,4218.974256,4219.487076,4238.974255,4226.666563,4225.640922,4232.820409,4231.794768,4229.230666,4218.461435,4250.256306,4233.33323,4228.205025,4236.410153
92,0,4215.897333,4215.384512,4214.871692,4234.358871,4227.179384,4219.487076,4229.230666,4231.281948,4230.256307,4219.999897,4242.051178,4226.666563,4223.07682,4231.281948
93,0,4215.897333,4213.33323,4214.871692,4230.769127,4226.153743,4216.922974,4229.743486,4228.717845,4230.769127,4227.692204,4233.84605,4219.999897,4218.974256,4230.256307
94,0,4214.871692,4214.358871,4217.948615,4234.358871,4221.538358,4217.948615,4227.179384,4223.58964,4223.07682,4219.999897,4230.256307,4218.461435,4219.487076,4227.692204
95,0,4207.179384,4214.358871,4216.922974,4233.84605,4217.435794,4215.384512,4217.435794,4218.461435,4215.897333,4205.128102,4229.743486,4218.461435,4216.922974,4218.974256
96,0,4202.564,4214.871692,4214.358871,4232.307589,4216.922974,4214.871692,4212.307589,4216.410153,4217.435794,4203.589641,4225.128102,4214.358871,4211.794769,4212.82041
97,0,4202.051179,4217.948615,4214.358871,4231.794768,4215.897333,4214.871692,4216.410153,4216.922974,4219.487076,4202.051179,4218.974256,4210.769128,4211.281948,4215.384512
98,0,4207.179384,4216.922974,4214.358871,4231.794768,4215.384512,4213.33323,4215.897333,4219.487076,4219.487076,4196.922974,4221.025538,4215.384512,4212.82041,4216.410153
99,0,4211.281948,4214.358871,4214.358871,4233.33323,4217.435794,4214.871692,4213.33323,4217.948615,4220.512717,4204.615282,4229.230666,4217.435794,4211.281948,4215.384512
100,0,4204.102461,4214.871692,4217.435794,4230.256307,4219.487076,4215.897333,4215.897333,4216.410153,4218.974256,4218.461435,4231.281948,4216.922974,4212.82041,4220.512717
101,0,4201.025538,4216.410153,4219.999897,4231.281948,4220.512717,4213.846051,4217.948615,4223.58964,4221.025538,4219.487076,4231.281948,4224.102461,4216.410153,4227.692204
102,0,4215.897333,4218.974256,4226.153743,4241.538358,4217.948615,4214.358871,4218.461435,4228.717845,4226.666563,4213.33323,4235.897332,4232.307589,4219.487076,4231.794768
103,0,4225.128102,4218.974256,4231.794768,4245.128101,4215.897333,4217.435794,4218.461435,4227.692204,4228.205025,4216.922974,4236.410153,4229.230666,4216.410153,4230.769127
104,0,4223.07682,4219.487076,4231.281948,4244.615281,4224.615281,4217.948615,4218.461435,4229.230666,4228.205025,4218.974256,4236.922973,4226.153743,4216.410153,4228.717845
105,0,4224.615281,4223.07682,4228.717845,4244.10246,4230.769127,4217.948615,4218.974256,4230.256307,4230.769127,4218.974256,4241.025537,4227.692204,4224.615281,4231.794768
106,0,4225.128102,4223.07682,4229.230666,4241.538358,4227.179384,4217.948615,4216.922974,4227.179384,4230.769127,4215.384512,4239.999896,4224.615281,4224.615281,4233.33323
107,0,4224.102461,4224.102461,4230.256307,4238.974255,4225.640922,4217.948615,4215.384512,4225.640922,4229.743486,4209.230666,4234.871691,4224.615281,4217.435794,4230.769127
108,0,4226.153743,4229.230666,4230.769127,4239.999896,4228.205025,4217.948615,4217.948615,4227.179384,4230.769127,4214.358871,4233.84605,4230.256307,4218.974256,4229.743486
109,0,4229.743486,4227.179384,4231.794768,4239.487076,4227.692204,4217.948615,4219.487076,4227.692204,4230.256307,4222.051179,4237.948614,4231.281948,4224.102461,4232.820409
110,0,4228.205025,4218.461435,4230.256307,4238.461435,4221.025538,4217.435794,4216.922974,4224.615281,4228.205025,4219.999897,4241.538358,4230.256307,4223.58964,4232.307589
111,0,4221.538358,4218.461435,4229.743486,4239.487076,4215.384512,4213.846051,4217.435794,4227.692204,4227.692204,4215.384512,4243.58964,4230.256307,4223.58964,4229.230666
112,0,4217.948615,4225.640922,4230.256307,4236.410153,4219.487076,4213.846051,4218.974256,4230.256307,4227.692204,4214.358871,4239.487076,4226.153743,4222.563999,4226.666563
113,0,4218.461435,4229.230666,4227.179384,4236.922973,4224.615281,4217.948615,4215.897333,4222.051179,4227.179384,4216.922974,4234.871691,4223.58964,4217.948615,4225.128102
114,0,4221.538358,4229.743486,4226.153743,4242.563999,4221.538358,4219.999897,4216.410153,4220.512717,4229.230666,4219.999897,4239.999896,4226.153743,4221.025538,4228.717845
115,0,4227.179384,4230.769127,4231.281948,4243.58964,4224.615281,4218.461435,4218.974256,4230.769127,4231.794768,4218.974256,4248.205024,4228.205025,4229.230666,4232.820409
116,0,4234.871691,4233.84605,4235.897332,4247.179383,4232.820409,4217.948615,4218.974256,4233.33323,4231.794768,4222.563999,4251.794768,4232.820409,4233.33323,4235.897332
117,0,4234.871691,4235.897332,4234.358871,4250.256306,4231.794768,4221.025538,4221.025538,4230.256307,4231.794768,4236.922973,4250.769127,4236.410153,4230.769127,4236.922973
118,0,4232.820409,4233.84605,4232.307589,4247.692204,4229.230666,4224.102461,4226.153743,4233.33323,4235.384512,4242.563999,4250.256306,4234.871691,4230.769127,4234.871691
119,0,4233.84605,4231.794768,4230.256307,4241.025537,4228.717845,4221.025538,4228.717845,4233.84605,4235.897332,4236.922973,4247.179383,4231.794768,4231.281948,4231.794768
120,0,4231.794768,4228.717845,4229.743486,4241.025537,4222.563999,4217.435794,4226.666563,4230.256307,4233.33323,4235.384512,4247.179383,4231.794768,4223.58964,4231.794768
121,0,4232.307589,4222.051179,4232.820409,4243.076819,4217.948615,4219.487076,4223.07682,4227.179384,4232.307589,4230.769127,4248.717845,4232.820409,4216.922974,4233.84605
122,0,4232.820409,4216.410153,4233.84605,4237.948614,4217.948615,4217.948615,4218.974256,4221.025538,4226.153743,4217.435794,4241.025537,4227.179384,4217.435794,4230.769127
123,0,4222.051179,4216.922974,4231.794768,4231.281948,4214.358871,4214.358871,4217.948615,4217.948615,4218.461435,4213.33323,4230.256307,4218.461435,4215.897333,4222.051179
124,0,4212.307589,4218.974256,4228.205025,4232.820409,4214.358871,4214.871692,4219.999897,4216.922974,4217.948615,4210.769128,4228.717845,4215.897333,4212.307589,4216.922974
125,0,4215.897333,4218.974256,4220.512717,4236.922973,4218.974256,4217.948615,4219.487076,4215.897333,4219.999897,4206.153743,4231.794768,4217.948615,4214.358871,4218.974256
126,0,4217.435794,4218.461435,4214.358871,4233.84605,4219.999897,4216.922974,4216.922974,4217.435794,4218.974256,4210.256307,4228.205025,4214.358871,4214.871692,4217.435794
127,0,4212.307589,4218.461435,4214.871692,4230.256307,4218.974256,4215.384512,4213.846051,4217.435794,4218.974256,4218.461435,4225.128102,4211.281948,4214.871692,4214.358871
128,0,4214.358871,4218.974256,4217.948615,4232.820409,4219.487076,4215.384512,4214.358871,4216.922974,4218.461435,4217.435794,4228.717845,4213.846051,4217.435794,4216.410153
0,0,4218.974256,4221.025538,4219.487076,4234.871691,4219.999897,4215.897333,4216.410153,4218.461435,4218.461435,4214.358871,4231.794768,4217.435794,4218.461435,4219.487076
1,0,4216.922974,4220.512717,4217.948615,4233.84605,4219.487076,4216.922974,4216.410153,4218.461435,4219.487076,4216.922974,4230.256307,4217.435794,4216.922974,4218.974256
2,0,4213.33323,4218.461435,4214.358871,4231.281948,4219.487076,4218.461435,4215.897333,4216.410153,4217.948615,4218.461435,4228.717845,4215.897333,4216.410153,4216.922974
3,0,4213.846051,4219.999897,4213.33323,4231.794768,4219.487076,4217.435794,4215.897333,4218.461435,4222.051179,4213.846051,4231.281948,4216.410153,4219.999897,4217.435794
4,0,4216.922974,4221.025538,4214.358871,4233.33323,4219.487076,4215.384512,4217.435794,4219.999897,4228.717845,4214.871692,4232.820409,4218.974256,4219.999897,4219.999897
5,0,4217.435794,4217.435794,4215.384512,4231.794768,4219.999897,4215.384512,4217.435794,4218.461435,4226.666563,4227.692204,4233.84605,4218.974256,4216.410153,4219.487076
6,0,4215.384512,4214.358871,4213.846051,4228.717845,4218.974256,4215.384512,4216.922974,4218.974256,4221.025538,4229.743486,4230.769127,4215.897333,4214.871692,4216.922974
7,0,4217.435794,4216.410153,4215.897333,4228.717845,4216.410153,4215.897333,4217.948615,4221.025538,4219.487076,4218.974256,4230.769127,4216.410153,4216.922974,4218.974256
8,0,4216.410153,4218.461435,4216.922974,4232.307589,4215.897333,4216.410153,4218.974256,4221.025538,4220.512717,4217.948615,4231.281948,4215.384512,4217.435794,4220.512717
9,0,4207.179384,4213.846051,4206.666564,4229.743486,4218.974256,4214.871692,4216.410153,4218.461435,4219.487076,4215.897333,4222.051179,4206.153743,4214.358871,4212.307589
10,0,4201.025538,4208.205025,4201.025538,4224.615281,4220.512717,4216.410153,4214.871692,4216.922974,4218.461435,4211.281948,4216.922974,4199.999897,4213.33323,4206.153743
11,0,4203.07682,4210.769128,4210.256307,4227.692204,4216.922974,4218.461435,4217.435794,4218.461435,4219.999897,4215.384512,4225.640922,4207.692205,4214.358871,4210.769128
12,0,4209.743487,4215.897333,4216.410153,4232.307589,4216.410153,4216.922974,4218.974256,4218.461435,4221.538358,4219.487076,4230.256307,4214.871692,4216.410153,4212.82041
13,0,4217.435794,4216.410153,4214.871692,4232.820409,4222.563999,4217.948615,4218.974256,4218.461435,4221.025538,4219.487076,4230.769127,4215.384512,4219.487076,4216.922974
14,0,4219.999897,4214.871692,4217.948615,4232.820409,4223.07682,4221.025538,4217.948615,4219.999897,4217.948615,4223.07682,4234.358871,4217.435794,4221.025538,4223.07682
15,0,4215.897333,4214.871692,4218.461435,4231.281948,4217.435794,4218.461435,4217.435794,4219.487076,4208.717846,4218.974256,4233.84605,4217.948615,4217.948615,4222.051179
16,0,4217.435794,4215.897333,4214.358871,4229.743486,4216.410153,4216.922974,4216.922974,4217.435794,4203.589641,4210.256307,4232.307589,4216.410153,4219.487076,4222.563999
17,0,4222.051179,4216.410153,4215.897333,4231.794768,4218.461435,4218.461435,4215.384512,4216.922974,4207.179384,4212.307589,4234.871691,4217.948615,4225.640922,4228.205025
18,0,4215.897333,4212.307589,4216.410153,4227.179384,4213.846051,4215.384512,4215.384512,4215.384512,4207.179384,4218.974256,4231.281948,4218.461435,4219.487076,4227.179384
19,0,4212.307589,4211.794769,4213.846051,4227.692204,4212.307589,4212.82041,4217.435794,4215.384512,4207.692205,4219.487076,4229.743486,4218.461435,4215.384512,4227.179384
20,0,4224.615281,4218.461435,4220.512717,4241.538358,4220.512717,4216.410153,4217.435794,4216.922974,4215.384512,4216.922974,4233.84605,4220.512717,4224.102461,4232.307589
21,0,4231.281948,4221.538358,4227.179384,4244.10246,4230.256307,4218.974256,4217.948615,4215.897333,4213.846051,4217.435794,4233.84605,4220.512717,4224.102461,4227.692204
22,0,4219.999897,4216.410153,4219.999897,4231.794768,4227.179384,4218.461435,4218.461435,4215.384512,4207.692205,4216.410153,4230.769127,4216.922974,4216.410153,4219.999897
23,0,4217.948615,4215.897333,4214.871692,4228.717845,4219.999897,4218.461435,4216.410153,4214.871692,4211.281948,4209.743487,4230.256307,4216.922974,4219.999897,4224.102461
24,0,4230.256307,4225.128102,4224.102461,4241.025537,4224.102461,4224.615281,4222.051179,4214.871692,4216.922974,4211.794769,4234.871691,4219.999897,4226.666563,4231.794768
25,0,4233.84605,4227.179384,4233.33323,4242.563999,4227.692204,4230.256307,4232.820409,4217.435794,4215.897333,4225.128102,4237.435794,4218.974256,4222.563999,4229.230666
26,0,4228.205025,4217.948615,4232.307589,4234.358871,4226.153743,4228.717845,4233.33323,4218.974256,4213.846051,4231.794768,4234.358871,4214.871692,4217.948615,4217.948615
27,0,4231.281948,4217.435794,4230.256307,4236.922973,4227.692204,4227.179384,4229.743486,4216.922974,4219.487076,4228.205025,4236.922973,4222.563999,4223.58964,4222.051179
28,0,4235.384512,4223.07682,4231.281948,4241.538358,4228.205025,4229.743486,4233.33323,4222.051179,4230.256307,4229.230666,4249.743486,4233.84605,4232.820409,4243.58964
29,0,4233.33323,4220.512717,4232.820409,4237.435794,4228.717845,4229.230666,4235.897332,4231.794768,4230.769127,4242.051178,4260.512716,4233.84605,4235.384512,4251.794768
30,0,4238.974255,4222.051179,4233.84605,4242.051178,4231.281948,4231.281948,4234.871691,4233.84605,4229.230666,4246.153742,4261.025537,4232.307589,4230.769127,4245.640922
31,0,4245.128101,4229.743486,4233.84605,4248.717845,4228.717845,4228.205025,4234.358871,4228.205025,4230.769127,4232.820409,4254.35887,4233.84605,4230.256307,4243.076819
32,0,4237.435794,4229.230666,4231.794768,4239.487076,4224.615281,4220.512717,4230.769127,4220.512717,4224.615281,4229.230666,4247.179383,4230.769127,4232.307589,4237.948614
33,0,4229.230666,4226.666563,4231.281948,4232.820409,4229.743486,4221.025538,4226.153743,4216.922974,4215.897333,4241.538358,4248.205024,4228.205025,4231.281948,4231.794768
34,0,4232.307589,4222.563999,4228.205025,4237.948614,4229.743486,4223.07682,4223.58964,4217.948615,4220.512717,4243.076819,4251.794768,4229.230666,4231.281948,4232.307589
35,0,4232.820409,4215.384512,4219.487076,4238.974255,4227.692204,4221.025538,4221.025538,4216.410153,4222.563999,4230.769127,4247.179383,4225.128102,4230.256307,4233.33323
36,0,4225.128102,4213.846051,4215.897333,4235.384512,4229.230666,4225.128102,4218.974256,4214.358871,4219.487076,4229.230666,4243.076819,4220.512717,4231.281948,4233.33323
37,0,4224.102461,4214.358871,4219.487076,4233.84605,4224.102461,4231.794768,4224.615281,4218.461435,4224.102461,4234.871691,4246.153742,4218.974256,4231.794768,4234.871691
38,0,4229.230666,4205.128102,4218.461435,4233.33323,4222.051179,4229.743486,4232.820409,4218.461435,4231.281948,4231.281948,4247.179383,4218.974256,4226.153743,4235.384512
39,0,4232.307589,4205.128102,4216.922974,4231.794768,4228.205025,4229.230666,4231.281948,4218.461435,4231.281948,4226.666563,4242.051178,4218.974256,4222.563999,4233.33323
40,0,4230.256307,4216.922974,4228.205025,4234.358871,4229.743486,4232.820409,4235.384512,4225.128102,4230.769127,4234.358871,4242.051178,4217.948615,4226.666563,4233.33323
41,0,4229.230666,4218.461435,4233.33323,4238.461435,4228.717845,4233.33323,4244.615281,4231.281948,4234.358871,4247.179383,4248.717845,4222.563999,4230.769127,4238.461435
42,0,4231.794768,4211.794769,4222.563999,4236.410153,4230.769127,4231.281948,4239.999896,4228.717845,4235.384512,4249.743486,4250.769127,4227.179384,4231.281948,4240.512717
43,0,4229.230666,4212.307589,4215.384512,4233.33323,4230.769127,4231.281948,4231.794768,4221.025538,4232.307589,4240.512717,4248.717845,4221.025538,4231.794768,4235.384512
44,0,4221.025538,4215.897333,4218.461435,4235.897332,4228.717845,4233.33323,4234.358871,4217.948615,4231.281948,4234.358871,4248.717845,4216.922974,4232.820409,4234.358871
45,0,4216.410153,4212.82041,4217.948615,4234.358871,4227.179384,4231.794768,4233.33323,4217.948615,4229.743486,4231.794768,4244.10246,4219.999897,4230.769127,4235.897332
46,0,4219.487076,4210.256307,4212.307589,4231.281948,4228.205025,4229.230666,4229.230666,4215.897333,4227.179384,4231.281948,4238.461435,4218.461435,4227.692204,4230.769127
47,0,4222.051179,4211.794769,4216.922974,4237.435794,4227.179384,4230.256307,4232.307589,4217.435794,4228.205025,4231.794768,4241.025537,4218.461435,4227.692204,4230.769127
48,0,4218.974256,4210.256307,4224.615281,4237.948614,4219.487076,4230.769127,4233.84605,4220.512717,4231.281948,4227.179384,4245.128101,4223.58964,4230.769127,4237.435794
49,0,4217.435794,4204.102461,4222.051179,4230.769127,4219.487076,4228.205025,4230.769127,4217.435794,4230.256307,4222.051179,4244.10246,4223.58964,4229.743486,4237.435794
50,0,4225.128102,4202.051179,4221.025538,4236.410153,4228.717845,4228.717845,4231.281948,4222.051179,4229.743486,4233.33323,4245.128101,4224.102461,4228.205025,4234.358871
51,0,4234.358871,4208.717846,4230.256307,4249.743486,4231.281948,4232.307589,4235.897332,4232.820409,4233.84605,4248.205024,4247.692204,4229.230666,4229.743486,4235.897332
52,0,4233.33323,4212.307589,4233.84605,4247.179383,4227.179384,4231.794768,4235.384512,4225.640922,4233.84605,4239.487076,4244.615281,4228.717845,4227.179384,4234.871691
53,0,4232.307589,4210.256307,4229.743486,4237.435794,4228.717845,4228.717845,4232.820409,4219.999897,4230.256307,4229.230666,4240.512717,4227.692204,4225.640922,4233.84605
54,0,4237.948614,4214.871692,4237.435794,4239.487076,4228.717845,4230.769127,4239.999896,4230.769127,4232.307589,4239.487076,4246.666563,4232.307589,4229.230666,4237.948614
55,0,4241.025537,4222.051179,4246.666563,4249.743486,4230.769127,4237.435794,4250.256306,4235.384512,4238.461435,4247.179383,4257.948614,4236.410153,4234.358871,4244.10246
56,0,4235.897332,4216.922974,4239.487076,4248.717845,4233.84605,4237.948614,4249.230665,4231.794768,4236.922973,4241.538358,4253.333229,4233.84605,4233.33323,4243.58964
57,0,4223.07682,4203.589641,4224.102461,4234.358871,4223.07682,4231.794768,4239.999896,4228.717845,4229.743486,4224.102461,4234.871691,4223.58964,4221.025538,4231.281948
58,0,4214.358871,4197.435795,4215.897333,4230.769127,4212.307589,4229.230666,4234.358871,4220.512717,4227.692204,4211.281948,4226.666563,4214.871692,4211.281948,4222.563999
59,0,4217.948615,4201.538359,4217.435794,4241.025537,4220.512717,4231.281948,4233.84605,4215.897333,4227.692204,4220.512717,4230.256307,4214.871692,4216.922974,4225.640922
60,0,4219.999897,4205.128102,4218.461435,4239.999896,4228.717845,4231.281948,4234.871691,4220.512717,4227.179384,4231.794768,4231.794768,4215.897333,4220.512717,4225.640922
61,0,4215.384512,4202.564,4215.897333,4232.307589,4223.07682,4228.205025,4233.84605,4219.487076,4226.666563,4223.07682,4229.743486,4212.307589,4213.846051,4221.025538
62,0,4217.948615,4201.538359,4215.384512,4233.84605,4222.051179,4227.179384,4233.84605,4216.410153,4226.666563,4214.871692,4228.717845,4212.82041,4211.794769,4225.128102
63,0,4220.512717,4202.564,4218.461435,4236.410153,4229.743486,4230.769127,4233.84605,4216.922974,4228.205025,4217.948615,4226.666563,4214.871692,4215.384512,4228.205025
64,0,4214.871692,4201.025538,4219.999897,4236.410153,4230.769127,4231.794768,4232.307589,4219.487076,4229.743486,4215.897333,4225.640922,4213.33323,4215.384512,4223.07682
65,0,4217.948615,4204.615282,4218.974256,4239.487076,4230.256307,4230.256307,4234.358871,4223.58964,4230.256307,4212.307589,4228.205025,4212.82041,4214.871692,4226.666563
66,0,4224.615281,4213.33323,4218.974256,4239.999896,4230.769127,4230.769127,4230.769127,4223.58964,4229.743486,4213.846051,4231.281948,4214.358871,4218.974256,4232.820409
67,0,4219.999897,4214.871692,4222.563999,4239.487076,4228.717845,4228.205025,4219.487076,4217.435794,4226.666563,4214.358871,4230.256307,4218.461435,4223.07682,4233.33323
68,0,4221.538358,4212.82041,4228.717845,4243.58964,4226.666563,4223.58964,4212.307589,4215.897333,4226.153743,4214.358871,4231.794768,4220.512717,4224.102461,4240.512717
69,0,4231.794768,4217.948615,4228.717845,4248.717845,4229.230666,4228.205025,4215.897333,4225.640922,4230.769127,4213.33323,4241.025537,4218.461435,4228.205025,4245.640922
70,0,4227.179384,4221.025538,4222.051179,4247.179383,4234.358871,4232.307589,4219.999897,4233.84605,4232.820409,4214.871692,4242.051178,4216.922974,4230.769127,4238.974255
71,0,4214.871692,4215.384512,4215.384512,4237.435794,4234.358871,4224.615281,4217.948615,4228.717845,4225.128102,4218.461435,4231.794768,4212.307589,4222.563999,4230.256307
72,0,4213.846051,4212.307589,4214.871692,4232.820409,4230.769127,4219.999897,4217.435794,4219.999897,4217.435794,4217.948615,4230.256307,4209.743487,4215.384512,4230.256307
73,0,4214.871692,4214.358871,4214.871692,4238.974255,4229.230666,4221.538358,4217.948615,4216.922974,4217.948615,4214.871692,4233.33323,4213.846051,4215.897333,4230.256307
74,0,4214.358871,4216.410153,4212.82041,4242.563999,4228.205025,4218.461435,4214.871692,4216.922974,4218.461435,4211.794769,4228.205025,4216.922974,4217.948615,4232.820409
75,0,4216.922974,4218.461435,4219.487076,4241.538358,4228.717845,4215.384512,4214.358871,4217.435794,4217.948615,4210.769128,4234.871691,4216.410153,4221.025538,4240.512717
76,0,4217.948615,4222.051179,4229.230666,4245.128101,4229.743486,4218.461435,4215.384512,4218.974256,4219.487076,4215.384512,4244.615281,4217.948615,4223.58964,4238.974255
77,0,4222.051179,4220.512717,4224.102461,4247.692204,4228.205025,4219.999897,4215.897333,4218.974256,4221.025538,4217.948615,4237.948614,4218.974256,4224.102461,4235.897332
78,0,4228.205025,4216.922974,4215.897333,4247.179383,4227.692204,4219.487076,4214.871692,4218.461435,4219.999897,4209.743487,4237.948614,4217.435794,4226.666563,4242.051178
79,0,4228.717845,4221.025538,4223.07682,4247.692204,4230.256307,4218.974256,4209.230666,4216.922974,4218.974256,4210.769128,4248.205024,4221.025538,4229.230666,4246.666563
80,0,4232.820409,4229.743486,4233.33323,4249.230665,4231.794768,4219.487076,4205.128102,4214.871692,4218.461435,4229.743486,4249.743486,4227.692204,4231.794768,4248.205024
81,0,4243.58964,4234.358871,4235.897332,4249.743486,4232.307589,4219.999897,4205.640923,4216.922974,4226.153743,4239.999896,4253.84605,4231.794768,4235.384512,4249.743486
82,0,4244.10246,4231.794768,4237.948614,4248.717845,4233.33323,4219.999897,4203.589641,4219.487076,4230.769127,4231.794768,4263.589639,4232.307589,4235.384512,4249.743486
83,0,4235.384512,4230.256307,4233.84605,4249.230665,4230.769127,4220.512717,4205.640923,4217.435794,4221.538358,4226.666563,4257.948614,4228.205025,4232.307589,4248.717845
84,0,4230.256307,4229.743486,4223.07682,4244.615281,4229.230666,4224.615281,4216.922974,4215.897333,4218.461435,4232.820409,4246.666563,4221.538358,4232.820409,4245.640922
85,0,4225.640922,4222.563999,4217.435794,4234.358871,4229.230666,4222.563999,4220.512717,4217.435794,4222.563999,4227.179384,4244.615281,4216.410153,4230.256307,4236.922973
86,0,4215.897333,4214.871692,4214.358871,4235.384512,4228.717845,4217.948615,4211.794769,4216.922974,4220.512717,4214.358871,4243.58964,4212.307589,4226.153743,4230.256307
87,0,4212.82041,4215.384512,4213.846051,4243.58964,4229.230666,4224.102461,4211.281948,4215.897333,4223.07682,4221.025538,4245.640922,4212.307589,4227.179384,4233.33323
88,0,4224.615281,4225.640922,4221.538358,4246.666563,4232.307589,4229.743486,4217.948615,4217.435794,4232.820409,4230.769127,4250.769127,4216.410153,4229.743486,4237.435794
89,0,4233.84605,4232.307589,4228.205025,4246.666563,4232.820409,4224.615281,4218.461435,4217.948615,4229.743486,4222.563999,4251.281947,4218.974256,4230.769127,4240.512717
90,0,4231.281948,4231.281948,4226.153743,4245.640922,4228.717845,4217.948615,4214.358871,4215.897333,4218.461435,4216.410153,4249.230665,4217.948615,4229.743486,4241.025537
91,0,4229.230666,4228.717845,4226.153743,4244.615281,4228.717845,4217.948615,4213.33323,4215.897333,4217.948615,4221.538358,4245.640922,4215.897333,4228.717845,4238.461435
92,0,4237.435794,4230.769127,4228.717845,4246.153742,4229.743486,4224.102461,4213.846051,4216.922974,4219.487076,4224.102461,4245.128101,4217.948615,4229.743486,4240.512717
93,0,4246.666563,4233.84605,4231.281948,4246.153742,4228.205025,4223.58964,4213.33323,4216.410153,4217.435794,4224.102461,4252.820409,4226.666563,4231.281948,4248.717845
94,0,4248.205024,4234.358871,4238.974255,4246.153742,4229.230666,4217.435794,4212.82041,4217.435794,4222.563999,4228.205025,4261.538357,4235.384512,4231.794768,4257.948614
95,0,4249.230665,4234.871691,4243.58964,4252.307588,4231.281948,4219.999897,4214.358871,4217.948615,4231.281948,4229.743486,4261.538357,4229.743486,4231.794768,4258.974255
96,0,4248.717845,4236.410153,4239.487076,4254.871691,4232.307589,4230.769127,4218.461435,4218.461435,4231.794768,4232.307589,4256.410152,4218.461435,4232.820409,4252.820409
97,0,4241.025537,4236.410153,4231.281948,4250.769127,4235.897332,4230.769127,4221.025538,4219.487076,4228.717845,4237.948614,4250.769127,4214.358871,4233.33323,4249.743486
98,0,4230.256307,4231.794768,4220.512717,4244.615281,4236.410153,4227.692204,4217.948615,4219.487076,4228.205025,4231.794768,4246.666563,4212.82041,4231.794768,4248.205024
