title:C                                                                               , recorded:01.07.20 13.20.14, sampling:128, subject:C                                                                               , labels:COUNTER INTERPOLATED AF3 F7 F3 FC5 T7 P7 O1 O2 P8 T8 FC6 F4 F8 AF4, chan:37, units:emotiv,,,,,,,,,
75,0,4231.794768,4214.358871,4226.666563,4233.33323,4249.230665,4234.871691,4224.615281,4228.717845,4215.384512,4202.564,4238.974255,4151.28195,4230.256307,4215.384512
76,0,4235.897332,4213.846051,4227.692204,4230.769127,4244.10246,4235.897332,4223.58964,4224.615281,4213.33323,4207.692205,4235.897332,4157.435796,4232.820409,4215.897333
77,0,4243.076819,4219.999897,4234.358871,4238.461435,4237.948614,4238.461435,4229.230666,4228.717845,4215.384512,4207.692205,4239.487076,4164.615283,4235.384512,4225.640922
78,0,4244.615281,4225.128102,4235.897332,4244.10246,4245.128101,4234.871691,4231.281948,4231.281948,4217.435794,4208.205025,4243.58964,4166.666565,4237.435794,4230.769127
79,0,4244.10246,4227.179384,4231.281948,4245.640922,4245.640922,4233.84605,4232.307589,4226.153743,4217.948615,4222.051179,4244.10246,4167.179385,4242.051178,4228.717845
80,0,4233.84605,4216.922974,4218.974256,4233.84605,4238.974255,4232.820409,4224.102461,4221.025538,4215.897333,4221.538358,4234.358871,4156.922975,4235.384512,4215.897333
81,0,4230.769127,4212.307589,4216.410153,4227.179384,4252.820409,4234.871691,4222.563999,4227.692204,4217.948615,4209.743487,4234.358871,4155.384514,4234.358871,4210.769128
82,0,4235.384512,4216.410153,4224.102461,4233.84605,4252.307588,4236.922973,4224.615281,4231.281948,4217.948615,4199.999897,4241.025537,4161.53836,4239.487076,4217.435794
83,0,4237.948614,4219.999897,4228.205025,4242.563999,4234.871691,4231.794768,4219.487076,4227.179384,4219.487076,4208.717846,4243.58964,4165.640924,4241.025537,4230.256307
84,0,4229.230666,4211.281948,4222.051179,4232.820409,4234.871691,4225.128102,4212.307589,4224.102461,4219.999897,4218.974256,4237.435794,4160.512719,4236.922973,4225.128102
85,0,4226.666563,4207.179384,4223.07682,4223.58964,4251.794768,4231.794768,4223.07682,4226.666563,4221.025538,4217.948615,4241.025537,4161.53836,4238.974255,4213.33323
86,0,4230.769127,4212.307589,4229.230666,4231.794768,4248.205024,4238.974255,4232.307589,4226.153743,4220.512717,4215.384512,4246.153742,4169.743488,4240.512717,4215.384512
87,0,4230.769127,4218.461435,4234.358871,4243.076819,4236.922973,4236.922973,4226.666563,4225.128102,4218.974256,4216.410153,4243.076819,4176.410154,4237.948614,4224.102461
88,0,4231.794768,4219.999897,4234.871691,4240.512717,4241.538358,4232.820409,4219.487076,4225.128102,4217.948615,4211.281948,4241.025537,4179.487077,4236.410153,4223.07682
89,0,4236.410153,4217.435794,4235.897332,4235.384512,4246.666563,4231.281948,4218.461435,4224.615281,4218.461435,4211.794769,4241.025537,4177.948616,4235.897332,4219.999897
90,0,4239.487076,4218.461435,4239.999896,4237.435794,4244.10246,4232.307589,4220.512717,4224.102461,4215.384512,4224.615281,4239.487076,4177.948616,4238.461435,4223.58964
91,0,4238.974255,4226.666563,4239.999896,4241.538358,4244.615281,4236.410153,4221.025538,4220.512717,4206.153743,4226.666563,4239.999896,4178.974257,4239.999896,4227.179384
92,0,4244.615281,4235.384512,4237.435794,4247.179383,4246.153742,4232.820409,4219.487076,4217.948615,4203.589641,4221.025538,4244.10246,4181.025539,4239.487076,4230.769127
93,0,4236.410153,4227.692204,4226.666563,4238.974255,4236.410153,4217.948615,4208.205025,4214.871692,4198.974256,4205.640923,4236.410153,4168.717847,4234.871691,4221.025538
94,0,4227.179384,4223.58964,4222.051179,4230.769127,4243.076819,4224.102461,4203.589641,4216.410153,4195.897333,4199.487077,4230.769127,4164.102462,4232.307589,4214.358871
95,0,4228.205025,4229.230666,4224.102461,4235.384512,4248.717845,4240.512717,4214.358871,4223.07682,4202.564,4210.256307,4234.871691,4170.769129,4233.33323,4215.384512
96,0,4230.256307,4234.358871,4230.769127,4242.051178,4242.051178,4239.487076,4232.820409,4231.794768,4214.358871,4229.230666,4242.563999,4176.922975,4241.025537,4219.487076
97,0,4226.666563,4232.820409,4227.179384,4233.84605,4248.717845,4230.769127,4228.205025,4229.743486,4211.794769,4233.33323,4244.10246,4174.358872,4243.58964,4218.974256
98,0,4230.769127,4237.948614,4223.58964,4233.33323,4257.948614,4234.871691,4217.948615,4226.153743,4205.640923,4225.640922,4248.205024,4178.974257,4243.58964,4224.615281
99,0,4230.769127,4236.410153,4226.153743,4236.922973,4242.051178,4232.307589,4217.435794,4223.58964,4203.589641,4207.692205,4245.640922,4183.589641,4242.051178,4222.051179
100,0,4234.871691,4235.897332,4234.871691,4239.999896,4233.84605,4225.640922,4225.640922,4227.179384,4208.717846,4218.974256,4246.153742,4189.230667,4245.640922,4221.538358
101,0,4239.999896,4236.922973,4230.256307,4240.512717,4225.128102,4222.051179,4218.461435,4227.179384,4207.179384,4239.487076,4239.999896,4183.589641,4242.563999,4218.974256
102,0,4242.051178,4237.948614,4225.128102,4243.076819,4226.666563,4226.666563,4213.33323,4222.051179,4205.640923,4228.717845,4235.384512,4178.974257,4236.922973,4217.435794
103,0,4238.461435,4237.435794,4231.794768,4238.461435,4256.922973,4232.820409,4219.487076,4221.025538,4206.153743,4211.794769,4239.487076,4184.615282,4236.410153,4217.435794
104,0,4238.974255,4238.461435,4236.410153,4232.307589,4262.051178,4233.84605,4220.512717,4224.615281,4205.128102,4224.615281,4239.487076,4187.179385,4236.922973,4217.435794
105,0,4238.974255,4235.897332,4228.717845,4234.871691,4218.461435,4224.102461,4209.743487,4220.512717,4201.025538,4227.692204,4232.307589,4181.025539,4234.358871,4215.384512
106,0,4241.538358,4240.512717,4228.717845,4242.563999,4212.307589,4225.640922,4213.846051,4214.871692,4202.564,4211.794769,4236.922973,4186.666564,4237.435794,4220.512717
107,0,4238.974255,4241.025537,4225.128102,4234.358871,4247.692204,4234.871691,4223.07682,4216.922974,4205.640923,4202.051179,4238.974255,4186.666564,4237.435794,4217.435794
108,0,4227.179384,4226.153743,4209.743487,4218.974256,4248.717845,4227.179384,4210.256307,4216.922974,4202.564,4193.846051,4227.179384,4174.358872,4226.666563,4202.564
109,0,4226.153743,4225.640922,4209.743487,4225.128102,4231.794768,4218.974256,4205.640923,4217.435794,4205.128102,4201.025538,4228.717845,4181.538359,4226.666563,4206.153743
110,0,4228.717845,4233.33323,4217.948615,4233.33323,4231.794768,4226.153743,4216.410153,4221.538358,4210.769128,4216.922974,4235.897332,4190.769128,4233.84605,4213.846051
111,0,4235.384512,4235.897332,4223.07682,4236.410153,4233.33323,4233.33323,4226.666563,4228.205025,4215.384512,4218.974256,4241.538358,4190.769128,4236.410153,4216.922974
112,0,4243.076819,4234.358871,4224.102461,4240.512717,4230.256307,4228.717845,4226.666563,4227.692204,4213.846051,4212.307589,4243.58964,4195.897333,4235.384512,4221.538358
113,0,4248.205024,4238.461435,4228.205025,4242.563999,4257.435793,4232.307589,4231.281948,4228.717845,4219.487076,4224.102461,4244.615281,4209.743487,4238.974255,4233.84605
114,0,4244.10246,4234.871691,4224.102461,4235.897332,4269.743485,4237.948614,4228.205025,4227.692204,4224.615281,4222.051179,4239.487076,4211.794769,4237.948614,4231.281948
115,0,4243.076819,4227.179384,4218.461435,4232.820409,4234.358871,4230.256307,4219.487076,4225.640922,4219.487076,4209.743487,4234.871691,4206.153743,4233.33323,4222.051179
116,0,4238.974255,4222.051179,4217.435794,4232.820409,4209.230666,4219.999897,4212.307589,4223.58964,4208.205025,4205.128102,4230.256307,4194.871692,4229.230666,4221.538358
117,0,4240.512717,4230.769127,4228.205025,4238.461435,4232.307589,4228.717845,4221.025538,4228.205025,4214.358871,4208.717846,4236.410153,4197.948615,4231.281948,4231.794768
118,0,4242.051178,4231.281948,4230.769127,4232.307589,4253.333229,4234.358871,4229.743486,4228.205025,4222.563999,4211.281948,4234.358871,4205.640923,4228.205025,4225.128102
119,0,4229.743486,4211.794769,4219.999897,4219.999897,4248.205024,4226.666563,4226.153743,4223.07682,4215.897333,4213.33323,4222.051179,4198.461436,4219.487076,4207.692205
120,0,4214.871692,4196.410154,4210.256307,4217.948615,4232.307589,4220.512717,4212.307589,4218.461435,4205.640923,4196.410154,4216.410153,4188.205026,4215.384512,4204.615282
121,0,4225.640922,4213.846051,4219.487076,4228.717845,4232.307589,4231.281948,4219.487076,4222.051179,4209.743487,4191.281949,4229.743486,4204.102461,4224.615281,4218.461435
122,0,4234.871691,4226.153743,4224.615281,4232.307589,4233.84605,4232.307589,4226.666563,4226.153743,4217.435794,4209.743487,4235.384512,4213.846051,4228.717845,4218.461435
123,0,4226.666563,4218.974256,4222.051179,4232.820409,4226.666563,4226.666563,4221.025538,4226.153743,4217.435794,4213.33323,4230.256307,4205.640923,4225.640922,4210.769128
124,0,4224.102461,4217.948615,4221.025538,4233.84605,4231.281948,4229.743486,4220.512717,4221.538358,4212.307589,4197.948615,4226.666563,4201.025538,4224.615281,4208.205025
125,0,4235.897332,4231.794768,4225.128102,4235.384512,4248.205024,4232.307589,4230.769127,4224.102461,4218.461435,4207.692205,4232.307589,4206.153743,4228.205025,4215.384512
126,0,4245.640922,4241.025537,4231.281948,4242.051178,4244.615281,4227.692204,4231.281948,4228.717845,4226.153743,4233.84605,4241.538358,4210.256307,4237.435794,4229.230666
127,0,4243.076819,4234.358871,4230.256307,4242.051178,4224.615281,4224.615281,4221.025538,4220.512717,4216.410153,4225.128102,4238.974255,4201.538359,4239.487076,4230.769127
128,0,4234.871691,4225.128102,4222.563999,4232.820409,4221.538358,4221.538358,4213.33323,4214.358871,4200.512718,4196.410154,4228.717845,4187.692205,4230.256307,4219.999897
0,0,4229.230666,4222.051179,4219.487076,4230.769127,4228.205025,4218.461435,4211.794769,4218.974256,4202.051179,4194.871692,4223.58964,4184.102462,4224.615281,4215.384512
1,0,4235.897332,4229.230666,4228.205025,4241.025537,4236.922973,4227.179384,4225.640922,4225.128102,4211.794769,4214.871692,4232.820409,4196.410154,4232.820409,4224.615281
2,0,4229.743486,4220.512717,4218.461435,4230.256307,4229.743486,4227.179384,4218.974256,4221.025538,4206.153743,4198.974256,4227.692204,4189.230667,4226.153743,4213.846051
3,0,4222.563999,4213.846051,4208.717846,4220.512717,4211.281948,4222.051179,4205.640923,4221.025538,4206.666564,4191.794769,4221.538358,4176.410154,4219.999897,4204.615282
4,0,4225.128102,4220.512717,4217.435794,4232.307589,4207.692205,4224.102461,4212.307589,4224.102461,4215.384512,4213.33323,4229.230666,4181.025539,4230.256307,4212.82041
5,0,4227.692204,4223.07682,4220.512717,4236.410153,4231.281948,4225.640922,4223.07682,4224.615281,4214.358871,4210.769128,4233.33323,4190.256308,4232.820409,4217.435794
6,0,4221.538358,4213.846051,4208.205025,4221.025538,4232.820409,4222.051179,4214.871692,4222.051179,4205.128102,4191.281949,4224.615281,4185.640923,4222.051179,4209.743487
7,0,4225.640922,4221.538358,4213.846051,4225.640922,4217.435794,4229.230666,4219.487076,4228.205025,4218.974256,4209.230666,4226.666563,4190.769128,4227.179384,4214.358871
8,0,4226.666563,4227.179384,4219.487076,4235.384512,4222.051179,4233.33323,4229.230666,4230.769127,4227.692204,4216.410153,4227.692204,4197.435795,4230.769127,4214.358871
9,0,4222.563999,4221.538358,4216.410153,4232.820409,4239.999896,4233.84605,4233.33323,4228.717845,4218.974256,4198.974256,4224.615281,4199.999897,4224.102461,4209.230666
10,0,4219.487076,4211.794769,4209.743487,4222.563999,4235.384512,4232.307589,4226.666563,4225.128102,4211.794769,4198.461436,4223.07682,4195.384513,4223.58964,4209.230666
11,0,4214.871692,4203.589641,4207.179384,4219.487076,4216.922974,4225.128102,4217.435794,4219.999897,4211.794769,4201.538359,4217.435794,4191.281949,4222.051179,4206.153743
12,0,4209.743487,4196.922974,4213.33323,4225.640922,4206.153743,4221.538358,4219.487076,4217.435794,4209.230666,4188.717846,4211.794769,4195.897333,4210.256307,4194.358872
13,0,4225.128102,4203.589641,4228.205025,4235.897332,4216.922974,4230.256307,4231.281948,4226.153743,4211.281948,4195.897333,4228.717845,4215.897333,4221.025538,4206.666564
14,0,4244.10246,4210.769128,4231.281948,4233.84605,4231.281948,4231.794768,4231.794768,4232.307589,4217.435794,4217.435794,4245.128101,4232.820409,4247.692204,4237.948614
15,0,4252.307588,4207.692205,4229.743486,4226.666563,4232.307589,4227.179384,4225.128102,4229.743486,4216.410153,4222.051179,4243.076819,4237.435794,4258.461434,4262.051178
16,0,4261.025537,4207.179384,4235.897332,4230.769127,4221.025538,4226.153743,4224.102461,4227.692204,4216.922974,4219.487076,4243.076819,4245.640922,4258.461434,4274.35887
17,0,4266.153742,4204.615282,4237.435794,4232.307589,4212.307589,4223.07682,4222.051179,4228.717845,4217.435794,4206.153743,4247.179383,4250.256306,4259.487075,4277.948613
18,0,4263.076819,4202.564,4236.410153,4228.205025,4215.384512,4220.512717,4221.538358,4231.281948,4217.948615,4200.512718,4246.153742,4247.179383,4259.487075,4279.999895
19,0,4262.051178,4204.615282,4236.922973,4228.717845,4221.025538,4224.102461,4228.717845,4231.794768,4223.07682,4217.948615,4242.051178,4242.563999,4258.974255,4278.974254
20,0,4268.205024,4209.230666,4241.025537,4238.461435,4228.717845,4235.897332,4248.205024,4237.435794,4234.358871,4229.230666,4247.179383,4246.666563,4265.640921,4277.948613
21,0,4258.974255,4202.564,4237.435794,4236.410153,4226.666563,4238.974255,4248.205024,4238.974255,4236.922973,4216.922974,4243.58964,4237.948614,4268.205024,4266.153742
22,0,4258.461434,4206.153743,4234.871691,4232.820409,4226.153743,4232.307589,4233.33323,4235.384512,4233.33323,4216.410153,4239.487076,4229.743486,4271.281947,4268.717844
23,0,4273.846049,4218.974256,4237.435794,4237.948614,4228.717845,4225.128102,4225.128102,4227.692204,4228.205025,4214.358871,4244.10246,4234.358871,4274.35887,4285.1281
24,0,4294.358869,4229.743486,4249.230665,4250.256306,4226.666563,4226.666563,4225.640922,4228.717845,4228.205025,4212.307589,4255.384511,4247.692204,4284.102459,4307.179382
25,0,4302.563997,4231.794768,4249.230665,4247.179383,4215.897333,4226.666563,4219.487076,4227.692204,4225.128102,4210.256307,4252.820409,4250.256306,4291.281946,4316.410151
26,0,4311.794766,4239.999896,4248.205024,4245.128101,4216.922974,4226.153743,4223.07682,4221.538358,4221.025538,4205.640923,4250.256306,4253.84605,4297.435792,4330.769125
27,0,4323.076817,4245.640922,4252.820409,4251.281947,4211.794769,4224.102461,4221.538358,4216.922974,4213.846051,4197.435795,4251.281947,4257.948614,4303.076818,4346.66656
28,0,4338.974253,4255.384511,4261.538357,4256.410152,4212.307589,4228.717845,4219.487076,4221.025538,4213.846051,4203.07682,4255.897332,4268.717844,4308.205023,4357.948611
29,0,4344.615278,4261.025537,4258.461434,4250.256306,4226.666563,4228.717845,4217.948615,4220.512717,4219.487076,4204.102461,4254.35887,4271.794767,4304.615279,4358.461432
30,0,4341.025535,4261.538357,4257.435793,4252.820409,4223.58964,4226.666563,4217.948615,4214.871692,4225.128102,4209.230666,4252.307588,4270.256306,4303.076818,4361.538355
31,0,4340.512714,4259.999896,4257.948614,4255.384511,4210.769128,4226.666563,4215.897333,4214.358871,4219.999897,4206.153743,4251.794768,4275.384511,4307.179382,4363.589637
32,0,4331.794766,4252.820409,4245.640922,4241.025537,4219.487076,4223.58964,4207.692205,4212.307589,4207.692205,4185.640923,4250.769127,4273.333229,4302.563997,4349.230663
33,0,4323.589638,4251.794768,4239.999896,4235.897332,4224.102461,4221.538358,4205.128102,4214.358871,4215.384512,4197.435795,4255.384511,4270.769126,4298.461433,4343.076817
34,0,4331.281945,4265.128101,4258.974255,4255.897332,4214.358871,4232.307589,4227.692204,4227.692204,4235.384512,4230.769127,4263.076819,4287.692203,4303.589638,4356.92297
35,0,4328.205022,4262.563998,4266.153742,4260.512716,4222.051179,4238.461435,4244.10246,4232.820409,4234.358871,4232.820409,4258.461434,4296.922972,4302.051177,4354.871688
36,0,4297.948613,4234.871691,4237.948614,4230.256307,4238.461435,4231.794768,4226.666563,4223.07682,4222.051179,4215.384512,4245.128101,4275.384511,4287.179382,4321.025535
37,0,4285.640921,4230.256307,4227.692204,4222.563999,4234.871691,4230.769127,4222.563999,4226.666563,4229.230666,4218.974256,4249.230665,4269.743485,4282.563998,4304.615279
38,0,4287.179382,4233.33323,4238.461435,4237.948614,4218.461435,4230.769127,4231.794768,4231.794768,4234.871691,4216.410153,4253.333229,4278.461434,4283.589639,4304.102459
39,0,4277.948613,4223.58964,4240.512717,4237.435794,4225.640922,4232.820409,4232.820409,4228.205025,4230.769127,4218.461435,4251.794768,4282.563998,4282.051177,4303.076818
40,0,4268.717844,4219.487076,4231.794768,4225.640922,4247.179383,4236.410153,4226.153743,4228.205025,4231.794768,4232.820409,4251.794768,4280.512716,4279.487075,4298.461433
41,0,4269.743485,4223.58964,4231.794768,4227.692204,4246.153742,4232.820409,4229.743486,4235.384512,4239.487076,4240.512717,4256.410152,4282.051177,4277.948613,4292.820408
42,0,4258.974255,4212.82041,4229.743486,4228.717845,4224.102461,4228.205025,4232.307589,4233.33323,4239.487076,4234.871691,4250.256306,4278.461434,4271.794767,4276.410152
43,0,4257.435793,4213.33323,4232.307589,4233.33323,4226.666563,4233.33323,4237.435794,4233.84605,4242.051178,4238.974255,4246.153742,4280.512716,4271.281947,4268.717844
44,0,4258.974255,4213.846051,4228.205025,4232.820409,4231.794768,4226.666563,4226.666563,4227.179384,4233.84605,4227.179384,4237.948614,4271.794767,4265.640921,4263.589639
45,0,4254.871691,4210.769128,4221.538358,4230.256307,4233.33323,4224.102461,4221.025538,4220.512717,4223.07682,4214.871692,4235.897332,4264.10246,4259.487075,4259.999896
46,0,4247.179383,4212.82041,4221.025538,4231.794768,4228.717845,4230.256307,4226.666563,4221.538358,4219.487076,4224.615281,4239.999896,4266.153742,4260.512716,4255.897332
47,0,4249.230665,4215.384512,4226.666563,4236.410153,4224.102461,4229.743486,4226.666563,4223.58964,4215.897333,4228.717845,4241.025537,4265.128101,4261.025537,4251.794768
48,0,4255.384511,4212.82041,4227.179384,4235.897332,4234.871691,4226.153743,4224.102461,4221.538358,4210.256307,4216.410153,4239.487076,4262.563998,4255.384511,4250.769127
49,0,4242.563999,4200.512718,4217.435794,4223.07682,4237.948614,4222.563999,4213.33323,4215.384512,4207.692205,4205.128102,4231.281948,4256.410152,4246.666563,4238.974255
50,0,4228.717845,4192.82041,4214.358871,4214.358871,4225.128102,4219.999897,4204.615282,4214.871692,4210.256307,4205.640923,4223.58964,4251.281947,4241.025537,4225.128102
51,0,4242.563999,4210.256307,4229.230666,4232.820409,4226.153743,4231.281948,4225.128102,4224.102461,4216.410153,4216.410153,4234.871691,4266.666562,4248.205024,4237.948614
52,0,4249.230665,4218.974256,4231.794768,4243.58964,4234.358871,4236.922973,4234.871691,4226.666563,4218.974256,4217.948615,4237.948614,4271.281947,4250.256306,4247.692204
53,0,4228.717845,4198.974256,4215.897333,4223.58964,4228.205025,4226.153743,4214.358871,4218.974256,4219.999897,4204.102461,4222.051179,4255.384511,4235.897332,4226.153743
54,0,4222.051179,4193.846051,4211.794769,4210.769128,4231.794768,4225.128102,4210.256307,4217.948615,4228.205025,4207.692205,4222.051179,4256.922973,4231.281948,4215.384512
55,0,4222.563999,4193.333231,4211.281948,4208.717846,4231.794768,4226.153743,4215.384512,4216.922974,4228.205025,4207.179384,4226.666563,4242.051178,4233.84605,4220.512717
56,0,4216.922974,4184.615282,4210.769128,4211.281948,4214.871692,4222.051179,4210.769128,4215.897333,4227.692204,4197.435795,4223.07682,4201.538359,4233.33323,4222.051179
57,0,4226.666563,4190.256308,4222.051179,4224.102461,4213.33323,4227.692204,4218.974256,4223.58964,4239.487076,4213.33323,4229.230666,4192.30759,4238.461435,4227.179384
58,0,4242.563999,4200.512718,4232.307589,4233.33323,4236.410153,4234.358871,4230.256307,4228.205025,4246.666563,4227.692204,4245.640922,4214.358871,4249.230665,4236.922973
59,0,4228.717845,4183.589641,4218.974256,4218.461435,4238.974255,4225.128102,4211.281948,4217.435794,4233.84605,4208.717846,4238.974255,4208.205025,4244.10246,4229.743486
60,0,4221.538358,4184.102462,4217.948615,4219.487076,4230.769127,4225.128102,4208.205025,4218.461435,4235.897332,4217.948615,4235.897332,4206.666564,4242.563999,4227.179384
61,0,4227.692204,4195.384513,4223.58964,4228.205025,4219.487076,4228.717845,4217.435794,4225.128102,4244.615281,4231.281948,4236.922973,4211.281948,4242.563999,4223.07682
62,0,4225.128102,4190.769128,4214.358871,4224.102461,4210.769128,4223.07682,4213.846051,4224.615281,4243.076819,4212.307589,4230.769127,4203.07682,4236.410153,4217.435794
63,0,4212.307589,4179.487077,4202.051179,4213.33323,4213.846051,4217.435794,4205.128102,4217.948615,4233.33323,4192.82041,4222.563999,4193.846051,4231.794768,4214.871692
64,0,4220.512717,4192.30759,4215.897333,4225.128102,4229.230666,4228.717845,4216.922974,4222.051179,4238.461435,4208.717846,4233.33323,4206.153743,4241.538358,4224.102461
65,0,4229.230666,4205.128102,4226.666563,4232.820409,4234.871691,4235.384512,4224.615281,4227.692204,4246.666563,4222.051179,4241.538358,4215.897333,4246.666563,4226.666563
66,0,4225.640922,4203.589641,4216.922974,4223.58964,4232.820409,4228.717845,4214.358871,4223.07682,4240.512717,4223.58964,4233.84605,4213.33323,4241.025537,4220.512717
67,0,4227.179384,4201.538359,4216.922974,4227.692204,4217.435794,4222.051179,4209.230666,4218.461435,4230.256307,4221.025538,4226.153743,4212.82041,4238.974255,4212.82041
68,0,4221.025538,4197.948615,4220.512717,4232.820409,4201.025538,4221.025538,4211.794769,4221.025538,4227.692204,4205.128102,4226.153743,4213.846051,4237.948614,4207.179384
69,0,4202.564,4189.743487,4207.692205,4219.487076,4214.358871,4223.07682,4209.743487,4223.07682,4230.256307,4197.435795,4223.58964,4209.230666,4231.794768,4202.051179
70,0,4208.205025,4195.897333,4208.205025,4218.461435,4241.025537,4231.794768,4218.461435,4229.743486,4236.922973,4211.281948,4224.615281,4218.461435,4230.769127,4203.589641
71,0,4225.128102,4208.205025,4225.640922,4232.307589,4241.025537,4234.871691,4228.205025,4236.922973,4244.10246,4216.410153,4230.256307,4235.384512,4236.410153,4210.769128
72,0,4215.897333,4201.025538,4226.153743,4228.205025,4226.666563,4228.717845,4219.999897,4231.281948,4243.076819,4207.179384,4227.179384,4229.743486,4235.384512,4205.128102
73,0,4206.153743,4190.769128,4220.512717,4222.051179,4217.435794,4228.717845,4216.410153,4226.666563,4242.563999,4214.358871,4222.563999,4219.999897,4231.794768,4197.948615
74,0,4206.153743,4185.128103,4216.410153,4221.025538,4209.743487,4228.205025,4219.999897,4230.256307,4240.512717,4209.230666,4220.512717,4221.538358,4229.230666,4192.30759
75,0,4202.051179,4183.589641,4210.256307,4214.871692,4213.846051,4224.102461,4218.461435,4228.205025,4234.871691,4188.205026,4216.410153,4225.128102,4224.102461,4183.076821
76,0,4194.871692,4177.948616,4203.589641,4210.256307,4212.82041,4224.102461,4213.846051,4223.58964,4232.307589,4186.666564,4209.230666,4219.487076,4216.410153,4173.846052
77,0,4201.538359,4182.564,4210.256307,4218.461435,4219.487076,4234.871691,4224.102461,4231.281948,4243.58964,4207.179384,4216.922974,4225.128102,4224.102461,4192.30759
78,0,4205.128102,4190.256308,4211.794769,4221.025538,4231.281948,4236.410153,4224.102461,4230.256307,4248.717845,4211.281948,4223.58964,4230.256307,4232.820409,4208.205025
79,0,4210.256307,4203.07682,4218.461435,4230.256307,4230.256307,4232.820409,4223.07682,4226.666563,4247.179383,4215.897333,4228.205025,4236.922973,4236.922973,4206.153743
80,0,4207.179384,4197.948615,4214.358871,4228.205025,4214.871692,4226.153743,4215.384512,4226.153743,4237.948614,4214.358871,4223.58964,4232.820409,4232.307589,4191.281949
81,0,4202.564,4191.794769,4205.128102,4218.974256,4216.410153,4225.128102,4209.230666,4226.666563,4237.435794,4213.33323,4222.563999,4230.256307,4232.307589,4186.666564
82,0,4206.153743,4203.589641,4207.692205,4223.07682,4228.717845,4230.256307,4218.461435,4229.230666,4245.128101,4219.487076,4227.692204,4239.487076,4237.948614,4191.281949
83,0,4209.230666,4217.435794,4212.82041,4232.307589,4237.435794,4235.897332,4229.230666,4233.33323,4248.205024,4222.563999,4231.281948,4247.179383,4239.999896,4194.358872
84,0,4196.922974,4208.205025,4205.128102,4222.051179,4232.307589,4232.307589,4219.999897,4228.717845,4242.051178,4211.281948,4221.025538,4234.871691,4230.769127,4189.230667
85,0,4199.999897,4207.692205,4205.128102,4220.512717,4227.692204,4233.33323,4224.102461,4229.230666,4243.076819,4213.33323,4222.563999,4232.820409,4230.256307,4194.871692
86,0,4212.82041,4217.435794,4213.846051,4231.794768,4225.128102,4232.307589,4235.384512,4236.922973,4247.692204,4222.563999,4232.307589,4243.58964,4239.999896,4200.512718
87,0,4203.07682,4212.307589,4207.692205,4227.692204,4217.435794,4222.563999,4219.487076,4231.794768,4239.999896,4201.538359,4224.102461,4238.461435,4235.384512,4185.128103
88,0,4192.82041,4211.281948,4202.051179,4224.615281,4227.692204,4224.102461,4209.230666,4225.128102,4233.84605,4192.82041,4219.999897,4232.820409,4230.256307,4183.076821
89,0,4199.999897,4224.102461,4206.666564,4230.769127,4251.281947,4232.820409,4221.538358,4227.692204,4236.410153,4224.102461,4227.692204,4235.897332,4236.922973,4195.897333
90,0,4206.666564,4231.281948,4210.769128,4232.307589,4242.051178,4228.205025,4221.538358,4231.281948,4237.948614,4230.769127,4230.769127,4235.897332,4238.461435,4197.435795
91,0,4208.717846,4228.717845,4212.82041,4229.230666,4218.461435,4224.102461,4217.435794,4229.743486,4234.871691,4203.589641,4229.230666,4239.487076,4234.358871,4193.846051
92,0,4212.82041,4230.256307,4214.358871,4228.717845,4235.897332,4232.820409,4230.256307,4229.230666,4233.84605,4213.846051,4230.256307,4250.769127,4236.410153,4197.948615
93,0,4208.205025,4231.281948,4212.307589,4226.666563,4248.205024,4235.897332,4232.307589,4226.153743,4233.84605,4232.307589,4226.153743,4250.769127,4236.410153,4195.897333
94,0,4208.205025,4233.84605,4215.897333,4230.769127,4228.205025,4232.820409,4222.563999,4228.205025,4234.358871,4217.948615,4227.692204,4249.230665,4235.897332,4199.487077
95,0,4208.205025,4230.256307,4215.897333,4231.794768,4208.205025,4226.666563,4212.307589,4226.153743,4226.153743,4202.564,4224.102461,4243.076819,4232.307589,4198.461436
96,0,4211.281948,4231.794768,4215.384512,4234.871691,4217.435794,4229.230666,4216.922974,4224.615281,4224.615281,4212.82041,4224.102461,4247.179383,4232.820409,4197.435795
97,0,4214.358871,4233.84605,4214.871692,4233.84605,4238.461435,4236.410153,4223.58964,4228.717845,4229.743486,4215.897333,4231.281948,4255.897332,4236.922973,4199.999897
98,0,4214.358871,4230.256307,4212.82041,4227.692204,4247.692204,4234.871691,4224.102461,4232.307589,4233.33323,4219.487076,4229.230666,4253.84605,4235.384512,4199.487077
99,0,4202.564,4218.461435,4202.564,4218.461435,4231.281948,4223.58964,4215.384512,4224.102461,4226.153743,4218.974256,4209.230666,4236.410153,4223.07682,4187.179385
100,0,4198.461436,4217.948615,4199.999897,4219.999897,4221.025538,4225.128102,4218.974256,4223.07682,4224.615281,4211.794769,4207.692205,4235.384512,4221.025538,4190.256308
101,0,4202.564,4225.128102,4203.589641,4223.58964,4218.974256,4227.179384,4223.07682,4229.230666,4225.640922,4199.487077,4218.461435,4241.538358,4227.692204,4197.435795
102,0,4209.230666,4238.461435,4210.769128,4232.307589,4224.615281,4228.717845,4227.692204,4235.897332,4234.358871,4204.615282,4226.153743,4247.179383,4234.871691,4199.999897
103,0,4207.179384,4241.025537,4211.281948,4234.358871,4249.230665,4236.922973,4236.922973,4242.051178,4243.076819,4224.102461,4225.128102,4251.281947,4235.897332,4198.974256
104,0,4198.461436,4232.307589,4206.666564,4227.179384,4256.922973,4238.974255,4235.384512,4236.410153,4237.435794,4230.256307,4219.999897,4248.717845,4230.256307,4193.333231
105,0,4198.974256,4232.307589,4203.589641,4226.153743,4227.692204,4232.307589,4222.051179,4224.102461,4226.153743,4217.948615,4216.410153,4245.640922,4228.717845,4188.717846
106,0,4202.564,4237.948614,4205.128102,4227.692204,4211.794769,4226.666563,4214.871692,4223.07682,4224.615281,4199.487077,4215.897333,4245.640922,4224.102461,4193.846051
107,0,4199.999897,4233.33323,4206.666564,4226.153743,4216.922974,4222.563999,4214.871692,4224.615281,4225.128102,4192.30759,4212.307589,4246.153742,4211.794769,4195.384513
108,0,4201.538359,4224.615281,4209.743487,4227.179384,4224.102461,4226.153743,4222.051179,4224.102461,4224.615281,4197.948615,4213.846051,4246.153742,4213.33323,4192.30759
109,0,4209.230666,4224.615281,4219.487076,4231.281948,4239.487076,4233.84605,4231.794768,4230.769127,4235.897332,4209.230666,4224.615281,4251.794768,4224.102461,4203.07682
110,0,4208.717846,4219.999897,4222.051179,4224.102461,4238.461435,4228.205025,4224.102461,4236.922973,4242.051178,4213.846051,4222.051179,4258.461434,4222.051179,4209.230666
111,0,4208.717846,4216.410153,4223.58964,4221.538358,4216.410153,4220.512717,4215.384512,4244.10246,4250.769127,4224.615281,4225.128102,4271.794767,4223.58964,4210.256307
112,0,4212.307589,4214.358871,4224.102461,4226.153743,4208.205025,4222.051179,4216.922974,4234.871691,4255.897332,4231.281948,4232.307589,4276.922972,4228.205025,4209.230666
113,0,4216.410153,4218.974256,4224.102461,4230.769127,4227.179384,4227.179384,4224.615281,4211.281948,4228.205025,4208.717846,4226.153743,4270.256306,4224.102461,4210.769128
114,0,4207.692205,4215.384512,4216.410153,4223.07682,4226.666563,4222.051179,4218.974256,4202.051179,4190.769128,4167.692206,4210.256307,4255.897332,4216.410153,4202.564
115,0,4209.743487,4215.384512,4220.512717,4223.07682,4217.435794,4223.58964,4225.640922,4223.07682,4207.692205,4173.333231,4216.922974,4260.512716,4222.051179,4204.102461
116,0,4211.794769,4216.410153,4221.538358,4225.640922,4219.999897,4227.692204,4228.717845,4227.179384,4232.307589,4193.846051,4221.025538,4263.076819,4221.538358,4199.487077
117,0,4207.692205,4217.435794,4214.871692,4223.07682,4236.922973,4228.717845,4224.615281,4216.922974,4226.153743,4197.435795,4216.410153,4257.948614,4218.461435,4194.358872
118,0,4214.871692,4221.025538,4222.051179,4226.666563,4247.692204,4229.743486,4229.230666,4225.640922,4229.230666,4206.666564,4223.07682,4268.205024,4226.153743,4210.256307
119,0,4224.615281,4222.563999,4231.281948,4235.897332,4234.871691,4228.717845,4235.897332,4235.897332,4241.538358,4212.82041,4228.717845,4280.512716,4232.307589,4218.461435
120,0,4206.153743,4204.102461,4212.82041,4219.999897,4211.794769,4221.025538,4222.563999,4226.153743,4227.692204,4192.30759,4213.33323,4259.487075,4217.948615,4194.871692
121,0,4194.358872,4196.922974,4202.051179,4209.743487,4217.948615,4222.563999,4217.435794,4223.58964,4221.538358,4199.487077,4211.281948,4247.179383,4213.846051,4194.358872
122,0,4208.717846,4210.769128,4214.358871,4222.051179,4242.563999,4233.33323,4231.794768,4236.410153,4232.307589,4226.666563,4224.615281,4263.076819,4227.692204,4211.794769
123,0,4214.871692,4213.846051,4218.974256,4226.153743,4244.10246,4235.897332,4237.948614,4241.025537,4233.84605,4215.384512,4224.615281,4270.256306,4223.58964,4205.640923
124,0,4205.128102,4201.538359,4212.82041,4213.846051,4218.461435,4223.07682,4226.153743,4233.33323,4225.128102,4194.358872,4215.897333,4259.999896,4211.281948,4193.846051
125,0,4202.051179,4198.461436,4214.358871,4214.871692,4202.564,4215.897333,4221.025538,4230.256307,4222.563999,4205.128102,4218.974256,4258.461434,4216.410153,4200.512718
126,0,4207.692205,4206.666564,4219.487076,4225.128102,4214.871692,4222.563999,4229.743486,4232.820409,4224.102461,4220.512717,4224.615281,4266.153742,4224.615281,4209.743487
127,0,4208.717846,4206.666564,4216.922974,4222.051179,4231.794768,4228.205025,4238.461435,4232.820409,4218.461435,4212.82041,4224.615281,4266.666562,4221.025538,4204.102461
128,0,4204.615282,4202.564,4215.897333,4216.922974,4234.871691,4228.717845,4239.999896,4231.794768,4213.846051,4199.487077,4222.051179,4265.640921,4216.922974,4199.999897
0,0,4196.922974,4193.846051,4212.82041,4213.846051,4224.615281,4225.640922,4231.281948,4228.717845,4210.769128,4186.153744,4211.281948,4258.461434,4208.717846,4197.435795
1,0,4191.794769,4185.128103,4207.179384,4210.256307,4217.435794,4221.538358,4227.179384,4227.179384,4206.666564,4186.666564,4204.102461,4251.281947,4201.025538,4192.82041
2,0,4185.640923,4177.435795,4203.07682,4206.153743,4212.307589,4218.974256,4226.153743,4226.666563,4202.051179,4199.999897,4203.589641,4247.692204,4199.487077,4186.666564
3,0,4198.974256,4189.230667,4218.974256,4217.435794,4225.128102,4231.281948,4240.512717,4237.435794,4213.846051,4214.358871,4221.025538,4263.076819,4209.230666,4195.897333
4,0,4206.666564,4192.82041,4224.615281,4217.948615,4236.922973,4235.384512,4244.10246,4239.487076,4221.025538,4206.153743,4223.58964,4269.230665,4211.794769,4195.897333
5,0,4199.999897,4186.153744,4218.974256,4211.794769,4233.33323,4230.769127,4238.974255,4236.922973,4221.538358,4211.794769,4212.307589,4264.61528,4208.717846,4195.897333
6,0,4197.435795,4183.589641,4218.461435,4210.256307,4215.897333,4225.128102,4230.256307,4238.461435,4225.640922,4214.871692,4209.743487,4263.076819,4206.153743,4200.512718
7,0,4201.025538,4184.102462,4219.999897,4211.281948,4205.640923,4212.82041,4224.102461,4237.435794,4228.717845,4192.82041,4214.871692,4263.589639,4204.102461,4196.410154
8,0,4194.358872,4179.999898,4212.307589,4209.230666,4199.999897,4209.743487,4219.999897,4228.717845,4223.07682,4182.564,4209.230666,4259.487075,4201.538359,4189.743487
9,0,4190.769128,4184.102462,4212.307589,4212.82041,4208.717846,4220.512717,4226.153743,4224.102461,4221.025538,4206.153743,4208.205025,4259.999896,4203.589641,4194.871692
10,0,4190.256308,4182.05118,4209.743487,4206.153743,4218.974256,4217.948615,4225.640922,4221.538358,4221.025538,4212.82041,4203.07682,4252.307588,4197.435795,4184.615282
11,0,4189.743487,4177.435795,4207.179384,4201.025538,4216.922974,4216.410153,4222.051179,4222.563999,4224.102461,4189.743487,4197.948615,4243.58964,4192.82041,4178.461436
12,0,4189.230667,4181.538359,4206.666564,4207.692205,4219.487076,4217.948615,4226.666563,4223.58964,4225.128102,4175.384513,4199.999897,4244.615281,4194.358872,4181.025539
13,0,4194.358872,4189.743487,4207.179384,4212.82041,4230.769127,4218.461435,4233.33323,4221.025538,4226.666563,4194.871692,4206.153743,4251.794768,4196.922974,4182.05118
14,0,4202.564,4198.461436,4212.82041,4216.922974,4214.358871,4224.615281,4230.769127,4228.717845,4232.307589,4225.128102,4211.794769,4261.538357,4201.538359,4194.871692
15,0,4205.640923,4203.07682,4218.974256,4219.487076,4199.487077,4228.205025,4227.692204,4236.922973,4233.33323,4226.666563,4215.897333,4266.153742,4206.153743,4207.179384
16,0,4202.564,4201.025538,4214.358871,4211.794769,4222.563999,4219.487076,4231.281948,4229.743486,4228.717845,4205.128102,4213.33323,4261.025537,4202.564,4202.051179
17,0,4198.461436,4203.589641,4211.794769,4206.666564,4234.358871,4215.897333,4230.769127,4223.07682,4223.07682,4190.769128,4211.281948,4254.871691,4196.410154,4189.230667
18,0,4200.512718,4212.307589,4218.974256,4212.82041,4225.640922,4221.025538,4229.743486,4228.717845,4219.999897,4203.07682,4215.897333,4259.487075,4200.512718,4187.692205
19,0,4196.410154,4207.692205,4214.871692,4210.256307,4211.794769,4211.281948,4228.717845,4225.640922,4219.487076,4218.461435,4210.256307,4255.384511,4201.025538,4184.102462
20,0,4202.564,4214.358871,4216.922974,4214.358871,4203.07682,4210.769128,4231.281948,4220.512717,4227.179384,4221.025538,4210.769128,4254.35887,4204.615282,4191.794769
21,0,4203.07682,4215.897333,4216.922974,4214.358871,4215.897333,4214.871692,4224.615281,4216.922974,4215.897333,4196.922974,4210.769128,4253.333229,4202.564,4193.846051
22,0,4198.461436,4205.128102,4212.82041,4206.666564,4234.358871,4211.281948,4223.58964,4213.846051,4199.999897,4178.461436,4209.230666,4254.35887,4198.974256,4191.281949
23,0,4201.538359,4206.153743,4212.307589,4207.179384,4220.512717,4209.230666,4222.051179,4213.33323,4201.538359,4179.999898,4208.717846,4254.35887,4199.999897,4196.410154
24,0,4210.256307,4225.128102,4222.051179,4221.538358,4209.230666,4213.33323,4216.922974,4216.922974,4210.256307,4189.743487,4213.846051,4256.410152,4202.564,4201.025538
25,0,4209.230666,4226.153743,4224.102461,4222.563999,4210.256307,4214.871692,4217.435794,4218.461435,4211.281948,4197.948615,4218.461435,4260.512716,4203.07682,4200.512718
26,0,4210.769128,4218.974256,4222.563999,4215.384512,4224.102461,4219.487076,4229.743486,4222.051179,4214.871692,4214.358871,4223.07682,4263.589639,4210.769128,4206.153743
27,0,4208.205025,4216.922974,4215.384512,4207.179384,4235.897332,4220.512717,4225.128102,4217.948615,4213.846051,4217.435794,4215.384512,4256.922973,4209.230666,4199.999897
28,0,4206.153743,4216.410153,4215.384512,4207.692205,4232.307589,4218.461435,4216.922974,4215.384512,4210.769128,4206.666564,4210.769128,4256.410152,4202.051179,4194.871692
29,0,4211.281948,4211.794769,4218.974256,4214.358871,4215.897333,4214.358871,4217.948615,4216.410153,4208.717846,4199.487077,4213.33323,4257.948614,4205.128102,4199.487077
30,0,4212.307589,4207.692205,4217.435794,4215.897333,4213.33323,4212.307589,4216.922974,4213.33323,4205.640923,4203.07682,4212.82041,4252.820409,4209.743487,4198.461436
31,0,4206.666564,4205.640923,4213.33323,4214.871692,4216.922974,4214.358871,4216.922974,4210.256307,4205.128102,4207.179384,4211.794769,4249.230665,4205.128102,4191.794769
32,0,4205.640923,4209.230666,4214.358871,4219.487076,4214.358871,4221.025538,4227.692204,4216.922974,4210.256307,4207.692205,4218.974256,4252.820409,4205.640923,4197.948615
33,0,4209.743487,4211.794769,4213.33323,4220.512717,4221.025538,4217.948615,4225.640922,4219.999897,4212.307589,4208.205025,4221.538358,4253.333229,4210.256307,4199.999897
34,0,4212.307589,4211.794769,4213.33323,4215.897333,4229.230666,4213.846051,4215.897333,4214.358871,4210.256307,4216.410153,4219.999897,4253.84605,4212.307589,4195.897333
35,0,4214.358871,4213.846051,4218.461435,4215.897333,4226.666563,4219.999897,4219.487076,4213.846051,4208.205025,4221.538358,4222.563999,4259.487075,4218.974256,4197.435795
36,0,4215.897333,4215.384512,4211.794769,4215.897333,4208.205025,4216.410153,4215.384512,4214.358871,4201.538359,4203.589641,4219.487076,4253.84605,4224.102461,4198.461436
37,0,4227.692204,4225.640922,4210.769128,4223.07682,4197.435795,4209.743487,4211.281948,4215.384512,4201.025538,4196.410154,4219.999897,4252.307588,4230.256307,4215.384512
38,0,4241.025537,4233.84605,4218.974256,4229.743486,4212.307589,4214.871692,4215.384512,4215.897333,4203.07682,4207.179384,4227.692204,4258.974255,4246.666563,4239.999896
39,0,4257.435793,4245.640922,4222.563999,4231.281948,4232.820409,4219.999897,4216.922974,4217.435794,4200.512718,4217.435794,4236.410153,4266.153742,4271.281947,4263.589639
40,0,4275.384511,4254.871691,4219.999897,4230.256307,4224.102461,4212.307589,4205.640923,4211.794769,4190.256308,4205.128102,4235.384512,4263.076819,4283.589639,4281.025536
41,0,4304.102459,4270.769126,4234.871691,4246.666563,4209.743487,4212.82041,4211.281948,4211.794769,4195.384513,4196.410154,4238.974255,4271.794767,4296.922972,4311.281946
42,0,4324.102458,4283.076818,4244.615281,4257.435793,4209.230666,4215.897333,4214.871692,4217.435794,4205.128102,4198.974256,4244.10246,4283.076818,4312.820407,4333.846048
43,0,4334.871689,4291.281946,4244.10246,4254.871691,4208.717846,4215.897333,4207.179384,4212.82041,4205.128102,4202.051179,4248.717845,4289.743485,4322.563997,4344.102458
44,0,4351.281945,4294.358869,4251.281947,4253.84605,4195.897333,4213.33323,4199.487077,4201.538359,4197.948615,4197.948615,4251.281947,4294.358869,4325.64092,4356.92297
45,0,4364.102457,4304.102459,4263.076819,4262.563998,4198.461436,4213.33323,4202.051179,4204.102461,4198.461436,4195.897333,4254.871691,4302.051177,4331.794766,4373.846047
46,0,4354.871688,4307.692202,4258.974255,4258.974255,4202.564,4208.717846,4198.974256,4206.153743,4194.871692,4187.179385,4252.820409,4301.538356,4331.281945,4369.230662
47,0,4353.846047,4310.256305,4255.384511,4256.922973,4195.897333,4209.230666,4201.025538,4203.589641,4194.358872,4186.153744,4257.948614,4301.538356,4329.230663,4365.640919
48,0,4355.897329,4312.307587,4253.84605,4259.487075,4194.358872,4211.281948,4204.102461,4207.179384,4203.07682,4201.025538,4261.025537,4301.025536,4323.589638,4367.17938
49,0,4344.615278,4311.281946,4253.84605,4256.410152,4202.564,4212.307589,4204.102461,4214.358871,4209.230666,4212.307589,4256.922973,4298.974254,4311.794766,4351.281945
50,0,4336.41015,4308.717843,4256.410152,4252.820409,4218.461435,4218.974256,4206.153743,4218.974256,4208.717846,4216.922974,4258.461434,4301.025536,4307.179382,4335.89733
51,0,4318.974253,4293.846049,4247.692204,4246.153742,4228.717845,4223.58964,4207.179384,4223.07682,4208.205025,4216.410153,4257.435793,4295.897331,4299.999895,4324.615279
52,0,4292.820408,4271.281947,4240.512717,4241.025537,4225.128102,4222.563999,4212.82041,4227.179384,4215.384512,4219.487076,4248.205024,4287.179382,4278.974254,4307.179382
53,0,4285.640921,4257.435793,4243.076819,4241.025537,4224.615281,4226.153743,4223.58964,4226.153743,4225.640922,4227.179384,4242.051178,4283.076818,4263.589639,4293.333228
54,0,4274.35887,4246.666563,4233.33323,4233.84605,4227.692204,4225.640922,4219.487076,4219.487076,4223.07682,4222.563999,4234.358871,4275.897331,4256.410152,4276.922972
55,0,4247.179383,4227.692204,4211.794769,4220.512717,4210.256307,4213.33323,4200.512718,4207.179384,4210.769128,4198.974256,4217.948615,4255.897332,4240.512717,4245.640922
56,0,4246.153742,4222.563999,4210.256307,4221.538358,4198.461436,4212.307589,4202.051179,4207.179384,4216.922974,4195.897333,4215.384512,4246.666563,4230.256307,4230.256307
57,0,4237.435794,4216.410153,4205.128102,4216.410153,4210.769128,4219.999897,4205.128102,4208.205025,4225.640922,4194.358872,4215.384512,4236.410153,4224.102461,4222.563999
58,0,4221.025538,4213.33323,4199.487077,4212.82041,4217.948615,4223.58964,4206.153743,4209.230666,4222.051179,4189.743487,4216.410153,4231.794768,4223.07682,4214.871692
59,0,4223.07682,4215.384512,4205.128102,4219.999897,4204.102461,4223.58964,4210.256307,4213.33323,4218.974256,4206.153743,4218.974256,4238.461435,4225.128102,4205.128102
60,0,4218.461435,4206.153743,4203.589641,4214.358871,4211.281948,4224.102461,4207.692205,4213.846051,4221.025538,4218.974256,4215.384512,4238.461435,4223.07682,4191.281949
61,0,4191.281949,4185.128103,4184.102462,4191.281949,4221.538358,4217.435794,4192.30759,4204.102461,4209.743487,4188.205026,4202.564,4216.410153,4209.743487,4173.846052
62,0,4188.717846,4182.564,4183.076821,4191.794769,4216.410153,4216.410153,4193.846051,4206.153743,4205.640923,4177.435795,4204.102461,4214.358871,4205.640923,4172.820411
63,0,4197.948615,4190.769128,4198.461436,4206.666564,4206.666564,4220.512717,4198.974256,4212.82041,4215.384512,4198.461436,4209.743487,4227.692204,4208.717846,4177.435795
64,0,4194.871692,4193.846051,4205.640923,4213.846051,4201.025538,4221.025538,4193.333231,4210.769128,4223.07682,4205.640923,4211.281948,4230.769127,4210.256307,4180.512718
65,0,4189.743487,4185.640923,4198.461436,4208.717846,4192.30759,4215.897333,4184.102462,4205.640923,4214.871692,4184.615282,4209.230666,4226.153743,4205.128102,4173.846052
66,0,4193.846051,4182.05118,4201.538359,4205.640923,4206.666564,4218.974256,4193.846051,4209.230666,4212.82041,4183.076821,4216.922974,4234.358871,4204.615282,4172.820411
67,0,4197.948615,4188.717846,4214.358871,4210.256307,4234.871691,4228.717845,4208.205025,4212.82041,4224.615281,4211.281948,4224.615281,4247.179383,4210.256307,4184.102462
68,0,4193.333231,4188.205026,4211.281948,4211.281948,4228.205025,4231.281948,4205.640923,4209.743487,4226.153743,4227.179384,4217.435794,4242.563999,4208.717846,4184.102462
69,0,4181.025539,4171.281949,4195.384513,4201.538359,4206.153743,4224.102461,4195.897333,4205.128102,4215.897333,4204.102461,4207.179384,4226.153743,4198.974256,4165.640924
70,0,4173.333231,4162.05118,4191.794769,4193.846051,4205.640923,4219.999897,4193.333231,4205.640923,4212.307589,4175.384513,4205.640923,4218.974256,4194.871692,4158.461437
71,0,4174.358872,4165.640924,4196.922974,4198.974256,4208.205025,4218.461435,4191.281949,4205.128102,4218.461435,4182.564,4205.640923,4219.999897,4196.410154,4163.589642
72,0,4172.30759,4163.589642,4192.82041,4202.051179,4197.948615,4215.897333,4181.025539,4199.487077,4219.487076,4198.974256,4202.051179,4211.281948,4192.82041,4150.769129
73,0,4171.79477,4162.05118,4189.743487,4201.025538,4200.512718,4219.487076,4178.974257,4198.974256,4215.384512,4197.948615,4203.589641,4206.153743,4192.30759,4143.076822
74,0,4176.922975,4167.692206,4194.358872,4202.051179,4209.230666,4225.640922,4185.128103,4201.025538,4212.307589,4189.230667,4204.615282,4206.666564,4194.871692,4153.333232
75,0,4184.615282,4177.435795,4203.07682,4211.794769,4202.051179,4224.615281,4194.871692,4205.128102,4219.999897,4192.30759,4207.692205,4208.717846,4196.410154,4161.53836
76,0,4181.538359,4173.333231,4198.461436,4209.743487,4189.230667,4218.461435,4188.205026,4205.128102,4224.102461,4186.666564,4203.589641,4203.07682,4190.769128,4147.692206
77,0,4182.564,4179.999898,4198.974256,4207.692205,4214.358871,4227.692204,4190.256308,4206.666564,4226.666563,4190.256308,4209.230666,4208.205025,4195.384513,4147.179386
78,0,4178.974257,4183.076821,4198.461436,4205.128102,4239.999896,4235.384512,4201.538359,4206.153743,4227.692204,4199.487077,4211.794769,4209.230666,4198.974256,4151.79477
79,0,4171.79477,4174.871693,4193.846051,4203.589641,4217.948615,4228.717845,4204.615282,4209.230666,4229.743486,4201.025538,4205.640923,4203.589641,4192.30759,4142.564001
80,0,4166.666565,4168.717847,4191.281949,4203.07682,4183.076821,4219.999897,4194.358872,4209.230666,4226.153743,4193.846051,4198.974256,4201.025538,4185.128103,4134.871694
81,0,4168.717847,4178.974257,4199.487077,4206.153743,4205.640923,4227.692204,4200.512718,4207.692205,4227.179384,4199.487077,4205.640923,4209.743487,4190.256308,4148.717847
82,0,4165.128103,4176.922975,4196.410154,4195.384513,4233.33323,4231.794768,4205.128102,4210.256307,4226.666563,4199.487077,4208.717846,4209.743487,4191.281949,4155.384514
83,0,4166.153744,4168.717847,4192.30759,4190.769128,4215.897333,4226.153743,4201.538359,4213.33323,4226.153743,4194.871692,4207.692205,4209.743487,4188.717846,4149.743488
84,0,4171.281949,4170.769129,4200.512718,4199.999897,4202.051179,4224.102461,4206.666564,4215.384512,4227.692204,4201.025538,4208.717846,4222.563999,4190.769128,4150.256309
85,0,4173.846052,4176.922975,4210.769128,4206.153743,4211.794769,4227.179384,4214.358871,4222.051179,4227.692204,4207.179384,4215.384512,4233.84605,4195.384513,4162.564001
86,0,4177.948616,4180.512718,4214.358871,4207.179384,4208.717846,4226.153743,4212.307589,4224.102461,4228.717845,4208.717846,4220.512717,4234.871691,4198.461436,4168.205026
87,0,4177.948616,4175.384513,4210.256307,4205.128102,4213.33323,4224.102461,4208.717846,4214.871692,4231.794768,4204.615282,4216.922974,4227.179384,4198.974256,4165.640924
88,0,4176.410154,4173.846052,4202.564,4201.025538,4231.281948,4227.179384,4210.256307,4209.743487,4232.820409,4204.615282,4211.281948,4220.512717,4197.948615,4166.666565
89,0,4173.846052,4179.487077,4202.051179,4204.615282,4217.948615,4225.640922,4207.692205,4213.846051,4232.307589,4212.307589,4209.743487,4217.435794,4197.435795,4164.615283
90,0,4165.640924,4176.922975,4206.666564,4204.615282,4202.051179,4219.487076,4205.640923,4217.948615,4230.256307,4215.384512,4210.769128,4216.922974,4198.461436,4155.897334
91,0,4156.922975,4162.564001,4201.538359,4189.230667,4214.358871,4216.922974,4204.102461,4215.897333,4225.128102,4209.743487,4206.153743,4214.358871,4193.333231,4154.358873
92,0,4162.564001,4164.102462,4200.512718,4187.179385,4220.512717,4215.897333,4205.640923,4213.846051,4224.615281,4206.666564,4201.538359,4214.871692,4185.640923,4161.025539
93,0,4156.922975,4167.179385,4196.922974,4190.256308,4207.179384,4212.307589,4201.538359,4208.717846,4218.974256,4193.846051,4192.30759,4203.589641,4175.897334,4144.615283
94,0,4147.692206,4162.564001,4190.256308,4186.666564,4198.974256,4217.435794,4200.512718,4208.717846,4214.871692,4188.205026,4192.30759,4193.846051,4171.281949,4131.28195
95,0,4153.333232,4162.564001,4192.82041,4189.230667,4195.897333,4223.07682,4204.102461,4215.384512,4220.512717,4196.410154,4201.538359,4199.999897,4175.897334,4142.564001
96,0,4164.102462,4168.717847,4202.051179,4197.948615,4201.538359,4221.538358,4210.256307,4221.025538,4227.179384,4199.999897,4209.230666,4214.358871,4183.076821,4157.435796
97,0,4159.999898,4161.53836,4196.922974,4191.281949,4191.794769,4212.82041,4203.589641,4213.846051,4217.435794,4190.256308,4203.07682,4209.230666,4177.435795,4142.564001
98,0,4166.153744,4163.589642,4201.538359,4194.358872,4191.794769,4215.897333,4206.153743,4213.33323,4215.897333,4209.230666,4207.179384,4208.205025,4177.948616,4141.53836
99,0,4167.179385,4165.640924,4204.615282,4195.384513,4214.871692,4220.512717,4208.205025,4218.461435,4223.07682,4224.102461,4210.769128,4211.281948,4181.538359,4157.435796
100,0,4160.512719,4164.102462,4201.538359,4193.333231,4221.538358,4220.512717,4205.640923,4220.512717,4225.640922,4210.769128,4209.743487,4213.33323,4182.564,4158.974257
101,0,4161.53836,4168.205026,4202.564,4201.538359,4199.999897,4222.051179,4208.205025,4223.07682,4223.07682,4205.128102,4212.82041,4214.358871,4181.538359,4152.307591
102,0,4168.205026,4168.205026,4204.102461,4204.102461,4207.179384,4226.666563,4215.384512,4227.692204,4225.640922,4224.615281,4214.871692,4213.33323,4182.564,4160.512719
103,0,4157.435796,4153.846052,4194.358872,4189.743487,4214.871692,4218.974256,4206.153743,4219.999897,4226.153743,4228.205025,4202.564,4202.051179,4177.435795,4158.461437
104,0,4144.102463,4149.743488,4186.666564,4187.179385,4197.948615,4212.307589,4201.025538,4212.82041,4221.538358,4213.846051,4198.974256,4202.051179,4173.333231,4140.512719
105,0,4146.666565,4156.922975,4187.179385,4193.846051,4199.487077,4219.487076,4208.717846,4217.948615,4218.974256,4212.82041,4208.205025,4212.307589,4176.410154,4140.512719
106,0,4149.230668,4156.922975,4189.230667,4193.333231,4209.230666,4222.563999,4211.281948,4219.999897,4216.922974,4214.358871,4208.205025,4207.692205,4177.435795,4154.358873
107,0,4147.692206,4158.461437,4191.794769,4195.384513,4203.589641,4215.897333,4211.281948,4216.410153,4218.974256,4213.33323,4206.153743,4201.538359,4177.435795,4155.897334
108,0,4144.102463,4157.435796,4181.538359,4192.30759,4194.871692,4212.307589,4205.128102,4213.33323,4218.974256,4215.384512,4204.102461,4197.435795,4174.871693,4141.02554
109,0,4146.666565,4158.461437,4177.435795,4191.794769,4194.358872,4217.948615,4199.487077,4213.33323,4218.974256,4216.410153,4200.512718,4196.410154,4174.871693,4143.076822
110,0,4154.871693,4167.692206,4189.743487,4202.051179,4199.999897,4222.051179,4205.128102,4213.33323,4220.512717,4210.256307,4204.615282,4202.051179,4177.948616,4156.410155
111,0,4165.640924,4179.487077,4200.512718,4209.743487,4216.410153,4225.640922,4219.999897,4219.487076,4226.153743,4213.33323,4220.512717,4217.435794,4186.153744,4161.025539
112,0,4168.717847,4180.512718,4195.897333,4202.564,4220.512717,4226.153743,4216.410153,4219.487076,4224.615281,4217.948615,4222.563999,4218.461435,4190.256308,4161.025539
113,0,4165.128103,4177.948616,4191.281949,4197.948615,4215.384512,4227.179384,4204.102461,4213.33323,4213.33323,4226.153743,4211.281948,4209.230666,4186.153744,4171.281949
114,0,4159.999898,4170.769129,4190.769128,4194.871692,4209.230666,4224.615281,4195.897333,4210.769128,4207.179384,4226.153743,4205.128102,4203.07682,4178.974257,4166.153744
115,0,4170.769129,4176.410154,4202.051179,4199.999897,4203.589641,4223.58964,4202.051179,4219.487076,4218.974256,4219.999897,4216.410153,4212.307589,4185.128103,4162.05118
116,0,4174.871693,4179.999898,4204.102461,4203.07682,4198.461436,4224.102461,4200.512718,4218.974256,4223.07682,4210.256307,4217.435794,4215.384512,4190.256308,4169.743488
117,0,4168.717847,4172.30759,4196.410154,4197.948615,4202.051179,4224.102461,4194.871692,4211.794769,4212.82041,4201.538359,4208.205025,4209.743487,4187.692205,4175.384513
118,0,4171.79477,4171.79477,4198.974256,4200.512718,4207.179384,4225.128102,4207.692205,4215.897333,4211.281948,4197.948615,4210.769128,4212.82041,4186.666564,4169.743488
119,0,4183.589641,4184.615282,4212.82041,4217.435794,4220.512717,4234.358871,4233.84605,4229.230666,4226.153743,4218.461435,4222.051179,4227.179384,4194.358872,4169.230667
120,0,4172.30759,4178.461436,4204.102461,4209.230666,4222.051179,4232.307589,4227.179384,4227.179384,4226.153743,4227.179384,4211.281948,4216.410153,4190.769128,4164.102462
121,0,4158.461437,4168.205026,4189.230667,4191.794769,4212.82041,4224.615281,4209.743487,4217.435794,4216.922974,4214.358871,4197.435795,4197.948615,4183.076821,4151.79477
122,0,4168.205026,4178.461436,4196.410154,4202.051179,4212.82041,4227.179384,4215.897333,4221.538358,4222.563999,4213.846051,4206.153743,4205.128102,4189.230667,4158.461437
123,0,4180.512718,4194.358872,4208.205025,4218.461435,4211.281948,4229.743486,4222.051179,4229.743486,4230.256307,4221.538358,4217.948615,4217.948615,4197.435795,4177.435795
124,0,4175.384513,4188.717846,4201.025538,4210.256307,4200.512718,4219.999897,4207.692205,4225.128102,4223.07682,4210.256307,4210.769128,4212.307589,4190.769128,4173.333231
125,0,4168.205026,4176.922975,4196.922974,4201.538359,4190.769128,4215.897333,4202.564,4221.025538,4222.563999,4202.564,4204.615282,4208.205025,4184.615282,4158.974257
126,0,4177.435795,4183.076821,4211.794769,4211.794769,4190.769128,4224.615281,4216.410153,4229.230666,4236.410153,4221.538358,4212.307589,4218.461435,4192.30759,4165.640924
127,0,4181.025539,4189.230667,4216.410153,4215.384512,4197.435795,4228.205025,4218.974256,4229.743486,4233.84605,4221.025538,4214.871692,4217.435794,4193.333231,4169.743488
128,0,4170.769129,4182.564,4203.589641,4207.179384,4209.230666,4223.07682,4211.794769,4221.025538,4222.051179,4204.102461,4206.153743,4208.205025,4186.666564,4156.922975
0,0,4162.564001,4173.333231,4191.794769,4201.025538,4211.281948,4218.461435,4203.589641,4211.281948,4216.410153,4196.922974,4195.897333,4198.974256,4179.999898,4149.743488
1,0,4172.30759,4177.435795,4196.922974,4206.153743,4210.256307,4224.102461,4204.102461,4210.256307,4220.512717,4199.487077,4199.487077,4197.948615,4179.999898,4159.487078
2,0,4175.897334,4179.487077,4201.538359,4208.205025,4202.564,4224.615281,4205.640923,4209.743487,4220.512717,4190.769128,4204.615282,4199.487077,4182.564,4159.999898
3,0,4174.358872,4178.974257,4202.051179,4209.230666,4193.846051,4222.051179,4210.256307,4210.769128,4219.487076,4192.30759,4205.640923,4204.102461,4186.153744,4162.05118
4,0,4170.769129,4172.820411,4193.333231,4204.102461,4196.922974,4221.538358,4206.153743,4208.717846,4215.384512,4197.948615,4198.461436,4197.435795,4181.025539,4156.922975
5,0,4169.743488,4174.358872,4191.794769,4203.07682,4209.743487,4224.102461,4206.666564,4209.743487,4217.435794,4195.897333,4201.538359,4195.897333,4181.025539,4150.769129
6,0,4163.589642,4173.333231,4192.30759,4203.07682,4209.230666,4221.025538,4206.153743,4209.743487,4213.33323,4181.025539,4204.102461,4193.333231,4178.974257,4150.769129
7,0,4170.256308,4173.846052,4197.435795,4205.128102,4208.717846,4222.563999,4207.692205,4213.33323,4210.769128,4184.102462,4203.07682,4195.384513,4177.948616,4158.974257
8,0,4183.589641,4182.564,4208.717846,4214.358871,4201.025538,4227.179384,4212.82041,4224.102461,4223.58964,4205.640923,4207.692205,4208.205025,4184.615282,4162.564001
9,0,4184.615282,4190.256308,4214.871692,4219.487076,4202.051179,4231.794768,4218.974256,4230.256307,4234.358871,4216.410153,4214.358871,4215.897333,4192.30759,4166.666565
10,0,4174.871693,4184.102462,4203.07682,4206.666564,4219.999897,4229.230666,4209.743487,4219.999897,4228.717845,4209.230666,4207.692205,4203.589641,4188.717846,4169.230667
11,0,4177.948616,4183.076821,4198.461436,4200.512718,4229.230666,4226.666563,4205.640923,4213.33323,4229.743486,4202.051179,4205.128102,4200.512718,4189.230667,4167.179385
12,0,4184.615282,4190.769128,4205.640923,4209.230666,4218.461435,4226.666563,4213.846051,4215.897333,4231.794768,4196.410154,4212.307589,4210.769128,4194.358872,4166.666565
13,0,4178.974257,4188.205026,4202.564,4209.743487,4201.538359,4222.563999,4212.307589,4209.230666,4217.948615,4197.435795,4210.256307,4209.230666,4190.256308,4166.666565
14,0,4173.333231,4183.589641,4197.435795,4205.640923,4197.435795,4215.897333,4203.07682,4202.051179,4210.769128,4202.051179,4203.589641,4202.051179,4185.640923,4168.205026
15,0,4175.897334,4186.153744,4197.948615,4204.615282,4211.794769,4215.897333,4198.461436,4202.051179,4218.974256,4195.384513,4204.615282,4200.512718,4187.179385,4169.230667
16,0,4181.025539,4189.743487,4203.07682,4202.564,4226.666563,4221.538358,4202.051179,4205.640923,4225.640922,4198.974256,4210.256307,4204.615282,4190.256308,4169.230667
17,0,4178.974257,4186.153744,4203.07682,4198.461436,4216.922974,4219.487076,4203.589641,4208.717846,4227.179384,4208.205025,4211.281948,4208.205025,4190.769128,4168.205026
18,0,4181.025539,4187.692205,4199.999897,4201.538359,4208.205025,4219.999897,4204.102461,4215.897333,4230.256307,4208.717846,4214.358871,4212.307589,4193.846051,4172.820411
19,0,4183.589641,4190.769128,4193.333231,4202.051179,4214.358871,4224.102461,4199.487077,4217.948615,4229.743486,4206.666564,4211.281948,4208.717846,4191.794769,4168.717847
20,0,4183.076821,4194.358872,4198.974256,4204.102461,4223.58964,4227.692204,4207.179384,4221.025538,4235.384512,4207.692205,4213.846051,4209.230666,4190.769128,4168.205026
21,0,4178.974257,4191.281949,4203.589641,4205.128102,4221.538358,4227.179384,4214.871692,4219.999897,4235.897332,4201.538359,4217.435794,4210.769128,4192.30759,4173.333231
22,0,4185.640923,4191.794769,4203.589641,4208.205025,4226.153743,4228.205025,4210.769128,4215.897333,4232.307589,4213.33323,4214.358871,4211.281948,4195.384513,4183.076821
23,0,4183.589641,4190.769128,4197.948615,4206.666564,4232.820409,4225.640922,4199.999897,4212.307589,4227.692204,4215.384512,4205.640923,4199.487077,4190.769128,4181.025539
24,0,4182.564,4195.384513,4199.999897,4210.256307,4232.820409,4225.128102,4208.205025,4218.461435,4228.717845,4201.025538,4206.666564,4194.358872,4187.692205,4173.846052
25,0,4187.179385,4199.999897,4203.589641,4213.846051,4224.102461,4226.666563,4216.410153,4224.615281,4227.692204,4190.769128,4208.205025,4196.410154,4188.717846,4167.179385
26,0,4189.230667,4203.07682,4206.666564,4215.897333,4223.58964,4229.743486,4215.384512,4223.58964,4228.205025,4200.512718,4210.769128,4202.051179,4192.30759,4174.358872
27,0,4182.564,4199.999897,4206.153743,4212.82041,4225.640922,4229.230666,4210.769128,4220.512717,4225.128102,4213.33323,4211.794769,4204.102461,4191.281949,4179.487077
28,0,4188.205026,4204.615282,4213.33323,4215.384512,4230.256307,4232.820409,4216.922974,4224.615281,4225.128102,4222.563999,4217.435794,4214.358871,4195.897333,4181.025539
29,0,4197.435795,4210.769128,4218.974256,4217.435794,4236.922973,4232.307589,4217.948615,4225.128102,4226.153743,4216.410153,4224.102461,4221.538358,4206.666564,4191.794769
30,0,4201.025538,4214.358871,4218.461435,4218.461435,4239.487076,4230.769127,4212.82041,4221.538358,4220.512717,4211.794769,4226.666563,4220.512717,4208.717846,4205.640923
31,0,4203.589641,4211.794769,4220.512717,4218.974256,4223.07682,4226.666563,4208.717846,4218.974256,4213.846051,4216.922974,4218.974256,4219.999897,4202.051179,4204.615282
32,0,4195.897333,4198.974256,4217.435794,4210.769128,4208.205025,4219.487076,4206.153743,4215.897333,4212.82041,4209.230666,4212.82041,4219.487076,4196.410154,4191.794769
33,0,4191.281949,4192.30759,4211.794769,4202.051179,4222.051179,4221.025538,4208.717846,4219.487076,4218.461435,4210.256307,4220.512717,4225.640922,4198.461436,4192.82041
34,0,4198.461436,4200.512718,4213.33323,4207.692205,4234.358871,4227.179384,4209.743487,4222.563999,4222.563999,4217.435794,4228.717845,4231.281948,4204.615282,4205.640923
35,0,4206.666564,4207.179384,4217.435794,4218.461435,4224.102461,4226.666563,4209.743487,4222.563999,4223.07682,4215.384512,4229.230666,4233.33323,4210.256307,4214.871692
36,0,4206.153743,4200.512718,4215.897333,4211.794769,4214.358871,4224.615281,4210.769128,4224.102461,4221.538358,4220.512717,4224.102461,4228.717845,4206.153743,4213.33323
37,0,4198.974256,4197.435795,4214.871692,4209.230666,4214.871692,4225.640922,4212.307589,4225.640922,4225.128102,4231.281948,4220.512717,4222.563999,4200.512718,4205.640923
38,0,4193.333231,4201.025538,4212.82041,4219.487076,4212.82041,4224.615281,4211.281948,4224.615281,4227.692204,4219.487076,4218.461435,4216.922974,4201.025538,4196.410154
39,0,4204.102461,4210.256307,4218.974256,4229.230666,4226.666563,4229.743486,4218.461435,4229.743486,4230.256307,4225.640922,4228.205025,4225.640922,4208.205025,4208.717846
40,0,4203.07682,4202.564,4214.871692,4214.358871,4234.358871,4229.230666,4214.871692,4222.563999,4221.538358,4231.794768,4225.128102,4224.102461,4206.153743,4209.743487
41,0,4194.871692,4195.384513,4209.230666,4205.640923,4228.205025,4225.128102,4210.256307,4212.82041,4217.948615,4215.897333,4215.897333,4215.897333,4202.051179,4201.538359
42,0,4200.512718,4200.512718,4215.897333,4216.410153,4225.640922,4228.205025,4215.384512,4216.922974,4222.563999,4215.897333,4216.410153,4217.948615,4202.564,4204.615282
43,0,4210.769128,4206.666564,4224.615281,4225.128102,4229.230666,4230.769127,4217.948615,4221.025538,4223.07682,4227.692204,4222.051179,4225.640922,4205.128102,4211.281948
44,0,4200.512718,4195.384513,4214.358871,4212.307589,4222.563999,4222.563999,4202.564,4212.307589,4215.897333,4201.538359,4214.358871,4216.410153,4199.999897,4200.512718
45,0,4198.974256,4194.871692,4211.794769,4210.769128,4221.025538,4225.640922,4204.615282,4213.846051,4219.487076,4196.410154,4216.410153,4213.846051,4202.564,4207.692205
46,0,4211.281948,4207.179384,4217.948615,4220.512717,4217.435794,4229.230666,4213.33323,4221.025538,4224.102461,4225.640922,4223.58964,4219.487076,4211.794769,4220.512717
47,0,4221.025538,4218.461435,4221.025538,4228.205025,4217.435794,4226.666563,4214.871692,4223.58964,4223.07682,4233.84605,4225.640922,4225.128102,4223.07682,4216.922974
48,0,4230.256307,4227.179384,4224.102461,4228.205025,4232.307589,4227.179384,4215.897333,4226.153743,4223.58964,4218.461435,4229.230666,4232.820409,4234.871691,4229.743486
49,0,4244.10246,4232.307589,4225.128102,4223.58964,4230.769127,4226.666563,4211.281948,4224.615281,4217.435794,4205.128102,4232.820409,4234.358871,4242.051178,4258.974255
50,0,4265.640921,4242.051178,4227.692204,4230.256307,4206.153743,4219.999897,4201.025538,4220.512717,4211.281948,4206.153743,4235.897332,4235.897332,4252.307588,4275.384511
51,0,4287.692203,4263.076819,4235.897332,4245.640922,4204.615282,4222.051179,4204.102461,4221.025538,4213.33323,4208.205025,4243.58964,4246.666563,4266.666562,4288.717844
52,0,4302.563997,4278.974254,4241.538358,4247.692204,4224.615281,4228.205025,4211.794769,4222.051179,4215.897333,4211.794769,4247.692204,4255.384511,4272.307588,4312.307587
53,0,4304.615279,4274.87169,4238.461435,4235.897332,4222.563999,4222.563999,4203.589641,4217.948615,4215.897333,4219.487076,4239.487076,4248.717845,4268.717844,4322.051176
54,0,4306.153741,4275.897331,4241.025537,4239.999896,4219.999897,4221.025538,4203.07682,4218.461435,4223.07682,4229.230666,4244.10246,4253.84605,4274.35887,4319.999894
55,0,4304.615279,4279.487075,4244.615281,4249.743486,4222.563999,4224.102461,4215.897333,4224.102461,4227.692204,4226.666563,4252.820409,4266.666562,4276.410152,4321.025535
56,0,4291.281946,4269.743485,4241.025537,4244.10246,4219.487076,4224.102461,4223.07682,4229.230666,4229.743486,4232.307589,4251.281947,4265.128101,4264.61528,4314.871689
57,0,4269.230665,4242.563999,4228.717845,4227.179384,4206.153743,4220.512717,4212.307589,4227.179384,4222.563999,4236.922973,4238.974255,4248.717845,4249.230665,4288.205023
58,0,4256.410152,4227.692204,4223.58964,4223.58964,4199.999897,4219.487076,4205.640923,4224.615281,4214.871692,4219.487076,4231.794768,4240.512717,4239.999896,4267.692203
59,0,4243.076819,4222.563999,4217.435794,4220.512717,4206.153743,4217.948615,4200.512718,4219.487076,4210.256307,4199.999897,4223.58964,4231.794768,4227.692204,4249.230665
60,0,4237.435794,4226.666563,4219.487076,4220.512717,4222.563999,4221.538358,4205.128102,4219.999897,4214.358871,4212.307589,4223.58964,4231.281948,4224.615281,4243.58964
61,0,4237.948614,4227.692204,4224.615281,4225.128102,4221.538358,4223.07682,4212.82041,4223.07682,4220.512717,4222.051179,4227.179384,4231.794768,4226.666563,4247.692204
62,0,4235.897332,4224.615281,4225.128102,4230.256307,4210.769128,4224.102461,4221.025538,4227.692204,4227.692204,4218.974256,4227.692204,4232.820409,4223.07682,4245.640922
63,0,4219.487076,4209.743487,4216.410153,4219.999897,4214.358871,4223.07682,4218.974256,4225.128102,4223.07682,4214.871692,4216.922974,4226.153743,4210.769128,4228.717845
64,0,4213.33323,4202.564,4216.922974,4214.871692,4221.538358,4224.102461,4217.435794,4222.051179,4215.384512,4211.794769,4210.769128,4218.461435,4204.615282,4223.58964
65,0,4215.384512,4202.051179,4218.974256,4216.922974,4212.82041,4221.025538,4216.922974,4223.58964,4217.435794,4205.640923,4215.384512,4217.435794,4203.589641,4218.974256
66,0,4210.256307,4194.358872,4219.487076,4215.897333,4201.025538,4214.871692,4214.871692,4225.128102,4217.948615,4208.717846,4223.07682,4221.025538,4205.640923,4211.794769
67,0,4205.640923,4190.769128,4222.563999,4216.410153,4197.948615,4213.33323,4215.897333,4224.615281,4211.794769,4216.922974,4223.07682,4223.58964,4207.692205,4214.871692
68,0,4203.07682,4189.743487,4218.461435,4215.384512,4203.589641,4213.846051,4211.281948,4221.538358,4210.769128,4211.794769,4216.410153,4221.025538,4202.564,4206.666564
69,0,4196.922974,4184.615282,4209.743487,4208.717846,4203.589641,4210.769128,4201.538359,4216.410153,4213.846051,4211.794769,4213.846051,4215.384512,4201.025538,4197.435795
70,0,4195.897333,4184.102462,4210.769128,4205.128102,4204.615282,4213.846051,4205.640923,4214.871692,4219.487076,4222.051179,4213.33323,4212.307589,4204.615282,4203.589641
71,0,4204.615282,4187.692205,4221.538358,4210.769128,4211.281948,4221.538358,4221.538358,4223.07682,4228.717845,4226.666563,4215.384512,4218.461435,4206.666564,4205.128102
72,0,4201.025538,4183.076821,4223.07682,4210.769128,4200.512718,4216.922974,4220.512717,4225.128102,4233.33323,4215.384512,4215.897333,4218.461435,4201.538359,4197.435795
73,0,4191.794769,4182.05118,4213.846051,4207.179384,4194.358872,4213.33323,4214.358871,4223.07682,4235.384512,4214.871692,4213.846051,4210.769128,4199.999897,4197.948615
74,0,4189.743487,4187.179385,4206.666564,4206.666564,4210.769128,4215.897333,4209.743487,4221.538358,4236.922973,4227.179384,4208.205025,4202.564,4198.461436,4188.717846
75,0,4201.538359,4196.922974,4217.948615,4215.897333,4232.307589,4221.025538,4213.846051,4224.615281,4241.538358,4237.948614,4214.358871,4213.846051,4203.589641,4189.743487
76,0,4204.102461,4199.999897,4224.615281,4218.461435,4216.922974,4222.563999,4218.974256,4227.179384,4238.974255,4221.538358,4223.07682,4228.717845,4207.692205,4207.179384
77,0,4196.410154,4193.846051,4217.948615,4214.358871,4194.358872,4219.999897,4216.410153,4226.153743,4232.820409,4210.256307,4224.615281,4228.205025,4203.589641,4207.692205
78,0,4191.281949,4185.640923,4214.358871,4209.230666,4204.102461,4217.435794,4204.102461,4215.384512,4229.743486,4223.58964,4219.999897,4216.410153,4197.435795,4189.743487
79,0,4199.487077,4193.333231,4224.615281,4214.871692,4228.717845,4223.07682,4213.33323,4214.871692,4237.435794,4237.435794,4221.025538,4219.999897,4201.025538,4194.871692
80,0,4197.948615,4195.384513,4219.999897,4212.82041,4222.563999,4221.538358,4217.948615,4218.974256,4233.84605,4222.051179,4218.461435,4221.538358,4199.999897,4197.435795
81,0,4195.897333,4193.333231,4216.410153,4217.948615,4208.717846,4221.025538,4212.307589,4220.512717,4230.256307,4218.974256,4222.563999,4224.102461,4199.487077,4190.769128
82,0,4192.30759,4186.666564,4213.33323,4216.922974,4199.487077,4218.461435,4208.205025,4218.974256,4232.820409,4223.07682,4218.974256,4222.051179,4195.384513,4184.615282
83,0,4183.589641,4181.025539,4205.640923,4207.692205,4191.794769,4216.922974,4213.33323,4219.487076,4230.769127,4217.435794,4211.281948,4209.230666,4191.281949,4185.640923
84,0,4182.05118,4185.128103,4200.512718,4206.666564,4201.025538,4221.025538,4216.922974,4220.512717,4228.717845,4209.743487,4208.717846,4199.487077,4191.794769,4184.615282
85,0,4190.769128,4194.358872,4204.102461,4213.33323,4212.307589,4228.205025,4219.999897,4222.563999,4232.307589,4208.717846,4213.33323,4207.179384,4196.410154,4182.564
86,0,4194.358872,4195.384513,4207.692205,4212.82041,4206.666564,4225.640922,4222.563999,4223.58964,4232.307589,4221.025538,4216.410153,4211.281948,4198.974256,4189.230667
87,0,4194.358872,4193.333231,4207.692205,4209.230666,4217.435794,4223.58964,4222.051179,4227.179384,4229.743486,4235.384512,4214.871692,4208.717846,4203.07682,4193.846051
88,0,4198.974256,4198.461436,4208.717846,4213.33323,4235.897332,4223.58964,4221.025538,4231.794768,4232.820409,4236.922973,4216.922974,4211.281948,4207.692205,4190.769128
89,0,4204.102461,4204.615282,4215.384512,4219.999897,4223.58964,4220.512717,4220.512717,4229.230666,4235.897332,4233.33323,4219.487076,4211.794769,4206.153743,4196.922974
90,0,4210.769128,4213.846051,4228.205025,4227.179384,4209.743487,4224.102461,4221.025538,4230.256307,4236.410153,4239.999896,4225.640922,4221.025538,4210.256307,4212.307589
91,0,4208.205025,4212.307589,4227.692204,4223.58964,4212.307589,4225.640922,4213.846051,4232.307589,4237.435794,4244.10246,4228.717845,4230.769127,4214.358871,4205.128102
92,0,4206.153743,4207.692205,4220.512717,4222.563999,4226.153743,4225.128102,4215.897333,4230.256307,4241.025537,4246.153742,4229.743486,4228.717845,4215.384512,4198.974256
93,0,4205.640923,4206.666564,4214.871692,4222.051179,4235.384512,4223.07682,4223.58964,4226.666563,4239.487076,4237.948614,4224.102461,4217.435794,4209.230666,4201.538359
94,0,4209.230666,4210.769128,4218.461435,4222.563999,4230.769127,4224.615281,4230.769127,4232.307589,4240.512717,4237.948614,4221.025538,4221.025538,4207.179384,4205.128102
95,0,4205.640923,4204.615282,4219.487076,4221.538358,4214.358871,4226.153743,4229.743486,4233.84605,4242.051178,4247.179383,4221.025538,4223.07682,4209.230666,4203.589641
96,0,4198.461436,4197.948615,4208.717846,4216.410153,4216.410153,4222.563999,4225.640922,4227.179384,4234.871691,4243.076819,4220.512717,4213.846051,4208.205025,4200.512718
97,0,4188.205026,4190.769128,4195.384513,4205.128102,4221.538358,4215.897333,4216.410153,4220.512717,4222.051179,4225.640922,4211.794769,4204.102461,4197.948615,4188.717846
98,0,4190.256308,4194.871692,4203.589641,4211.794769,4216.410153,4222.563999,4219.999897,4225.640922,4226.153743,4230.769127,4213.33323,4210.769128,4197.948615,4190.256308
99,0,4192.82041,4197.948615,4208.205025,4218.461435,4212.82041,4226.153743,4222.051179,4228.205025,4233.33323,4232.307589,4215.897333,4212.307589,4201.538359,4194.358872
100,0,4190.256308,4195.384513,4203.589641,4214.871692,4212.82041,4217.435794,4217.948615,4222.051179,4231.794768,4225.128102,4213.33323,4205.640923,4199.487077,4190.769128
101,0,4193.846051,4196.922974,4207.692205,4214.358871,4204.615282,4216.922974,4216.922974,4220.512717,4229.230666,4224.102461,4214.871692,4210.256307,4197.948615,4186.666564
102,0,4200.512718,4205.128102,4216.922974,4220.512717,4215.897333,4226.153743,4221.538358,4224.615281,4232.820409,4230.256307,4220.512717,4219.487076,4199.487077,4194.358872
103,0,4197.435795,4205.128102,4214.358871,4218.974256,4225.128102,4222.563999,4219.487076,4226.666563,4234.871691,4236.410153,4216.922974,4213.846051,4197.948615,4203.07682
104,0,4199.487077,4203.07682,4211.794769,4218.461435,4210.769128,4218.974256,4218.974256,4223.58964,4233.84605,4237.948614,4215.384512,4210.769128,4200.512718,4208.717846
105,0,4206.666564,4203.589641,4212.82041,4218.974256,4212.307589,4224.102461,4220.512717,4219.999897,4232.307589,4234.358871,4222.051179,4219.487076,4205.128102,4205.128102
106,0,4206.666564,4198.461436,4215.384512,4215.897333,4228.717845,4223.58964,4218.974256,4218.974256,4227.692204,4228.205025,4221.538358,4223.07682,4202.051179,4197.948615
107,0,4205.640923,4196.410154,4216.922974,4215.384512,4225.128102,4218.461435,4218.461435,4218.461435,4220.512717,4218.461435,4214.358871,4218.461435,4197.948615,4203.07682
108,0,4202.051179,4191.281949,4210.256307,4208.205025,4215.384512,4218.461435,4210.256307,4212.82041,4214.871692,4205.640923,4209.743487,4212.307589,4195.384513,4203.589641
109,0,4195.897333,4186.666564,4208.205025,4204.615282,4212.82041,4219.999897,4206.153743,4208.717846,4216.922974,4215.897333,4210.769128,4213.33323,4193.846051,4193.333231
110,0,4191.794769,4187.179385,4210.256307,4211.281948,4198.974256,4218.461435,4214.358871,4211.281948,4219.999897,4228.717845,4211.281948,4213.846051,4193.333231,4189.743487
111,0,4190.769128,4189.743487,4210.256307,4215.384512,4199.487077,4221.025538,4219.487076,4215.384512,4221.538358,4228.205025,4211.281948,4209.743487,4194.358872,4198.974256
112,0,4186.153744,4185.128103,4204.615282,4206.666564,4213.846051,4222.051179,4207.692205,4213.33323,4217.435794,4216.922974,4204.615282,4197.948615,4187.692205,4194.358872
113,0,4197.435795,4193.846051,4211.794769,4214.871692,4219.999897,4224.102461,4215.384512,4217.435794,4221.025538,4214.871692,4211.794769,4206.153743,4191.281949,4190.256308
114,0,4207.692205,4199.487077,4217.948615,4224.102461,4214.358871,4221.025538,4223.07682,4217.948615,4221.025538,4217.948615,4221.538358,4216.922974,4197.948615,4194.358872
115,0,4206.666564,4199.487077,4219.487076,4225.128102,4219.487076,4222.051179,4218.461435,4217.948615,4219.999897,4233.84605,4224.102461,4216.410153,4203.589641,4205.640923
116,0,4199.487077,4195.897333,4216.410153,4224.615281,4217.435794,4219.487076,4213.846051,4218.974256,4221.025538,4237.948614,4216.922974,4207.179384,4204.102461,4207.692205
117,0,4205.640923,4199.487077,4221.025538,4228.205025,4215.384512,4218.461435,4222.563999,4222.051179,4224.102461,4232.307589,4215.897333,4211.281948,4203.07682,4208.717846
118,0,4211.281948,4202.051179,4223.58964,4225.640922,4221.025538,4219.487076,4222.563999,4222.051179,4221.025538,4225.128102,4216.922974,4215.384512,4199.487077,4206.153743
119,0,4211.281948,4206.666564,4225.640922,4231.794768,4222.563999,4222.563999,4223.07682,4221.025538,4221.538358,4221.538358,4221.025538,4215.384512,4204.102461,4202.051179
120,0,4208.205025,4206.153743,4225.640922,4233.84605,4218.461435,4221.025538,4224.615281,4214.358871,4221.025538,4221.025538,4222.051179,4215.384512,4207.179384,4199.999897
121,0,4209.230666,4203.589641,4222.563999,4228.717845,4223.07682,4223.07682,4225.640922,4211.794769,4216.922974,4220.512717,4216.410153,4215.384512,4201.538359,4206.153743
122,0,4204.615282,4198.974256,4215.897333,4226.153743,4223.58964,4226.666563,4225.640922,4216.410153,4209.230666,4216.922974,4211.281948,4211.281948,4194.358872,4203.07682
123,0,4193.333231,4191.794769,4209.230666,4223.58964,4211.794769,4217.435794,4214.871692,4212.82041,4199.999897,4208.717846,4207.179384,4201.025538,4190.769128,4185.640923
124,0,4192.82041,4190.769128,4209.743487,4218.974256,4213.846051,4209.230666,4203.07682,4205.640923,4197.948615,4202.564,4205.128102,4196.410154,4190.769128,4181.025539
125,0,4195.384513,4187.692205,4216.410153,4217.948615,4224.102461,4215.384512,4207.179384,4208.205025,4202.564,4211.794769,4210.769128,4203.589641,4192.30759,4191.794769
126,0,4190.769128,4181.025539,4216.410153,4217.948615,4210.256307,4214.871692,4210.769128,4210.769128,4199.487077,4216.410153,4212.307589,4208.205025,4190.769128,4191.794769
127,0,4190.769128,4182.05118,4209.743487,4214.871692,4185.640923,4204.102461,4200.512718,4204.615282,4191.281949,4202.564,4208.717846,4203.589641,4188.717846,4189.743487
128,0,4209.230666,4194.871692,4221.025538,4219.999897,4189.230667,4203.589641,4204.102461,4208.717846,4195.897333,4209.743487,4221.025538,4214.871692,4195.897333,4207.179384
0,0,4214.871692,4194.358872,4228.717845,4219.487076,4213.846051,4214.358871,4213.846051,4214.358871,4198.461436,4221.538358,4227.179384,4227.692204,4203.07682,4215.897333
1,0,4209.743487,4193.333231,4224.615281,4216.410153,4226.666563,4223.07682,4216.922974,4214.871692,4197.948615,4211.794769,4221.025538,4225.640922,4203.07682,4213.846051
2,0,4205.128102,4196.410154,4222.051179,4218.461435,4206.666564,4217.948615,4214.871692,4216.410153,4199.487077,4205.128102,4215.384512,4215.384512,4196.922974,4209.743487
3,0,4211.794769,4203.07682,4227.692204,4228.205025,4196.410154,4211.281948,4221.538358,4223.58964,4204.615282,4224.102461,4218.461435,4216.922974,4201.025538,4215.897333
4,0,4210.769128,4197.435795,4219.999897,4222.051179,4205.128102,4209.743487,4216.922974,4218.974256,4204.102461,4221.025538,4213.846051,4210.256307,4198.974256,4211.794769
5,0,4208.205025,4195.897333,4216.922974,4215.384512,4221.538358,4214.871692,4211.281948,4211.281948,4207.179384,4217.435794,4212.307589,4206.666564,4194.871692,4203.589641
6,0,4213.33323,4204.102461,4225.128102,4223.58964,4219.487076,4213.846051,4213.846051,4212.82041,4209.230666,4224.615281,4214.358871,4210.256307,4199.487077,4204.102461
7,0,4220.512717,4211.794769,4231.281948,4233.84605,4209.230666,4214.358871,4221.025538,4217.948615,4212.82041,4225.640922,4222.051179,4214.871692,4207.692205,4217.948615
8,0,4207.179384,4200.512718,4217.948615,4221.538358,4202.051179,4213.33323,4212.307589,4211.281948,4214.358871,4216.922974,4217.948615,4204.615282,4199.487077,4210.769128
9,0,4196.410154,4186.153744,4204.615282,4205.128102,4193.333231,4211.281948,4199.487077,4205.640923,4211.281948,4209.230666,4201.538359,4190.256308,4188.205026,4188.205026
10,0,4202.051179,4187.692205,4207.179384,4209.230666,4188.717846,4211.281948,4204.102461,4211.794769,4211.281948,4199.487077,4201.025538,4189.230667,4189.230667,4182.564
11,0,4207.179384,4198.461436,4214.871692,4221.538358,4202.564,4212.307589,4219.487076,4216.922974,4222.563999,4203.07682,4217.948615,4198.974256,4200.512718,4197.948615
12,0,4205.640923,4201.025538,4213.846051,4218.974256,4224.102461,4211.794769,4224.102461,4215.384512,4230.256307,4221.538358,4222.051179,4200.512718,4209.230666,4210.256307
13,0,4202.564,4195.384513,4209.743487,4213.33323,4219.487076,4214.358871,4221.025538,4216.922974,4224.615281,4225.128102,4213.33323,4192.82041,4202.051179,4203.589641
14,0,4203.589641,4197.435795,4211.281948,4220.512717,4196.410154,4215.897333,4219.487076,4221.025538,4218.974256,4216.410153,4209.230666,4193.846051,4194.358872,4193.333231
15,0,4209.230666,4203.589641,4212.307589,4224.102461,4198.974256,4214.871692,4222.563999,4219.487076,4219.999897,4213.33323,4210.769128,4197.435795,4197.948615,4198.974256
16,0,4212.307589,4204.102461,4213.33323,4221.025538,4221.538358,4217.435794,4228.717845,4219.999897,4225.640922,4215.897333,4215.384512,4198.461436,4201.025538,4212.82041
17,0,4200.512718,4195.897333,4208.205025,4214.871692,4216.922974,4218.461435,4223.07682,4224.102461,4226.153743,4214.358871,4212.82041,4197.948615,4194.358872,4207.179384
18,0,4199.487077,4196.922974,4206.153743,4212.82041,4201.538359,4215.384512,4219.487076,4226.666563,4225.640922,4213.33323,4208.717846,4198.974256,4192.82041,4196.922974
19,0,4202.051179,4192.82041,4203.07682,4209.230666,4203.07682,4208.717846,4212.82041,4219.487076,4217.948615,4202.051179,4201.538359,4191.281949,4190.256308,4189.230667
20,0,4199.487077,4186.666564,4203.589641,4207.179384,4208.205025,4206.153743,4208.717846,4214.871692,4212.307589,4197.948615,4203.07682,4188.717846,4186.666564,4184.102462
21,0,4198.461436,4185.128103,4207.179384,4207.179384,4196.922974,4207.179384,4210.769128,4215.897333,4213.33323,4204.102461,4212.307589,4193.846051,4187.692205,4184.102462
22,0,4208.205025,4198.461436,4216.922974,4217.948615,4201.538359,4212.82041,4223.58964,4222.051179,4219.487076,4221.538358,4223.58964,4205.640923,4201.025538,4203.589641
23,0,4208.205025,4207.179384,4215.384512,4221.025538,4216.410153,4215.384512,4224.102461,4219.487076,4217.435794,4224.102461,4217.948615,4207.179384,4205.128102,4212.82041
24,0,4201.025538,4201.025538,4208.717846,4209.743487,4220.512717,4215.384512,4218.974256,4216.410153,4211.281948,4210.769128,4207.179384,4196.410154,4194.871692,4202.564
25,0,4194.871692,4188.205026,4203.07682,4198.974256,4208.717846,4210.256307,4215.897333,4215.384512,4207.179384,4192.30759,4202.564,4185.128103,4186.666564,4185.640923
26,0,4200.512718,4195.897333,4209.743487,4208.717846,4208.717846,4213.33323,4224.102461,4220.512717,4215.897333,4197.435795,4213.33323,4195.384513,4195.384513,4191.794769
27,0,4211.281948,4210.256307,4216.922974,4222.563999,4217.435794,4223.07682,4234.871691,4229.230666,4226.666563,4216.922974,4222.563999,4207.692205,4202.051179,4211.281948
28,0,4221.025538,4219.487076,4221.025538,4231.281948,4227.179384,4230.769127,4243.076819,4236.410153,4231.281948,4230.769127,4223.07682,4207.179384,4201.025538,4214.358871
29,0,4218.461435,4222.051179,4218.974256,4228.717845,4229.743486,4228.205025,4241.538358,4232.820409,4229.743486,4233.33323,4217.435794,4199.487077,4199.999897,4204.615282
30,0,4210.769128,4214.358871,4213.846051,4218.974256,4222.563999,4221.025538,4234.871691,4228.205025,4228.717845,4228.205025,4214.871692,4195.384513,4199.487077,4201.538359
31,0,4208.205025,4206.153743,4211.281948,4212.307589,4227.692204,4222.563999,4234.871691,4232.307589,4229.230666,4216.410153,4216.922974,4198.974256,4199.999897,4204.102461
32,0,4207.179384,4211.281948,4213.33323,4217.948615,4235.384512,4230.256307,4238.461435,4232.307589,4227.179384,4211.281948,4217.948615,4201.538359,4200.512718,4206.153743
33,0,4208.717846,4215.384512,4215.384512,4224.615281,4221.025538,4224.102461,4231.281948,4226.153743,4217.948615,4218.974256,4211.794769,4200.512718,4197.435795,4199.999897
34,0,4206.153743,4204.102461,4207.179384,4213.33323,4208.717846,4215.384512,4217.435794,4218.974256,4215.384512,4214.358871,4207.179384,4197.948615,4191.281949,4190.769128
35,0,4206.153743,4204.615282,4207.692205,4209.230666,4225.128102,4225.128102,4224.615281,4222.051179,4225.128102,4211.794769,4219.487076,4202.564,4197.435795,4208.205025
36,0,4206.666564,4216.922974,4215.384512,4220.512717,4229.743486,4230.769127,4233.33323,4225.128102,4223.58964,4225.128102,4224.102461,4200.512718,4208.717846,4222.563999
37,0,4218.461435,4231.281948,4226.153743,4234.358871,4223.58964,4226.666563,4236.410153,4226.666563,4222.051179,4234.871691,4227.179384,4203.589641,4213.33323,4216.922974
38,0,4219.487076,4227.692204,4225.128102,4231.281948,4226.666563,4223.58964,4231.281948,4223.07682,4222.563999,4213.846051,4226.153743,4203.07682,4207.179384,4214.871692
39,0,4213.33323,4221.538358,4221.538358,4229.230666,4219.999897,4225.128102,4227.692204,4217.435794,4221.025538,4205.640923,4222.051179,4193.333231,4205.640923,4221.538358
40,0,4205.640923,4217.948615,4213.33323,4223.58964,4217.435794,4224.102461,4220.512717,4212.82041,4214.871692,4216.410153,4215.897333,4174.358872,4204.102461,4206.666564
41,0,4200.512718,4213.846051,4205.640923,4215.897333,4236.922973,4219.999897,4215.897333,4214.358871,4211.794769,4215.897333,4212.82041,4161.53836,4199.487077,4198.974256
42,0,4201.025538,4211.794769,4206.153743,4221.538358,4225.128102,4216.410153,4216.410153,4216.410153,4213.846051,4204.102461,4210.769128,4161.53836,4197.435795,4207.692205
43,0,4210.256307,4219.999897,4215.384512,4232.307589,4211.794769,4221.538358,4225.128102,4219.999897,4222.051179,4210.256307,4217.435794,4174.358872,4201.025538,4213.846051
44,0,4207.692205,4217.948615,4215.384512,4225.640922,4229.230666,4222.563999,4228.717845,4221.025538,4223.07682,4222.051179,4218.974256,4178.974257,4198.974256,4204.102461
45,0,4203.07682,4214.358871,4213.846051,4219.487076,4254.871691,4225.640922,4231.794768,4224.102461,4222.563999,4225.128102,4217.948615,4185.128103,4201.025538,4200.512718
46,0,4209.743487,4220.512717,4217.948615,4224.102461,4253.333229,4230.256307,4233.33323,4226.153743,4226.153743,4225.640922,4221.538358,4193.846051,4208.205025,4216.922974
47,0,4216.410153,4223.07682,4223.07682,4229.743486,4231.794768,4223.58964,4229.230666,4225.640922,4223.58964,4229.743486,4222.563999,4197.435795,4204.615282,4222.563999
48,0,4217.948615,4219.999897,4223.58964,4230.256307,4225.128102,4216.410153,4223.07682,4223.58964,4218.974256,4234.358871,4219.487076,4201.025538,4199.487077,4207.692205
49,0,4215.384512,4222.051179,4218.974256,4224.102461,4241.538358,4223.07682,4222.563999,4222.051179,4221.025538,4237.948614,4224.102461,4207.179384,4206.153743,4212.82041
50,0,4205.128102,4215.384512,4211.794769,4216.922974,4233.33323,4221.025538,4225.640922,4216.922974,4216.922974,4233.33323,4224.615281,4205.128102,4211.281948,4221.538358
51,0,4203.07682,4209.230666,4214.871692,4222.563999,4195.897333,4214.358871,4227.692204,4214.871692,4215.384512,4229.743486,4221.538358,4204.102461,4208.717846,4211.281948
52,0,4211.794769,4218.461435,4220.512717,4226.666563,4210.769128,4219.999897,4228.205025,4219.487076,4223.07682,4233.33323,4226.153743,4207.692205,4209.230666,4214.358871
53,0,4205.128102,4217.435794,4210.769128,4215.897333,4239.487076,4219.999897,4221.025538,4218.974256,4220.512717,4219.487076,4223.58964,4200.512718,4208.205025,4221.025538
54,0,4198.461436,4214.871692,4205.128102,4215.897333,4224.615281,4215.384512,4224.615281,4218.461435,4216.410153,4208.717846,4221.025538,4202.051179,4206.153743,4211.794769
55,0,4205.128102,4215.897333,4207.692205,4222.051179,4205.640923,4215.897333,4229.743486,4221.538358,4217.948615,4218.461435,4218.461435,4202.051179,4204.102461,4201.025538
56,0,4213.33323,4217.948615,4213.846051,4227.692204,4202.051179,4216.410153,4224.102461,4223.58964,4222.563999,4230.256307,4215.897333,4194.358872,4204.102461,4208.205025
57,0,4202.564,4211.281948,4208.205025,4220.512717,4192.30759,4207.692205,4205.128102,4213.846051,4217.948615,4210.256307,4205.640923,4178.461436,4194.871692,4201.025538
58,0,4204.102461,4217.435794,4206.666564,4217.435794,4213.33323,4213.33323,4208.205025,4210.769128,4221.538358,4206.666564,4209.743487,4183.076821,4195.384513,4195.897333
59,0,4211.794769,4221.025538,4207.692205,4215.897333,4238.461435,4223.58964,4216.410153,4213.33323,4225.640922,4214.358871,4214.871692,4191.794769,4202.564,4203.589641
60,0,4207.179384,4214.871692,4207.692205,4215.384512,4218.461435,4221.025538,4213.846051,4213.846051,4225.640922,4206.666564,4213.846051,4192.82041,4202.051179,4209.743487
61,0,4193.846051,4206.666564,4197.435795,4208.717846,4196.922974,4213.846051,4210.256307,4209.743487,4219.487076,4197.948615,4208.205025,4184.102462,4193.333231,4202.564
62,0,4192.30759,4206.153743,4196.922974,4207.179384,4211.281948,4217.435794,4217.948615,4210.256307,4215.897333,4207.692205,4209.230666,4186.153744,4193.846051,4196.410154
63,0,4198.974256,4205.128102,4208.717846,4212.82041,4206.153743,4217.948615,4218.461435,4208.717846,4216.410153,4209.743487,4213.846051,4194.871692,4197.435795,4199.999897
64,0,4207.179384,4206.666564,4217.435794,4219.487076,4198.974256,4217.435794,4218.461435,4210.256307,4223.07682,4210.256307,4221.538358,4200.512718,4198.461436,4213.846051
65,0,4206.666564,4207.692205,4211.281948,4216.410153,4213.33323,4221.025538,4216.922974,4216.922974,4225.128102,4214.358871,4221.538358,4198.974256,4199.999897,4218.974256
66,0,4201.538359,4205.640923,4205.640923,4210.769128,4212.82041,4222.563999,4212.82041,4215.897333,4216.922974,4209.230666,4216.410153,4195.384513,4202.051179,4211.794769
67,0,4203.589641,4204.102461,4208.205025,4213.846051,4201.025538,4219.487076,4215.897333,4211.281948,4213.33323,4205.640923,4215.384512,4197.435795,4199.999897,4206.153743
68,0,4204.102461,4205.128102,4207.692205,4216.410153,4192.82041,4212.82041,4219.999897,4213.846051,4215.897333,4210.256307,4213.846051,4198.461436,4195.897333,4209.230666
69,0,4201.025538,4205.640923,4205.128102,4213.846051,4193.846051,4214.871692,4222.051179,4217.948615,4216.922974,4210.256307,4213.846051,4199.999897,4198.974256,4211.281948
70,0,4201.025538,4205.640923,4207.692205,4210.256307,4215.897333,4226.666563,4230.256307,4215.897333,4215.384512,4215.384512,4219.999897,4204.102461,4206.153743,4205.640923
71,0,4205.128102,4208.205025,4212.307589,4209.743487,4230.769127,4229.743486,4237.435794,4218.974256,4216.922974,4228.205025,4223.07682,4209.743487,4208.205025,4206.153743
72,0,4204.102461,4206.666564,4210.769128,4214.871692,4198.461436,4216.922974,4227.179384,4224.615281,4213.846051,4216.410153,4216.922974,4205.640923,4204.102461,4210.769128
73,0,4205.128102,4209.230666,4207.179384,4219.487076,4184.615282,4212.307589,4221.538358,4224.102461,4211.794769,4205.640923,4217.948615,4197.948615,4205.640923,4219.487076
74,0,4203.07682,4206.153743,4201.025538,4210.769128,4218.461435,4218.461435,4223.07682,4218.461435,4213.846051,4216.410153,4217.948615,4194.871692,4206.153743,4215.384512
75,0,4207.179384,4208.717846,4209.743487,4212.82041,4228.717845,4222.051179,4226.666563,4219.487076,4218.974256,4231.281948,4217.948615,4203.07682,4207.179384,4213.846051
76,0,4215.384512,4215.897333,4220.512717,4224.102461,4204.102461,4218.974256,4227.692204,4221.025538,4221.538358,4222.563999,4218.974256,4205.640923,4208.717846,4218.974256
77,0,4216.922974,4219.487076,4221.025538,4226.666563,4205.128102,4220.512717,4232.307589,4223.58964,4227.179384,4220.512717,4223.07682,4206.666564,4213.33323,4226.153743
78,0,4203.589641,4203.589641,4208.205025,4212.307589,4211.794769,4219.487076,4225.640922,4219.999897,4224.615281,4219.487076,4215.897333,4198.974256,4206.666564,4213.33323
79,0,4206.153743,4203.589641,4211.794769,4214.358871,4214.358871,4224.102461,4228.205025,4221.538358,4223.58964,4215.384512,4216.922974,4200.512718,4205.128102,4206.666564
80,0,4217.948615,4218.974256,4222.051179,4230.256307,4222.563999,4230.769127,4238.974255,4225.128102,4225.640922,4216.922974,4223.07682,4207.179384,4211.281948,4218.974256
81,0,4217.948615,4224.102461,4219.487076,4236.922973,4228.205025,4231.281948,4240.512717,4225.128102,4224.615281,4223.07682,4221.538358,4206.666564,4212.82041,4223.07682
82,0,4212.307589,4216.410153,4210.256307,4226.153743,4220.512717,4222.563999,4232.307589,4221.025538,4220.512717,4217.435794,4211.794769,4197.948615,4205.128102,4209.230666
83,0,4212.82041,4214.358871,4211.794769,4221.538358,4217.435794,4220.512717,4230.256307,4216.410153,4218.974256,4209.743487,4210.256307,4194.871692,4204.102461,4209.230666
84,0,4217.948615,4219.487076,4218.974256,4228.717845,4208.717846,4221.538358,4229.230666,4215.897333,4216.922974,4214.358871,4217.435794,4198.974256,4207.179384,4221.025538
85,0,4229.230666,4226.666563,4226.153743,4232.820409,4207.179384,4224.615281,4231.794768,4224.102461,4223.58964,4226.153743,4225.640922,4209.230666,4211.794769,4232.307589
86,0,4228.205025,4222.563999,4222.563999,4225.128102,4222.051179,4228.717845,4236.922973,4228.205025,4230.769127,4226.666563,4225.128102,4212.307589,4214.358871,4234.871691
87,0,4214.358871,4211.281948,4210.769128,4217.435794,4220.512717,4225.128102,4229.743486,4221.025538,4224.102461,4217.435794,4219.999897,4202.564,4210.769128,4224.615281
88,0,4219.999897,4217.435794,4218.974256,4223.58964,4213.846051,4223.07682,4224.102461,4222.563999,4223.58964,4232.820409,4225.640922,4212.307589,4215.384512,4227.692204
89,0,4228.205025,4221.025538,4231.794768,4226.666563,4222.051179,4224.615281,4227.692204,4227.692204,4228.205025,4244.615281,4231.281948,4223.58964,4221.025538,4242.051178
90,0,4222.563999,4214.358871,4225.640922,4223.07682,4223.07682,4222.051179,4230.256307,4225.128102,4225.128102,4224.102461,4229.230666,4212.82041,4217.948615,4242.051178
91,0,4216.410153,4211.281948,4215.897333,4223.58964,4215.897333,4219.487076,4223.58964,4219.999897,4221.025538,4210.256307,4226.666563,4205.640923,4216.410153,4229.743486
92,0,4218.461435,4213.33323,4216.922974,4225.640922,4221.538358,4217.948615,4219.487076,4214.871692,4222.563999,4228.717845,4224.615281,4213.33323,4219.487076,4228.717845
93,0,4213.846051,4204.615282,4210.256307,4217.435794,4219.487076,4212.307589,4216.410153,4207.692205,4214.358871,4222.563999,4213.33323,4205.128102,4210.769128,4227.179384
94,0,4218.974256,4209.230666,4215.384512,4224.615281,4213.846051,4218.461435,4225.640922,4214.871692,4213.33323,4207.692205,4220.512717,4208.205025,4211.281948,4239.487076
95,0,4224.102461,4216.922974,4224.102461,4231.794768,4231.281948,4229.230666,4232.307589,4221.025538,4220.512717,4218.974256,4233.84605,4221.025538,4223.58964,4249.743486
96,0,4226.153743,4218.974256,4221.538358,4227.179384,4257.435793,4228.717845,4230.256307,4217.948615,4226.153743,4236.922973,4230.256307,4219.487076,4226.666563,4244.615281
97,0,4226.666563,4220.512717,4218.461435,4227.179384,4236.922973,4221.025538,4224.615281,4217.435794,4224.615281,4225.640922,4220.512717,4208.205025,4216.922974,4235.384512
98,0,4224.102461,4222.563999,4220.512717,4232.820409,4214.358871,4219.487076,4226.153743,4221.025538,4222.051179,4212.82041,4219.999897,4206.153743,4212.82041,4236.922973
99,0,4216.410153,4212.82041,4215.384512,4221.538358,4233.84605,4216.410153,4223.58964,4219.999897,4222.563999,4219.487076,4219.487076,4205.128102,4211.794769,4231.794768
100,0,4226.153743,4218.974256,4227.179384,4222.051179,4256.922973,4224.102461,4232.307589,4226.153743,4234.358871,4238.461435,4231.281948,4221.025538,4219.487076,4231.281948
101,0,4237.435794,4232.820409,4236.922973,4231.794768,4256.922973,4232.820409,4242.563999,4231.794768,4238.974255,4241.025537,4241.025537,4231.281948,4225.128102,4243.58964
102,0,4234.871691,4234.871691,4230.256307,4228.205025,4256.410152,4230.256307,4242.563999,4230.769127,4232.307589,4238.974255,4235.384512,4221.538358,4222.051179,4259.487075
103,0,4231.281948,4232.307589,4230.769127,4225.128102,4245.640922,4225.128102,4239.999896,4230.769127,4229.743486,4248.717845,4228.717845,4217.948615,4221.025538,4260.512716
104,0,4229.230666,4227.179384,4229.743486,4225.128102,4228.717845,4221.538358,4235.897332,4225.640922,4228.205025,4246.153742,4227.179384,4220.512717,4220.512717,4239.999896
105,0,4221.538358,4216.922974,4215.897333,4214.358871,4224.102461,4210.256307,4225.128102,4212.82041,4222.051179,4222.563999,4224.102461,4214.871692,4213.33323,4224.615281
106,0,4215.897333,4215.384512,4211.794769,4210.769128,4216.410153,4208.717846,4213.33323,4207.692205,4217.435794,4205.640923,4224.102461,4211.794769,4208.717846,4230.256307
107,0,4227.179384,4230.769127,4227.179384,4224.102461,4224.615281,4222.563999,4221.025538,4218.461435,4225.128102,4222.051179,4229.230666,4223.07682,4215.384512,4242.051178
108,0,4237.435794,4241.025537,4234.871691,4229.230666,4243.58964,4223.58964,4234.871691,4226.666563,4234.358871,4246.153742,4234.871691,4230.769127,4223.58964,4245.640922
109,0,4234.358871,4239.999896,4229.230666,4226.153743,4240.512717,4212.307589,4231.281948,4225.128102,4236.922973,4247.692204,4237.435794,4228.205025,4226.153743,4244.10246
110,0,4222.051179,4229.230666,4214.871692,4219.999897,4231.794768,4210.769128,4214.358871,4219.487076,4232.307589,4228.717845,4227.179384,4215.897333,4218.461435,4237.948614
111,0,4225.128102,4231.794768,4218.461435,4224.615281,4242.563999,4218.974256,4219.487076,4224.615281,4238.974255,4225.128102,4229.230666,4217.435794,4215.897333,4237.948614
112,0,4226.153743,4231.794768,4221.025538,4223.07682,4232.820409,4213.33323,4222.051179,4224.102461,4237.435794,4227.692204,4230.769127,4219.487076,4214.871692,4226.666563
113,0,4222.051179,4228.717845,4214.358871,4217.435794,4227.179384,4208.205025,4215.897333,4216.410153,4226.666563,4228.717845,4223.07682,4214.871692,4210.256307,4223.07682
114,0,4223.58964,4228.205025,4214.871692,4216.410153,4243.58964,4215.384512,4222.563999,4212.82041,4225.128102,4227.692204,4218.461435,4211.281948,4208.205025,4234.358871
115,0,4234.871691,4235.897332,4225.640922,4222.051179,4252.820409,4228.717845,4242.563999,4221.538358,4231.281948,4230.256307,4227.692204,4217.435794,4216.410153,4244.615281
116,0,4234.358871,4232.820409,4224.102461,4219.999897,4227.692204,4223.58964,4237.948614,4218.461435,4221.025538,4221.538358,4228.717845,4215.897333,4216.410153,4233.33323
117,0,4230.769127,4229.230666,4221.025538,4219.999897,4219.487076,4214.871692,4228.717845,4213.33323,4212.82041,4223.58964,4227.179384,4216.410153,4214.871692,4227.179384
118,0,4224.615281,4224.102461,4216.922974,4213.846051,4253.333229,4221.538358,4230.256307,4216.922974,4215.897333,4238.461435,4227.692204,4215.897333,4213.846051,4236.922973
119,0,4217.435794,4218.461435,4212.82041,4203.589641,4259.999896,4228.205025,4231.281948,4219.999897,4218.461435,4235.384512,4229.230666,4212.307589,4212.307589,4243.58964
120,0,4216.410153,4216.410153,4212.82041,4205.640923,4225.128102,4218.461435,4224.615281,4216.922974,4210.256307,4217.948615,4227.692204,4211.281948,4211.794769,4237.948614
121,0,4225.640922,4221.538358,4217.435794,4214.358871,4228.205025,4211.794769,4219.999897,4215.897333,4207.179384,4225.640922,4229.230666,4218.974256,4213.33323,4233.33323
122,0,4228.205025,4223.58964,4214.358871,4210.769128,4266.153742,4214.871692,4217.435794,4216.410153,4212.82041,4238.461435,4231.281948,4221.538358,4215.384512,4234.871691
123,0,4224.615281,4220.512717,4210.256307,4207.179384,4261.025537,4219.999897,4216.410153,4215.897333,4213.846051,4226.153743,4228.205025,4215.897333,4215.897333,4237.948614
124,0,4224.615281,4217.948615,4210.769128,4210.769128,4230.256307,4221.538358,4221.538358,4221.025538,4212.307589,4228.205025,4228.717845,4215.384512,4216.410153,4239.487076
125,0,4217.435794,4210.256307,4205.640923,4208.205025,4233.84605,4216.410153,4217.948615,4217.435794,4214.358871,4235.897332,4227.179384,4209.743487,4211.794769,4233.33323
126,0,4212.307589,4208.205025,4196.410154,4202.051179,4249.743486,4210.769128,4205.128102,4204.102461,4211.794769,4213.846051,4217.435794,4194.871692,4207.179384,4229.230666
127,0,4218.974256,4217.435794,4198.461436,4204.102461,4246.666563,4210.256307,4197.948615,4202.564,4206.666564,4194.871692,4212.307589,4190.256308,4204.615282,4233.84605
128,0,4235.897332,4235.384512,4218.974256,4222.563999,4244.615281,4218.974256,4213.33323,4218.461435,4214.358871,4219.487076,4224.615281,4209.230666,4209.743487,4248.717845
0,0,4243.58964,4238.974255,4227.179384,4227.692204,4249.743486,4223.58964,4221.538358,4222.563999,4216.922974,4232.307589,4226.666563,4213.846051,4211.281948,4250.256306
1,0,4243.58964,4237.435794,4224.615281,4219.999897,4258.461434,4223.58964,4217.948615,4216.922974,4216.922974,4219.487076,4219.487076,4206.666564,4207.692205,4244.615281
2,0,4237.948614,4232.820409,4222.563999,4215.897333,4246.153742,4217.948615,4210.769128,4213.846051,4215.384512,4210.769128,4214.358871,4207.179384,4201.538359,4237.948614
3,0,4239.487076,4234.871691,4233.84605,4228.205025,4228.717845,4215.384512,4218.461435,4219.487076,4216.410153,4212.82041,4218.461435,4218.461435,4204.615282,4238.974255
4,0,4234.358871,4225.128102,4231.794768,4225.128102,4235.897332,4214.358871,4220.512717,4219.487076,4216.922974,4203.07682,4215.384512,4215.897333,4202.564,4230.769127
5,0,4228.717845,4214.358871,4219.487076,4209.743487,4260.512716,4217.435794,4213.846051,4214.358871,4220.512717,4204.615282,4213.846051,4211.281948,4197.435795,4227.692204
6,0,4232.307589,4218.974256,4217.948615,4210.769128,4253.84605,4217.435794,4213.846051,4210.769128,4219.999897,4216.410153,4215.897333,4212.82041,4199.487077,4238.974255
7,0,4234.358871,4223.07682,4221.538358,4219.487076,4238.461435,4212.307589,4216.410153,4211.281948,4221.025538,4216.922974,4213.846051,4214.358871,4199.999897,4239.999896
8,0,4227.692204,4212.307589,4212.82041,4211.281948,4230.256307,4209.230666,4206.153743,4212.307589,4223.07682,4204.102461,4211.281948,4212.82041,4194.871692,4224.615281
9,0,4230.256307,4215.384512,4214.358871,4211.794769,4228.717845,4213.33323,4204.102461,4214.358871,4225.640922,4206.153743,4223.58964,4216.922974,4200.512718,4230.256307
10,0,4233.84605,4226.666563,4220.512717,4221.538358,4242.051178,4212.307589,4207.179384,4211.794769,4227.179384,4217.948615,4226.153743,4213.846051,4208.205025,4248.717845
11,0,4229.743486,4228.205025,4214.358871,4222.051179,4254.35887,4209.743487,4201.025538,4206.666564,4226.153743,4222.051179,4213.846051,4202.051179,4203.589641,4243.58964
12,0,4232.820409,4231.281948,4211.794769,4223.07682,4244.615281,4215.384512,4204.615282,4211.794769,4225.128102,4222.563999,4213.846051,4200.512718,4202.564,4230.769127
13,0,4236.922973,4229.743486,4216.410153,4224.615281,4236.410153,4217.435794,4215.384512,4214.871692,4221.025538,4221.025538,4219.999897,4201.538359,4206.666564,4233.84605
14,0,4228.205025,4217.435794,4212.307589,4217.948615,4235.384512,4210.256307,4209.743487,4205.640923,4211.794769,4208.205025,4214.358871,4194.871692,4202.564,4237.948614
15,0,4218.461435,4214.871692,4207.179384,4215.384512,4229.743486,4211.281948,4206.666564,4204.102461,4209.743487,4192.30759,4210.769128,4190.769128,4198.974256,4225.640922
16,0,4222.051179,4227.179384,4210.769128,4222.563999,4243.58964,4219.999897,4221.538358,4216.410153,4218.974256,4203.589641,4217.948615,4195.897333,4205.640923,4221.538358
17,0,4221.025538,4227.692204,4208.205025,4222.563999,4248.205024,4216.922974,4225.128102,4217.948615,4222.563999,4219.487076,4217.948615,4191.794769,4203.07682,4227.692204
18,0,4220.512717,4229.743486,4213.33323,4227.692204,4239.487076,4213.33323,4226.666563,4216.922974,4222.051179,4224.102461,4216.410153,4190.769128,4199.999897,4234.871691
19,0,4223.58964,4231.794768,4221.538358,4231.281948,4235.897332,4211.794769,4225.128102,4218.461435,4213.846051,4210.769128,4213.846051,4194.358872,4201.025538,4232.307589
20,0,4227.692204,4231.281948,4224.615281,4230.256307,4239.487076,4214.358871,4226.666563,4218.461435,4212.82041,4208.205025,4217.435794,4201.538359,4205.128102,4231.281948
21,0,4221.538358,4222.563999,4213.33323,4222.051179,4241.538358,4218.974256,4226.666563,4215.897333,4218.974256,4217.948615,4217.435794,4197.948615,4201.025538,4224.615281
22,0,4218.461435,4217.435794,4208.717846,4218.461435,4239.999896,4218.974256,4226.666563,4219.487076,4221.025538,4219.999897,4214.871692,4194.358872,4198.461436,4225.128102
23,0,4223.58964,4219.999897,4216.410153,4224.102461,4233.33323,4213.33323,4226.666563,4220.512717,4217.948615,4210.256307,4216.410153,4197.948615,4201.538359,4233.84605
24,0,4231.281948,4226.666563,4222.563999,4232.307589,4236.410153,4218.974256,4231.794768,4220.512717,4224.615281,4212.307589,4222.563999,4204.615282,4205.640923,4235.384512
25,0,4222.051179,4217.435794,4215.384512,4226.153743,4235.897332,4219.999897,4225.640922,4221.025538,4226.666563,4218.974256,4215.897333,4198.461436,4202.564,4221.538358
26,0,4226.153743,4220.512717,4227.179384,4233.33323,4227.179384,4218.974256,4233.84605,4225.640922,4230.256307,4226.153743,4221.025538,4204.615282,4210.256307,4234.358871
27,0,4239.487076,4237.435794,4238.461435,4244.615281,4235.384512,4224.615281,4240.512717,4223.58964,4231.794768,4231.281948,4229.230666,4216.410153,4218.461435,4249.743486
28,0,4234.871691,4238.974255,4224.615281,4236.410153,4253.84605,4224.102461,4217.948615,4212.82041,4221.025538,4221.538358,4219.999897,4208.205025,4210.256307,4232.820409
29,0,4225.640922,4227.179384,4216.410153,4227.692204,4239.487076,4211.281948,4201.025538,4206.153743,4211.794769,4205.640923,4209.743487,4195.384513,4201.538359,4223.07682
30,0,4229.743486,4225.640922,4226.153743,4231.281948,4218.461435,4206.153743,4209.230666,4209.743487,4216.922974,4212.307589,4219.999897,4198.974256,4207.179384,4242.051178
31,0,4232.307589,4227.692204,4229.230666,4229.743486,4220.512717,4207.179384,4209.743487,4213.846051,4219.999897,4222.051179,4225.640922,4202.564,4211.281948,4246.666563
32,0,4225.128102,4223.58964,4224.615281,4223.58964,4228.717845,4206.666564,4208.717846,4215.897333,4217.435794,4223.07682,4217.948615,4198.461436,4208.205025,4228.717845
33,0,4222.563999,4219.999897,4225.128102,4223.58964,4234.871691,4210.256307,4223.07682,4222.051179,4223.07682,4227.692204,4218.461435,4200.512718,4209.230666,4221.025538
34,0,4215.897333,4213.33323,4216.410153,4217.948615,4229.743486,4212.82041,4223.07682,4218.461435,4219.487076,4213.846051,4218.974256,4196.922974,4205.128102,4215.384512
35,0,4210.769128,4214.871692,4208.205025,4212.82041,4216.410153,4208.717846,4215.897333,4211.281948,4207.179384,4198.974256,4215.384512,4193.846051,4200.512718,4215.897333
36,0,4205.128102,4211.794769,4203.07682,4209.743487,4192.82041,4197.948615,4211.794769,4206.666564,4198.461436,4202.051179,4209.230666,4188.205026,4198.461436,4216.922974
37,0,4209.230666,4209.743487,4207.179384,4215.897333,4198.974256,4203.07682,4218.974256,4211.281948,4203.589641,4218.974256,4215.384512,4189.743487,4202.051179,4218.974256
38,0,4212.82041,4207.692205,4209.230666,4213.846051,4226.153743,4215.897333,4221.025538,4213.33323,4204.102461,4215.384512,4216.922974,4191.794769,4199.999897,4216.410153
39,0,4211.281948,4207.179384,4207.692205,4208.717846,4228.205025,4215.897333,4217.435794,4212.307589,4198.974256,4211.794769,4214.358871,4197.435795,4197.948615,4212.82041
40,0,4214.358871,4207.692205,4209.743487,4215.384512,4211.281948,4209.743487,4213.846051,4210.256307,4196.410154,4214.871692,4215.897333,4203.07682,4204.102461,4218.461435
41,0,4226.153743,4218.974256,4224.102461,4228.717845,4218.461435,4218.461435,4223.07682,4214.871692,4198.974256,4214.871692,4219.487076,4208.717846,4208.205025,4231.794768
42,0,4223.58964,4219.999897,4226.153743,4223.07682,4225.640922,4218.461435,4219.487076,4215.897333,4196.922974,4214.871692,4215.897333,4205.128102,4201.025538,4223.58964
43,0,4227.692204,4221.025538,4227.179384,4223.07682,4218.974256,4212.82041,4217.948615,4218.974256,4206.666564,4245.128101,4229.743486,4214.358871,4214.871692,4231.281948
44,0,4238.974255,4224.615281,4231.794768,4230.256307,4202.051179,4211.281948,4222.563999,4224.102461,4212.307589,4254.35887,4241.538358,4223.58964,4237.435794,4253.333229
45,0,4222.051179,4213.33323,4219.999897,4218.461435,4193.846051,4205.128102,4208.717846,4217.435794,4195.384513,4210.769128,4222.051179,4209.743487,4226.153743,4237.948614
46,0,4199.487077,4194.871692,4201.538359,4202.051179,4211.281948,4202.051179,4196.410154,4208.205025,4182.564,4192.30759,4203.589641,4194.358872,4205.640923,4207.179384
47,0,4208.205025,4198.461436,4207.692205,4209.743487,4231.281948,4215.897333,4216.922974,4217.948615,4192.30759,4227.179384,4215.384512,4205.128102,4212.307589,4213.33323
48,0,4215.897333,4206.666564,4218.461435,4219.999897,4224.102461,4220.512717,4228.205025,4222.563999,4191.794769,4232.307589,4223.58964,4213.33323,4217.948615,4225.128102
49,0,4210.256307,4207.692205,4216.922974,4220.512717,4211.794769,4212.82041,4218.974256,4215.897333,4181.538359,4211.281948,4215.384512,4209.230666,4209.743487,4218.974256
50,0,4210.256307,4205.640923,4209.230666,4215.384512,4211.794769,4213.846051,4220.512717,4216.922974,4184.102462,4211.794769,4208.717846,4204.102461,4205.640923,4212.307589
51,0,4203.589641,4197.435795,4201.025538,4205.640923,4221.538358,4218.461435,4222.051179,4217.948615,4190.769128,4215.384512,4207.179384,4199.487077,4203.589641,4209.230666
52,0,4205.128102,4201.538359,4206.666564,4207.179384,4233.84605,4221.025538,4219.487076,4218.461435,4196.922974,4230.769127,4214.358871,4208.205025,4210.256307,4221.538358
53,0,4212.307589,4206.666564,4210.769128,4213.33323,4222.051179,4219.999897,4221.538358,4219.999897,4197.948615,4234.871691,4216.410153,4211.281948,4213.846051,4228.717845
54,0,4210.769128,4204.615282,4204.615282,4210.256307,4207.692205,4214.358871,4224.615281,4221.025538,4196.922974,4215.384512,4212.82041,4203.589641,4210.256307,4224.102461
55,0,4212.82041,4206.153743,4205.128102,4207.692205,4216.410153,4212.307589,4224.615281,4220.512717,4202.564,4215.897333,4217.435794,4204.615282,4212.307589,4223.07682
56,0,4226.153743,4221.538358,4221.025538,4223.07682,4222.051179,4217.948615,4228.717845,4227.692204,4214.358871,4239.999896,4229.743486,4221.538358,4223.58964,4230.256307
57,0,4227.179384,4221.538358,4224.102461,4230.256307,4212.307589,4216.922974,4227.692204,4229.230666,4215.897333,4239.487076,4227.179384,4222.051179,4224.615281,4233.33323
58,0,4230.769127,4221.538358,4223.07682,4224.102461,4222.051179,4217.435794,4230.256307,4230.256307,4217.948615,4235.384512,4228.717845,4222.563999,4225.128102,4241.025537
59,0,4231.794768,4218.461435,4218.974256,4211.794769,4225.128102,4214.358871,4220.512717,4226.153743,4212.307589,4228.717845,4227.179384,4226.666563,4222.563999,4237.435794
60,0,4230.256307,4217.948615,4222.563999,4217.435794,4216.922974,4213.846051,4218.461435,4224.102461,4211.794769,4231.281948,4226.153743,4231.281948,4222.563999,4238.974255
61,0,4228.717845,4221.025538,4225.128102,4227.692204,4216.410153,4217.435794,4227.179384,4226.153743,4218.974256,4238.974255,4226.666563,4229.230666,4223.07682,4241.538358
62,0,4225.640922,4221.538358,4215.897333,4219.999897,4223.58964,4214.358871,4225.128102,4222.563999,4218.461435,4223.07682,4221.538358,4216.410153,4217.435794,4226.153743
63,0,4224.102461,4217.435794,4214.358871,4214.871692,4217.948615,4209.743487,4220.512717,4216.922974,4210.769128,4211.794769,4216.922974,4214.358871,4212.307589,4218.461435
64,0,4234.871691,4223.07682,4229.743486,4229.230666,4211.281948,4218.974256,4234.871691,4221.025538,4214.358871,4235.384512,4226.666563,4230.256307,4221.538358,4233.84605
65,0,4232.307589,4221.538358,4228.205025,4224.615281,4215.384512,4221.025538,4233.84605,4222.051179,4214.871692,4231.281948,4220.512717,4227.692204,4217.948615,4224.102461
66,0,4221.025538,4211.794769,4217.948615,4210.256307,4216.922974,4211.281948,4221.538358,4218.974256,4210.256307,4207.692205,4210.256307,4215.897333,4207.692205,4211.794769
67,0,4226.666563,4215.384512,4223.07682,4217.948615,4214.871692,4213.846051,4231.281948,4224.102461,4217.948615,4221.025538,4224.102461,4225.128102,4218.974256,4236.410153
68,0,4229.743486,4217.948615,4221.538358,4219.999897,4216.410153,4216.922974,4231.794768,4224.102461,4223.07682,4227.179384,4229.743486,4229.743486,4224.102461,4240.512717
69,0,4223.07682,4208.717846,4215.897333,4206.666564,4218.461435,4209.743487,4216.922974,4214.871692,4214.871692,4215.384512,4215.384512,4218.461435,4212.307589,4213.846051
70,0,4221.538358,4205.128102,4219.487076,4206.153743,4209.743487,4207.179384,4216.410153,4213.846051,4210.769128,4219.487076,4214.358871,4215.384512,4211.281948,4212.82041
71,0,4229.230666,4217.948615,4229.743486,4221.538358,4208.717846,4213.846051,4229.230666,4225.128102,4218.974256,4231.794768,4227.179384,4223.58964,4221.538358,4236.922973
72,0,4232.307589,4223.58964,4234.358871,4227.179384,4208.717846,4214.871692,4232.820409,4229.230666,4223.07682,4229.743486,4226.666563,4228.205025,4222.051179,4234.358871
73,0,4228.205025,4218.974256,4233.33323,4223.58964,4203.589641,4211.794769,4228.205025,4228.205025,4218.974256,4223.07682,4223.58964,4231.281948,4221.025538,4219.999897
74,0,4217.435794,4210.769128,4219.487076,4213.846051,4211.794769,4210.769128,4219.999897,4223.07682,4210.256307,4208.717846,4221.025538,4222.051179,4216.922974,4210.256307
75,0,4218.461435,4213.846051,4212.82041,4210.769128,4233.84605,4214.871692,4224.615281,4223.07682,4209.743487,4213.33323,4219.999897,4216.922974,4212.82041,4209.743487
76,0,4213.33323,4207.692205,4207.179384,4207.179384,4214.871692,4209.743487,4217.948615,4218.974256,4205.128102,4222.051179,4207.692205,4207.692205,4206.153743,4202.564
77,0,4206.153743,4202.564,4202.564,4208.717846,4183.589641,4203.07682,4205.128102,4215.384512,4201.538359,4210.769128,4199.487077,4201.025538,4199.487077,4199.487077
78,0,4211.281948,4207.692205,4208.205025,4215.897333,4189.743487,4206.153743,4209.230666,4213.33323,4199.487077,4198.461436,4205.128102,4207.179384,4199.487077,4201.538359
79,0,4223.07682,4219.487076,4221.538358,4223.58964,4222.051179,4218.461435,4228.205025,4217.435794,4199.999897,4211.794769,4217.435794,4225.640922,4211.281948,4205.640923
80,0,4218.974256,4213.846051,4214.871692,4213.33323,4237.435794,4219.487076,4225.640922,4219.487076,4201.025538,4214.871692,4215.384512,4226.153743,4212.307589,4207.692205
81,0,4219.999897,4209.230666,4209.230666,4210.256307,4224.102461,4213.33323,4219.999897,4222.051179,4209.230666,4215.384512,4218.974256,4223.58964,4213.846051,4218.974256
82,0,4225.128102,4212.82041,4214.358871,4221.025538,4199.999897,4208.205025,4218.974256,4222.563999,4211.794769,4222.051179,4221.538358,4226.666563,4218.461435,4219.999897
83,0,4216.410153,4206.153743,4211.794769,4217.435794,4210.769128,4210.769128,4216.410153,4217.435794,4206.153743,4213.846051,4209.230666,4218.974256,4207.692205,4202.051179
84,0,4209.743487,4197.948615,4203.589641,4205.128102,4231.281948,4215.384512,4215.897333,4214.358871,4206.153743,4203.589641,4203.589641,4212.82041,4201.025538,4201.538359
85,0,4214.358871,4202.051179,4207.692205,4207.179384,4217.435794,4212.307589,4216.410153,4216.922974,4213.33323,4216.922974,4217.948615,4224.615281,4218.974256,4220.512717
86,0,4216.922974,4201.025538,4213.846051,4211.281948,4195.384513,4206.153743,4212.82041,4218.974256,4215.897333,4225.128102,4224.615281,4231.281948,4228.717845,4222.051179
87,0,4216.922974,4196.410154,4214.358871,4209.230666,4194.871692,4206.666564,4220.512717,4226.153743,4219.487076,4217.435794,4220.512717,4224.615281,4224.615281,4216.410153
88,0,4221.025538,4207.179384,4219.487076,4217.948615,4203.07682,4212.82041,4236.922973,4236.922973,4230.769127,4232.820409,4227.692204,4235.384512,4232.307589,4223.07682
89,0,4215.897333,4206.666564,4214.871692,4218.461435,4208.205025,4214.358871,4232.307589,4229.230666,4233.33323,4238.974255,4229.230666,4243.58964,4234.358871,4217.948615
90,0,4211.281948,4194.358872,4208.205025,4203.589641,4217.435794,4212.82041,4222.563999,4222.563999,4229.743486,4224.615281,4218.974256,4236.922973,4223.58964,4216.410153
91,0,4205.640923,4189.230667,4203.07682,4196.410154,4205.640923,4200.512718,4210.769128,4221.538358,4219.487076,4210.769128,4208.205025,4227.179384,4215.384512,4216.922974
92,0,4202.564,4194.358872,4201.025538,4204.615282,4196.922974,4196.922974,4205.128102,4218.974256,4213.846051,4214.358871,4212.82041,4226.153743,4221.025538,4211.281948
93,0,4208.205025,4201.025538,4202.051179,4209.230666,4203.589641,4208.717846,4212.82041,4218.461435,4222.051179,4223.58964,4219.999897,4228.205025,4230.256307,4215.897333
94,0,4221.025538,4216.410153,4214.358871,4221.538358,4204.615282,4215.897333,4226.666563,4225.640922,4233.33323,4234.871691,4226.153743,4238.461435,4235.384512,4233.33323
95,0,4217.948615,4212.82041,4212.82041,4220.512717,4201.025538,4206.666564,4219.487076,4223.07682,4222.051179,4227.692204,4221.025538,4233.33323,4227.692204,4224.102461
96,0,4215.384512,4205.128102,4205.640923,4210.256307,4218.461435,4204.615282,4212.82041,4218.974256,4215.897333,4220.512717,4219.999897,4224.102461,4223.58964,4217.435794
97,0,4219.487076,4208.717846,4207.179384,4209.743487,4224.102461,4205.640923,4211.794769,4219.487076,4221.538358,4222.563999,4222.051179,4227.179384,4225.640922,4225.128102
98,0,4224.615281,4214.871692,4212.82041,4217.435794,4212.307589,4206.153743,4214.358871,4218.974256,4219.487076,4227.692204,4223.58964,4233.33323,4226.666563,4225.640922
99,0,4218.461435,4207.692205,4208.205025,4208.205025,4214.871692,4207.179384,4216.410153,4218.461435,4212.307589,4223.58964,4220.512717,4225.128102,4223.58964,4214.358871
100,0,4210.769128,4199.999897,4203.589641,4201.538359,4214.358871,4208.717846,4217.948615,4222.051179,4215.384512,4219.999897,4219.487076,4223.58964,4222.563999,4209.743487
101,0,4214.358871,4198.461436,4208.205025,4209.230666,4195.384513,4208.205025,4218.461435,4225.128102,4216.922974,4223.58964,4220.512717,4227.692204,4223.07682,4215.897333
102,0,4222.563999,4203.589641,4215.897333,4212.82041,4203.589641,4213.33323,4227.692204,4226.153743,4215.384512,4234.358871,4221.025538,4229.230666,4224.102461,4220.512717
103,0,4217.435794,4204.102461,4211.281948,4209.230666,4221.025538,4215.384512,4230.769127,4222.051179,4212.307589,4222.563999,4219.487076,4228.205025,4224.615281,4217.435794
104,0,4211.794769,4198.974256,4202.564,4209.230666,4215.384512,4210.256307,4220.512717,4216.922974,4211.794769,4205.128102,4219.487076,4225.128102,4225.128102,4218.461435
105,0,4215.384512,4198.461436,4204.102461,4206.666564,4216.410153,4208.717846,4214.871692,4219.999897,4216.410153,4219.999897,4224.102461,4227.179384,4224.615281,4222.051179
106,0,4215.897333,4198.974256,4209.230666,4206.666564,4218.461435,4212.82041,4215.384512,4220.512717,4219.487076,4232.307589,4226.666563,4230.256307,4223.58964,4221.025538
107,0,4220.512717,4204.102461,4214.358871,4219.487076,4196.410154,4212.307589,4216.922974,4217.948615,4217.948615,4224.102461,4226.666563,4230.769127,4228.205025,4227.179384
108,0,4224.102461,4204.102461,4212.307589,4219.487076,4192.30759,4203.589641,4208.717846,4213.846051,4210.256307,4217.948615,4224.615281,4227.179384,4231.281948,4235.897332
109,0,4230.769127,4208.205025,4211.794769,4210.769128,4226.666563,4202.051179,4208.717846,4214.358871,4207.179384,4222.051179,4229.230666,4235.384512,4237.948614,4242.563999
110,0,4235.384512,4213.846051,4214.358871,4211.281948,4233.33323,4207.692205,4214.358871,4217.435794,4207.692205,4217.435794,4231.794768,4235.897332,4243.076819,4241.538358
111,0,4242.563999,4221.025538,4219.487076,4222.563999,4210.256307,4209.743487,4215.384512,4217.948615,4206.666564,4217.435794,4233.33323,4228.205025,4248.717845,4250.256306
112,0,4255.897332,4233.33323,4220.512717,4231.281948,4190.769128,4205.128102,4209.230666,4209.230666,4202.051179,4220.512717,4234.871691,4225.128102,4262.051178,4272.820408
113,0,4281.538357,4260.512716,4229.743486,4245.128101,4192.82041,4207.692205,4211.794769,4209.230666,4206.666564,4221.025538,4241.538358,4236.410153,4279.999895,4295.897331
114,0,4289.743485,4264.61528,4229.230666,4239.999896,4211.281948,4208.717846,4209.743487,4214.358871,4205.128102,4214.871692,4239.487076,4231.794768,4281.025536,4292.820408
115,0,4284.102459,4250.769127,4220.512717,4227.179384,4221.538358,4206.666564,4206.153743,4215.384512,4199.999897,4210.256307,4236.922973,4213.33323,4277.435793,4294.358869
116,0,4279.999895,4244.10246,4215.897333,4225.128102,4196.410154,4198.461436,4199.999897,4208.717846,4197.948615,4195.897333,4235.384512,4202.564,4279.999895,4299.487074
117,0,4282.563998,4247.179383,4223.07682,4228.205025,4188.205026,4198.974256,4201.538359,4206.153743,4201.538359,4198.974256,4238.974255,4207.692205,4281.025536,4299.487074
118,0,4279.487075,4242.563999,4226.666563,4227.179384,4206.666564,4208.717846,4212.82041,4209.230666,4204.102461,4221.025538,4239.487076,4214.358871,4278.461434,4295.897331
119,0,4270.256306,4235.384512,4222.563999,4227.692204,4204.102461,4209.230666,4218.461435,4210.769128,4202.564,4224.615281,4235.384512,4216.410153,4273.846049,4283.076818
120,0,4261.538357,4234.358871,4218.974256,4227.179384,4192.82041,4203.589641,4212.82041,4212.82041,4207.179384,4217.948615,4231.794768,4216.922974,4265.128101,4267.692203
121,0,4256.922973,4239.999896,4224.615281,4227.179384,4206.666564,4213.846051,4217.948615,4219.487076,4217.948615,4220.512717,4237.435794,4223.58964,4258.974255,4267.179383
122,0,4248.717845,4233.84605,4226.153743,4224.102461,4216.922974,4221.025538,4226.666563,4226.153743,4218.461435,4214.358871,4241.025537,4234.358871,4254.871691,4265.128101
123,0,4232.820409,4212.82041,4215.897333,4212.307589,4203.07682,4208.717846,4216.922974,4221.538358,4208.205025,4209.230666,4231.281948,4231.794768,4247.179383,4247.179383
124,0,4221.538358,4206.153743,4209.743487,4208.717846,4190.256308,4203.07682,4209.743487,4213.846051,4206.153743,4223.07682,4220.512717,4221.538358,4237.948614,4227.692204
125,0,4216.922974,4208.717846,4210.256307,4213.33323,4191.794769,4209.743487,4214.871692,4210.256307,4207.692205,4218.461435,4219.999897,4219.999897,4228.717845,4218.461435
126,0,4220.512717,4207.179384,4213.33323,4212.82041,4204.615282,4209.743487,4217.435794,4210.256307,4207.179384,4204.102461,4226.153743,4229.230666,4227.692204,4224.102461
