title:C                                                                               , recorded:01.07.20 13.22.58, sampling:128, subject:C                                                                               , labels:COUNTER INTERPOLATED AF3 F7 F3 FC5 T7 P7 O1 O2 P8 T8 FC6 F4 F8 AF4, chan:37, units:emotiv,,,,,,,,,
32,0,4207.179384,4242.563999,4215.897333,4223.07682,4232.307589,4225.128102,4217.435794,4211.281948,4204.615282,4223.58964,4219.487076,4222.563999,4222.051179,4217.948615
33,0,4210.256307,4242.563999,4211.794769,4218.974256,4238.461435,4232.307589,4218.461435,4211.281948,4203.07682,4227.179384,4218.461435,4222.563999,4224.615281,4217.948615
34,0,4218.461435,4245.640922,4214.871692,4223.58964,4216.410153,4224.615281,4213.846051,4207.692205,4194.871692,4233.84605,4210.769128,4213.846051,4220.512717,4214.358871
35,0,4224.102461,4250.256306,4221.538358,4227.179384,4218.461435,4222.563999,4213.846051,4208.205025,4190.256308,4224.102461,4213.846051,4216.410153,4221.538358,4215.384512
36,0,4218.974256,4249.743486,4218.461435,4221.025538,4244.10246,4229.230666,4216.410153,4206.153743,4195.384513,4214.871692,4219.487076,4222.051179,4225.128102,4214.871692
37,0,4215.897333,4251.281947,4217.435794,4223.58964,4239.999896,4226.666563,4214.358871,4202.564,4200.512718,4228.205025,4217.948615,4221.025538,4224.102461,4216.922974
38,0,4218.974256,4253.333229,4219.999897,4228.205025,4214.871692,4220.512717,4209.743487,4205.128102,4194.871692,4229.743486,4212.307589,4216.410153,4220.512717,4217.435794
39,0,4219.487076,4253.333229,4219.999897,4224.615281,4218.461435,4224.102461,4215.384512,4208.205025,4194.358872,4213.33323,4214.871692,4216.410153,4220.512717,4214.871692
40,0,4217.435794,4251.794768,4217.435794,4224.102461,4223.07682,4217.948615,4217.435794,4204.615282,4195.897333,4209.743487,4214.358871,4215.897333,4217.948615,4212.307589
41,0,4217.435794,4251.281947,4217.435794,4226.153743,4211.794769,4211.794769,4211.281948,4206.153743,4192.30759,4222.563999,4208.205025,4214.358871,4216.922974,4210.769128
42,0,4227.179384,4259.487075,4227.179384,4225.640922,4228.205025,4228.717845,4222.563999,4219.487076,4203.589641,4237.948614,4219.999897,4226.153743,4227.692204,4222.563999
43,0,4236.410153,4262.563998,4235.897332,4228.205025,4250.769127,4237.948614,4233.84605,4224.615281,4218.974256,4238.974255,4232.820409,4239.487076,4234.871691,4235.384512
44,0,4237.435794,4257.435793,4235.897332,4232.307589,4235.384512,4224.615281,4225.128102,4218.974256,4216.410153,4231.794768,4226.153743,4241.538358,4228.717845,4230.256307
45,0,4232.307589,4252.820409,4231.281948,4229.230666,4218.974256,4222.563999,4215.384512,4214.358871,4208.205025,4227.179384,4219.487076,4239.487076,4222.563999,4222.051179
46,0,4233.33323,4257.435793,4233.33323,4229.743486,4232.820409,4230.769127,4225.640922,4213.846051,4213.33323,4234.871691,4227.179384,4244.615281,4227.692204,4233.33323
47,0,4229.230666,4248.205024,4229.230666,4228.205025,4222.051179,4220.512717,4224.615281,4209.743487,4209.743487,4229.230666,4224.615281,4240.512717,4228.205025,4232.820409
48,0,4235.384512,4248.205024,4234.358871,4234.358871,4217.435794,4220.512717,4227.179384,4215.384512,4210.256307,4229.230666,4227.692204,4247.692204,4227.692204,4232.820409
49,0,4240.512717,4253.333229,4235.897332,4234.358871,4231.794768,4228.205025,4229.230666,4217.948615,4213.33323,4235.384512,4230.256307,4253.84605,4226.666563,4236.922973
50,0,4230.769127,4245.128101,4226.153743,4225.640922,4223.58964,4224.102461,4220.512717,4209.743487,4210.256307,4233.33323,4224.102461,4244.10246,4223.58964,4231.281948
51,0,4219.487076,4233.84605,4217.948615,4218.974256,4209.230666,4215.897333,4210.769128,4204.615282,4202.564,4222.051179,4218.461435,4232.307589,4219.487076,4219.999897
52,0,4230.256307,4244.615281,4225.640922,4225.640922,4223.07682,4218.461435,4215.897333,4205.640923,4203.07682,4217.948615,4224.615281,4238.974255,4225.128102,4225.128102
53,0,4236.922973,4250.256306,4230.256307,4228.717845,4223.07682,4215.897333,4211.281948,4198.461436,4203.07682,4217.948615,4225.128102,4241.538358,4228.717845,4225.128102
54,0,4231.794768,4245.640922,4229.743486,4229.743486,4214.871692,4215.897333,4206.153743,4196.922974,4203.589641,4226.153743,4227.692204,4238.974255,4228.717845,4225.640922
55,0,4232.820409,4248.205024,4229.230666,4229.743486,4228.205025,4222.051179,4211.281948,4201.025538,4206.153743,4235.384512,4229.743486,4240.512717,4227.692204,4230.256307
56,0,4236.410153,4253.333229,4231.281948,4227.179384,4236.410153,4221.538358,4214.358871,4198.974256,4207.692205,4232.820409,4223.07682,4240.512717,4226.153743,4223.58964
57,0,4231.794768,4250.769127,4232.820409,4229.743486,4228.205025,4218.974256,4214.871692,4201.025538,4209.743487,4226.153743,4219.999897,4236.410153,4225.128102,4221.538358
58,0,4224.615281,4247.692204,4226.153743,4232.820409,4224.102461,4218.974256,4217.948615,4206.666564,4209.230666,4223.58964,4222.563999,4229.743486,4224.102461,4227.179384
59,0,4224.615281,4245.128101,4219.487076,4226.153743,4224.102461,4213.846051,4215.384512,4204.102461,4202.564,4221.538358,4217.435794,4224.615281,4220.512717,4218.461435
60,0,4227.179384,4240.512717,4222.051179,4219.487076,4215.384512,4212.307589,4209.743487,4200.512718,4198.974256,4215.897333,4211.794769,4226.153743,4216.922974,4209.743487
61,0,4229.230666,4244.615281,4228.205025,4226.666563,4209.230666,4217.948615,4216.410153,4209.743487,4206.666564,4221.538358,4223.58964,4237.435794,4223.58964,4222.563999
62,0,4226.153743,4248.717845,4226.153743,4229.230666,4217.435794,4217.948615,4220.512717,4214.358871,4213.33323,4231.281948,4231.794768,4241.025537,4231.281948,4227.692204
63,0,4226.666563,4246.666563,4224.615281,4223.58964,4232.820409,4217.435794,4216.922974,4211.281948,4213.846051,4235.897332,4229.743486,4241.538358,4232.307589,4223.07682
64,0,4218.461435,4236.922973,4217.948615,4213.846051,4225.128102,4215.384512,4204.615282,4201.538359,4207.179384,4227.179384,4220.512717,4236.410153,4225.128102,4217.435794
65,0,4211.794769,4236.410153,4213.846051,4215.897333,4201.538359,4208.205025,4197.435795,4197.435795,4206.666564,4219.999897,4216.410153,4233.33323,4220.512717,4210.769128
66,0,4213.846051,4242.051178,4217.948615,4224.615281,4199.999897,4207.692205,4204.615282,4199.999897,4210.769128,4214.871692,4213.33323,4229.743486,4219.487076,4205.640923
67,0,4220.512717,4247.692204,4221.538358,4224.102461,4232.820409,4223.58964,4221.025538,4207.179384,4215.384512,4213.846051,4217.435794,4232.820409,4221.538358,4215.384512
68,0,4218.974256,4243.58964,4216.410153,4214.358871,4236.922973,4222.563999,4218.974256,4206.666564,4212.82041,4211.794769,4219.487076,4232.820409,4219.487076,4218.974256
69,0,4230.256307,4253.333229,4228.205025,4229.230666,4214.358871,4218.461435,4223.58964,4209.230666,4219.487076,4227.692204,4225.128102,4241.025537,4222.563999,4222.563999
70,0,4235.897332,4256.410152,4234.358871,4232.307589,4225.640922,4224.615281,4234.358871,4212.307589,4222.051179,4233.33323,4222.051179,4242.563999,4224.615281,4219.487076
71,0,4226.666563,4248.205024,4226.153743,4217.435794,4246.666563,4230.769127,4232.820409,4212.82041,4215.384512,4218.461435,4217.435794,4236.410153,4223.58964,4211.281948
72,0,4226.666563,4250.256306,4225.128102,4222.051179,4228.205025,4230.769127,4229.743486,4216.922974,4213.33323,4220.512717,4220.512717,4238.461435,4223.07682,4210.769128
73,0,4232.820409,4255.384511,4228.205025,4232.307589,4239.487076,4234.358871,4240.512717,4224.102461,4216.410153,4243.58964,4225.128102,4247.692204,4227.179384,4215.897333
74,0,4222.563999,4242.051178,4216.922974,4220.512717,4259.999896,4230.769127,4244.615281,4220.512717,4215.897333,4235.384512,4220.512717,4242.563999,4226.153743,4208.205025
75,0,4215.384512,4233.84605,4213.846051,4219.487076,4224.102461,4220.512717,4234.871691,4212.307589,4212.82041,4204.615282,4218.974256,4237.435794,4221.538358,4206.666564
76,0,4216.922974,4236.410153,4217.435794,4222.051179,4208.717846,4219.487076,4222.563999,4212.307589,4214.871692,4209.230666,4218.461435,4239.999896,4219.999897,4211.281948
77,0,4215.897333,4236.410153,4215.384512,4212.82041,4243.58964,4222.051179,4219.999897,4217.948615,4222.563999,4234.871691,4217.948615,4244.615281,4221.025538,4207.179384
78,0,4225.640922,4245.640922,4223.58964,4220.512717,4247.179383,4224.102461,4229.230666,4219.999897,4228.205025,4240.512717,4227.179384,4251.281947,4227.179384,4213.33323
79,0,4227.692204,4246.666563,4229.743486,4229.230666,4222.563999,4223.58964,4230.769127,4214.358871,4226.153743,4228.205025,4223.07682,4245.128101,4222.563999,4212.307589
80,0,4218.461435,4234.358871,4224.102461,4222.051179,4220.512717,4218.461435,4225.128102,4213.846051,4227.179384,4226.666563,4214.358871,4240.512717,4215.384512,4202.564
81,0,4221.538358,4232.820409,4218.974256,4219.999897,4212.82041,4213.33323,4219.487076,4214.358871,4228.205025,4221.025538,4218.461435,4245.128101,4219.487076,4209.230666
82,0,4230.256307,4240.512717,4217.948615,4220.512717,4205.128102,4211.794769,4217.948615,4212.307589,4223.07682,4211.281948,4222.563999,4245.128101,4224.102461,4219.487076
83,0,4227.179384,4235.897332,4214.871692,4211.281948,4213.846051,4212.307589,4214.358871,4211.794769,4222.051179,4214.871692,4213.846051,4235.897332,4220.512717,4214.871692
84,0,4235.384512,4242.563999,4224.102461,4221.025538,4223.58964,4220.512717,4227.179384,4221.538358,4233.84605,4236.410153,4223.58964,4248.205024,4228.205025,4229.743486
85,0,4239.487076,4251.794768,4227.179384,4227.692204,4219.999897,4223.07682,4232.307589,4222.563999,4230.256307,4235.384512,4231.281948,4252.820409,4229.230666,4236.922973
86,0,4232.820409,4247.692204,4219.999897,4218.974256,4221.025538,4218.974256,4222.563999,4216.410153,4218.461435,4215.897333,4221.538358,4241.025537,4219.487076,4221.025538
87,0,4227.692204,4238.461435,4219.487076,4215.384512,4223.07682,4213.33323,4212.307589,4210.769128,4215.897333,4206.153743,4215.897333,4236.410153,4218.974256,4214.871692
88,0,4230.256307,4242.051178,4227.692204,4223.07682,4222.563999,4214.871692,4217.948615,4211.794769,4223.07682,4220.512717,4225.128102,4246.153742,4226.666563,4225.640922
89,0,4224.615281,4236.410153,4219.999897,4215.897333,4210.256307,4210.769128,4214.358871,4210.256307,4214.358871,4216.922974,4215.384512,4238.974255,4217.435794,4216.922974
90,0,4226.153743,4234.358871,4215.897333,4213.846051,4209.743487,4212.307589,4212.82041,4211.281948,4206.153743,4207.692205,4209.230666,4231.794768,4213.846051,4212.307589
91,0,4236.410153,4246.153742,4225.128102,4226.666563,4225.128102,4222.563999,4226.666563,4216.410153,4211.281948,4219.999897,4225.640922,4242.051178,4224.615281,4225.128102
92,0,4243.58964,4258.461434,4236.410153,4239.999896,4230.256307,4228.205025,4237.435794,4219.999897,4218.461435,4230.256307,4239.487076,4253.333229,4231.281948,4234.358871
93,0,4242.563999,4261.538357,4236.922973,4238.461435,4224.615281,4222.051179,4232.820409,4216.922974,4215.384512,4219.487076,4233.84605,4252.307588,4227.179384,4228.205025
94,0,4238.461435,4255.897332,4228.717845,4227.179384,4229.743486,4217.948615,4224.102461,4210.769128,4211.281948,4215.384512,4225.640922,4249.743486,4225.128102,4223.07682
95,0,4241.538358,4255.897332,4228.205025,4231.281948,4231.794768,4222.051179,4222.563999,4214.358871,4216.410153,4228.205025,4227.692204,4253.84605,4228.717845,4231.794768
96,0,4244.10246,4261.025537,4233.33323,4239.487076,4227.179384,4225.128102,4227.692204,4221.538358,4218.461435,4230.256307,4230.256307,4255.384511,4231.281948,4238.974255
97,0,4237.948614,4256.410152,4229.230666,4230.769127,4233.33323,4225.640922,4231.794768,4217.948615,4211.281948,4218.461435,4224.102461,4250.256306,4228.205025,4231.794768
98,0,4225.640922,4238.461435,4216.410153,4216.410153,4232.307589,4221.025538,4230.256307,4210.769128,4198.461436,4199.999897,4212.307589,4235.897332,4222.051179,4214.358871
99,0,4222.051179,4237.948614,4216.922974,4220.512717,4219.487076,4219.487076,4232.820409,4215.897333,4197.948615,4202.051179,4211.794769,4232.307589,4217.435794,4212.307589
100,0,4219.999897,4240.512717,4218.974256,4224.102461,4208.205025,4216.922974,4228.205025,4216.410153,4198.974256,4213.33323,4213.33323,4231.794768,4212.82041,4218.974256
101,0,4218.461435,4233.84605,4215.384512,4217.948615,4216.410153,4217.435794,4227.692204,4209.743487,4197.948615,4213.846051,4217.948615,4230.769127,4216.410153,4216.922974
102,0,4212.82041,4225.640922,4207.179384,4208.205025,4226.666563,4219.487076,4227.692204,4209.230666,4197.948615,4207.692205,4221.025538,4230.256307,4217.948615,4208.205025
103,0,4216.922974,4235.897332,4211.281948,4217.948615,4227.179384,4223.58964,4225.128102,4216.410153,4205.640923,4216.410153,4224.615281,4234.871691,4219.999897,4216.922974
104,0,4224.615281,4246.153742,4221.025538,4230.256307,4221.538358,4221.025538,4221.538358,4214.871692,4205.640923,4216.410153,4222.563999,4234.358871,4222.563999,4226.153743
105,0,4228.717845,4246.153742,4227.692204,4229.230666,4230.256307,4219.487076,4226.153743,4215.897333,4202.564,4212.82041,4224.615281,4239.999896,4223.58964,4224.102461
106,0,4221.538358,4235.897332,4222.051179,4218.974256,4231.794768,4212.307589,4216.410153,4216.410153,4197.948615,4212.307589,4216.922974,4236.410153,4213.846051,4213.846051
107,0,4219.487076,4232.820409,4219.999897,4217.435794,4221.025538,4206.153743,4209.743487,4214.871692,4198.461436,4216.410153,4209.743487,4227.692204,4208.717846,4211.281948
108,0,4225.128102,4237.435794,4222.051179,4215.897333,4221.025538,4214.358871,4223.58964,4217.435794,4207.692205,4221.538358,4216.922974,4230.769127,4216.410153,4211.794769
109,0,4229.743486,4243.58964,4222.563999,4215.384512,4228.205025,4227.179384,4237.435794,4226.153743,4218.974256,4228.205025,4227.179384,4243.58964,4224.102461,4217.435794
110,0,4225.128102,4246.153742,4218.974256,4217.948615,4218.974256,4223.58964,4234.871691,4228.717845,4215.897333,4227.692204,4226.666563,4241.538358,4224.615281,4222.563999
111,0,4217.948615,4249.743486,4218.461435,4218.461435,4217.948615,4218.974256,4234.871691,4224.615281,4210.256307,4225.640922,4224.615281,4236.410153,4223.58964,4222.563999
112,0,4210.769128,4246.666563,4213.33323,4210.256307,4226.666563,4223.07682,4239.487076,4223.07682,4209.230666,4219.999897,4218.974256,4231.794768,4218.461435,4207.692205
113,0,4203.589641,4238.974255,4203.07682,4203.589641,4222.563999,4222.563999,4232.307589,4222.051179,4205.128102,4214.871692,4213.33323,4222.563999,4214.358871,4193.846051
114,0,4207.179384,4242.051178,4206.666564,4207.692205,4215.897333,4219.487076,4226.153743,4221.025538,4202.051179,4224.102461,4223.58964,4228.717845,4221.025538,4209.743487
115,0,4214.358871,4253.333229,4222.563999,4215.897333,4220.512717,4224.615281,4238.974255,4227.179384,4208.717846,4237.435794,4235.384512,4247.692204,4226.153743,4225.640922
116,0,4208.205025,4252.820409,4224.102461,4215.897333,4225.640922,4226.153743,4248.717845,4235.897332,4209.230666,4229.743486,4227.179384,4246.153742,4219.487076,4212.307589
117,0,4201.538359,4240.512717,4211.281948,4209.743487,4223.07682,4219.999897,4234.358871,4228.717845,4197.435795,4208.717846,4216.922974,4228.717845,4217.435794,4203.07682
118,0,4216.410153,4247.179383,4216.410153,4216.410153,4228.717845,4219.999897,4229.743486,4221.538358,4196.410154,4216.922974,4224.615281,4236.922973,4234.871691,4226.153743
119,0,4226.153743,4256.922973,4221.538358,4219.487076,4229.230666,4222.563999,4232.307589,4222.051179,4198.461436,4221.538358,4227.692204,4242.563999,4247.179383,4235.384512
120,0,4229.230666,4258.974255,4219.487076,4218.461435,4222.563999,4218.461435,4229.230666,4224.102461,4198.974256,4215.897333,4229.743486,4237.435794,4257.435793,4239.487076
121,0,4245.128101,4266.153742,4222.051179,4223.58964,4206.666564,4209.743487,4220.512717,4223.07682,4199.487077,4222.051179,4237.435794,4244.615281,4276.410152,4266.153742
122,0,4271.794767,4291.794767,4234.871691,4235.384512,4212.307589,4211.794769,4222.051179,4224.102461,4203.589641,4229.743486,4249.230665,4263.589639,4296.410151,4298.461433
123,0,4288.717844,4305.64092,4240.512717,4234.358871,4227.692204,4214.358871,4224.102461,4219.487076,4199.999897,4215.897333,4254.35887,4272.820408,4308.717843,4315.38451
124,0,4306.666561,4308.717843,4252.307588,4239.999896,4224.615281,4213.33323,4235.384512,4222.563999,4200.512718,4221.538358,4264.61528,4285.640921,4326.15374,4338.974253
125,0,4312.307587,4307.179382,4253.333229,4245.128101,4209.230666,4203.07682,4229.230666,4222.051179,4196.922974,4227.179384,4263.589639,4283.076818,4330.769125,4350.769124
126,0,4312.307587,4312.307587,4245.640922,4242.563999,4207.692205,4196.922974,4212.307589,4212.307589,4190.256308,4211.794769,4256.922973,4273.333229,4327.179381,4351.794765
127,0,4322.051176,4316.410151,4248.717845,4239.999896,4208.205025,4201.538359,4210.256307,4208.205025,4188.717846,4205.640923,4255.384511,4278.461434,4329.743484,4356.92297
128,0,4331.281945,4313.333228,4256.410152,4242.563999,4209.230666,4207.692205,4222.563999,4216.410153,4192.30759,4215.384512,4258.974255,4289.743485,4333.846048,4367.692201
0,0,4319.487074,4302.051177,4245.640922,4235.384512,4202.564,4201.538359,4222.051179,4218.461435,4188.205026,4207.179384,4257.435793,4284.102459,4329.230663,4364.102457
1,0,4309.743484,4298.461433,4236.922973,4229.230666,4195.384513,4198.974256,4215.897333,4213.846051,4185.640923,4203.07682,4258.461434,4279.999895,4328.205022,4356.41015
2,0,4307.179382,4301.025536,4240.512717,4231.794768,4210.769128,4203.07682,4210.256307,4213.33323,4192.30759,4218.461435,4256.410152,4281.538357,4323.076817,4347.692201
3,0,4291.794767,4295.897331,4238.461435,4230.769127,4221.025538,4199.999897,4203.589641,4214.358871,4196.922974,4222.051179,4246.666563,4273.333229,4309.743484,4333.333227
4,0,4275.384511,4287.179382,4230.769127,4228.717845,4204.615282,4201.538359,4209.743487,4215.384512,4196.410154,4214.871692,4243.076819,4265.128101,4300.512715,4317.948612
5,0,4263.589639,4276.410152,4227.692204,4226.666563,4203.07682,4210.256307,4223.07682,4217.435794,4196.410154,4213.846051,4240.512717,4259.487075,4288.717844,4298.461433
6,0,4250.256306,4263.589639,4226.153743,4222.563999,4223.07682,4209.230666,4221.538358,4217.435794,4194.871692,4211.794769,4231.281948,4249.743486,4272.307588,4283.076818
7,0,4239.487076,4248.717845,4218.461435,4215.897333,4219.999897,4202.051179,4211.794769,4214.358871,4188.205026,4201.538359,4221.538358,4237.435794,4258.461434,4268.717844
8,0,4241.025537,4249.230665,4218.461435,4220.512717,4214.358871,4210.256307,4223.07682,4217.948615,4192.30759,4213.846051,4228.205025,4242.051178,4256.410152,4256.410152
9,0,4234.358871,4247.692204,4216.410153,4221.025538,4219.487076,4213.846051,4225.128102,4213.846051,4195.897333,4225.640922,4225.128102,4238.974255,4248.717845,4239.487076
10,0,4224.102461,4241.025537,4212.82041,4217.435794,4224.615281,4211.281948,4216.410153,4210.769128,4197.948615,4212.82041,4216.410153,4230.769127,4241.025537,4232.820409
11,0,4217.948615,4238.974255,4213.33323,4216.410153,4225.640922,4214.358871,4226.666563,4223.07682,4198.461436,4201.538359,4222.051179,4233.84605,4239.487076,4230.769127
12,0,4217.948615,4244.10246,4217.948615,4219.999897,4227.179384,4218.461435,4238.974255,4230.769127,4199.487077,4222.563999,4231.794768,4242.051178,4241.538358,4225.128102
13,0,4214.358871,4241.025537,4219.999897,4224.615281,4219.487076,4212.82041,4216.410153,4218.974256,4199.487077,4245.640922,4227.692204,4236.922973,4240.512717,4221.025538
14,0,4213.33323,4239.487076,4228.717845,4231.281948,4223.58964,4219.487076,4227.692204,4223.07682,4207.179384,4244.615281,4229.743486,4240.512717,4242.051178,4226.153743
15,0,4211.281948,4234.358871,4229.230666,4221.538358,4236.922973,4228.205025,4263.076819,4232.307589,4203.07682,4221.538358,4233.33323,4248.205024,4238.461435,4223.58964
16,0,4215.384512,4235.897332,4225.128102,4213.33323,4233.33323,4221.025538,4238.461435,4224.615281,4192.30759,4217.435794,4233.33323,4248.717845,4236.410153,4218.974256
17,0,4214.871692,4237.948614,4223.58964,4222.051179,4218.461435,4207.692205,4186.666564,4216.410153,4189.743487,4227.179384,4228.205025,4239.999896,4236.410153,4213.846051
18,0,4204.615282,4233.84605,4219.999897,4225.640922,4221.025538,4205.640923,4189.743487,4213.846051,4193.333231,4225.128102,4221.025538,4231.794768,4229.743486,4206.153743
19,0,4197.435795,4222.051179,4213.33323,4214.358871,4218.974256,4205.128102,4207.692205,4209.230666,4190.769128,4212.82041,4214.358871,4225.640922,4218.974256,4197.948615
20,0,4201.538359,4221.538358,4217.948615,4215.897333,4223.07682,4212.82041,4209.743487,4214.358871,4189.230667,4212.82041,4216.410153,4228.717845,4222.051179,4198.974256
21,0,4204.102461,4225.128102,4223.07682,4222.051179,4236.410153,4217.948615,4214.871692,4221.538358,4193.333231,4214.358871,4218.974256,4233.33323,4231.794768,4203.07682
22,0,4198.461436,4217.948615,4216.410153,4214.358871,4225.128102,4208.717846,4211.794769,4213.33323,4193.846051,4204.102461,4211.794769,4228.205025,4226.153743,4199.487077
23,0,4205.128102,4220.512717,4217.435794,4218.974256,4216.410153,4211.794769,4218.461435,4213.33323,4196.410154,4217.948615,4216.410153,4231.794768,4222.051179,4206.153743
24,0,4207.692205,4222.563999,4220.512717,4225.128102,4226.666563,4220.512717,4229.743486,4222.563999,4197.948615,4235.897332,4220.512717,4233.84605,4225.128102,4207.179384
25,0,4204.615282,4221.025538,4219.487076,4221.538358,4232.820409,4215.384512,4221.538358,4222.563999,4199.487077,4235.897332,4219.487076,4230.769127,4228.717845,4199.999897
26,0,4201.538359,4217.948615,4214.358871,4215.384512,4218.974256,4208.205025,4206.153743,4214.358871,4192.30759,4221.538358,4215.897333,4223.58964,4224.615281,4198.974256
27,0,4208.717846,4227.179384,4219.999897,4225.640922,4217.435794,4213.846051,4214.358871,4216.410153,4188.717846,4224.615281,4222.051179,4231.281948,4223.58964,4211.281948
28,0,4204.102461,4225.128102,4218.461435,4224.615281,4216.410153,4211.281948,4215.384512,4214.871692,4189.743487,4222.051179,4225.128102,4234.358871,4222.563999,4208.717846
29,0,4194.871692,4218.461435,4213.846051,4216.922974,4214.358871,4208.205025,4211.281948,4213.33323,4197.435795,4222.051179,4227.179384,4230.256307,4225.128102,4201.538359
30,0,4194.358872,4218.974256,4211.281948,4213.846051,4218.974256,4211.281948,4215.384512,4217.948615,4201.538359,4233.33323,4225.640922,4226.153743,4226.666563,4200.512718
31,0,4198.461436,4223.58964,4209.230666,4211.281948,4221.538358,4211.794769,4218.974256,4221.025538,4200.512718,4236.922973,4224.615281,4229.743486,4223.07682,4197.948615
32,0,4192.30759,4218.461435,4200.512718,4207.692205,4212.307589,4205.128102,4210.769128,4213.846051,4198.461436,4227.692204,4220.512717,4226.153743,4217.435794,4190.769128
33,0,4188.717846,4214.871692,4201.538359,4216.410153,4203.589641,4208.205025,4216.922974,4218.974256,4201.538359,4219.999897,4218.461435,4222.051179,4217.435794,4191.794769
34,0,4191.281949,4214.358871,4207.692205,4217.435794,4212.82041,4219.487076,4237.948614,4232.820409,4202.564,4216.410153,4221.538358,4225.640922,4218.974256,4197.948615
35,0,4187.692205,4209.230666,4206.153743,4206.153743,4226.666563,4223.58964,4248.205024,4231.794768,4201.538359,4223.58964,4223.07682,4228.717845,4223.07682,4201.538359
36,0,4183.076821,4199.487077,4197.948615,4203.589641,4213.846051,4211.794769,4227.179384,4218.461435,4197.948615,4233.33323,4218.461435,4221.538358,4221.538358,4197.435795
37,0,4195.384513,4204.615282,4203.589641,4214.358871,4209.230666,4209.230666,4208.205025,4213.846051,4196.922974,4233.84605,4223.58964,4226.153743,4221.538358,4202.564
38,0,4199.999897,4209.743487,4209.743487,4211.794769,4222.051179,4212.82041,4204.615282,4211.281948,4190.769128,4216.410153,4222.563999,4229.230666,4221.025538,4205.128102
39,0,4189.743487,4199.999897,4205.128102,4201.025538,4222.051179,4208.717846,4205.128102,4206.153743,4181.025539,4204.615282,4208.205025,4216.922974,4211.794769,4194.871692
40,0,4188.205026,4197.948615,4205.640923,4203.589641,4208.205025,4204.615282,4205.640923,4207.692205,4181.025539,4213.33323,4204.102461,4214.358871,4204.615282,4189.230667
41,0,4190.256308,4206.666564,4212.307589,4214.871692,4197.948615,4206.153743,4204.615282,4208.717846,4184.615282,4220.512717,4208.205025,4219.999897,4203.589641,4191.281949
42,0,4188.205026,4209.743487,4214.358871,4216.922974,4202.564,4207.179384,4206.666564,4206.666564,4182.564,4211.281948,4210.769128,4221.538358,4207.692205,4192.82041
43,0,4186.666564,4205.128102,4209.230666,4206.153743,4211.794769,4203.589641,4206.666564,4207.179384,4177.948616,4195.897333,4210.769128,4215.897333,4207.179384,4186.666564
44,0,4189.230667,4208.717846,4208.717846,4205.128102,4223.07682,4204.102461,4212.82041,4212.82041,4185.128103,4203.07682,4214.358871,4215.384512,4209.230666,4186.153744
45,0,4187.179385,4212.82041,4208.717846,4209.743487,4219.999897,4207.179384,4213.846051,4210.769128,4190.769128,4212.307589,4210.769128,4211.281948,4208.205025,4184.615282
46,0,4189.743487,4216.410153,4209.230666,4210.256307,4213.846051,4209.230666,4208.205025,4206.153743,4189.230667,4215.897333,4209.743487,4212.82041,4206.153743,4180.512718
47,0,4196.410154,4215.897333,4210.769128,4208.717846,4211.794769,4204.102461,4206.153743,4208.205025,4190.769128,4213.846051,4213.33323,4217.948615,4209.743487,4183.076821
48,0,4205.640923,4226.666563,4219.487076,4216.410153,4217.435794,4208.205025,4219.999897,4218.974256,4205.128102,4232.820409,4224.102461,4226.153743,4219.999897,4203.07682
49,0,4202.564,4230.769127,4217.948615,4214.871692,4216.410153,4213.33323,4221.538358,4224.615281,4209.230666,4243.076819,4224.615281,4226.153743,4222.051179,4204.615282
50,0,4198.974256,4231.794768,4212.82041,4215.384512,4215.384512,4212.82041,4220.512717,4228.205025,4206.153743,4227.692204,4222.563999,4225.640922,4219.999897,4193.333231
51,0,4198.461436,4235.384512,4208.717846,4216.922974,4224.615281,4210.256307,4226.153743,4226.666563,4209.230666,4222.563999,4222.563999,4222.563999,4218.974256,4191.794769
52,0,4194.871692,4237.435794,4204.102461,4210.256307,4232.820409,4209.743487,4226.666563,4218.974256,4211.281948,4235.897332,4217.948615,4218.461435,4216.410153,4192.30759
53,0,4186.153744,4224.615281,4197.435795,4203.07682,4216.922974,4205.640923,4213.846051,4211.794769,4201.538359,4227.179384,4206.153743,4209.230666,4209.743487,4183.076821
54,0,4189.743487,4222.051179,4202.051179,4210.769128,4208.205025,4207.692205,4213.33323,4212.82041,4199.487077,4218.461435,4207.179384,4209.230666,4210.256307,4183.076821
55,0,4195.384513,4229.230666,4203.589641,4214.358871,4226.666563,4211.794769,4216.922974,4215.897333,4204.102461,4221.538358,4214.358871,4214.358871,4214.358871,4189.743487
56,0,4195.384513,4229.230666,4202.051179,4212.82041,4236.922973,4211.794769,4214.871692,4217.948615,4205.128102,4217.948615,4213.846051,4216.922974,4217.435794,4196.922974
57,0,4194.358872,4226.153743,4203.589641,4214.358871,4223.07682,4208.717846,4213.846051,4217.948615,4203.589641,4214.358871,4208.205025,4212.82041,4216.410153,4200.512718
58,0,4192.30759,4221.538358,4201.025538,4210.256307,4210.769128,4207.179384,4215.897333,4214.871692,4205.640923,4222.563999,4206.666564,4206.666564,4211.281948,4192.82041
59,0,4187.692205,4216.922974,4197.435795,4206.153743,4209.743487,4205.640923,4216.410153,4212.82041,4208.717846,4223.07682,4210.256307,4209.743487,4209.230666,4189.743487
60,0,4184.615282,4215.384512,4195.897333,4206.666564,4217.948615,4205.640923,4214.871692,4210.256307,4204.615282,4210.256307,4210.256307,4209.743487,4209.743487,4191.281949
61,0,4192.82041,4223.58964,4200.512718,4208.205025,4227.692204,4208.205025,4220.512717,4214.358871,4202.051179,4214.358871,4213.846051,4209.743487,4216.410153,4195.384513
62,0,4203.07682,4231.281948,4208.717846,4213.846051,4226.153743,4209.743487,4227.179384,4221.538358,4206.153743,4229.230666,4221.025538,4215.384512,4222.051179,4201.538359
63,0,4208.717846,4235.897332,4215.897333,4224.102461,4238.974255,4217.435794,4232.820409,4226.666563,4211.794769,4246.666563,4226.666563,4223.07682,4226.153743,4209.230666
64,0,4197.435795,4223.58964,4203.07682,4213.846051,4244.615281,4214.871692,4221.025538,4221.538358,4203.07682,4233.84605,4212.82041,4209.230666,4222.563999,4195.897333
65,0,4189.743487,4213.846051,4192.30759,4203.07682,4228.205025,4203.07682,4212.307589,4218.461435,4197.435795,4212.82041,4206.666564,4202.051179,4219.487076,4184.102462
66,0,4192.82041,4220.512717,4195.384513,4205.640923,4221.538358,4198.974256,4213.846051,4217.435794,4202.564,4219.487076,4217.435794,4211.794769,4223.58964,4191.281949
67,0,4202.051179,4237.948614,4204.615282,4214.871692,4236.922973,4209.743487,4221.025538,4221.025538,4211.794769,4239.487076,4228.205025,4220.512717,4231.794768,4202.564
68,0,4195.897333,4235.384512,4199.487077,4212.82041,4227.179384,4212.307589,4217.435794,4218.974256,4204.102461,4227.692204,4215.897333,4208.717846,4225.640922,4189.230667
69,0,4190.256308,4225.640922,4197.435795,4210.769128,4216.922974,4207.692205,4219.487076,4218.461435,4196.922974,4215.384512,4205.128102,4204.102461,4216.922974,4179.999898
70,0,4195.897333,4228.717845,4203.589641,4209.743487,4227.692204,4209.743487,4224.102461,4219.999897,4201.538359,4224.615281,4209.743487,4209.743487,4220.512717,4190.256308
71,0,4201.538359,4231.281948,4206.153743,4211.281948,4229.743486,4214.358871,4229.743486,4221.538358,4209.230666,4227.692204,4222.051179,4213.846051,4227.692204,4201.538359
72,0,4197.948615,4218.461435,4203.07682,4210.256307,4213.846051,4209.230666,4236.922973,4221.538358,4211.794769,4217.948615,4223.07682,4213.33323,4225.128102,4197.948615
73,0,4201.025538,4218.461435,4203.07682,4209.743487,4218.974256,4209.230666,4232.820409,4222.563999,4217.435794,4224.615281,4219.487076,4216.410153,4222.051179,4194.358872
74,0,4205.128102,4228.717845,4203.589641,4212.82041,4238.974255,4215.384512,4214.358871,4225.128102,4221.538358,4238.461435,4218.461435,4217.948615,4223.58964,4192.30759
75,0,4198.974256,4221.538358,4204.615282,4214.871692,4232.820409,4213.33323,4210.769128,4222.563999,4218.461435,4236.410153,4219.999897,4213.846051,4224.615281,4195.384513
76,0,4195.897333,4211.794769,4203.589641,4208.205025,4218.461435,4206.666564,4219.999897,4219.999897,4216.410153,4226.153743,4221.025538,4213.33323,4223.07682,4198.974256
77,0,4206.666564,4220.512717,4208.205025,4208.205025,4234.871691,4210.769128,4222.051179,4227.179384,4223.58964,4230.769127,4222.563999,4222.051179,4223.07682,4201.538359
78,0,4217.435794,4226.153743,4219.487076,4219.487076,4248.717845,4213.846051,4218.974256,4233.84605,4228.717845,4240.512717,4224.615281,4229.230666,4225.640922,4203.589641
79,0,4209.230666,4215.897333,4215.897333,4216.410153,4230.256307,4205.640923,4210.769128,4224.102461,4221.538358,4233.33323,4217.948615,4225.640922,4221.538358,4198.461436
80,0,4207.179384,4222.051179,4214.871692,4216.410153,4217.435794,4208.205025,4214.358871,4218.974256,4221.025538,4229.743486,4219.487076,4230.769127,4222.051179,4201.025538
81,0,4217.948615,4232.307589,4226.153743,4230.256307,4221.025538,4213.846051,4225.640922,4221.025538,4224.102461,4231.281948,4228.717845,4238.461435,4227.692204,4212.307589
82,0,4221.538358,4222.563999,4228.205025,4229.743486,4237.435794,4208.205025,4224.615281,4220.512717,4217.435794,4224.615281,4230.256307,4235.384512,4228.717845,4213.846051
83,0,4208.717846,4208.717846,4213.846051,4207.692205,4246.153742,4205.640923,4214.871692,4217.435794,4208.717846,4210.256307,4216.410153,4222.563999,4218.974256,4194.358872
84,0,4211.281948,4221.538358,4216.922974,4211.281948,4235.384512,4215.897333,4228.205025,4221.538358,4214.871692,4221.025538,4217.435794,4226.153743,4220.512717,4195.384513
85,0,4214.871692,4226.153743,4221.538358,4224.102461,4212.307589,4211.794769,4234.871691,4221.025538,4215.384512,4231.794768,4222.563999,4226.153743,4225.128102,4208.205025
86,0,4207.692205,4221.025538,4216.410153,4219.487076,4221.538358,4211.281948,4229.230666,4223.58964,4216.410153,4228.717845,4219.999897,4222.051179,4224.102461,4205.640923
87,0,4198.461436,4217.435794,4207.179384,4206.666564,4248.717845,4222.563999,4226.153743,4227.179384,4220.512717,4221.538358,4216.922974,4216.922974,4221.538358,4194.358872
88,0,4198.461436,4218.974256,4204.615282,4204.615282,4251.794768,4222.563999,4230.256307,4227.692204,4222.051179,4225.128102,4219.999897,4215.897333,4224.102461,4195.897333
89,0,4194.358872,4213.33323,4202.564,4208.717846,4221.538358,4206.153743,4217.435794,4222.051179,4217.435794,4221.538358,4213.846051,4208.205025,4217.948615,4191.794769
90,0,4182.564,4202.051179,4196.922974,4205.128102,4201.538359,4200.512718,4202.051179,4213.846051,4212.82041,4207.179384,4202.051179,4196.922974,4208.717846,4177.435795
91,0,4173.846052,4197.948615,4190.769128,4194.871692,4219.999897,4209.743487,4206.153743,4214.871692,4215.897333,4204.615282,4202.051179,4196.922974,4207.692205,4172.30759
92,0,4181.538359,4205.128102,4191.281949,4196.410154,4235.897332,4215.384512,4217.435794,4223.58964,4225.128102,4218.461435,4213.846051,4206.153743,4213.846051,4181.538359
93,0,4183.076821,4201.538359,4188.717846,4198.461436,4220.512717,4209.230666,4208.205025,4221.025538,4221.538358,4220.512717,4213.846051,4201.538359,4211.794769,4182.564
94,0,4178.461436,4195.897333,4191.281949,4196.410154,4218.974256,4211.794769,4209.230666,4217.435794,4220.512717,4218.461435,4212.82041,4196.922974,4207.692205,4180.512718
95,0,4189.743487,4211.794769,4205.640923,4203.589641,4238.461435,4223.58964,4235.384512,4229.230666,4232.820409,4231.281948,4223.58964,4209.743487,4211.794769,4190.769128
96,0,4205.128102,4225.640922,4216.410153,4219.487076,4231.281948,4221.025538,4244.615281,4235.384512,4233.84605,4235.897332,4230.769127,4218.461435,4217.948615,4200.512718
97,0,4202.564,4216.410153,4217.435794,4220.512717,4216.410153,4212.82041,4229.230666,4225.640922,4224.102461,4226.153743,4224.102461,4214.358871,4217.948615,4199.999897
98,0,4193.846051,4207.692205,4209.230666,4204.102461,4229.743486,4217.435794,4222.563999,4219.487076,4224.615281,4226.153743,4214.358871,4211.281948,4215.384512,4195.384513
99,0,4194.871692,4213.846051,4203.07682,4195.897333,4241.538358,4217.948615,4225.640922,4220.512717,4227.179384,4230.769127,4217.435794,4215.384512,4217.435794,4197.948615
100,0,4194.358872,4216.922974,4206.153743,4205.128102,4223.58964,4209.743487,4221.025538,4217.948615,4222.563999,4214.871692,4223.58964,4216.922974,4215.897333,4199.487077
101,0,4197.435795,4216.922974,4214.358871,4217.948615,4218.461435,4211.794769,4224.615281,4217.948615,4226.153743,4211.281948,4224.102461,4217.948615,4216.922974,4202.051179
102,0,4194.358872,4215.384512,4209.743487,4213.846051,4231.794768,4214.871692,4225.128102,4215.897333,4226.153743,4220.512717,4217.948615,4212.307589,4217.435794,4199.487077
103,0,4189.743487,4218.974256,4204.102461,4208.717846,4237.948614,4215.897333,4220.512717,4216.922974,4226.153743,4226.666563,4219.999897,4215.897333,4217.948615,4198.974256
104,0,4182.05118,4213.33323,4197.435795,4198.974256,4227.692204,4212.307589,4212.82041,4214.871692,4222.563999,4221.025538,4217.948615,4213.33323,4214.871692,4193.846051
105,0,4190.256308,4217.435794,4206.153743,4205.128102,4225.128102,4216.922974,4225.640922,4221.025538,4225.640922,4229.743486,4223.58964,4214.358871,4219.999897,4199.487077
106,0,4200.512718,4226.153743,4214.871692,4218.461435,4223.58964,4216.922974,4233.33323,4227.179384,4230.769127,4235.384512,4227.692204,4221.025538,4223.58964,4207.179384
107,0,4201.025538,4226.153743,4208.205025,4214.358871,4231.281948,4213.33323,4222.051179,4227.692204,4231.281948,4228.717845,4223.07682,4223.07682,4221.025538,4205.128102
108,0,4198.461436,4221.538358,4199.487077,4204.615282,4238.974255,4213.846051,4212.82041,4224.102461,4227.179384,4221.025538,4217.435794,4217.948615,4218.974256,4201.538359
109,0,4201.538359,4225.640922,4207.179384,4213.33323,4231.281948,4216.922974,4223.07682,4221.538358,4227.179384,4226.153743,4218.974256,4216.922974,4217.948615,4209.230666
110,0,4200.512718,4223.58964,4212.82041,4216.410153,4221.538358,4211.281948,4223.58964,4218.461435,4225.128102,4230.769127,4218.974256,4218.974256,4215.897333,4211.794769
111,0,4206.666564,4225.640922,4215.384512,4217.435794,4236.410153,4213.846051,4218.461435,4219.999897,4225.128102,4234.871691,4227.179384,4227.692204,4219.999897,4215.897333
112,0,4214.871692,4232.307589,4219.999897,4227.179384,4248.717845,4222.563999,4229.230666,4229.743486,4230.256307,4234.871691,4230.769127,4235.384512,4224.615281,4225.640922
113,0,4203.589641,4219.999897,4212.82041,4218.974256,4230.256307,4211.794769,4229.743486,4229.743486,4224.102461,4210.769128,4216.410153,4221.025538,4213.846051,4217.435794
114,0,4197.435795,4212.307589,4206.153743,4207.179384,4212.82041,4203.589641,4218.974256,4219.999897,4212.307589,4193.846051,4214.871692,4210.769128,4208.205025,4206.666564
115,0,4210.256307,4224.615281,4214.871692,4212.82041,4224.102461,4216.410153,4222.051179,4215.384512,4211.794769,4209.230666,4223.07682,4220.512717,4215.897333,4208.717846
116,0,4218.974256,4235.384512,4227.692204,4219.999897,4240.512717,4223.07682,4231.281948,4216.922974,4216.922974,4228.205025,4221.025538,4229.743486,4218.974256,4217.435794
117,0,4213.33323,4231.794768,4229.230666,4218.974256,4228.717845,4212.307589,4227.692204,4215.897333,4216.410153,4219.999897,4223.07682,4232.307589,4216.410153,4222.563999
118,0,4212.82041,4229.230666,4227.179384,4219.487076,4223.58964,4208.717846,4227.179384,4215.897333,4213.846051,4203.589641,4231.281948,4237.435794,4222.051179,4221.538358
119,0,4209.230666,4222.051179,4224.102461,4212.82041,4237.435794,4212.82041,4222.051179,4215.384512,4204.615282,4204.102461,4222.563999,4230.256307,4219.487076,4208.205025
120,0,4210.769128,4218.974256,4230.769127,4218.461435,4242.051178,4217.948615,4224.102461,4220.512717,4208.717846,4231.794768,4221.025538,4225.640922,4218.461435,4209.230666
121,0,4212.82041,4215.384512,4235.897332,4229.743486,4217.948615,4213.846051,4232.307589,4224.615281,4218.974256,4235.897332,4226.666563,4228.205025,4219.487076,4214.358871
122,0,4205.640923,4205.128102,4228.205025,4221.538358,4206.153743,4207.179384,4229.230666,4219.999897,4214.871692,4210.769128,4218.461435,4223.07682,4211.794769,4203.589641
123,0,4191.794769,4195.384513,4212.82041,4202.564,4227.692204,4207.692205,4211.281948,4210.769128,4201.025538,4198.461436,4205.640923,4208.205025,4205.128102,4190.769128
124,0,4196.410154,4200.512718,4218.974256,4208.205025,4238.974255,4213.33323,4217.435794,4218.461435,4207.692205,4214.358871,4215.384512,4211.794769,4214.871692,4200.512718
125,0,4204.102461,4203.07682,4226.153743,4219.487076,4218.461435,4211.281948,4235.384512,4231.794768,4217.435794,4220.512717,4221.538358,4217.948615,4217.948615,4207.692205
126,0,4211.281948,4210.256307,4226.666563,4223.07682,4218.461435,4215.384512,4241.538358,4230.256307,4218.461435,4222.051179,4224.615281,4226.153743,4220.512717,4213.846051
127,0,4208.717846,4212.82041,4224.102461,4218.461435,4231.281948,4218.461435,4230.256307,4218.461435,4216.922974,4223.58964,4224.102461,4226.666563,4222.563999,4212.82041
128,0,4195.384513,4202.051179,4222.563999,4213.846051,4230.769127,4213.846051,4223.58964,4216.922974,4217.435794,4225.128102,4216.922974,4211.794769,4212.82041,4195.897333
0,0,4194.871692,4197.435795,4223.07682,4213.33323,4228.717845,4210.256307,4226.153743,4226.666563,4215.384512,4225.640922,4216.410153,4205.640923,4210.256307,4190.769128
1,0,4213.846051,4208.717846,4230.256307,4222.051179,4226.666563,4213.846051,4229.743486,4229.743486,4216.410153,4226.666563,4228.717845,4216.410153,4227.179384,4214.358871
2,0,4227.179384,4212.307589,4236.922973,4227.179384,4221.025538,4216.922974,4227.179384,4223.58964,4219.999897,4237.948614,4235.384512,4224.615281,4239.487076,4237.435794
3,0,4224.102461,4203.07682,4230.769127,4221.538358,4221.538358,4210.769128,4218.974256,4219.999897,4214.358871,4240.512717,4228.717845,4221.538358,4236.922973,4238.461435
4,0,4224.615281,4203.589641,4225.128102,4214.871692,4225.128102,4203.07682,4213.33323,4218.974256,4206.153743,4228.205025,4227.179384,4218.974256,4235.897332,4233.33323
5,0,4227.179384,4202.564,4224.615281,4212.307589,4221.538358,4205.128102,4209.743487,4216.410153,4204.615282,4223.07682,4227.692204,4214.358871,4237.435794,4231.794768
6,0,4228.205025,4202.564,4227.179384,4218.974256,4226.153743,4213.33323,4219.999897,4221.538358,4212.82041,4235.897332,4227.692204,4216.410153,4238.461435,4238.974255
7,0,4226.153743,4203.07682,4221.025538,4221.025538,4224.102461,4213.846051,4228.205025,4226.666563,4217.948615,4233.33323,4224.102461,4214.358871,4235.897332,4232.820409
8,0,4221.538358,4203.07682,4216.410153,4219.999897,4224.615281,4215.384512,4231.794768,4226.666563,4218.974256,4226.153743,4221.538358,4209.230666,4233.84605,4219.999897
9,0,4215.384512,4198.461436,4217.948615,4216.922974,4230.256307,4215.897333,4230.769127,4223.58964,4215.384512,4227.692204,4219.999897,4206.666564,4231.794768,4218.461435
10,0,4217.948615,4198.974256,4222.051179,4218.461435,4226.153743,4215.897333,4232.307589,4226.666563,4215.897333,4235.897332,4224.615281,4214.358871,4234.871691,4223.07682
11,0,4214.358871,4194.871692,4215.384512,4214.358871,4217.948615,4213.846051,4224.102461,4227.179384,4215.384512,4233.84605,4222.563999,4215.384512,4231.794768,4213.846051
12,0,4215.897333,4201.025538,4216.922974,4218.461435,4228.205025,4215.384512,4225.128102,4229.743486,4220.512717,4234.871691,4227.179384,4220.512717,4232.307589,4219.487076
13,0,4225.640922,4209.743487,4229.230666,4228.205025,4232.820409,4217.435794,4233.84605,4234.358871,4227.692204,4247.179383,4237.435794,4232.307589,4242.051178,4238.974255
14,0,4232.307589,4207.179384,4237.435794,4230.769127,4228.205025,4222.563999,4237.435794,4238.461435,4232.307589,4262.051178,4237.948614,4237.948614,4250.256306,4244.615281
15,0,4224.102461,4198.461436,4230.256307,4219.999897,4230.769127,4218.974256,4228.205025,4234.871691,4226.153743,4245.640922,4225.640922,4225.640922,4243.076819,4228.205025
16,0,4219.999897,4202.051179,4226.153743,4217.435794,4232.820409,4215.384512,4227.179384,4231.281948,4222.051179,4225.128102,4231.281948,4222.051179,4243.076819,4222.563999
17,0,4221.025538,4203.589641,4225.640922,4223.58964,4216.922974,4218.974256,4234.358871,4235.384512,4228.205025,4234.358871,4235.897332,4226.153743,4248.717845,4227.692204
18,0,4217.948615,4201.025538,4222.051179,4220.512717,4224.102461,4226.153743,4244.615281,4244.10246,4236.922973,4252.307588,4226.666563,4225.128102,4245.640922,4226.153743
19,0,4216.410153,4202.564,4217.435794,4213.846051,4241.538358,4229.230666,4252.307588,4242.051178,4233.33323,4249.230665,4225.128102,4222.051179,4243.58964,4222.051179
20,0,4218.974256,4206.666564,4219.999897,4215.897333,4228.205025,4226.666563,4250.256306,4232.307589,4226.153743,4239.487076,4228.717845,4222.051179,4248.717845,4224.615281
21,0,4224.615281,4210.769128,4228.205025,4221.025538,4222.051179,4226.666563,4245.128101,4230.769127,4228.205025,4239.999896,4228.205025,4224.102461,4253.84605,4228.205025
22,0,4223.58964,4210.256307,4229.230666,4220.512717,4234.358871,4225.640922,4242.563999,4233.84605,4231.281948,4240.512717,4227.692204,4227.692204,4253.333229,4227.179384
23,0,4216.922974,4205.128102,4223.58964,4218.461435,4226.153743,4218.461435,4236.410153,4232.307589,4227.692204,4234.358871,4227.179384,4229.230666,4248.205024,4226.153743
24,0,4216.410153,4201.538359,4223.58964,4216.922974,4215.384512,4216.922974,4231.281948,4231.794768,4222.051179,4224.615281,4227.179384,4227.692204,4247.179383,4226.153743
25,0,4221.538358,4204.615282,4231.794768,4217.435794,4231.281948,4218.974256,4233.84605,4235.897332,4227.692204,4230.256307,4232.820409,4230.769127,4252.820409,4228.205025
26,0,4213.846051,4200.512718,4227.179384,4214.871692,4231.794768,4214.358871,4234.358871,4232.820409,4232.307589,4237.948614,4226.666563,4225.640922,4248.205024,4221.538358
27,0,4210.769128,4203.589641,4218.974256,4214.358871,4220.512717,4213.33323,4237.948614,4234.871691,4235.384512,4245.640922,4218.974256,4220.512717,4246.153742,4221.538358
28,0,4213.33323,4205.640923,4214.358871,4207.179384,4221.025538,4215.384512,4232.307589,4237.948614,4231.794768,4236.922973,4217.435794,4215.384512,4246.666563,4220.512717
29,0,4218.974256,4208.205025,4216.922974,4206.666564,4229.230666,4218.461435,4226.666563,4235.897332,4229.230666,4224.615281,4223.58964,4218.461435,4248.205024,4216.922974
30,0,4216.922974,4205.128102,4214.358871,4209.230666,4221.025538,4215.897333,4225.128102,4230.256307,4226.666563,4224.615281,4225.640922,4218.974256,4250.769127,4214.358871
31,0,4210.256307,4203.589641,4210.769128,4207.179384,4215.897333,4215.897333,4228.205025,4232.820409,4227.179384,4235.897332,4226.666563,4215.384512,4254.35887,4221.538358
32,0,4205.128102,4201.538359,4209.230666,4206.153743,4216.922974,4216.410153,4223.07682,4231.281948,4223.07682,4231.794768,4223.58964,4209.743487,4249.230665,4220.512717
33,0,4217.948615,4210.769128,4219.999897,4220.512717,4211.794769,4217.948615,4226.666563,4228.717845,4222.051179,4227.179384,4227.692204,4219.999897,4250.769127,4219.487076
34,0,4218.461435,4209.230666,4219.487076,4217.435794,4208.717846,4211.281948,4219.487076,4224.615281,4216.922974,4226.153743,4225.128102,4220.512717,4253.333229,4215.384512
35,0,4202.564,4194.358872,4206.666564,4199.487077,4226.153743,4211.794769,4210.769128,4223.07682,4209.230666,4223.58964,4213.33323,4202.051179,4245.640922,4205.128102
36,0,4200.512718,4188.205026,4203.07682,4201.025538,4230.256307,4221.025538,4219.999897,4228.717845,4210.256307,4215.384512,4207.692205,4194.871692,4238.974255,4196.922974
37,0,4210.769128,4193.333231,4211.281948,4213.846051,4214.358871,4219.487076,4227.179384,4229.743486,4217.948615,4206.153743,4212.307589,4204.615282,4242.051178,4203.589641
38,0,4217.948615,4200.512718,4220.512717,4216.410153,4210.769128,4216.922974,4228.205025,4226.153743,4224.102461,4217.435794,4224.102461,4214.358871,4249.743486,4218.974256
39,0,4220.512717,4208.717846,4225.128102,4216.922974,4213.846051,4221.538358,4233.33323,4229.743486,4226.153743,4240.512717,4230.769127,4221.538358,4253.333229,4224.102461
40,0,4222.051179,4216.410153,4224.615281,4218.974256,4217.948615,4222.563999,4233.84605,4234.358871,4228.205025,4249.230665,4227.692204,4225.128102,4249.743486,4217.435794
41,0,4223.07682,4222.563999,4223.07682,4216.410153,4237.435794,4224.102461,4231.794768,4234.871691,4230.256307,4241.538358,4228.205025,4224.615281,4249.230665,4213.846051
42,0,4228.717845,4231.281948,4228.717845,4223.58964,4242.563999,4225.128102,4236.922973,4235.384512,4231.794768,4227.692204,4236.410153,4230.769127,4253.84605,4220.512717
43,0,4229.230666,4225.640922,4227.179384,4224.102461,4223.58964,4216.410153,4230.769127,4231.794768,4223.58964,4215.384512,4229.230666,4228.205025,4247.692204,4218.461435
44,0,4230.769127,4223.58964,4228.205025,4221.025538,4221.538358,4215.384512,4225.640922,4230.769127,4219.487076,4233.84605,4226.666563,4224.615281,4242.051178,4223.58964
45,0,4230.256307,4223.07682,4231.281948,4221.538358,4216.922974,4216.922974,4230.256307,4232.820409,4222.563999,4241.025537,4229.230666,4224.102461,4241.025537,4226.153743
46,0,4226.666563,4213.846051,4227.692204,4219.999897,4211.281948,4210.256307,4229.230666,4229.743486,4222.563999,4211.281948,4222.563999,4220.512717,4238.461435,4218.461435
47,0,4225.128102,4205.640923,4223.07682,4213.846051,4217.435794,4210.769128,4222.051179,4224.102461,4218.974256,4204.615282,4218.974256,4213.33323,4234.871691,4213.846051
48,0,4228.717845,4211.794769,4231.794768,4219.487076,4228.717845,4224.615281,4236.410153,4233.84605,4227.692204,4246.666563,4229.743486,4221.025538,4239.487076,4222.563999
49,0,4224.102461,4206.666564,4228.717845,4220.512717,4234.871691,4226.153743,4243.076819,4237.948614,4231.794768,4253.333229,4227.692204,4225.128102,4239.487076,4224.102461
50,0,4225.128102,4202.564,4220.512717,4214.871692,4241.538358,4219.487076,4233.33323,4231.281948,4225.640922,4223.07682,4226.153743,4223.58964,4239.487076,4229.230666
51,0,4223.58964,4200.512718,4214.358871,4207.692205,4229.230666,4212.307589,4215.897333,4222.563999,4214.871692,4203.07682,4222.563999,4215.384512,4236.410153,4224.102461
52,0,4214.358871,4194.358872,4212.307589,4203.589641,4214.358871,4210.256307,4211.281948,4222.051179,4215.384512,4210.769128,4213.33323,4205.640923,4228.205025,4207.692205
53,0,4213.846051,4191.794769,4214.871692,4207.692205,4214.871692,4213.33323,4221.025538,4227.692204,4221.538358,4218.974256,4214.871692,4207.692205,4225.640922,4207.179384
54,0,4224.615281,4200.512718,4229.230666,4220.512717,4221.025538,4218.461435,4233.33323,4232.820409,4228.717845,4223.07682,4229.743486,4221.538358,4234.358871,4219.487076
55,0,4220.512717,4196.410154,4227.692204,4213.33323,4225.640922,4217.435794,4229.230666,4228.717845,4227.692204,4224.615281,4226.666563,4221.025538,4235.897332,4215.384512
56,0,4208.717846,4182.564,4213.33323,4195.897333,4228.205025,4215.897333,4220.512717,4223.58964,4224.102461,4220.512717,4215.384512,4211.281948,4227.179384,4209.230666
57,0,4211.281948,4183.589641,4214.871692,4198.461436,4220.512717,4216.922974,4224.102461,4226.666563,4226.666563,4214.871692,4213.846051,4211.794769,4225.640922,4214.871692
58,0,4218.461435,4195.384513,4223.58964,4215.384512,4206.666564,4218.974256,4230.256307,4228.205025,4226.153743,4212.307589,4215.897333,4212.82041,4227.692204,4213.33323
59,0,4220.512717,4199.487077,4222.563999,4219.999897,4210.769128,4217.948615,4234.358871,4225.640922,4225.128102,4217.435794,4215.384512,4209.743487,4225.640922,4208.205025
60,0,4215.897333,4190.769128,4215.897333,4203.589641,4228.205025,4216.410153,4231.794768,4224.102461,4227.692204,4217.948615,4213.33323,4207.692205,4222.563999,4212.82041
61,0,4212.307589,4185.128103,4210.769128,4194.871692,4229.743486,4213.846051,4223.07682,4223.07682,4225.640922,4214.871692,4212.82041,4207.179384,4224.615281,4216.922974
62,0,4213.33323,4189.230667,4210.769128,4204.615282,4212.82041,4210.256307,4218.461435,4222.051179,4218.461435,4211.281948,4210.769128,4204.102461,4223.58964,4211.794769
63,0,4223.58964,4203.589641,4225.640922,4219.487076,4212.307589,4213.33323,4223.58964,4224.615281,4222.563999,4210.256307,4215.897333,4210.769128,4221.538358,4216.410153
64,0,4224.615281,4207.179384,4229.230666,4219.999897,4221.538358,4214.871692,4220.512717,4224.102461,4223.58964,4208.205025,4218.461435,4211.794769,4223.58964,4217.435794
65,0,4221.025538,4204.615282,4219.999897,4215.384512,4231.794768,4217.435794,4219.999897,4224.615281,4226.153743,4222.563999,4222.563999,4211.794769,4232.307589,4217.435794
66,0,4210.256307,4194.871692,4206.153743,4201.538359,4227.692204,4211.794769,4212.82041,4220.512717,4224.102461,4225.640922,4215.897333,4203.07682,4229.743486,4210.769128
67,0,4201.538359,4190.256308,4203.07682,4196.922974,4208.205025,4205.128102,4203.589641,4215.897333,4214.358871,4203.589641,4205.128102,4193.333231,4218.461435,4201.538359
68,0,4206.153743,4197.948615,4213.846051,4210.769128,4204.615282,4209.230666,4208.205025,4219.487076,4213.33323,4194.358872,4208.717846,4198.461436,4219.487076,4202.564
69,0,4224.615281,4215.897333,4230.769127,4222.563999,4233.84605,4221.538358,4229.743486,4230.769127,4227.692204,4221.025538,4227.179384,4217.435794,4235.897332,4224.102461
70,0,4224.102461,4211.281948,4223.58964,4210.256307,4238.461435,4216.922974,4228.205025,4226.666563,4224.102461,4222.051179,4224.102461,4217.435794,4233.84605,4224.102461
71,0,4217.948615,4206.666564,4214.871692,4207.179384,4225.640922,4212.307589,4219.487076,4222.563999,4215.384512,4212.307589,4217.435794,4213.846051,4225.640922,4211.794769
72,0,4223.07682,4216.410153,4223.07682,4216.410153,4223.58964,4217.435794,4225.640922,4230.256307,4224.102461,4225.640922,4227.692204,4222.051179,4233.84605,4224.615281
73,0,4230.769127,4222.051179,4232.820409,4221.025538,4215.897333,4214.358871,4228.717845,4233.84605,4233.84605,4230.769127,4236.410153,4228.717845,4241.538358,4241.538358
74,0,4234.871691,4224.615281,4235.897332,4224.615281,4207.179384,4207.692205,4218.974256,4226.666563,4232.307589,4222.563999,4234.358871,4229.743486,4237.435794,4237.435794
75,0,4235.384512,4223.58964,4234.358871,4225.128102,4228.205025,4209.230666,4213.33323,4223.07682,4228.717845,4226.666563,4230.769127,4228.205025,4232.820409,4231.281948
76,0,4233.33323,4216.922974,4229.743486,4217.948615,4249.743486,4212.307589,4217.435794,4222.563999,4226.666563,4228.205025,4227.179384,4223.07682,4233.33323,4231.794768
77,0,4231.281948,4215.897333,4229.230666,4217.948615,4228.205025,4211.281948,4217.948615,4221.025538,4226.666563,4215.384512,4224.102461,4220.512717,4231.281948,4226.153743
78,0,4229.743486,4222.051179,4232.307589,4222.051179,4208.717846,4208.717846,4220.512717,4226.666563,4232.820409,4216.410153,4226.153743,4226.666563,4230.769127,4225.128102
79,0,4218.974256,4212.307589,4222.051179,4214.358871,4216.922974,4206.153743,4222.563999,4228.205025,4230.256307,4218.461435,4221.538358,4219.999897,4226.666563,4225.128102
80,0,4213.846051,4204.615282,4214.358871,4210.256307,4230.769127,4210.256307,4224.615281,4225.640922,4225.128102,4213.846051,4217.435794,4207.692205,4223.58964,4218.461435
81,0,4219.999897,4211.794769,4219.487076,4210.769128,4229.230666,4215.384512,4224.102461,4223.07682,4229.743486,4219.487076,4221.025538,4207.692205,4224.102461,4216.922974
82,0,4227.692204,4222.563999,4230.256307,4216.410153,4227.692204,4214.871692,4227.692204,4227.179384,4238.461435,4237.435794,4227.692204,4222.563999,4228.205025,4224.615281
83,0,4219.999897,4216.410153,4224.615281,4218.461435,4234.358871,4209.743487,4222.563999,4225.128102,4226.666563,4225.640922,4219.999897,4222.051179,4227.692204,4216.410153
84,0,4212.307589,4208.205025,4215.897333,4216.410153,4236.922973,4210.769128,4217.435794,4221.025538,4216.410153,4207.179384,4217.435794,4215.897333,4225.128102,4210.769128
85,0,4215.384512,4209.743487,4218.461435,4214.358871,4222.051179,4210.769128,4217.435794,4221.538358,4219.999897,4211.281948,4222.563999,4217.435794,4222.051179,4221.538358
86,0,4220.512717,4218.461435,4223.07682,4219.999897,4219.487076,4207.692205,4223.07682,4225.128102,4221.025538,4224.615281,4222.563999,4219.487076,4224.102461,4226.153743
87,0,4214.358871,4213.846051,4214.358871,4217.435794,4230.256307,4206.153743,4221.538358,4222.563999,4212.307589,4221.538358,4215.897333,4210.256307,4224.102461,4211.281948
88,0,4215.897333,4212.307589,4216.410153,4215.897333,4236.410153,4211.794769,4222.051179,4225.128102,4216.410153,4223.58964,4219.487076,4209.230666,4225.128102,4212.82041
89,0,4221.538358,4216.922974,4223.07682,4217.435794,4232.307589,4212.307589,4219.999897,4228.205025,4218.974256,4219.999897,4220.512717,4211.794769,4225.640922,4223.07682
90,0,4222.051179,4224.615281,4224.615281,4219.999897,4233.33323,4211.794769,4224.102461,4226.153743,4212.307589,4206.153743,4220.512717,4216.410153,4225.128102,4221.538358
91,0,4219.487076,4225.128102,4223.07682,4221.538358,4231.794768,4213.846051,4226.666563,4225.128102,4209.230666,4211.281948,4221.025538,4221.025538,4221.538358,4216.410153
92,0,4218.461435,4218.974256,4221.025538,4218.974256,4232.820409,4213.33323,4223.07682,4227.179384,4213.846051,4229.230666,4218.461435,4217.948615,4221.538358,4218.461435
93,0,4213.33323,4208.717846,4211.281948,4210.769128,4232.307589,4207.692205,4216.410153,4226.153743,4211.794769,4215.384512,4211.794769,4206.666564,4219.487076,4213.846051
94,0,4213.33323,4205.640923,4212.82041,4210.769128,4225.128102,4211.281948,4217.435794,4228.717845,4211.794769,4198.974256,4217.948615,4209.743487,4216.410153,4210.256307
95,0,4229.230666,4216.922974,4233.84605,4224.102461,4234.358871,4222.051179,4227.692204,4233.84605,4224.615281,4228.205025,4234.871691,4230.256307,4225.128102,4223.58964
96,0,4235.897332,4220.512717,4242.051178,4227.692204,4245.640922,4220.512717,4226.666563,4230.769127,4229.743486,4247.692204,4233.33323,4237.435794,4232.307589,4227.179384
97,0,4225.128102,4209.743487,4229.743486,4218.974256,4230.769127,4210.256307,4217.948615,4225.128102,4221.538358,4225.640922,4219.999897,4225.640922,4225.128102,4214.358871
98,0,4208.717846,4194.358872,4215.897333,4209.743487,4209.230666,4205.128102,4211.281948,4220.512717,4209.230666,4203.589641,4211.794769,4209.230666,4212.307589,4202.051179
99,0,4209.743487,4192.82041,4221.538358,4212.82041,4226.666563,4211.794769,4222.051179,4219.999897,4210.769128,4212.307589,4215.384512,4209.230666,4214.358871,4204.102461
100,0,4216.922974,4194.871692,4224.102461,4211.794769,4230.769127,4211.794769,4227.179384,4219.999897,4215.384512,4214.358871,4212.307589,4213.33323,4214.871692,4205.640923
101,0,4217.435794,4196.410154,4221.025538,4207.179384,4216.410153,4206.666564,4220.512717,4221.025538,4216.410153,4210.256307,4210.769128,4212.82041,4210.769128,4207.692205
102,0,4211.794769,4196.922974,4218.974256,4207.179384,4222.563999,4208.717846,4214.358871,4215.897333,4213.33323,4203.07682,4212.82041,4208.205025,4211.281948,4208.205025
103,0,4218.974256,4209.230666,4224.615281,4217.948615,4237.435794,4218.461435,4223.07682,4215.384512,4216.410153,4201.025538,4219.999897,4218.461435,4218.974256,4215.897333
104,0,4225.640922,4213.846051,4223.07682,4218.461435,4230.256307,4215.897333,4221.538358,4217.435794,4216.410153,4209.230666,4219.487076,4224.615281,4218.461435,4217.435794
105,0,4226.153743,4211.281948,4222.563999,4215.897333,4223.07682,4211.281948,4215.897333,4217.435794,4215.384512,4221.025538,4218.974256,4224.102461,4215.384512,4214.871692
106,0,4218.974256,4206.153743,4220.512717,4215.897333,4219.999897,4212.307589,4213.846051,4213.846051,4215.384512,4213.33323,4216.922974,4220.512717,4214.358871,4206.666564
107,0,4210.769128,4201.025538,4210.769128,4209.743487,4220.512717,4210.769128,4210.769128,4214.358871,4218.974256,4199.999897,4211.281948,4215.384512,4213.846051,4199.999897
108,0,4211.281948,4195.897333,4204.102461,4202.051179,4222.051179,4205.640923,4202.564,4215.384512,4220.512717,4197.948615,4207.179384,4217.435794,4213.33323,4203.07682
109,0,4225.640922,4210.256307,4219.487076,4216.410153,4222.563999,4211.794769,4210.256307,4221.025538,4223.07682,4208.717846,4215.384512,4218.461435,4215.897333,4216.410153
110,0,4234.358871,4223.58964,4230.769127,4228.717845,4224.615281,4217.435794,4219.999897,4228.717845,4223.58964,4221.538358,4223.07682,4179.487077,4218.461435,4221.538358
111,0,4228.205025,4216.922974,4224.102461,4218.974256,4234.871691,4213.846051,4219.999897,4228.717845,4219.999897,4226.666563,4224.615281,4133.333232,4218.461435,4216.922974
112,0,4224.102461,4213.33323,4218.461435,4210.256307,4235.384512,4208.717846,4218.461435,4222.563999,4216.410153,4211.794769,4225.128102,4128.205027,4217.948615,4217.435794
113,0,4225.128102,4215.897333,4219.487076,4215.897333,4225.640922,4210.256307,4218.461435,4217.435794,4218.974256,4201.025538,4225.128102,4135.384514,4217.948615,4222.051179
114,0,4223.58964,4206.153743,4225.128102,4218.974256,4220.512717,4215.897333,4222.563999,4223.07682,4224.615281,4218.974256,4221.025538,4132.820412,4215.384512,4222.051179
115,0,4224.615281,4201.025538,4226.666563,4215.897333,4217.948615,4213.846051,4222.563999,4225.640922,4223.07682,4227.692204,4215.897333,4134.358873,4213.846051,4218.461435
116,0,4235.384512,4220.512717,4226.153743,4220.512717,4222.563999,4212.307589,4222.563999,4223.58964,4222.563999,4217.948615,4220.512717,4142.564001,4217.948615,4221.538358
117,0,4234.871691,4226.153743,4227.179384,4226.153743,4236.922973,4220.512717,4227.179384,4226.666563,4228.205025,4216.922974,4223.07682,4143.076822,4214.358871,4218.461435
118,0,4232.820409,4223.58964,4233.33323,4228.717845,4246.666563,4229.743486,4235.897332,4236.410153,4231.794768,4226.666563,4224.615281,4147.692206,4208.717846,4209.230666
119,0,4230.769127,4227.692204,4224.615281,4225.640922,4229.743486,4224.102461,4227.179384,4233.84605,4224.615281,4217.435794,4222.563999,4143.589642,4208.717846,4202.051179
120,0,4223.58964,4229.743486,4214.871692,4223.58964,4224.102461,4216.410153,4215.897333,4230.769127,4225.640922,4223.58964,4219.487076,4139.999899,4211.281948,4204.615282
121,0,4213.33323,4217.435794,4211.794769,4216.922974,4236.410153,4213.33323,4208.717846,4229.230666,4226.666563,4233.84605,4211.281948,4138.974258,4204.102461,4197.948615
122,0,4216.922974,4217.435794,4213.846051,4218.461435,4235.897332,4214.358871,4212.307589,4225.640922,4223.58964,4219.487076,4209.230666,4144.615283,4200.512718,4191.794769
123,0,4219.487076,4224.102461,4215.384512,4223.07682,4224.615281,4217.948615,4217.435794,4223.58964,4221.538358,4213.846051,4210.769128,4153.846052,4204.102461,4194.871692
124,0,4223.07682,4229.230666,4224.615281,4227.179384,4235.384512,4225.640922,4225.128102,4228.717845,4224.102461,4229.743486,4216.922974,4164.102462,4209.743487,4203.07682
125,0,4226.153743,4226.153743,4226.666563,4227.179384,4239.487076,4221.025538,4222.051179,4225.640922,4218.461435,4218.974256,4217.435794,4164.102462,4207.179384,4196.922974
126,0,4226.666563,4228.717845,4224.615281,4228.717845,4235.384512,4214.358871,4219.487076,4223.07682,4216.922974,4215.384512,4216.922974,4164.102462,4204.102461,4194.871692
127,0,4225.640922,4231.794768,4219.999897,4224.615281,4237.435794,4215.897333,4220.512717,4227.179384,4222.051179,4235.897332,4214.358871,4162.05118,4205.128102,4197.948615
128,0,4221.025538,4225.128102,4213.846051,4219.487076,4237.435794,4222.051179,4221.025538,4227.179384,4221.538358,4231.281948,4208.717846,4159.487078,4203.589641,4190.256308
0,0,4211.794769,4215.897333,4211.794769,4217.435794,4224.102461,4219.999897,4213.33323,4219.999897,4211.794769,4202.564,4202.564,4162.05118,4195.897333,4179.999898
1,0,4211.281948,4214.871692,4213.33323,4215.384512,4216.410153,4214.358871,4209.230666,4217.948615,4205.128102,4202.564,4203.589641,4174.871693,4192.30759,4182.564
2,0,4219.999897,4219.999897,4218.974256,4215.384512,4225.640922,4218.974256,4215.384512,4222.563999,4210.769128,4221.538358,4211.794769,4200.512718,4197.948615,4192.82041
3,0,4217.948615,4216.922974,4221.538358,4217.435794,4231.281948,4226.153743,4216.922974,4222.563999,4214.871692,4216.410153,4213.33323,4215.897333,4199.487077,4194.358872
4,0,4212.82041,4211.281948,4217.948615,4217.948615,4229.743486,4222.563999,4213.33323,4221.538358,4212.307589,4207.692205,4207.692205,4211.281948,4195.897333,4191.281949
5,0,4213.846051,4211.281948,4211.281948,4215.897333,4226.666563,4216.922974,4209.230666,4219.487076,4209.743487,4211.794769,4201.538359,4205.128102,4196.410154,4190.769128
6,0,4222.563999,4222.051179,4219.487076,4222.563999,4233.84605,4226.153743,4219.999897,4221.025538,4216.922974,4218.461435,4204.615282,4215.897333,4201.538359,4195.384513
7,0,4223.58964,4221.025538,4225.640922,4224.615281,4238.461435,4229.743486,4225.128102,4225.128102,4222.051179,4207.179384,4209.743487,4223.58964,4198.461436,4190.769128
8,0,4219.487076,4216.410153,4218.461435,4219.487076,4238.461435,4223.58964,4220.512717,4232.307589,4225.640922,4209.743487,4216.410153,4223.07682,4199.487077,4191.794769
9,0,4219.999897,4220.512717,4213.846051,4217.948615,4230.769127,4219.487076,4217.948615,4233.33323,4227.692204,4224.615281,4219.487076,4221.025538,4207.179384,4197.435795
10,0,4233.33323,4234.358871,4225.128102,4230.256307,4228.717845,4224.615281,4228.717845,4233.84605,4230.256307,4234.358871,4225.128102,4230.769127,4214.358871,4209.743487
11,0,4233.84605,4233.84605,4226.666563,4228.205025,4235.384512,4224.102461,4223.58964,4231.281948,4224.615281,4227.692204,4226.153743,4235.897332,4210.769128,4213.846051
12,0,4229.230666,4230.769127,4228.205025,4224.615281,4238.974255,4219.487076,4216.410153,4227.692204,4222.563999,4225.128102,4222.563999,4237.435794,4209.230666,4210.256307
13,0,4232.307589,4234.358871,4230.256307,4229.743486,4234.358871,4219.487076,4219.487076,4225.640922,4222.563999,4225.640922,4217.948615,4236.410153,4207.179384,4206.666564
14,0,4230.256307,4233.33323,4224.615281,4226.666563,4235.897332,4225.128102,4221.538358,4226.153743,4218.974256,4228.205025,4219.999897,4232.307589,4206.153743,4207.179384
15,0,4221.025538,4223.58964,4217.948615,4216.410153,4233.33323,4222.051179,4215.897333,4224.102461,4213.33323,4223.58964,4221.538358,4228.205025,4207.179384,4203.07682
16,0,4230.256307,4230.256307,4228.717845,4226.666563,4230.256307,4220.512717,4222.563999,4228.717845,4221.538358,4229.230666,4227.692204,4241.538358,4214.358871,4207.692205
17,0,4233.33323,4235.384512,4228.717845,4229.743486,4231.281948,4222.563999,4223.07682,4231.794768,4225.128102,4235.384512,4225.128102,4242.051178,4214.358871,4211.281948
18,0,4220.512717,4227.179384,4216.410153,4215.897333,4235.384512,4223.58964,4214.871692,4223.58964,4216.410153,4224.102461,4215.897333,4224.615281,4205.128102,4197.948615
19,0,4222.051179,4225.128102,4215.897333,4217.948615,4231.281948,4221.025538,4213.33323,4223.07682,4213.33323,4214.871692,4216.410153,4223.58964,4204.615282,4192.82041
20,0,4232.307589,4228.205025,4219.487076,4223.58964,4229.230666,4221.538358,4216.410153,4229.230666,4214.871692,4221.538358,4219.999897,4233.33323,4207.692205,4207.692205
21,0,4232.307589,4226.666563,4217.435794,4218.461435,4238.974255,4224.102461,4218.974256,4229.743486,4215.897333,4229.743486,4220.512717,4237.948614,4208.717846,4215.384512
22,0,4234.358871,4234.358871,4225.128102,4226.666563,4236.922973,4225.128102,4223.07682,4231.794768,4222.051179,4228.205025,4226.666563,4243.076819,4214.871692,4214.871692
23,0,4242.051178,4244.10246,4236.922973,4239.999896,4226.153743,4223.58964,4225.128102,4235.897332,4224.615281,4227.692204,4231.794768,4247.692204,4220.512717,4218.974256
24,0,4237.435794,4231.794768,4232.820409,4229.230666,4226.153743,4218.461435,4216.410153,4226.666563,4216.410153,4223.58964,4223.58964,4240.512717,4214.358871,4214.871692
25,0,4236.922973,4226.153743,4225.640922,4224.102461,4234.358871,4219.999897,4212.82041,4221.025538,4219.487076,4220.512717,4223.07682,4242.051178,4209.743487,4214.358871
26,0,4242.563999,4236.922973,4224.615281,4229.743486,4232.820409,4224.615281,4215.384512,4227.692204,4223.58964,4222.563999,4228.205025,4246.153742,4212.82041,4219.487076
27,0,4243.58964,4243.076819,4232.307589,4229.230666,4237.435794,4229.230666,4224.615281,4233.84605,4222.563999,4232.307589,4231.281948,4249.743486,4218.974256,4224.615281
28,0,4232.820409,4231.794768,4230.769127,4224.615281,4234.358871,4224.615281,4222.051179,4230.256307,4222.051179,4225.128102,4226.153743,4246.153742,4215.897333,4218.461435
29,0,4231.794768,4233.84605,4226.666563,4231.794768,4222.563999,4219.487076,4219.487076,4229.743486,4226.153743,4222.051179,4224.102461,4239.999896,4213.846051,4215.384512
30,0,4233.33323,4236.410153,4222.051179,4230.256307,4223.07682,4218.974256,4220.512717,4230.769127,4221.025538,4224.615281,4217.948615,4231.794768,4211.794769,4210.256307
31,0,4233.84605,4234.871691,4221.538358,4226.153743,4237.435794,4225.640922,4224.615281,4233.33323,4218.461435,4222.563999,4219.487076,4237.435794,4210.769128,4210.769128
32,0,4238.461435,4238.974255,4224.615281,4229.743486,4238.461435,4228.717845,4224.615281,4234.358871,4224.615281,4219.999897,4225.128102,4246.153742,4213.846051,4220.512717
33,0,4248.205024,4248.205024,4233.33323,4237.435794,4237.948614,4228.205025,4229.230666,4236.922973,4232.307589,4232.820409,4229.230666,4247.179383,4221.025538,4230.256307
34,0,4242.563999,4244.615281,4231.281948,4230.256307,4243.58964,4225.640922,4228.205025,4237.435794,4231.281948,4239.487076,4225.640922,4239.487076,4217.948615,4224.102461
35,0,4231.281948,4237.948614,4222.051179,4218.974256,4248.205024,4230.256307,4226.666563,4238.461435,4229.743486,4235.384512,4221.025538,4234.871691,4213.846051,4217.435794
36,0,4232.820409,4238.974255,4221.538358,4220.512717,4234.358871,4232.307589,4227.692204,4236.410153,4230.769127,4230.256307,4224.615281,4237.948614,4218.974256,4219.487076
37,0,4238.974255,4244.10246,4224.615281,4229.230666,4221.538358,4228.205025,4227.692204,4232.307589,4228.717845,4226.666563,4232.820409,4243.076819,4224.102461,4223.07682
38,0,4236.410153,4245.640922,4219.487076,4227.179384,4235.384512,4226.666563,4226.153743,4232.307589,4225.640922,4232.820409,4230.769127,4240.512717,4221.025538,4220.512717
39,0,4232.820409,4243.076819,4216.410153,4223.58964,4246.153742,4231.281948,4227.179384,4231.281948,4225.128102,4244.615281,4226.153743,4234.871691,4219.487076,4219.999897
40,0,4234.358871,4245.640922,4221.538358,4229.743486,4235.897332,4232.307589,4230.769127,4226.153743,4223.58964,4242.051178,4230.256307,4237.435794,4223.58964,4223.07682
41,0,4234.358871,4245.640922,4218.974256,4227.692204,4226.666563,4227.179384,4229.743486,4226.153743,4222.563999,4226.153743,4230.256307,4241.538358,4223.07682,4220.512717
42,0,4232.820409,4242.051178,4211.794769,4222.051179,4229.230666,4223.07682,4227.692204,4232.820409,4227.692204,4227.179384,4227.692204,4244.10246,4221.025538,4224.615281
43,0,4223.58964,4234.358871,4204.615282,4216.922974,4229.230666,4222.051179,4221.025538,4228.205025,4224.102461,4234.358871,4224.615281,4237.435794,4218.461435,4227.692204
44,0,4219.487076,4234.358871,4207.692205,4219.999897,4231.794768,4224.615281,4222.563999,4226.666563,4215.897333,4234.871691,4221.538358,4234.358871,4215.897333,4221.538358
45,0,4222.051179,4229.230666,4211.281948,4218.974256,4229.743486,4222.563999,4224.102461,4228.205025,4212.82041,4216.922974,4213.33323,4232.307589,4210.256307,4209.743487
46,0,4226.153743,4228.205025,4214.871692,4216.922974,4225.128102,4219.999897,4225.640922,4225.640922,4219.487076,4209.230666,4216.922974,4235.384512,4213.846051,4213.33323
47,0,4225.128102,4231.794768,4216.410153,4216.922974,4218.974256,4217.435794,4224.102461,4223.58964,4223.58964,4224.615281,4222.563999,4236.922973,4218.974256,4216.410153
48,0,4231.281948,4234.871691,4222.563999,4223.58964,4219.999897,4219.999897,4225.640922,4228.205025,4223.58964,4240.512717,4222.563999,4238.974255,4216.410153,4220.512717
49,0,4231.794768,4227.179384,4224.615281,4218.974256,4223.07682,4221.025538,4219.487076,4225.640922,4219.999897,4229.743486,4217.435794,4239.999896,4209.230666,4219.487076
50,0,4234.871691,4233.84605,4230.769127,4218.974256,4231.794768,4225.640922,4222.051179,4227.692204,4226.153743,4225.128102,4223.58964,4252.307588,4216.410153,4223.58964
51,0,4236.922973,4239.999896,4234.358871,4223.07682,4234.358871,4224.102461,4225.640922,4232.307589,4229.230666,4235.897332,4225.640922,4255.384511,4221.025538,4227.692204
52,0,4232.307589,4232.307589,4229.743486,4223.07682,4226.666563,4217.948615,4220.512717,4227.179384,4222.051179,4233.33323,4214.871692,4241.025537,4214.871692,4223.07682
53,0,4232.307589,4232.307589,4229.230666,4225.640922,4224.102461,4218.461435,4218.461435,4223.58964,4221.538358,4222.563999,4211.794769,4236.922973,4212.82041,4218.461435
54,0,4237.948614,4242.051178,4233.33323,4229.230666,4231.794768,4224.102461,4224.615281,4229.230666,4226.666563,4225.128102,4220.512717,4245.640922,4216.410153,4219.487076
55,0,4225.128102,4231.794768,4222.563999,4218.461435,4227.692204,4222.563999,4219.487076,4226.666563,4216.922974,4219.999897,4215.384512,4238.461435,4211.794769,4213.846051
56,0,4213.846051,4219.999897,4213.33323,4209.743487,4217.435794,4220.512717,4213.846051,4221.025538,4211.281948,4214.871692,4210.256307,4229.743486,4207.179384,4212.82041
57,0,4225.640922,4226.666563,4221.025538,4217.435794,4223.58964,4221.538358,4216.922974,4224.615281,4220.512717,4219.487076,4218.461435,4238.461435,4212.307589,4224.615281
58,0,4229.230666,4229.743486,4223.58964,4219.999897,4235.897332,4221.025538,4215.897333,4223.07682,4219.487076,4223.07682,4218.974256,4238.461435,4215.384512,4224.615281
59,0,4224.615281,4228.205025,4220.512717,4221.538358,4228.205025,4221.025538,4216.922974,4219.999897,4217.435794,4229.743486,4216.410153,4231.794768,4214.871692,4212.307589
60,0,4224.102461,4229.230666,4219.487076,4224.615281,4209.230666,4217.435794,4213.846051,4220.512717,4218.974256,4223.58964,4215.897333,4230.256307,4214.358871,4207.692205
61,0,4228.205025,4232.820409,4222.563999,4227.179384,4215.897333,4217.435794,4212.82041,4221.025538,4219.487076,4214.358871,4216.410153,4234.358871,4216.410153,4219.999897
62,0,4233.84605,4230.256307,4227.692204,4226.153743,4236.410153,4221.538358,4219.487076,4223.07682,4221.538358,4223.07682,4218.461435,4239.487076,4216.410153,4231.794768
63,0,4239.487076,4232.307589,4235.897332,4229.230666,4243.076819,4226.153743,4232.820409,4230.769127,4230.769127,4234.358871,4228.205025,4251.794768,4217.435794,4232.307589
64,0,4232.307589,4231.281948,4235.384512,4227.179384,4229.230666,4224.102461,4231.281948,4231.794768,4228.717845,4223.58964,4224.102461,4246.666563,4215.897333,4223.58964
65,0,4233.33323,4229.230666,4235.384512,4224.615281,4228.205025,4224.615281,4228.205025,4231.281948,4225.640922,4229.230666,4220.512717,4241.538358,4216.922974,4228.717845
66,0,4234.871691,4222.051179,4233.33323,4221.538358,4226.666563,4219.999897,4222.051179,4230.769127,4225.128102,4235.384512,4222.051179,4246.666563,4217.435794,4229.743486
67,0,4225.640922,4218.974256,4229.743486,4221.025538,4216.922974,4213.846051,4216.922974,4228.717845,4222.563999,4222.051179,4219.487076,4244.615281,4215.384512,4218.461435
68,0,4218.461435,4219.487076,4223.58964,4217.948615,4217.435794,4211.794769,4214.871692,4221.538358,4215.897333,4207.179384,4209.743487,4230.769127,4208.717846,4205.128102
69,0,4221.025538,4218.974256,4219.999897,4214.871692,4229.230666,4215.384512,4215.897333,4216.922974,4214.358871,4208.717846,4208.205025,4230.256307,4207.692205,4210.769128
70,0,4217.948615,4211.794769,4216.410153,4209.743487,4226.666563,4213.846051,4210.256307,4214.871692,4216.410153,4213.846051,4211.794769,4235.384512,4211.794769,4221.025538
71,0,4223.07682,4218.461435,4222.051179,4217.435794,4222.051179,4215.384512,4213.846051,4221.538358,4225.128102,4223.58964,4223.07682,4241.025537,4217.435794,4227.179384
72,0,4231.281948,4228.205025,4222.563999,4222.563999,4225.640922,4220.512717,4219.999897,4226.153743,4229.230666,4224.102461,4224.615281,4236.410153,4219.487076,4226.153743
73,0,4228.205025,4226.153743,4215.897333,4219.487076,4231.794768,4223.07682,4218.461435,4223.07682,4225.640922,4217.435794,4216.410153,4225.128102,4218.461435,4223.07682
74,0,4225.128102,4224.615281,4215.897333,4217.948615,4234.871691,4220.512717,4214.871692,4222.051179,4225.128102,4219.999897,4214.871692,4226.666563,4217.435794,4218.461435
75,0,4229.743486,4230.256307,4220.512717,4223.58964,4231.281948,4221.025538,4214.871692,4224.615281,4228.205025,4223.07682,4222.563999,4236.410153,4220.512717,4216.410153
76,0,4232.820409,4229.230666,4217.435794,4224.102461,4219.487076,4222.051179,4213.33323,4221.025538,4225.128102,4221.025538,4220.512717,4233.33323,4218.974256,4222.563999
77,0,4226.666563,4221.538358,4209.230666,4217.948615,4212.307589,4213.846051,4206.153743,4213.846051,4219.999897,4212.82041,4210.769128,4224.102461,4211.281948,4222.563999
78,0,4228.205025,4227.692204,4216.922974,4220.512717,4216.922974,4209.743487,4210.769128,4218.974256,4224.615281,4213.33323,4212.82041,4225.128102,4212.307589,4221.025538
79,0,4239.487076,4239.487076,4232.820409,4231.281948,4223.07682,4216.922974,4224.615281,4228.205025,4232.307589,4223.07682,4224.615281,4233.84605,4219.487076,4224.615281
80,0,4250.769127,4245.640922,4244.615281,4240.512717,4230.256307,4222.051179,4230.256307,4230.256307,4237.435794,4232.307589,4235.897332,4248.717845,4226.666563,4235.384512
81,0,4246.153742,4237.948614,4239.999896,4233.33323,4228.205025,4212.307589,4212.82041,4221.538358,4230.256307,4221.025538,4227.692204,4249.230665,4225.128102,4238.974255
82,0,4241.538358,4233.33323,4234.871691,4228.205025,4225.128102,4208.205025,4205.640923,4219.487076,4224.102461,4209.743487,4223.07682,4243.076819,4222.051179,4236.410153
83,0,4236.922973,4230.769127,4230.256307,4230.256307,4213.33323,4209.230666,4207.179384,4221.538358,4223.58964,4201.025538,4221.538358,4237.435794,4215.384512,4222.563999
84,0,4229.743486,4226.666563,4227.692204,4228.717845,4208.205025,4209.743487,4208.717846,4221.538358,4226.666563,4201.538359,4213.846051,4235.384512,4212.307589,4216.410153
85,0,4218.974256,4214.871692,4219.999897,4217.435794,4214.871692,4209.230666,4207.179384,4217.948615,4223.07682,4203.589641,4206.153743,4229.230666,4212.307589,4216.410153
86,0,4218.974256,4213.33323,4215.384512,4218.461435,4221.025538,4209.743487,4212.82041,4218.461435,4224.615281,4204.102461,4214.871692,4228.205025,4215.384512,4215.384512
87,0,4212.82041,4212.82041,4208.717846,4215.897333,4215.897333,4205.640923,4210.256307,4216.922974,4226.153743,4196.410154,4215.897333,4224.615281,4212.307589,4208.205025
88,0,4213.846051,4216.922974,4212.82041,4214.358871,4226.666563,4211.281948,4214.871692,4218.974256,4228.205025,4207.179384,4214.358871,4227.179384,4213.33323,4217.948615
89,0,4223.58964,4224.102461,4218.461435,4218.461435,4241.538358,4222.563999,4224.615281,4224.615281,4233.33323,4218.461435,4219.487076,4231.281948,4219.999897,4230.256307
90,0,4227.179384,4232.820409,4219.999897,4227.179384,4236.410153,4223.58964,4228.717845,4226.153743,4235.897332,4215.384512,4223.07682,4233.84605,4224.102461,4230.256307
91,0,4228.717845,4240.512717,4225.128102,4232.307589,4228.205025,4217.948615,4231.794768,4225.128102,4233.84605,4216.922974,4221.025538,4237.948614,4223.58964,4227.692204
92,0,4235.384512,4238.974255,4228.205025,4228.717845,4231.794768,4216.922974,4230.256307,4227.179384,4231.281948,4219.999897,4220.512717,4235.897332,4223.58964,4229.743486
93,0,4233.33323,4226.666563,4219.999897,4217.435794,4235.384512,4212.82041,4217.435794,4222.563999,4225.128102,4207.179384,4217.435794,4227.179384,4221.538358,4227.179384
94,0,4226.666563,4224.615281,4215.897333,4212.82041,4235.897332,4209.743487,4209.743487,4217.948615,4221.538358,4200.512718,4212.82041,4226.153743,4219.999897,4216.922974
95,0,4237.435794,4234.871691,4226.153743,4223.58964,4233.84605,4213.846051,4218.974256,4222.563999,4229.230666,4215.384512,4216.410153,4235.897332,4223.58964,4227.179384
96,0,4242.051178,4232.307589,4228.717845,4227.179384,4217.948615,4213.846051,4217.435794,4222.051179,4228.717845,4216.922974,4215.897333,4234.871691,4224.102461,4241.025537
97,0,4242.563999,4235.384512,4233.84605,4231.281948,4209.230666,4214.358871,4213.846051,4223.07682,4227.179384,4209.743487,4221.538358,4237.948614,4229.230666,4244.615281
98,0,4256.922973,4252.307588,4249.743486,4239.487076,4229.743486,4221.538358,4225.128102,4229.743486,4234.358871,4217.948615,4236.410153,4255.384511,4237.948614,4253.84605
99,0,4267.692203,4257.948614,4257.435793,4242.563999,4251.281947,4227.179384,4234.358871,4234.871691,4239.487076,4237.435794,4244.10246,4271.281947,4241.538358,4264.61528
100,0,4250.769127,4239.999896,4241.025537,4232.307589,4236.410153,4218.461435,4218.974256,4230.256307,4233.33323,4233.84605,4231.281948,4259.999896,4231.281948,4248.717845
101,0,4234.871691,4230.769127,4227.692204,4227.692204,4218.974256,4212.307589,4208.205025,4226.153743,4230.256307,4221.538358,4220.512717,4243.58964,4223.58964,4232.307589
102,0,4230.256307,4223.58964,4225.128102,4223.58964,4219.487076,4212.82041,4210.256307,4220.512717,4224.102461,4207.179384,4215.384512,4232.307589,4221.538358,4230.256307
103,0,4224.102461,4215.897333,4222.563999,4217.948615,4223.58964,4215.897333,4215.384512,4217.435794,4217.435794,4195.897333,4211.794769,4225.640922,4217.435794,4227.179384
104,0,4213.846051,4209.743487,4212.82041,4211.794769,4215.897333,4211.281948,4214.871692,4215.897333,4214.871692,4191.794769,4203.589641,4216.922974,4208.205025,4215.897333
105,0,4224.102461,4216.922974,4217.435794,4219.487076,4216.922974,4212.307589,4221.538358,4218.974256,4219.999897,4202.051179,4209.230666,4224.102461,4214.871692,4222.563999
106,0,4227.692204,4214.871692,4222.563999,4222.051179,4219.999897,4213.846051,4217.948615,4218.461435,4220.512717,4201.025538,4209.743487,4230.769127,4217.435794,4225.128102
107,0,4216.410153,4206.153743,4220.512717,4213.846051,4223.07682,4209.230666,4207.179384,4214.358871,4215.897333,4196.922974,4200.512718,4228.717845,4203.07682,4218.974256
108,0,4224.102461,4211.794769,4222.051179,4214.358871,4221.538358,4207.179384,4206.666564,4213.33323,4210.769128,4198.974256,4206.153743,4228.717845,4207.179384,4228.205025
109,0,4245.128101,4223.07682,4232.307589,4227.692204,4219.487076,4213.846051,4218.974256,4219.999897,4214.358871,4202.051179,4224.615281,4239.999896,4228.717845,4245.640922
110,0,4241.538358,4218.461435,4235.384512,4227.179384,4220.512717,4215.384512,4219.999897,4222.051179,4221.025538,4205.128102,4225.640922,4246.666563,4232.307589,4242.051178
111,0,4228.717845,4211.794769,4227.179384,4215.384512,4228.205025,4211.281948,4213.846051,4216.922974,4221.538358,4212.307589,4219.999897,4237.435794,4229.230666,4235.897332
112,0,4228.205025,4211.794769,4221.025538,4211.281948,4230.256307,4210.769128,4213.846051,4221.025538,4217.435794,4215.384512,4224.615281,4227.692204,4232.307589,4238.461435
113,0,4231.281948,4211.794769,4223.58964,4215.384512,4219.999897,4210.256307,4215.897333,4226.153743,4217.435794,4214.358871,4228.205025,4232.307589,4231.794768,4235.897332
114,0,4238.461435,4216.410153,4233.33323,4221.025538,4216.410153,4212.307589,4219.487076,4223.58964,4223.07682,4217.948615,4231.794768,4245.128101,4231.794768,4243.076819
115,0,4243.076819,4220.512717,4238.974255,4222.051179,4227.179384,4215.897333,4226.666563,4221.538358,4226.666563,4223.07682,4238.461435,4250.256306,4237.948614,4256.922973
116,0,4236.922973,4216.410153,4233.33323,4218.461435,4239.487076,4221.025538,4236.410153,4227.179384,4233.33323,4232.820409,4239.999896,4249.743486,4240.512717,4253.333229
117,0,4225.128102,4208.205025,4217.948615,4211.281948,4232.307589,4220.512717,4235.384512,4229.230666,4233.84605,4232.307589,4229.743486,4243.076819,4234.358871,4239.999896
118,0,4223.58964,4209.743487,4215.897333,4213.33323,4222.051179,4219.999897,4234.358871,4230.256307,4229.743486,4224.615281,4224.102461,4235.897332,4231.794768,4238.974255
119,0,4224.102461,4209.743487,4221.025538,4213.33323,4217.948615,4221.025538,4229.743486,4225.640922,4226.153743,4213.846051,4221.538358,4228.205025,4230.256307,4234.358871
120,0,4228.717845,4212.82041,4224.102461,4216.410153,4219.487076,4220.512717,4231.281948,4223.07682,4228.717845,4216.410153,4225.128102,4229.230666,4232.820409,4236.410153
121,0,4232.820409,4214.871692,4222.051179,4216.922974,4223.58964,4216.410153,4232.307589,4226.153743,4226.666563,4216.410153,4229.743486,4229.743486,4234.871691,4242.563999
122,0,4238.461435,4219.999897,4228.205025,4219.487076,4236.410153,4221.025538,4236.410153,4232.307589,4225.128102,4217.948615,4234.358871,4236.410153,4238.974255,4241.538358
123,0,4235.384512,4214.871692,4227.179384,4217.435794,4236.410153,4222.051179,4231.281948,4228.205025,4225.128102,4217.948615,4226.153743,4233.84605,4234.871691,4234.358871
124,0,4232.820409,4210.769128,4224.102461,4214.871692,4224.102461,4217.435794,4226.666563,4222.563999,4225.128102,4218.461435,4218.461435,4226.153743,4226.666563,4236.922973
125,0,4235.897332,4213.33323,4222.563999,4215.897333,4219.487076,4213.33323,4226.153743,4223.07682,4220.512717,4211.281948,4218.461435,4219.999897,4227.179384,4237.948614
126,0,4240.512717,4219.999897,4226.153743,4222.051179,4223.58964,4218.461435,4231.281948,4226.666563,4219.487076,4206.153743,4222.051179,4220.512717,4231.281948,4233.33323
127,0,4237.948614,4221.538358,4229.230666,4223.58964,4215.897333,4219.487076,4231.281948,4227.179384,4219.999897,4209.230666,4222.051179,4223.07682,4229.743486,4225.640922
128,0,4235.384512,4222.563999,4227.692204,4222.051179,4216.410153,4217.948615,4230.769127,4230.769127,4221.025538,4215.897333,4224.102461,4228.205025,4229.743486,4230.256307
0,0,4237.948614,4224.102461,4223.07682,4216.922974,4238.461435,4221.538358,4234.358871,4235.384512,4224.615281,4223.58964,4229.230666,4235.384512,4236.410153,4247.692204
1,0,4238.461435,4223.58964,4221.538358,4212.307589,4246.666563,4225.640922,4236.410153,4234.358871,4230.256307,4230.769127,4236.410153,4235.897332,4239.999896,4251.281947
2,0,4234.358871,4222.563999,4223.58964,4214.871692,4224.615281,4223.07682,4232.307589,4231.281948,4227.179384,4232.820409,4235.897332,4230.256307,4236.410153,4239.999896
3,0,4230.769127,4219.487076,4223.58964,4216.410153,4209.230666,4217.948615,4228.205025,4227.692204,4219.999897,4224.102461,4228.205025,4224.615281,4233.33323,4236.410153
4,0,4234.358871,4221.025538,4222.563999,4213.846051,4223.07682,4221.025538,4229.230666,4224.615281,4219.487076,4216.410153,4225.640922,4226.153743,4233.84605,4237.435794
5,0,4229.743486,4216.410153,4215.384512,4207.179384,4230.256307,4220.512717,4222.051179,4220.512717,4218.974256,4207.692205,4222.051179,4222.051179,4226.153743,4227.179384
6,0,4220.512717,4209.230666,4210.769128,4205.640923,4216.410153,4214.358871,4216.922974,4219.999897,4217.948615,4206.153743,4218.974256,4213.33323,4218.461435,4228.717845
7,0,4217.435794,4208.205025,4212.307589,4205.640923,4207.692205,4213.33323,4222.051179,4220.512717,4221.025538,4213.846051,4221.538358,4206.153743,4219.999897,4231.794768
8,0,4222.563999,4214.871692,4217.435794,4208.205025,4220.512717,4219.999897,4233.33323,4227.692204,4232.820409,4227.692204,4233.33323,4214.358871,4231.794768,4233.33323
9,0,4218.974256,4209.230666,4212.307589,4202.051179,4224.615281,4218.461435,4228.205025,4227.692204,4230.769127,4223.07682,4233.84605,4216.922974,4234.871691,4234.358871
10,0,4221.538358,4206.153743,4213.33323,4203.07682,4215.897333,4215.384512,4222.051179,4225.128102,4225.128102,4213.846051,4231.281948,4215.384512,4232.307589,4234.358871
11,0,4228.205025,4210.769128,4220.512717,4209.230666,4216.922974,4216.410153,4224.615281,4225.128102,4227.692204,4215.897333,4231.281948,4213.846051,4232.307589,4231.281948
12,0,4232.307589,4221.025538,4225.128102,4213.846051,4236.922973,4219.999897,4232.307589,4227.179384,4233.84605,4228.205025,4235.384512,4217.435794,4235.384512,4238.974255
13,0,4230.256307,4222.051179,4224.102461,4212.82041,4243.076819,4219.487076,4227.179384,4226.666563,4231.794768,4229.743486,4235.897332,4223.58964,4236.410153,4242.051178
14,0,4236.922973,4222.051179,4233.33323,4217.948615,4233.84605,4221.025538,4226.666563,4230.256307,4235.384512,4230.769127,4243.076819,4238.461435,4243.58964,4247.179383
15,0,4245.128101,4225.640922,4243.076819,4225.128102,4221.538358,4218.974256,4232.820409,4234.871691,4237.435794,4234.871691,4249.230665,4247.179383,4248.717845,4253.84605
16,0,4246.666563,4230.769127,4243.076819,4227.179384,4226.666563,4217.948615,4234.871691,4235.384512,4232.307589,4236.410153,4245.640922,4248.205024,4242.563999,4255.897332
17,0,4237.948614,4223.58964,4236.410153,4219.487076,4236.410153,4220.512717,4227.179384,4230.769127,4230.769127,4227.692204,4232.820409,4243.58964,4233.84605,4253.333229
18,0,4231.794768,4219.487076,4232.820409,4217.435794,4237.948614,4222.051179,4225.640922,4228.717845,4235.384512,4222.051179,4229.230666,4236.922973,4233.33323,4247.692204
19,0,4238.461435,4229.743486,4234.358871,4225.128102,4241.025537,4225.128102,4235.897332,4234.871691,4238.461435,4231.281948,4234.358871,4233.84605,4235.384512,4244.10246
20,0,4232.820409,4227.692204,4225.640922,4218.974256,4240.512717,4224.102461,4237.435794,4232.307589,4233.84605,4228.717845,4227.692204,4225.128102,4230.256307,4242.563999
21,0,4214.871692,4208.205025,4206.153743,4202.051179,4235.897332,4217.948615,4225.640922,4219.999897,4223.58964,4214.358871,4215.384512,4212.307589,4225.640922,4236.922973
22,0,4214.871692,4204.615282,4206.666564,4204.102461,4234.358871,4217.948615,4221.538358,4219.999897,4219.487076,4212.82041,4217.435794,4211.794769,4224.615281,4230.769127
23,0,4231.281948,4223.07682,4227.179384,4224.615281,4236.922973,4224.102461,4228.205025,4231.281948,4226.666563,4213.846051,4226.153743,4221.538358,4228.205025,4232.307589
24,0,4230.769127,4222.051179,4225.640922,4226.153743,4234.871691,4219.999897,4225.128102,4225.128102,4221.538358,4202.564,4219.487076,4213.846051,4224.615281,4229.230666
25,0,4225.640922,4209.743487,4216.410153,4214.871692,4229.743486,4215.384512,4222.051179,4217.435794,4211.794769,4211.794769,4215.384512,4207.179384,4222.051179,4227.692204
26,0,4226.153743,4208.205025,4218.461435,4210.256307,4231.794768,4217.948615,4220.512717,4221.025538,4212.307589,4221.025538,4219.999897,4213.846051,4224.615281,4227.179384
27,0,4231.794768,4218.461435,4225.128102,4215.897333,4247.179383,4221.025538,4223.07682,4225.128102,4222.563999,4214.871692,4226.153743,4223.58964,4228.205025,4235.384512
28,0,4235.897332,4222.563999,4224.615281,4219.487076,4242.051178,4216.410153,4225.128102,4225.128102,4227.692204,4212.82041,4227.692204,4225.128102,4226.666563,4244.615281
29,0,4238.974255,4227.179384,4228.205025,4224.615281,4228.205025,4220.512717,4232.307589,4230.769127,4230.256307,4222.563999,4232.307589,4229.230666,4229.743486,4246.153742
30,0,4230.256307,4223.58964,4220.512717,4216.922974,4228.205025,4220.512717,4228.205025,4227.692204,4227.692204,4215.897333,4225.640922,4220.512717,4226.153743,4238.461435
31,0,4227.179384,4220.512717,4210.769128,4211.281948,4238.974255,4217.948615,4227.179384,4224.102461,4230.256307,4218.461435,4223.58964,4215.384512,4224.102461,4238.461435
32,0,4229.743486,4223.58964,4210.769128,4213.846051,4236.410153,4220.512717,4228.205025,4226.153743,4230.769127,4229.230666,4226.666563,4216.922974,4228.717845,4235.384512
33,0,4230.256307,4227.692204,4218.974256,4218.974256,4238.461435,4224.102461,4225.128102,4228.717845,4225.640922,4225.128102,4222.563999,4218.461435,4227.692204,4227.692204
34,0,4227.692204,4225.640922,4222.563999,4219.487076,4234.358871,4215.897333,4215.384512,4223.58964,4219.487076,4213.846051,4211.281948,4213.33323,4218.974256,4223.58964
35,0,4230.769127,4227.179384,4224.615281,4219.999897,4229.743486,4212.82041,4216.922974,4219.999897,4220.512717,4214.871692,4214.871692,4214.871692,4222.563999,4227.179384
36,0,4225.640922,4221.538358,4222.051179,4215.384512,4233.33323,4216.410153,4224.615281,4219.487076,4217.948615,4210.256307,4218.974256,4219.487076,4221.538358,4224.615281
37,0,4215.384512,4210.769128,4221.538358,4212.82041,4226.153743,4217.435794,4224.102461,4220.512717,4211.794769,4204.102461,4213.846051,4223.58964,4211.794769,4220.512717
38,0,4227.179384,4215.897333,4228.205025,4219.999897,4222.051179,4215.897333,4223.07682,4219.487076,4211.794769,4214.358871,4218.461435,4231.794768,4220.512717,4230.769127
39,0,4247.692204,4227.692204,4236.410153,4223.58964,4229.743486,4215.897333,4227.179384,4216.922974,4215.897333,4222.563999,4231.281948,4238.974255,4239.487076,4246.666563
40,0,4246.153742,4224.102461,4236.922973,4217.948615,4234.358871,4218.461435,4228.717845,4218.461435,4224.102461,4225.128102,4237.435794,4239.487076,4246.153742,4251.281947
41,0,4227.692204,4206.153743,4223.58964,4207.692205,4229.743486,4217.435794,4219.487076,4217.948615,4221.538358,4226.666563,4230.256307,4230.769127,4242.051178,4246.153742
42,0,4223.58964,4196.410154,4215.384512,4201.025538,4227.692204,4213.846051,4213.846051,4212.307589,4211.281948,4219.999897,4225.640922,4226.153743,4238.461435,4245.128101
43,0,4223.07682,4195.384513,4216.922974,4200.512718,4215.384512,4208.205025,4212.307589,4208.205025,4206.666564,4205.128102,4226.666563,4229.230666,4234.358871,4241.538358
44,0,4223.07682,4199.999897,4221.538358,4206.153743,4206.153743,4208.205025,4215.897333,4212.82041,4210.769128,4209.230666,4231.794768,4235.384512,4236.410153,4243.076819
45,0,4217.948615,4193.846051,4214.871692,4197.435795,4211.281948,4206.666564,4210.769128,4210.769128,4209.230666,4212.307589,4224.615281,4225.128102,4231.794768,4244.615281
46,0,4215.897333,4191.794769,4214.871692,4195.897333,4215.897333,4207.179384,4211.794769,4206.666564,4210.769128,4213.846051,4222.051179,4221.025538,4227.692204,4245.128101
47,0,4223.58964,4199.999897,4224.102461,4208.205025,4218.461435,4211.794769,4218.461435,4209.230666,4218.461435,4221.025538,4230.769127,4230.769127,4231.794768,4247.179383
48,0,4241.025537,4212.82041,4236.410153,4219.487076,4232.307589,4219.487076,4228.717845,4220.512717,4226.153743,4230.256307,4244.615281,4246.153742,4243.076819,4264.10246
49,0,4235.897332,4206.666564,4230.769127,4213.33323,4221.538358,4212.82041,4222.563999,4223.07682,4221.538358,4219.487076,4241.538358,4244.10246,4242.051178,4266.666562
50,0,4218.974256,4193.333231,4218.461435,4204.102461,4201.538359,4205.128102,4216.410153,4219.487076,4218.974256,4217.435794,4233.33323,4232.307589,4235.897332,4249.230665
51,0,4216.410153,4192.30759,4215.384512,4200.512718,4218.974256,4213.846051,4219.999897,4219.487076,4224.102461,4236.922973,4236.410153,4227.692204,4237.435794,4241.025537
52,0,4230.769127,4205.640923,4224.102461,4208.205025,4246.666563,4224.102461,4225.640922,4223.58964,4228.205025,4244.615281,4245.640922,4240.512717,4247.179383,4251.794768
53,0,4236.922973,4213.846051,4229.230666,4213.33323,4234.871691,4216.410153,4223.07682,4223.58964,4221.025538,4230.256307,4243.58964,4248.205024,4249.230665,4255.384511
54,0,4242.051178,4221.025538,4233.33323,4215.384512,4221.025538,4209.230666,4225.128102,4222.051179,4215.897333,4224.615281,4245.128101,4247.179383,4254.35887,4266.153742
55,0,4251.281947,4231.281948,4236.410153,4221.025538,4219.999897,4211.794769,4228.205025,4219.999897,4216.922974,4231.281948,4251.794768,4246.666563,4267.692203,4283.589639
56,0,4258.461434,4236.410153,4234.871691,4224.615281,4216.922974,4212.307589,4221.538358,4214.871692,4216.410153,4229.230666,4251.794768,4245.640922,4277.435793,4284.61528
57,0,4263.076819,4235.897332,4230.256307,4217.948615,4222.563999,4209.743487,4215.384512,4210.256307,4213.33323,4223.58964,4250.256306,4244.10246,4288.205023,4289.230664
58,0,4268.717844,4235.897332,4226.666563,4211.281948,4231.794768,4210.769128,4214.871692,4211.794769,4210.256307,4223.07682,4254.35887,4245.640922,4299.999895,4312.820407
59,0,4282.051177,4241.538358,4232.820409,4222.051179,4228.205025,4209.230666,4213.33323,4218.461435,4213.846051,4233.33323,4262.051178,4250.256306,4309.230664,4328.205022
60,0,4285.1281,4242.051178,4235.384512,4229.230666,4214.358871,4201.538359,4207.179384,4217.435794,4216.922974,4237.948614,4264.10246,4248.205024,4310.256305,4319.487074
61,0,4277.948613,4238.461435,4234.358871,4222.563999,4222.051179,4205.128102,4211.794769,4216.922974,4220.512717,4235.897332,4264.10246,4250.256306,4309.743484,4317.948612
62,0,4269.743485,4228.205025,4233.84605,4214.358871,4236.922973,4216.410153,4221.025538,4224.102461,4221.538358,4236.922973,4264.61528,4253.84605,4309.230664,4322.051176
63,0,4267.179383,4226.153743,4236.922973,4219.487076,4238.461435,4218.461435,4227.179384,4230.256307,4224.102461,4245.640922,4268.205024,4256.410152,4308.205023,4318.974253
64,0,4259.487075,4225.640922,4234.358871,4221.538358,4224.615281,4209.743487,4225.128102,4227.692204,4224.102461,4247.179383,4266.153742,4253.84605,4303.589638,4310.256305
65,0,4252.820409,4214.871692,4234.871691,4215.897333,4218.974256,4208.717846,4225.640922,4229.743486,4224.615281,4253.333229,4265.640921,4258.974255,4302.051177,4304.102459
66,0,4244.10246,4193.846051,4231.281948,4206.666564,4221.025538,4208.717846,4221.538358,4230.256307,4219.487076,4248.717845,4259.999896,4256.410152,4294.358869,4290.769126
67,0,4245.128101,4198.974256,4232.307589,4211.281948,4232.307589,4219.999897,4231.794768,4232.820409,4227.692204,4245.128101,4260.512716,4253.333229,4285.1281,4287.692203
68,0,4246.666563,4212.82041,4236.410153,4219.487076,4238.461435,4229.230666,4242.051178,4236.410153,4237.435794,4254.871691,4265.640921,4256.410152,4284.61528,4289.743485
69,0,4237.948614,4208.717846,4231.281948,4215.897333,4226.666563,4220.512717,4231.281948,4231.794768,4228.717845,4256.410152,4255.897332,4252.307588,4279.487075,4272.307588
70,0,4225.128102,4196.410154,4219.487076,4204.615282,4218.461435,4207.179384,4210.769128,4218.974256,4214.358871,4230.769127,4234.358871,4235.897332,4258.974255,4249.230665
71,0,4227.179384,4194.358872,4222.563999,4206.153743,4233.84605,4206.666564,4213.33323,4217.948615,4219.999897,4229.230666,4242.563999,4237.435794,4254.871691,4256.922973
72,0,4230.769127,4199.487077,4231.794768,4214.358871,4235.384512,4215.897333,4229.230666,4225.640922,4230.769127,4249.743486,4257.435793,4248.205024,4262.563998,4270.769126
73,0,4222.563999,4199.999897,4228.205025,4211.794769,4225.640922,4222.051179,4231.794768,4224.615281,4225.640922,4237.435794,4239.999896,4239.999896,4250.256306,4252.820409
74,0,4213.33323,4193.333231,4216.922974,4200.512718,4227.692204,4214.358871,4214.358871,4215.897333,4218.974256,4217.948615,4223.58964,4224.102461,4238.974255,4229.743486
75,0,4215.897333,4196.410154,4217.435794,4201.538359,4231.794768,4211.794769,4209.743487,4218.974256,4225.640922,4230.256307,4236.922973,4225.128102,4250.256306,4234.871691
76,0,4216.410153,4208.205025,4219.999897,4206.666564,4229.230666,4221.025538,4223.07682,4225.640922,4232.307589,4237.435794,4240.512717,4228.205025,4253.333229,4242.051178
77,0,4207.692205,4206.666564,4212.82041,4202.564,4227.692204,4219.487076,4221.538358,4218.461435,4224.615281,4221.538358,4222.563999,4220.512717,4239.487076,4224.615281
78,0,4211.794769,4209.230666,4214.358871,4205.640923,4231.281948,4214.871692,4219.487076,4216.922974,4223.07682,4224.615281,4223.58964,4222.563999,4238.461435,4220.512717
79,0,4215.897333,4214.871692,4217.948615,4208.717846,4231.794768,4219.487076,4225.640922,4221.025538,4227.692204,4231.794768,4232.820409,4227.179384,4244.615281,4230.256307
80,0,4218.461435,4222.051179,4219.999897,4211.794769,4234.871691,4222.563999,4231.281948,4222.563999,4231.281948,4233.33323,4235.897332,4229.230666,4251.794768,4241.025537
81,0,4224.102461,4232.307589,4223.58964,4219.999897,4228.717845,4223.07682,4231.281948,4221.538358,4233.33323,4238.461435,4235.897332,4228.717845,4252.307588,4244.615281
82,0,4224.102461,4237.948614,4222.563999,4222.563999,4233.84605,4228.205025,4237.948614,4221.025538,4231.281948,4239.487076,4233.33323,4225.128102,4247.692204,4236.410153
83,0,4210.256307,4222.563999,4208.205025,4207.692205,4244.615281,4219.999897,4231.281948,4213.846051,4219.487076,4219.487076,4222.051179,4213.846051,4239.487076,4213.846051
84,0,4215.897333,4223.07682,4213.33323,4211.281948,4242.563999,4217.948615,4227.692204,4216.922974,4222.563999,4218.974256,4228.717845,4219.487076,4242.051178,4213.33323
85,0,4224.102461,4230.769127,4220.512717,4218.974256,4234.871691,4223.58964,4227.179384,4221.025538,4230.256307,4227.692204,4233.33323,4224.102461,4243.58964,4228.717845
86,0,4220.512717,4228.205025,4216.922974,4213.846051,4235.897332,4221.538358,4223.58964,4218.974256,4227.179384,4230.769127,4231.794768,4224.615281,4243.58964,4230.256307
87,0,4213.846051,4219.487076,4208.717846,4206.153743,4229.743486,4212.82041,4214.358871,4212.82041,4218.974256,4226.666563,4228.205025,4223.07682,4242.051178,4219.999897
88,0,4212.82041,4219.487076,4207.179384,4208.205025,4225.640922,4214.871692,4213.846051,4214.358871,4219.487076,4226.153743,4226.153743,4223.07682,4240.512717,4222.563999
89,0,4212.82041,4222.051179,4210.769128,4210.769128,4234.871691,4220.512717,4216.410153,4218.461435,4221.538358,4226.153743,4229.230666,4225.128102,4244.615281,4230.256307
90,0,4214.358871,4224.615281,4215.897333,4211.794769,4248.717845,4221.538358,4221.538358,4218.461435,4216.922974,4221.538358,4233.33323,4228.205025,4245.128101,4227.179384
91,0,4213.846051,4223.07682,4216.922974,4209.743487,4244.615281,4218.974256,4225.640922,4217.435794,4212.82041,4217.948615,4233.33323,4229.743486,4239.487076,4219.999897
92,0,4210.256307,4218.974256,4215.897333,4208.205025,4224.615281,4213.33323,4223.58964,4219.999897,4217.435794,4220.512717,4234.358871,4233.84605,4242.563999,4222.563999
93,0,4207.692205,4215.384512,4212.307589,4204.615282,4220.512717,4207.179384,4216.922974,4216.922974,4217.948615,4221.538358,4231.281948,4232.307589,4245.640922,4228.205025
94,0,4215.897333,4219.487076,4220.512717,4208.205025,4230.769127,4216.922974,4221.025538,4218.461435,4217.435794,4228.717845,4233.84605,4232.820409,4245.128101,4234.871691
95,0,4227.692204,4227.692204,4234.358871,4220.512717,4231.281948,4228.205025,4235.897332,4233.84605,4229.230666,4247.179383,4246.153742,4246.666563,4248.205024,4236.922973
96,0,4219.487076,4213.33323,4222.051179,4212.82041,4225.128102,4217.435794,4232.820409,4230.769127,4230.769127,4240.512717,4237.435794,4242.563999,4243.58964,4225.640922
97,0,4208.717846,4202.564,4208.205025,4200.512718,4227.692204,4210.769128,4221.538358,4218.461435,4220.512717,4222.051179,4223.07682,4225.640922,4234.358871,4217.435794
98,0,4211.794769,4210.769128,4213.846051,4203.589641,4228.717845,4217.948615,4221.538358,4219.999897,4217.435794,4221.025538,4228.717845,4223.07682,4232.820409,4214.871692
99,0,4209.743487,4211.281948,4210.769128,4205.640923,4224.102461,4215.384512,4221.538358,4221.538358,4215.384512,4215.897333,4228.717845,4220.512717,4231.281948,4205.640923
100,0,4195.384513,4195.897333,4195.384513,4195.384513,4217.435794,4205.640923,4207.692205,4209.743487,4207.692205,4196.922974,4212.307589,4203.07682,4221.025538,4190.256308
101,0,4205.128102,4206.666564,4207.692205,4204.615282,4224.615281,4213.33323,4214.358871,4212.82041,4216.410153,4209.230666,4224.102461,4213.33323,4228.205025,4207.179384
102,0,4214.871692,4217.435794,4217.948615,4211.794769,4229.230666,4219.999897,4224.102461,4220.512717,4223.58964,4221.538358,4233.33323,4225.640922,4233.33323,4224.102461
103,0,4205.640923,4209.230666,4212.307589,4204.102461,4225.640922,4214.358871,4215.384512,4221.025538,4223.07682,4219.487076,4224.102461,4219.487076,4228.717845,4213.33323
104,0,4203.07682,4207.179384,4210.256307,4204.615282,4222.051179,4210.256307,4209.743487,4220.512717,4227.179384,4222.563999,4222.563999,4216.922974,4229.743486,4203.589641
105,0,4216.922974,4221.025538,4217.435794,4215.384512,4233.33323,4215.897333,4222.563999,4221.025538,4235.384512,4229.743486,4228.205025,4224.102461,4235.897332,4221.025538
106,0,4212.307589,4216.922974,4213.33323,4208.205025,4234.871691,4213.846051,4217.435794,4215.384512,4229.743486,4218.461435,4222.051179,4218.461435,4229.743486,4219.487076
107,0,4209.230666,4212.307589,4214.871692,4206.666564,4233.33323,4212.307589,4214.358871,4215.384512,4227.179384,4217.948615,4228.717845,4220.512717,4230.769127,4212.307589
108,0,4218.461435,4222.051179,4223.58964,4216.410153,4239.487076,4217.435794,4227.179384,4220.512717,4233.84605,4225.640922,4235.384512,4231.281948,4237.948614,4223.58964
109,0,4215.897333,4222.563999,4221.025538,4216.410153,4240.512717,4225.640922,4231.281948,4224.615281,4234.871691,4219.487076,4228.205025,4229.743486,4232.820409,4223.07682
110,0,4206.153743,4206.153743,4210.769128,4205.128102,4230.769127,4222.563999,4223.07682,4224.102461,4232.307589,4215.897333,4223.58964,4216.922974,4224.615281,4211.281948
111,0,4198.461436,4192.82041,4204.102461,4194.871692,4218.974256,4209.230666,4216.922974,4221.538358,4227.692204,4216.410153,4218.461435,4205.640923,4218.974256,4203.589641
112,0,4187.179385,4187.692205,4201.025538,4189.743487,4216.922974,4204.615282,4210.769128,4219.487076,4223.58964,4210.256307,4206.153743,4198.974256,4209.230666,4189.743487
113,0,4188.717846,4192.82041,4203.07682,4197.948615,4212.307589,4209.743487,4205.640923,4217.435794,4226.666563,4208.717846,4210.769128,4199.487077,4208.717846,4189.743487
114,0,4201.538359,4198.974256,4210.256307,4207.692205,4213.846051,4212.307589,4211.281948,4219.487076,4233.84605,4215.384512,4226.153743,4206.666564,4222.563999,4208.717846
115,0,4194.358872,4184.615282,4212.82041,4196.922974,4228.717845,4211.281948,4218.461435,4222.563999,4230.769127,4212.307589,4217.948615,4207.692205,4217.435794,4197.435795
116,0,4191.794769,4185.128103,4215.897333,4197.948615,4239.487076,4218.461435,4225.128102,4223.58964,4230.769127,4212.82041,4212.307589,4212.307589,4206.153743,4188.205026
117,0,4202.564,4207.692205,4212.307589,4209.230666,4230.769127,4219.487076,4220.512717,4219.999897,4233.33323,4212.82041,4218.461435,4209.743487,4208.205025,4205.640923
118,0,4208.205025,4219.999897,4207.179384,4211.794769,4223.58964,4212.82041,4213.846051,4217.435794,4233.33323,4210.256307,4219.487076,4203.589641,4213.33323,4206.666564
119,0,4208.205025,4217.435794,4207.692205,4211.281948,4219.999897,4212.82041,4216.410153,4216.410153,4227.692204,4204.102461,4210.256307,4203.07682,4205.640923,4190.769128
120,0,4218.461435,4230.256307,4214.871692,4219.487076,4218.461435,4215.384512,4219.999897,4218.461435,4227.179384,4203.07682,4205.640923,4209.743487,4197.435795,4197.948615
121,0,4215.384512,4238.974255,4209.743487,4216.922974,4225.128102,4210.769128,4206.666564,4214.358871,4223.58964,4196.922974,4195.384513,4201.538359,4185.128103,4193.846051
122,0,4209.743487,4236.922973,4206.153743,4215.384512,4234.871691,4212.82041,4206.153743,4212.307589,4219.999897,4196.410154,4193.333231,4195.897333,4177.948616,4178.461436
123,0,4209.230666,4235.384512,4205.128102,4217.948615,4223.07682,4215.384512,4213.33323,4214.358871,4216.410153,4198.974256,4197.948615,4195.384513,4178.974257,4179.487077
124,0,4211.794769,4237.948614,4205.128102,4218.974256,4225.128102,4215.897333,4214.871692,4218.461435,4221.025538,4209.230666,4204.102461,4200.512718,4186.153744,4191.281949
125,0,4214.358871,4237.948614,4204.615282,4216.410153,4236.922973,4213.33323,4210.769128,4216.410153,4225.128102,4214.871692,4206.666564,4204.102461,4191.281949,4195.897333
126,0,4211.794769,4234.358871,4207.692205,4217.948615,4227.692204,4211.794769,4211.281948,4214.871692,4218.974256,4209.230666,4209.230666,4201.538359,4192.82041,4196.922974
127,0,4203.07682,4229.230666,4206.666564,4216.922974,4214.358871,4212.307589,4212.307589,4215.384512,4213.846051,4199.487077,4206.666564,4192.30759,4188.205026,4191.281949
128,0,4202.564,4233.33323,4206.666564,4215.384512,4226.153743,4216.922974,4217.435794,4215.897333,4219.487076,4207.179384,4204.615282,4187.179385,4185.640923,4183.589641
0,0,4212.82041,4244.615281,4215.897333,4224.102461,4234.871691,4222.051179,4225.640922,4217.948615,4223.07682,4214.871692,4208.205025,4188.205026,4190.256308,4184.102462
1,0,4221.538358,4252.820409,4226.153743,4236.410153,4236.410153,4225.640922,4230.256307,4221.538358,4222.051179,4205.128102,4213.846051,4195.897333,4195.384513,4190.256308
2,0,4229.230666,4258.974255,4228.205025,4241.025537,4249.230665,4227.179384,4230.769127,4221.538358,4223.58964,4208.205025,4217.948615,4207.692205,4199.999897,4194.871692
3,0,4235.897332,4265.128101,4228.205025,4241.025537,4250.256306,4223.58964,4222.563999,4218.461435,4222.563999,4219.487076,4216.922974,4209.230666,4201.538359,4196.410154
4,0,4239.487076,4270.256306,4232.820409,4242.563999,4237.948614,4223.58964,4217.948615,4218.974256,4221.025538,4214.871692,4216.410153,4205.640923,4199.999897,4203.589641
5,0,4233.33323,4262.563998,4232.307589,4238.974255,4229.230666,4217.948615,4213.846051,4217.948615,4220.512717,4201.025538,4214.871692,4204.102461,4197.435795,4206.666564
6,0,4233.84605,4255.897332,4233.33323,4239.487076,4235.897332,4214.871692,4216.922974,4221.538358,4222.563999,4211.794769,4217.948615,4210.769128,4202.564,4202.051179
7,0,4238.974255,4256.410152,4240.512717,4243.076819,4241.538358,4221.025538,4223.58964,4226.666563,4220.512717,4222.051179,4220.512717,4216.922974,4205.128102,4201.025538
8,0,4239.999896,4258.974255,4246.666563,4244.615281,4236.922973,4224.102461,4228.205025,4230.256307,4219.999897,4217.435794,4219.487076,4221.538358,4203.07682,4211.281948
9,0,4232.820409,4252.307588,4241.538358,4239.487076,4226.666563,4219.999897,4226.153743,4228.205025,4219.487076,4214.358871,4216.410153,4221.538358,4202.051179,4206.666564
10,0,4230.769127,4252.820409,4241.025537,4238.461435,4239.999896,4227.692204,4237.948614,4231.794768,4223.07682,4226.153743,4221.025538,4222.563999,4206.666564,4200.512718
11,0,4225.128102,4249.230665,4235.897332,4234.358871,4251.794768,4231.281948,4241.538358,4230.256307,4220.512717,4222.051179,4214.871692,4215.384512,4198.461436,4195.897333
12,0,4223.07682,4241.538358,4233.33323,4232.307589,4241.538358,4226.153743,4235.897332,4225.128102,4215.897333,4209.743487,4213.33323,4212.82041,4192.30759,4197.948615
13,0,4225.128102,4235.897332,4236.410153,4230.769127,4226.666563,4223.58964,4233.84605,4220.512717,4213.846051,4209.230666,4217.948615,4210.769128,4198.974256,4205.128102
14,0,4227.692204,4241.025537,4239.487076,4234.358871,4227.692204,4225.128102,4238.974255,4221.025538,4218.974256,4218.461435,4219.999897,4210.256307,4205.128102,4211.281948
15,0,4227.692204,4245.128101,4236.410153,4236.410153,4226.153743,4220.512717,4233.33323,4222.051179,4221.025538,4217.435794,4218.974256,4215.384512,4203.07682,4207.179384
16,0,4235.384512,4247.692204,4241.538358,4238.974255,4231.794768,4223.07682,4234.358871,4229.743486,4224.615281,4224.102461,4225.640922,4227.179384,4208.205025,4208.717846
17,0,4236.922973,4242.563999,4243.58964,4235.897332,4241.538358,4226.666563,4240.512717,4236.410153,4231.281948,4235.897332,4225.640922,4227.179384,4210.769128,4213.33323
18,0,4229.743486,4237.435794,4237.435794,4232.307589,4230.769127,4223.07682,4237.948614,4235.384512,4234.871691,4226.153743,4217.435794,4218.461435,4201.538359,4210.256307
19,0,4230.256307,4242.051178,4237.435794,4235.897332,4218.461435,4223.58964,4232.820409,4234.871691,4233.33323,4213.33323,4214.358871,4216.410153,4197.435795,4204.102461
20,0,4228.717845,4239.999896,4234.358871,4237.435794,4219.487076,4224.102461,4230.256307,4232.307589,4231.281948,4217.435794,4216.410153,4201.025538,4199.999897,4199.999897
21,0,4223.07682,4231.281948,4228.205025,4230.769127,4221.025538,4218.461435,4228.205025,4226.666563,4228.717845,4225.640922,4218.974256,4168.205026,4202.051179,4197.948615
22,0,4219.487076,4230.769127,4231.794768,4225.128102,4225.640922,4217.435794,4224.102461,4224.615281,4225.640922,4218.974256,4218.461435,4151.28195,4205.128102,4197.948615
23,0,4227.692204,4243.58964,4243.58964,4235.384512,4237.435794,4228.717845,4234.871691,4231.794768,4233.84605,4228.205025,4225.128102,4163.589642,4211.281948,4216.410153
24,0,4228.717845,4245.128101,4236.922973,4238.974255,4231.794768,4226.666563,4233.84605,4231.794768,4233.33323,4234.871691,4226.153743,4161.53836,4209.230666,4222.051179
25,0,4217.948615,4238.461435,4226.666563,4229.743486,4221.538358,4214.871692,4222.563999,4225.640922,4226.666563,4220.512717,4216.922974,4150.769129,4202.051179,4202.564
26,0,4212.307589,4237.435794,4227.179384,4227.692204,4225.640922,4217.948615,4226.666563,4226.666563,4229.230666,4209.743487,4210.256307,4152.820411,4199.999897,4195.384513
27,0,4222.563999,4243.076819,4228.717845,4235.897332,4237.435794,4231.794768,4242.051178,4235.897332,4241.025537,4224.615281,4218.461435,4158.461437,4207.179384,4216.922974
28,0,4219.999897,4235.384512,4219.487076,4231.281948,4225.640922,4225.640922,4232.307589,4230.769127,4234.358871,4219.999897,4211.794769,4151.28195,4203.589641,4209.230666
29,0,4211.281948,4229.743486,4222.051179,4227.692204,4218.461435,4217.435794,4223.07682,4223.07682,4224.102461,4205.128102,4207.692205,4156.410155,4198.974256,4194.358872
30,0,4214.358871,4232.307589,4228.205025,4227.179384,4230.769127,4221.538358,4229.743486,4226.153743,4228.205025,4213.846051,4219.999897,4168.717847,4202.564,4209.743487
31,0,4223.58964,4236.410153,4228.717845,4227.179384,4236.410153,4225.640922,4235.384512,4233.33323,4235.897332,4230.769127,4224.615281,4172.820411,4207.692205,4222.563999
32,0,4216.922974,4230.769127,4225.128102,4224.615281,4223.58964,4218.461435,4227.179384,4232.307589,4228.205025,4221.025538,4211.794769,4167.692206,4202.051179,4205.128102
33,0,4208.205025,4227.692204,4224.615281,4225.640922,4224.102461,4219.999897,4228.717845,4233.33323,4221.025538,4214.358871,4209.743487,4168.205026,4198.974256,4195.897333
34,0,4206.666564,4229.230666,4219.999897,4224.615281,4228.717845,4227.692204,4237.435794,4234.871691,4223.58964,4219.487076,4214.871692,4168.717847,4205.128102,4202.564
35,0,4213.33323,4231.281948,4218.974256,4225.128102,4221.538358,4226.666563,4236.410153,4229.230666,4228.717845,4216.410153,4216.410153,4170.256308,4209.743487,4204.102461
36,0,4221.538358,4228.717845,4225.640922,4229.230666,4213.846051,4223.07682,4228.717845,4225.640922,4229.230666,4211.794769,4217.948615,4174.871693,4208.205025,4201.025538
37,0,4221.025538,4225.640922,4228.717845,4231.794768,4216.410153,4224.102461,4228.205025,4224.615281,4230.256307,4214.871692,4217.948615,4175.384513,4204.615282,4205.640923
38,0,4222.563999,4237.948614,4225.128102,4232.820409,4235.897332,4226.666563,4228.717845,4219.487076,4232.820409,4218.461435,4220.512717,4175.897334,4211.794769,4213.846051
39,0,4225.640922,4240.512717,4222.563999,4229.743486,4249.230665,4225.640922,4225.128102,4215.384512,4230.256307,4218.461435,4224.102461,4182.564,4217.948615,4214.871692
40,0,4224.615281,4225.128102,4229.230666,4228.717845,4236.922973,4222.051179,4225.128102,4219.999897,4227.179384,4219.487076,4222.563999,4192.30759,4213.33323,4214.871692
41,0,4234.358871,4236.922973,4235.897332,4237.435794,4228.717845,4224.102461,4224.615281,4221.538358,4226.666563,4210.769128,4223.07682,4193.846051,4214.871692,4230.256307
42,0,4255.384511,4270.769126,4238.461435,4251.281947,4238.974255,4230.256307,4227.692204,4223.58964,4231.281948,4216.410153,4233.84605,4196.922974,4226.153743,4245.640922
43,0,4247.692204,4265.640921,4233.33323,4249.230665,4242.563999,4228.717845,4226.666563,4225.128102,4232.820409,4230.769127,4229.743486,4194.358872,4219.999897,4228.205025
44,0,4226.153743,4243.58964,4226.666563,4237.948614,4239.487076,4225.640922,4226.666563,4224.102461,4231.281948,4234.358871,4219.487076,4189.230667,4206.666564,4208.205025
45,0,4223.07682,4242.051178,4222.563999,4233.33323,4230.256307,4226.153743,4229.743486,4223.58964,4228.205025,4222.051179,4217.948615,4187.692205,4206.153743,4207.179384
46,0,4228.205025,4248.717845,4227.179384,4239.487076,4229.230666,4227.179384,4240.512717,4227.692204,4232.307589,4219.999897,4225.128102,4195.897333,4214.358871,4216.410153
47,0,4217.435794,4238.461435,4224.615281,4235.384512,4228.205025,4223.58964,4233.33323,4225.128102,4232.820409,4218.974256,4219.487076,4194.871692,4208.205025,4214.871692
48,0,4219.999897,4235.897332,4225.640922,4232.820409,4231.794768,4227.692204,4227.179384,4223.07682,4234.871691,4216.922974,4217.948615,4196.410154,4205.640923,4216.922974
49,0,4229.743486,4240.512717,4233.84605,4238.461435,4232.307589,4227.179384,4230.769127,4223.07682,4239.487076,4217.435794,4221.025538,4198.974256,4208.717846,4219.487076
50,0,4232.820409,4249.743486,4237.435794,4246.153742,4229.743486,4221.538358,4230.769127,4224.102461,4242.051178,4217.948615,4223.07682,4198.461436,4209.743487,4218.974256
51,0,4227.179384,4245.640922,4229.230666,4238.974255,4223.58964,4216.410153,4217.948615,4220.512717,4234.358871,4206.666564,4215.897333,4194.871692,4204.615282,4211.794769
52,0,4232.820409,4241.538358,4232.820409,4236.410153,4231.281948,4223.07682,4223.07682,4223.58964,4236.922973,4210.769128,4217.948615,4203.07682,4207.179384,4218.461435
53,0,4237.435794,4244.615281,4239.487076,4245.128101,4237.948614,4228.717845,4237.948614,4232.307589,4244.615281,4221.025538,4225.640922,4208.717846,4212.82041,4231.281948
54,0,4230.256307,4241.538358,4232.820409,4245.128101,4225.128102,4223.07682,4236.922973,4232.820409,4243.58964,4216.410153,4226.153743,4204.102461,4211.794769,4224.615281
55,0,4230.769127,4239.487076,4230.769127,4242.051178,4221.025538,4219.999897,4233.33323,4229.230666,4245.640922,4218.461435,4228.205025,4206.666564,4216.410153,4223.07682
56,0,4241.025537,4247.692204,4239.999896,4247.692204,4234.358871,4231.281948,4241.538358,4232.820409,4252.307588,4236.410153,4232.820409,4215.384512,4221.538358,4237.435794
57,0,4238.974255,4246.666563,4235.384512,4244.10246,4240.512717,4236.410153,4242.563999,4235.897332,4249.230665,4234.358871,4227.692204,4210.769128,4215.384512,4227.692204
58,0,4222.051179,4232.307589,4218.461435,4229.230666,4233.84605,4228.205025,4233.84605,4225.640922,4236.922973,4212.307589,4217.948615,4195.384513,4206.153743,4204.102461
59,0,4219.487076,4229.743486,4216.410153,4228.205025,4229.743486,4226.666563,4234.871691,4223.07682,4235.897332,4215.897333,4218.974256,4195.384513,4205.128102,4213.33323
60,0,4225.640922,4233.84605,4220.512717,4231.794768,4222.563999,4228.205025,4232.307589,4227.179384,4237.948614,4218.974256,4221.025538,4201.025538,4206.153743,4225.640922
61,0,4236.410153,4243.076819,4227.179384,4238.974255,4223.58964,4227.692204,4227.179384,4227.692204,4240.512717,4218.974256,4225.640922,4205.128102,4214.358871,4226.666563
62,0,4229.743486,4233.84605,4225.128102,4236.410153,4229.230666,4224.615281,4220.512717,4221.025538,4235.897332,4216.922974,4216.410153,4201.025538,4205.640923,4212.82041
63,0,4209.743487,4213.33323,4213.846051,4224.615281,4228.717845,4223.07682,4218.461435,4218.461435,4227.692204,4210.769128,4206.666564,4196.922974,4187.179385,4195.384513
64,0,4210.769128,4210.256307,4209.743487,4217.948615,4225.128102,4222.051179,4217.435794,4218.974256,4230.769127,4212.82041,4218.974256,4202.051179,4201.025538,4203.589641
65,0,4235.897332,4227.179384,4224.102461,4228.717845,4234.358871,4226.153743,4222.051179,4223.07682,4243.076819,4233.84605,4241.025537,4215.384512,4234.358871,4241.025537
66,0,4231.794768,4217.435794,4225.128102,4227.692204,4217.435794,4222.563999,4221.538358,4223.07682,4236.922973,4232.820409,4237.948614,4214.871692,4237.435794,4245.128101
67,0,4213.33323,4201.025538,4216.922974,4221.025538,4191.281949,4215.384512,4221.538358,4224.102461,4226.153743,4221.538358,4232.307589,4211.281948,4230.769127,4228.205025
68,0,4214.358871,4198.974256,4215.384512,4216.410153,4206.153743,4217.435794,4227.179384,4228.717845,4231.281948,4224.615281,4237.435794,4213.33323,4235.897332,4227.179384
69,0,4219.999897,4201.538359,4218.461435,4215.897333,4236.922973,4230.256307,4242.051178,4237.948614,4241.538358,4233.84605,4241.538358,4221.538358,4237.948614,4229.743486
70,0,4215.384512,4199.999897,4218.461435,4217.948615,4227.179384,4230.256307,4246.666563,4238.974255,4237.435794,4234.358871,4236.922973,4224.615281,4234.358871,4231.794768
71,0,4217.435794,4200.512718,4218.974256,4221.025538,4207.692205,4221.025538,4237.948614,4231.281948,4229.743486,4225.640922,4230.256307,4218.461435,4229.743486,4234.871691
72,0,4219.999897,4198.461436,4215.384512,4217.948615,4208.205025,4220.512717,4230.256307,4224.615281,4228.717845,4213.33323,4224.615281,4210.769128,4223.58964,4222.051179
73,0,4215.384512,4199.999897,4213.33323,4218.974256,4212.307589,4226.153743,4231.794768,4224.615281,4229.230666,4212.307589,4224.615281,4210.769128,4222.563999,4212.307589
74,0,4212.307589,4205.640923,4215.897333,4223.58964,4217.435794,4226.153743,4230.256307,4223.07682,4226.666563,4211.281948,4223.07682,4208.717846,4222.051179,4217.435794
75,0,4210.769128,4207.692205,4215.897333,4224.102461,4222.563999,4223.58964,4221.538358,4218.461435,4225.640922,4202.564,4218.461435,4204.615282,4217.948615,4212.82041
76,0,4209.743487,4208.205025,4212.82041,4222.563999,4219.487076,4222.051179,4219.999897,4222.051179,4225.640922,4210.769128,4219.487076,4210.769128,4219.487076,4202.051179
77,0,4204.615282,4203.589641,4210.769128,4218.974256,4212.307589,4218.461435,4221.538358,4226.666563,4222.563999,4217.948615,4223.58964,4213.33323,4221.538358,4205.128102
78,0,4206.153743,4202.564,4216.922974,4222.051179,4215.897333,4217.435794,4225.128102,4226.153743,4223.07682,4213.33323,4225.128102,4210.256307,4221.025538,4218.974256
79,0,4211.281948,4208.205025,4219.999897,4226.666563,4229.230666,4223.58964,4226.666563,4227.179384,4226.666563,4214.871692,4224.102461,4213.33323,4222.051179,4217.435794
80,0,4216.922974,4215.384512,4217.948615,4229.743486,4245.128101,4231.794768,4233.33323,4234.871691,4229.743486,4230.256307,4231.794768,4224.615281,4229.743486,4214.871692
81,0,4213.33323,4212.307589,4215.384512,4226.666563,4237.948614,4230.256307,4235.897332,4231.794768,4226.666563,4232.820409,4234.358871,4225.640922,4230.769127,4216.922974
82,0,4207.692205,4209.230666,4216.922974,4223.07682,4222.051179,4222.051179,4228.717845,4219.487076,4218.974256,4221.025538,4228.205025,4218.974256,4226.666563,4217.948615
83,0,4204.102461,4202.564,4210.256307,4214.871692,4225.128102,4214.871692,4213.846051,4210.769128,4208.205025,4206.666564,4218.974256,4209.230666,4222.051179,4215.384512
