title:C                                                                               , recorded:01.07.20 13.17.04, sampling:128, subject:C                                                                               , labels:COUNTER INTERPOLATED AF3 F7 F3 FC5 T7 P7 O1 O2 P8 T8 FC6 F4 F8 AF4, chan:37, units:emotiv,,,,,,,,,
91,0,4231.281948,4248.717845,4226.666563,4233.33323,4224.615281,4221.025538,4216.410153,4216.922974,4223.58964,4213.846051,4218.974256,4237.948614,4213.846051,4217.948615
92,0,4233.33323,4243.58964,4225.640922,4228.717845,4243.58964,4227.692204,4219.487076,4219.487076,4223.07682,4210.769128,4218.461435,4233.84605,4213.846051,4226.153743
93,0,4239.487076,4249.230665,4232.307589,4229.743486,4224.615281,4227.692204,4230.256307,4222.051179,4222.051179,4222.563999,4223.58964,4237.948614,4216.410153,4238.974255
94,0,4239.487076,4248.205024,4229.230666,4230.256307,4199.487077,4222.051179,4231.281948,4223.58964,4224.102461,4223.58964,4222.051179,4235.384512,4215.897333,4231.281948
95,0,4235.897332,4238.974255,4223.58964,4227.179384,4202.051179,4221.025538,4225.640922,4222.051179,4227.692204,4208.717846,4216.410153,4228.205025,4209.743487,4213.846051
96,0,4233.33323,4234.358871,4221.025538,4226.153743,4213.846051,4223.07682,4225.640922,4216.410153,4222.563999,4205.640923,4216.410153,4227.179384,4208.717846,4220.512717
97,0,4230.256307,4229.743486,4215.897333,4224.102461,4199.487077,4217.948615,4217.948615,4211.794769,4214.358871,4205.128102,4216.410153,4226.666563,4209.743487,4232.820409
98,0,4231.281948,4226.666563,4216.922974,4221.025538,4186.153744,4213.33323,4206.153743,4209.230666,4211.794769,4194.358872,4214.358871,4227.692204,4206.153743,4221.025538
99,0,4243.58964,4238.974255,4229.743486,4225.128102,4214.871692,4221.538358,4215.384512,4213.846051,4219.487076,4207.692205,4222.051179,4243.076819,4212.307589,4223.58964
100,0,4248.205024,4244.615281,4234.871691,4228.205025,4219.999897,4222.563999,4223.07682,4216.922974,4224.102461,4225.128102,4227.692204,4248.717845,4220.512717,4246.153742
101,0,4253.84605,4245.640922,4239.999896,4234.358871,4193.846051,4218.461435,4223.58964,4219.487076,4223.58964,4225.128102,4228.717845,4248.205024,4224.102461,4254.35887
102,0,4256.922973,4244.615281,4241.025537,4232.820409,4202.051179,4221.025538,4219.999897,4215.384512,4221.025538,4216.922974,4224.615281,4248.717845,4223.58964,4243.076819
103,0,4256.410152,4244.615281,4241.538358,4229.230666,4224.615281,4225.128102,4221.025538,4215.897333,4221.025538,4218.974256,4226.153743,4251.281947,4225.640922,4249.230665
104,0,4243.58964,4231.794768,4231.794768,4218.974256,4198.974256,4214.871692,4208.205025,4212.307589,4213.846051,4205.640923,4220.512717,4239.999896,4219.999897,4247.692204
105,0,4247.179383,4235.897332,4231.794768,4224.102461,4190.769128,4216.410153,4209.230666,4212.82041,4215.897333,4207.179384,4223.07682,4242.051178,4224.102461,4245.640922
106,0,4253.333229,4243.58964,4234.358871,4228.717845,4217.948615,4227.179384,4221.025538,4217.948615,4223.07682,4229.230666,4225.640922,4247.179383,4227.692204,4241.025537
107,0,4246.666563,4238.461435,4236.410153,4224.615281,4228.717845,4228.205025,4225.640922,4224.615281,4228.717845,4234.871691,4227.179384,4245.640922,4226.153743,4237.948614
108,0,4238.461435,4230.256307,4233.84605,4222.563999,4212.307589,4218.974256,4221.538358,4224.102461,4227.179384,4211.794769,4225.128102,4243.58964,4225.128102,4236.410153
109,0,4243.076819,4235.897332,4230.769127,4227.179384,4208.717846,4221.025538,4228.205025,4223.07682,4228.205025,4212.82041,4227.179384,4250.256306,4229.230666,4242.563999
110,0,4244.10246,4237.435794,4227.692204,4223.07682,4208.205025,4221.538358,4229.230666,4219.999897,4228.205025,4228.717845,4228.205025,4251.281947,4229.230666,4245.640922
111,0,4236.410153,4230.769127,4229.743486,4219.487076,4197.435795,4217.435794,4221.025538,4213.33323,4225.640922,4226.153743,4219.487076,4242.051178,4218.974256,4239.999896
112,0,4230.256307,4228.205025,4231.794768,4224.615281,4197.435795,4216.922974,4218.974256,4212.82041,4224.102461,4222.563999,4213.846051,4236.410153,4209.230666,4234.358871
113,0,4241.538358,4242.051178,4235.897332,4232.820409,4216.922974,4222.563999,4227.692204,4221.538358,4226.153743,4224.615281,4229.743486,4249.230665,4224.615281,4247.179383
114,0,4249.230665,4249.743486,4235.384512,4233.33323,4230.256307,4222.563999,4227.179384,4222.563999,4225.640922,4217.948615,4237.435794,4254.871691,4238.974255,4252.307588
115,0,4234.358871,4233.33323,4225.128102,4224.615281,4218.974256,4216.410153,4216.922974,4215.897333,4221.538358,4211.281948,4218.974256,4235.384512,4223.07682,4227.692204
116,0,4228.717845,4224.102461,4221.025538,4223.58964,4198.974256,4213.846051,4217.435794,4217.435794,4219.999897,4209.230666,4208.205025,4225.640922,4211.281948,4215.384512
117,0,4231.281948,4226.153743,4220.512717,4221.538358,4194.358872,4212.307589,4217.435794,4218.461435,4217.435794,4203.589641,4212.307589,4229.230666,4217.435794,4215.897333
118,0,4226.153743,4226.153743,4220.512717,4216.922974,4213.33323,4217.435794,4222.051179,4217.435794,4218.461435,4214.871692,4215.897333,4229.230666,4222.563999,4214.871692
119,0,4224.102461,4222.051179,4219.487076,4211.794769,4230.769127,4223.58964,4230.769127,4219.487076,4223.07682,4222.051179,4216.922974,4222.563999,4219.487076,4223.07682
120,0,4234.358871,4226.153743,4222.563999,4217.948615,4222.563999,4222.051179,4234.358871,4222.563999,4222.051179,4214.871692,4219.487076,4224.615281,4218.974256,4231.281948
121,0,4228.717845,4226.153743,4217.948615,4222.563999,4190.256308,4212.307589,4222.051179,4218.461435,4217.435794,4210.769128,4212.82041,4225.128102,4216.922974,4211.794769
122,0,4226.666563,4229.743486,4219.999897,4222.051179,4198.974256,4212.82041,4222.563999,4220.512717,4223.58964,4222.563999,4218.974256,4229.743486,4223.07682,4215.897333
123,0,4225.640922,4222.563999,4216.410153,4209.230666,4236.410153,4219.487076,4225.640922,4219.487076,4219.999897,4217.948615,4223.07682,4226.666563,4222.563999,4227.692204
124,0,4227.692204,4217.948615,4217.948615,4210.256307,4231.794768,4222.051179,4227.692204,4218.974256,4218.974256,4224.102461,4223.58964,4230.256307,4223.07682,4221.538358
125,0,4231.794768,4221.025538,4225.128102,4225.640922,4184.615282,4218.461435,4229.743486,4222.563999,4227.179384,4238.974255,4224.615281,4237.435794,4227.692204,4219.999897
126,0,4236.922973,4222.563999,4227.692204,4225.640922,4209.230666,4225.128102,4239.999896,4231.281948,4231.281948,4234.871691,4228.717845,4240.512717,4228.717845,4228.717845
127,0,4233.33323,4213.33323,4221.538358,4210.256307,4252.820409,4226.666563,4237.435794,4233.33323,4227.692204,4220.512717,4225.128102,4236.922973,4222.051179,4225.640922
128,0,4234.358871,4216.922974,4227.692204,4218.461435,4217.435794,4219.999897,4232.307589,4229.743486,4227.179384,4224.102461,4224.102461,4237.948614,4223.07682,4229.743486
0,0,4239.487076,4220.512717,4232.820409,4227.692204,4184.615282,4218.974256,4235.384512,4226.153743,4224.615281,4228.717845,4222.563999,4236.922973,4222.563999,4233.84605
1,0,4242.051178,4217.435794,4232.820409,4215.384512,4219.999897,4225.128102,4243.58964,4226.153743,4223.58964,4224.615281,4218.974256,4235.897332,4219.999897,4229.743486
2,0,4237.435794,4213.33323,4230.256307,4201.025538,4238.974255,4219.487076,4241.025537,4222.051179,4224.615281,4219.999897,4215.897333,4234.358871,4218.461435,4227.179384
3,0,4238.974255,4216.922974,4230.769127,4209.230666,4214.358871,4218.461435,4235.897332,4219.999897,4224.615281,4224.102461,4221.025538,4236.922973,4220.512717,4234.358871
4,0,4251.281947,4224.615281,4235.384512,4223.58964,4210.256307,4225.640922,4237.435794,4226.153743,4225.640922,4231.281948,4225.128102,4243.58964,4224.615281,4235.384512
5,0,4249.743486,4222.051179,4231.794768,4217.948615,4229.230666,4227.179384,4235.384512,4224.615281,4222.563999,4227.692204,4216.410153,4241.538358,4222.051179,4226.153743
6,0,4235.897332,4214.358871,4220.512717,4204.615282,4234.358871,4226.153743,4229.743486,4219.487076,4217.435794,4215.384512,4210.256307,4232.307589,4213.846051,4223.07682
7,0,4226.666563,4206.153743,4211.794769,4199.999897,4211.794769,4218.461435,4217.948615,4219.999897,4214.871692,4203.07682,4208.717846,4220.512717,4209.743487,4217.435794
8,0,4235.897332,4214.871692,4218.974256,4214.358871,4204.615282,4217.948615,4224.102461,4225.128102,4223.07682,4213.846051,4214.871692,4222.563999,4222.051179,4221.538358
9,0,4235.897332,4218.461435,4218.461435,4217.948615,4220.512717,4226.666563,4234.871691,4224.615281,4228.717845,4228.717845,4215.384512,4218.974256,4225.128102,4223.07682
10,0,4229.230666,4211.794769,4209.743487,4209.743487,4225.128102,4226.153743,4231.281948,4222.563999,4226.153743,4234.358871,4214.358871,4212.82041,4219.999897,4220.512717
11,0,4222.563999,4206.153743,4201.538359,4202.051179,4198.461436,4213.33323,4216.922974,4216.922974,4215.384512,4216.410153,4214.871692,4212.307589,4224.102461,4213.846051
12,0,4228.717845,4216.922974,4210.256307,4210.256307,4185.640923,4212.82041,4215.384512,4221.025538,4218.974256,4216.410153,4221.538358,4223.07682,4243.076819,4226.666563
13,0,4237.435794,4221.025538,4215.384512,4214.358871,4205.128102,4213.33323,4211.281948,4225.128102,4225.128102,4223.58964,4220.512717,4225.128102,4246.153742,4230.769127
14,0,4256.922973,4232.307589,4217.435794,4218.461435,4231.281948,4213.846051,4215.384512,4223.58964,4227.179384,4226.666563,4226.153743,4234.871691,4252.307588,4243.58964
15,0,4279.999895,4252.820409,4222.563999,4227.179384,4229.743486,4218.461435,4219.487076,4221.025538,4224.615281,4231.794768,4241.538358,4249.230665,4277.948613,4287.179382
16,0,4296.922972,4270.256306,4233.84605,4238.461435,4207.179384,4219.487076,4221.025538,4222.051179,4222.051179,4234.358871,4247.179383,4257.948614,4292.307587,4316.410151
17,0,4298.461433,4268.205024,4233.84605,4236.410153,4188.205026,4214.358871,4221.025538,4221.538358,4219.487076,4221.538358,4235.384512,4246.153742,4279.487075,4303.076818
18,0,4299.999895,4266.666562,4232.820409,4233.33323,4205.640923,4217.948615,4226.666563,4223.58964,4222.563999,4226.666563,4234.871691,4236.410153,4278.974254,4298.974254
19,0,4299.999895,4266.666562,4235.384512,4231.794768,4231.794768,4222.051179,4229.230666,4225.640922,4225.128102,4238.974255,4237.948614,4243.58964,4288.717844,4311.281946
20,0,4292.820408,4261.538357,4230.769127,4227.179384,4221.538358,4218.461435,4226.153743,4220.512717,4223.07682,4229.230666,4233.33323,4251.794768,4284.102459,4313.333228
21,0,4288.205023,4254.35887,4224.102461,4227.692204,4195.897333,4215.897333,4220.512717,4218.461435,4221.538358,4226.153743,4229.230666,4249.230665,4275.897331,4308.205023
22,0,4288.205023,4248.205024,4226.153743,4230.769127,4204.615282,4217.948615,4221.538358,4221.538358,4221.538358,4231.794768,4230.256307,4244.615281,4268.717844,4296.922972
23,0,4282.563998,4242.051178,4228.717845,4224.102461,4219.999897,4216.922974,4227.692204,4220.512717,4221.025538,4219.999897,4227.179384,4248.717845,4259.487075,4279.999895
24,0,4272.307588,4233.33323,4221.538358,4212.82041,4213.33323,4215.897333,4219.487076,4213.846051,4219.487076,4214.358871,4222.051179,4247.692204,4255.384511,4276.410152
25,0,4271.281947,4231.794768,4220.512717,4215.897333,4204.615282,4219.487076,4214.358871,4217.435794,4223.07682,4235.384512,4226.666563,4247.692204,4258.461434,4291.281946
26,0,4265.640921,4226.153743,4217.948615,4218.461435,4193.846051,4217.948615,4212.307589,4222.051179,4224.102461,4230.256307,4225.128102,4241.025537,4252.820409,4284.102459
27,0,4265.128101,4226.666563,4218.974256,4220.512717,4198.974256,4215.384512,4211.794769,4222.563999,4224.102461,4215.897333,4225.640922,4241.538358,4247.179383,4263.076819
28,0,4268.717844,4234.871691,4224.615281,4223.58964,4217.948615,4218.974256,4213.33323,4221.025538,4222.051179,4224.615281,4226.153743,4246.153742,4243.58964,4257.435793
29,0,4271.794767,4242.563999,4229.743486,4229.230666,4233.84605,4227.179384,4224.615281,4225.128102,4225.640922,4232.820409,4227.179384,4247.692204,4244.615281,4272.820408
30,0,4264.61528,4232.820409,4225.640922,4225.128102,4220.512717,4224.102461,4222.563999,4224.615281,4225.128102,4223.58964,4223.07682,4242.051178,4239.487076,4266.153742
31,0,4262.051178,4230.769127,4227.692204,4224.615281,4198.461436,4219.487076,4220.512717,4222.563999,4224.102461,4232.820409,4222.563999,4243.58964,4235.384512,4256.410152
32,0,4251.794768,4225.128102,4221.025538,4218.461435,4190.256308,4217.435794,4216.922974,4218.974256,4219.487076,4226.666563,4215.384512,4233.33323,4228.717845,4251.794768
33,0,4244.615281,4217.435794,4213.846051,4215.897333,4212.82041,4219.999897,4222.563999,4219.999897,4219.487076,4207.692205,4215.897333,4227.179384,4226.666563,4248.205024
34,0,4239.999896,4209.230666,4210.769128,4211.794769,4224.615281,4220.512717,4222.563999,4219.487076,4219.487076,4210.769128,4215.897333,4224.615281,4224.615281,4233.33323
35,0,4239.999896,4207.692205,4214.358871,4210.769128,4216.922974,4223.07682,4223.58964,4220.512717,4224.102461,4230.256307,4213.33323,4224.102461,4223.07682,4229.230666
36,0,4238.461435,4205.128102,4215.384512,4212.307589,4204.615282,4220.512717,4227.692204,4223.07682,4225.640922,4226.666563,4211.281948,4222.051179,4222.563999,4232.820409
37,0,4234.871691,4204.102461,4216.410153,4216.410153,4198.461436,4218.461435,4231.281948,4225.640922,4224.615281,4210.256307,4214.871692,4224.102461,4219.487076,4226.153743
38,0,4235.897332,4207.692205,4218.974256,4216.922974,4212.82041,4219.487076,4227.692204,4226.153743,4224.102461,4207.692205,4219.487076,4230.256307,4218.461435,4227.692204
39,0,4244.615281,4212.82041,4222.563999,4216.410153,4229.230666,4216.922974,4220.512717,4225.640922,4221.025538,4224.102461,4223.58964,4234.871691,4224.615281,4245.128101
40,0,4250.256306,4214.871692,4226.153743,4221.025538,4224.102461,4214.871692,4216.410153,4223.07682,4216.410153,4238.461435,4223.07682,4236.922973,4227.692204,4247.179383
41,0,4245.128101,4211.281948,4229.230666,4221.538358,4215.384512,4220.512717,4214.358871,4219.999897,4218.974256,4226.666563,4221.025538,4239.999896,4223.58964,4239.999896
42,0,4247.179383,4215.897333,4234.871691,4225.128102,4213.33323,4223.07682,4215.897333,4222.563999,4227.692204,4219.999897,4227.692204,4249.743486,4226.666563,4253.84605
43,0,4248.205024,4216.922974,4231.794768,4227.179384,4211.794769,4218.461435,4215.384512,4223.58964,4227.179384,4233.33323,4227.179384,4247.179383,4230.256307,4252.307588
44,0,4249.743486,4217.948615,4231.281948,4227.692204,4230.256307,4224.102461,4226.153743,4226.666563,4227.179384,4239.487076,4225.640922,4248.717845,4230.256307,4239.487076
45,0,4248.205024,4217.435794,4232.820409,4224.615281,4237.435794,4225.128102,4230.769127,4224.615281,4223.58964,4219.999897,4227.179384,4251.794768,4227.692204,4247.179383
46,0,4241.025537,4214.358871,4226.153743,4221.025538,4221.538358,4219.487076,4223.07682,4218.974256,4214.871692,4217.435794,4224.102461,4243.076819,4225.640922,4250.769127
47,0,4230.256307,4206.666564,4214.871692,4216.410153,4209.743487,4216.922974,4215.384512,4216.410153,4210.769128,4225.640922,4216.922974,4232.307589,4220.512717,4230.256307
48,0,4238.461435,4212.307589,4221.025538,4222.563999,4211.794769,4219.487076,4223.58964,4219.487076,4217.948615,4225.128102,4219.487076,4235.897332,4221.538358,4230.769127
49,0,4243.076819,4212.82041,4225.128102,4224.615281,4211.281948,4218.461435,4223.58964,4218.974256,4219.487076,4210.769128,4217.948615,4235.384512,4221.025538,4235.384512
50,0,4245.128101,4216.410153,4230.256307,4227.179384,4223.07682,4224.102461,4227.179384,4225.128102,4222.563999,4211.281948,4225.640922,4244.615281,4226.153743,4239.487076
51,0,4243.58964,4216.410153,4227.179384,4223.07682,4227.692204,4224.615281,4229.743486,4225.128102,4222.051179,4214.358871,4229.743486,4246.153742,4227.179384,4242.051178
52,0,4244.615281,4216.410153,4226.666563,4224.102461,4221.538358,4223.07682,4230.256307,4225.128102,4225.128102,4223.58964,4229.743486,4243.076819,4231.281948,4252.307588
53,0,4242.051178,4211.281948,4227.692204,4228.205025,4209.230666,4219.999897,4224.102461,4229.743486,4224.102461,4227.692204,4228.205025,4241.538358,4232.307589,4254.871691
54,0,4239.487076,4209.743487,4227.179384,4229.743486,4211.794769,4218.461435,4224.615281,4226.153743,4215.897333,4219.487076,4231.281948,4244.615281,4229.230666,4245.640922
55,0,4230.256307,4206.153743,4217.435794,4219.999897,4231.281948,4217.948615,4222.051179,4215.897333,4209.743487,4212.307589,4223.58964,4238.461435,4224.102461,4233.33323
56,0,4229.230666,4206.153743,4214.358871,4218.974256,4234.358871,4218.461435,4214.358871,4218.461435,4215.897333,4221.025538,4219.999897,4237.435794,4224.102461,4235.897332
57,0,4241.025537,4217.948615,4226.153743,4232.820409,4215.897333,4217.435794,4212.82041,4226.666563,4219.487076,4230.769127,4229.743486,4248.205024,4231.281948,4247.692204
58,0,4247.179383,4227.692204,4234.358871,4238.461435,4222.051179,4221.538358,4220.512717,4227.692204,4219.999897,4227.179384,4234.871691,4253.333229,4236.410153,4255.897332
59,0,4244.10246,4223.58964,4231.794768,4230.769127,4239.999896,4225.128102,4228.717845,4226.666563,4223.58964,4228.717845,4234.358871,4254.35887,4236.410153,4258.461434
60,0,4243.58964,4217.948615,4230.256307,4225.640922,4236.410153,4226.666563,4231.794768,4226.153743,4225.128102,4238.974255,4234.358871,4252.307588,4236.922973,4255.384511
61,0,4252.307588,4228.205025,4239.999896,4233.33323,4228.205025,4227.179384,4236.410153,4232.307589,4229.743486,4250.769127,4237.948614,4256.922973,4243.58964,4266.153742
62,0,4252.820409,4230.769127,4237.948614,4235.897332,4212.82041,4221.025538,4229.230666,4235.384512,4227.692204,4241.025537,4234.871691,4251.281947,4241.538358,4272.820408
63,0,4251.281947,4228.205025,4229.230666,4238.461435,4211.794769,4223.07682,4226.666563,4232.820409,4222.563999,4224.615281,4230.769127,4246.153742,4238.461435,4261.538357
64,0,4248.205024,4228.205025,4227.692204,4237.948614,4228.205025,4229.230666,4229.743486,4229.743486,4223.58964,4216.410153,4225.128102,4245.640922,4236.410153,4245.128101
65,0,4248.205024,4232.307589,4232.820409,4235.384512,4234.358871,4229.230666,4234.358871,4231.281948,4228.717845,4219.487076,4223.07682,4244.615281,4232.820409,4250.256306
66,0,4243.58964,4226.666563,4226.153743,4229.743486,4222.051179,4226.666563,4230.256307,4229.230666,4224.615281,4219.487076,4220.512717,4235.384512,4225.640922,4256.922973
67,0,4237.435794,4223.58964,4217.435794,4229.230666,4225.128102,4228.717845,4225.640922,4228.205025,4223.58964,4226.153743,4220.512717,4232.307589,4229.230666,4252.307588
68,0,4227.179384,4214.871692,4209.743487,4221.538358,4210.256307,4222.051179,4215.384512,4223.58964,4222.563999,4222.563999,4217.948615,4225.640922,4230.769127,4233.84605
69,0,4228.205025,4217.435794,4217.435794,4225.640922,4203.589641,4222.051179,4220.512717,4226.153743,4224.102461,4225.128102,4225.128102,4228.205025,4234.871691,4244.10246
70,0,4233.84605,4227.692204,4221.538358,4232.820409,4229.230666,4230.256307,4230.769127,4232.820409,4229.230666,4226.666563,4230.769127,4236.922973,4239.487076,4257.948614
71,0,4232.820409,4228.717845,4213.846051,4229.230666,4235.897332,4227.692204,4230.769127,4232.820409,4234.358871,4225.128102,4229.743486,4239.487076,4238.461435,4244.10246
72,0,4225.640922,4216.922974,4207.179384,4219.487076,4211.281948,4217.435794,4223.07682,4228.717845,4233.84605,4222.051179,4225.128102,4226.153743,4231.794768,4231.281948
73,0,4227.692204,4218.461435,4215.897333,4225.128102,4209.230666,4222.563999,4230.256307,4230.256307,4231.794768,4214.871692,4227.692204,4225.128102,4232.307589,4242.563999
74,0,4229.230666,4219.487076,4215.897333,4228.717845,4215.384512,4226.666563,4229.230666,4228.717845,4223.07682,4207.692205,4226.153743,4231.281948,4231.281948,4244.10246
75,0,4227.692204,4215.897333,4209.743487,4224.102461,4213.846051,4223.58964,4222.051179,4225.640922,4222.563999,4221.025538,4223.07682,4228.205025,4227.692204,4237.435794
76,0,4231.281948,4221.538358,4218.461435,4227.179384,4224.102461,4223.58964,4227.179384,4230.769127,4232.307589,4234.871691,4226.153743,4229.743486,4228.205025,4241.538358
77,0,4231.794768,4226.153743,4224.102461,4232.820409,4225.640922,4226.153743,4227.179384,4230.769127,4230.769127,4219.999897,4227.692204,4231.281948,4226.153743,4240.512717
78,0,4228.717845,4225.128102,4217.435794,4228.717845,4211.794769,4224.102461,4221.538358,4226.666563,4223.58964,4210.769128,4227.179384,4229.743486,4227.179384,4240.512717
79,0,4229.743486,4223.07682,4216.922974,4224.615281,4208.205025,4218.461435,4217.435794,4223.07682,4223.58964,4208.717846,4224.615281,4228.717845,4230.769127,4239.999896
80,0,4241.538358,4228.717845,4228.717845,4234.358871,4216.922974,4221.025538,4221.538358,4224.615281,4229.230666,4214.871692,4225.128102,4235.384512,4228.205025,4238.974255
81,0,4241.538358,4226.666563,4227.692204,4234.871691,4221.025538,4224.102461,4220.512717,4225.640922,4227.692204,4224.102461,4225.128102,4233.84605,4223.07682,4237.435794
82,0,4236.410153,4226.666563,4226.666563,4232.820409,4222.563999,4223.58964,4224.102461,4229.230666,4226.153743,4226.153743,4227.692204,4228.205025,4226.666563,4246.153742
83,0,4225.128102,4224.102461,4219.487076,4229.743486,4208.717846,4218.461435,4222.051179,4225.640922,4221.538358,4209.743487,4217.948615,4216.410153,4221.538358,4233.84605
84,0,4223.58964,4226.153743,4215.384512,4230.769127,4204.615282,4219.487076,4222.563999,4226.153743,4222.563999,4206.153743,4216.410153,4214.871692,4216.922974,4222.051179
85,0,4225.640922,4224.102461,4217.435794,4226.666563,4216.410153,4223.07682,4222.051179,4230.769127,4225.128102,4207.179384,4221.025538,4217.435794,4218.461435,4227.692204
86,0,4222.563999,4219.487076,4217.435794,4222.563999,4224.102461,4226.153743,4221.538358,4228.717845,4225.128102,4208.717846,4220.512717,4215.897333,4219.999897,4227.692204
87,0,4209.230666,4214.871692,4205.640923,4217.435794,4212.307589,4222.051179,4214.358871,4219.487076,4219.999897,4206.666564,4211.794769,4205.128102,4214.871692,4210.256307
88,0,4211.794769,4224.102461,4211.794769,4225.128102,4215.384512,4223.07682,4217.435794,4224.615281,4224.102461,4214.871692,4216.410153,4209.743487,4215.897333,4218.974256
89,0,4216.410153,4219.999897,4221.538358,4231.794768,4219.999897,4229.743486,4223.07682,4229.230666,4226.153743,4217.948615,4218.974256,4213.33323,4213.33323,4226.153743
90,0,4212.82041,4209.743487,4217.435794,4228.205025,4216.922974,4227.692204,4224.102461,4224.615281,4223.07682,4211.281948,4213.846051,4206.666564,4209.230666,4204.615282
91,0,4212.307589,4213.33323,4211.281948,4223.58964,4217.948615,4218.974256,4216.410153,4221.025538,4221.538358,4212.307589,4216.410153,4205.128102,4210.769128,4196.922974
92,0,4218.461435,4221.538358,4214.871692,4222.563999,4219.487076,4219.999897,4214.358871,4219.999897,4222.051179,4214.871692,4219.999897,4210.769128,4211.794769,4217.948615
93,0,4227.179384,4222.051179,4217.948615,4222.051179,4215.897333,4222.563999,4216.922974,4218.461435,4216.922974,4199.999897,4214.358871,4204.102461,4212.307589,4229.743486
94,0,4239.999896,4227.179384,4221.025538,4228.205025,4214.871692,4222.051179,4221.538358,4223.58964,4215.384512,4196.922974,4216.922974,4195.897333,4218.461435,4232.307589
95,0,4245.128101,4231.794768,4222.051179,4232.820409,4209.743487,4219.999897,4230.769127,4230.256307,4218.974256,4212.307589,4223.07682,4196.922974,4217.948615,4233.84605
96,0,4237.435794,4228.205025,4221.025538,4230.256307,4197.435795,4217.435794,4228.205025,4227.179384,4214.871692,4207.692205,4219.487076,4191.281949,4213.33323,4234.871691
97,0,4249.230665,4234.871691,4230.256307,4235.384512,4212.82041,4219.999897,4226.153743,4223.58964,4214.871692,4206.153743,4223.07682,4195.897333,4222.051179,4243.076819
98,0,4258.974255,4234.358871,4232.820409,4237.435794,4232.307589,4222.563999,4230.256307,4227.179384,4221.538358,4220.512717,4229.743486,4208.717846,4225.640922,4241.538358
99,0,4251.281947,4233.84605,4230.256307,4236.922973,4229.230666,4222.051179,4232.307589,4229.230666,4227.179384,4226.153743,4230.769127,4215.384512,4225.128102,4238.974255
100,0,4246.666563,4236.922973,4231.281948,4236.410153,4218.461435,4219.999897,4223.07682,4225.128102,4226.666563,4222.563999,4228.205025,4208.205025,4228.205025,4242.563999
101,0,4252.820409,4235.384512,4233.33323,4238.974255,4215.384512,4217.948615,4220.512717,4224.102461,4227.179384,4229.230666,4229.743486,4206.153743,4228.205025,4247.692204
102,0,4240.512717,4222.563999,4219.999897,4230.256307,4210.769128,4211.281948,4216.410153,4222.563999,4223.58964,4226.153743,4222.051179,4203.589641,4215.897333,4231.281948
103,0,4233.33323,4222.051179,4215.897333,4223.58964,4221.538358,4215.384512,4216.922974,4227.179384,4227.179384,4228.205025,4221.025538,4209.743487,4218.461435,4224.102461
104,0,4235.384512,4217.948615,4217.435794,4219.487076,4225.128102,4219.487076,4217.435794,4228.717845,4226.153743,4221.025538,4223.58964,4214.358871,4222.051179,4224.615281
105,0,4235.897332,4212.307589,4219.487076,4224.102461,4214.358871,4216.922974,4220.512717,4228.717845,4219.487076,4208.717846,4225.128102,4215.897333,4215.384512,4224.102461
106,0,4233.84605,4212.307589,4223.58964,4227.692204,4209.743487,4214.358871,4222.051179,4228.205025,4216.410153,4211.281948,4221.538358,4213.846051,4214.871692,4224.102461
107,0,4240.512717,4220.512717,4229.743486,4233.84605,4225.640922,4219.999897,4232.820409,4231.794768,4225.640922,4231.281948,4224.615281,4219.999897,4226.666563,4234.358871
108,0,4234.871691,4213.846051,4221.025538,4229.230666,4220.512717,4217.435794,4232.307589,4232.820409,4225.640922,4226.666563,4219.999897,4217.435794,4220.512717,4228.717845
109,0,4226.153743,4207.692205,4216.922974,4225.128102,4208.717846,4214.358871,4229.230666,4233.84605,4220.512717,4214.871692,4216.922974,4209.230666,4209.743487,4214.358871
110,0,4225.128102,4207.179384,4216.410153,4224.102461,4213.846051,4215.384512,4225.640922,4233.33323,4219.487076,4211.281948,4219.487076,4206.666564,4213.846051,4213.33323
111,0,4231.794768,4208.717846,4215.897333,4227.692204,4215.384512,4214.871692,4223.07682,4230.256307,4223.58964,4213.33323,4224.102461,4215.897333,4219.999897,4224.102461
112,0,4238.974255,4217.435794,4226.666563,4231.794768,4208.717846,4216.922974,4228.717845,4231.281948,4229.743486,4229.230666,4229.743486,4229.743486,4223.58964,4238.974255
113,0,4238.461435,4219.999897,4233.84605,4230.769127,4221.025538,4223.58964,4233.33323,4231.794768,4230.256307,4229.743486,4235.897332,4231.794768,4226.666563,4246.666563
114,0,4236.922973,4213.846051,4226.153743,4229.230666,4233.33323,4224.615281,4232.820409,4228.717845,4226.153743,4223.58964,4231.794768,4227.179384,4227.179384,4238.974255
115,0,4234.358871,4205.640923,4220.512717,4228.205025,4212.307589,4216.410153,4222.563999,4219.487076,4223.58964,4225.128102,4215.384512,4218.461435,4218.974256,4217.948615
116,0,4233.84605,4208.205025,4226.666563,4229.230666,4205.128102,4211.794769,4218.974256,4217.435794,4223.07682,4225.128102,4211.794769,4215.897333,4214.871692,4216.922974
117,0,4232.820409,4212.307589,4224.102461,4225.640922,4217.948615,4215.384512,4224.102461,4222.563999,4217.948615,4214.358871,4219.487076,4214.358871,4216.922974,4224.615281
118,0,4241.025537,4219.999897,4223.58964,4228.717845,4216.410153,4219.999897,4234.358871,4227.692204,4220.512717,4217.435794,4226.666563,4222.051179,4224.615281,4225.640922
119,0,4238.974255,4218.461435,4223.07682,4228.205025,4201.538359,4216.922974,4227.179384,4223.07682,4225.128102,4219.487076,4222.051179,4221.025538,4222.051179,4221.025538
120,0,4235.897332,4221.538358,4226.666563,4229.230666,4207.692205,4215.384512,4220.512717,4224.102461,4229.743486,4226.666563,4223.07682,4219.487076,4219.999897,4231.794768
121,0,4241.025537,4227.692204,4229.230666,4231.794768,4213.846051,4217.435794,4221.538358,4230.256307,4231.794768,4238.974255,4224.615281,4221.025538,4223.07682,4238.974255
122,0,4249.743486,4232.820409,4231.794768,4235.897332,4211.281948,4218.461435,4226.666563,4232.820409,4230.256307,4242.051178,4227.692204,4226.666563,4226.666563,4237.948614
123,0,4234.358871,4222.563999,4220.512717,4227.692204,4202.564,4211.794769,4217.948615,4228.717845,4221.538358,4226.666563,4224.102461,4216.922974,4222.563999,4225.640922
124,0,4224.102461,4221.538358,4216.922974,4227.692204,4198.461436,4213.846051,4218.461435,4227.179384,4221.025538,4223.58964,4223.07682,4212.307589,4224.615281,4224.615281
125,0,4235.897332,4226.666563,4222.051179,4234.871691,4202.564,4219.999897,4230.256307,4228.205025,4223.58964,4228.717845,4224.615281,4215.897333,4228.717845,4232.307589
126,0,4244.10246,4229.230666,4225.128102,4236.922973,4221.538358,4223.07682,4239.487076,4232.307589,4225.128102,4224.615281,4224.615281,4217.435794,4228.205025,4233.33323
127,0,4231.794768,4215.897333,4217.948615,4224.615281,4224.102461,4216.922974,4228.205025,4227.692204,4224.102461,4207.692205,4216.410153,4209.743487,4220.512717,4221.025538
128,0,4228.205025,4207.692205,4218.461435,4222.051179,4206.153743,4214.358871,4219.487076,4221.538358,4228.205025,4214.871692,4216.922974,4210.769128,4218.974256,4218.974256
0,0,4234.358871,4210.769128,4219.487076,4227.179384,4205.640923,4215.897333,4220.512717,4221.538358,4232.820409,4236.922973,4222.563999,4215.897333,4223.07682,4224.102461
1,0,4232.820409,4209.743487,4216.410153,4228.717845,4213.33323,4213.33323,4217.435794,4224.102461,4231.794768,4231.281948,4222.051179,4215.384512,4224.102461,4226.153743
2,0,4236.922973,4214.358871,4219.487076,4233.84605,4204.615282,4211.281948,4215.897333,4227.179384,4231.281948,4222.051179,4225.640922,4218.461435,4230.769127,4234.871691
3,0,4249.743486,4227.179384,4227.692204,4241.025537,4207.692205,4217.948615,4224.615281,4230.256307,4233.84605,4233.33323,4235.384512,4230.769127,4247.179383,4244.615281
4,0,4252.820409,4230.769127,4231.794768,4239.487076,4224.615281,4224.615281,4237.948614,4231.281948,4232.820409,4233.33323,4237.948614,4237.435794,4261.025537,4248.717845
5,0,4245.640922,4224.615281,4223.07682,4229.743486,4215.384512,4217.948615,4231.281948,4221.538358,4221.538358,4211.794769,4227.179384,4224.615281,4259.487075,4246.666563
6,0,4260.512716,4238.974255,4222.051179,4232.307589,4203.589641,4212.307589,4225.640922,4219.487076,4218.461435,4214.358871,4228.717845,4223.58964,4267.692203,4262.563998
7,0,4286.666562,4260.512716,4229.230666,4241.538358,4214.358871,4214.871692,4227.179384,4223.58964,4222.563999,4231.794768,4240.512717,4239.487076,4289.230664,4295.897331
8,0,4307.692202,4277.948613,4235.384512,4248.205024,4218.461435,4214.358871,4227.179384,4221.538358,4221.538358,4229.230666,4240.512717,4247.179383,4296.922972,4319.487074
9,0,4313.846048,4282.051177,4232.307589,4245.640922,4197.435795,4206.666564,4211.794769,4209.230666,4209.230666,4194.358872,4225.128102,4235.384512,4283.589639,4313.846048
10,0,4328.717843,4288.717844,4241.538358,4252.820409,4196.922974,4207.692205,4207.179384,4209.230666,4211.281948,4190.769128,4228.205025,4241.538358,4287.692203,4319.487074
11,0,4345.640919,4293.333228,4248.717845,4256.410152,4207.179384,4208.205025,4205.128102,4211.281948,4218.974256,4214.358871,4236.410153,4253.333229,4298.974254,4338.461432
12,0,4350.256304,4302.563997,4249.230665,4258.461434,4213.846051,4211.794769,4207.692205,4209.743487,4216.410153,4224.102461,4238.974255,4257.435793,4296.410151,4351.281945
13,0,4324.102458,4291.794767,4237.435794,4253.84605,4200.512718,4206.666564,4197.948615,4201.538359,4202.051179,4198.974256,4226.666563,4241.538358,4276.410152,4327.692202
14,0,4305.64092,4277.948613,4233.84605,4251.794768,4199.487077,4202.564,4189.743487,4198.461436,4199.487077,4186.153744,4218.461435,4232.307589,4261.538357,4296.410151
15,0,4304.615279,4273.333229,4238.974255,4248.205024,4220.512717,4213.33323,4198.974256,4207.692205,4207.179384,4205.640923,4221.538358,4238.461435,4256.922973,4288.205023
16,0,4297.948613,4268.717844,4239.487076,4249.743486,4234.358871,4223.07682,4216.922974,4219.487076,4211.794769,4221.538358,4229.230666,4240.512717,4258.974255,4292.820408
17,0,4285.1281,4257.435793,4231.794768,4251.281947,4220.512717,4216.922974,4218.461435,4219.487076,4207.179384,4212.82041,4225.128102,4232.307589,4255.384511,4278.974254
18,0,4282.051177,4253.84605,4233.33323,4250.769127,4215.384512,4218.974256,4215.384512,4214.358871,4206.666564,4213.33323,4223.58964,4231.281948,4249.743486,4266.153742
19,0,4276.410152,4252.307588,4236.922973,4246.666563,4225.640922,4224.102461,4217.948615,4211.794769,4206.666564,4228.717845,4228.717845,4230.256307,4248.205024,4264.61528
20,0,4265.128101,4242.051178,4228.717845,4243.58964,4220.512717,4216.922974,4218.974256,4213.846051,4210.256307,4229.230666,4227.179384,4223.58964,4244.615281,4250.256306
21,0,4262.563998,4234.871691,4228.205025,4242.563999,4213.33323,4214.871692,4218.974256,4218.461435,4214.871692,4223.07682,4226.153743,4231.794768,4238.974255,4241.025537
22,0,4259.487075,4235.897332,4239.487076,4242.051178,4221.025538,4219.999897,4222.051179,4216.922974,4211.281948,4224.615281,4230.769127,4239.487076,4236.922973,4247.179383
23,0,4255.384511,4240.512717,4244.615281,4245.640922,4223.58964,4220.512717,4229.743486,4215.384512,4211.794769,4222.563999,4231.281948,4237.948614,4237.948614,4247.179383
24,0,4253.333229,4239.487076,4241.025537,4245.640922,4214.871692,4219.487076,4227.692204,4217.435794,4220.512717,4216.922974,4224.102461,4233.33323,4233.84605,4231.794768
25,0,4258.461434,4244.10246,4242.563999,4244.10246,4228.717845,4222.563999,4227.692204,4221.025538,4226.153743,4226.666563,4225.640922,4235.384512,4230.256307,4229.743486
26,0,4255.897332,4237.948614,4238.461435,4236.922973,4245.640922,4223.58964,4227.692204,4217.435794,4222.051179,4228.717845,4223.58964,4226.666563,4224.615281,4226.666563
27,0,4243.58964,4224.102461,4230.769127,4231.281948,4234.358871,4223.58964,4224.615281,4216.922974,4224.102461,4225.128102,4218.974256,4215.384512,4221.025538,4214.871692
28,0,4220.512717,4211.281948,4218.461435,4223.58964,4212.82041,4218.461435,4214.871692,4213.846051,4221.538358,4216.410153,4213.846051,4202.564,4212.82041,4196.922974
29,0,4221.538358,4217.948615,4219.999897,4227.692204,4228.717845,4222.563999,4224.102461,4214.358871,4221.025538,4219.999897,4217.435794,4205.128102,4212.82041,4194.871692
30,0,4230.769127,4219.487076,4221.538358,4230.769127,4244.615281,4226.153743,4232.307589,4216.922974,4220.512717,4219.487076,4216.410153,4206.153743,4213.846051,4196.922974
31,0,4220.512717,4214.871692,4216.410153,4227.179384,4231.794768,4223.07682,4231.281948,4220.512717,4218.974256,4216.922974,4214.871692,4198.974256,4210.769128,4191.281949
32,0,4197.948615,4204.102461,4203.07682,4216.922974,4215.384512,4217.435794,4219.999897,4213.846051,4213.33323,4211.794769,4206.666564,4184.615282,4197.948615,4176.922975
33,0,4204.615282,4204.102461,4207.179384,4218.974256,4221.025538,4219.487076,4214.358871,4209.743487,4211.281948,4206.153743,4204.615282,4186.153744,4194.358872,4180.512718
34,0,4218.461435,4211.794769,4216.410153,4224.615281,4230.256307,4219.999897,4212.307589,4214.358871,4210.769128,4198.461436,4207.692205,4191.281949,4198.974256,4188.717846
35,0,4210.769128,4214.871692,4214.358871,4226.153743,4230.256307,4218.461435,4213.846051,4215.897333,4215.384512,4195.384513,4208.717846,4189.743487,4198.974256,4185.640923
36,0,4206.153743,4213.846051,4215.384512,4228.717845,4221.538358,4218.974256,4217.948615,4214.871692,4220.512717,4202.051179,4209.743487,4195.897333,4196.410154,4184.615282
37,0,4215.384512,4214.871692,4223.58964,4228.717845,4216.922974,4219.487076,4221.538358,4214.871692,4222.051179,4213.846051,4211.794769,4202.564,4196.922974,4190.256308
38,0,4219.999897,4208.717846,4224.615281,4223.07682,4224.615281,4216.922974,4219.999897,4216.922974,4222.563999,4219.999897,4210.256307,4197.948615,4200.512718,4192.30759
39,0,4210.769128,4198.974256,4217.948615,4218.461435,4223.58964,4216.922974,4219.999897,4218.974256,4222.051179,4214.358871,4208.205025,4197.948615,4199.999897,4185.128103
40,0,4204.615282,4199.999897,4217.435794,4220.512717,4208.205025,4218.461435,4228.205025,4219.999897,4219.999897,4207.692205,4210.769128,4206.666564,4196.410154,4180.512718
41,0,4203.07682,4192.30759,4212.307589,4212.82041,4202.564,4215.897333,4224.615281,4212.82041,4215.384512,4190.769128,4205.640923,4198.461436,4192.30759,4182.564
42,0,4205.640923,4184.615282,4206.153743,4205.128102,4213.846051,4215.384512,4217.435794,4209.743487,4213.33323,4180.512718,4202.564,4188.717846,4194.358872,4185.640923
43,0,4201.025538,4189.743487,4207.179384,4206.153743,4211.281948,4214.871692,4208.717846,4207.179384,4208.717846,4189.230667,4202.051179,4189.230667,4191.794769,4171.281949
44,0,4203.589641,4206.153743,4216.922974,4218.461435,4211.794769,4214.871692,4209.230666,4207.179384,4210.769128,4211.281948,4205.128102,4198.461436,4192.30759,4168.717847
45,0,4210.256307,4205.640923,4215.384512,4218.461435,4212.307589,4215.384512,4204.615282,4208.205025,4213.33323,4210.256307,4205.128102,4193.846051,4192.82041,4178.461436
46,0,4205.640923,4198.461436,4210.769128,4211.794769,4206.666564,4217.435794,4199.999897,4206.666564,4210.256307,4199.487077,4205.640923,4184.615282,4192.30759,4183.076821
47,0,4197.948615,4194.871692,4208.717846,4210.256307,4207.692205,4215.384512,4202.564,4206.153743,4202.051179,4188.717846,4204.102461,4183.589641,4190.256308,4179.999898
48,0,4211.281948,4207.692205,4214.358871,4221.025538,4225.128102,4219.487076,4218.461435,4214.871692,4204.615282,4190.256308,4208.717846,4190.769128,4194.871692,4187.692205
49,0,4210.256307,4210.769128,4213.33323,4222.051179,4224.615281,4221.538358,4222.051179,4216.922974,4208.717846,4195.384513,4207.692205,4186.666564,4194.358872,4182.05118
50,0,4202.051179,4209.743487,4215.897333,4220.512717,4213.33323,4221.025538,4225.640922,4216.410153,4214.358871,4199.999897,4212.82041,4194.358872,4196.922974,4176.922975
51,0,4209.743487,4212.307589,4220.512717,4223.07682,4200.512718,4218.974256,4229.743486,4217.948615,4217.948615,4201.025538,4219.487076,4204.615282,4201.538359,4191.281949
52,0,4217.948615,4213.846051,4219.999897,4223.58964,4202.051179,4219.999897,4235.384512,4220.512717,4217.948615,4210.256307,4218.461435,4205.128102,4199.487077,4200.512718
53,0,4210.769128,4211.281948,4214.871692,4216.410153,4212.307589,4219.487076,4235.897332,4219.487076,4213.846051,4216.410153,4212.82041,4204.615282,4197.435795,4189.230667
54,0,4212.307589,4219.487076,4218.461435,4217.435794,4221.025538,4223.07682,4235.897332,4218.974256,4216.922974,4216.922974,4217.435794,4214.358871,4205.640923,4195.897333
55,0,4214.358871,4222.051179,4219.999897,4217.948615,4224.102461,4225.128102,4237.435794,4219.999897,4223.07682,4215.384512,4219.999897,4216.922974,4211.281948,4209.743487
56,0,4210.256307,4211.794769,4214.358871,4216.410153,4219.999897,4223.07682,4239.999896,4224.615281,4222.563999,4214.871692,4213.846051,4209.230666,4207.692205,4202.051179
57,0,4214.871692,4212.307589,4213.846051,4220.512717,4216.922974,4225.640922,4242.051178,4229.230666,4222.051179,4219.999897,4212.307589,4205.128102,4204.102461,4195.897333
58,0,4210.769128,4222.051179,4214.871692,4221.025538,4220.512717,4230.256307,4238.461435,4222.563999,4223.58964,4213.33323,4214.358871,4203.589641,4203.07682,4198.461436
59,0,4205.128102,4226.153743,4214.358871,4223.58964,4223.58964,4228.205025,4232.820409,4216.410153,4220.512717,4199.999897,4213.33323,4203.589641,4205.640923,4196.922974
60,0,4209.743487,4222.051179,4212.82041,4229.743486,4218.461435,4224.102461,4227.692204,4213.33323,4210.256307,4201.025538,4207.692205,4201.538359,4203.589641,4195.897333
61,0,4218.461435,4226.666563,4219.487076,4233.33323,4229.743486,4227.179384,4237.435794,4216.922974,4211.281948,4222.051179,4210.256307,4205.640923,4204.102461,4199.487077
62,0,4216.410153,4225.640922,4223.07682,4227.692204,4230.769127,4223.58964,4235.384512,4218.974256,4216.410153,4216.922974,4211.794769,4206.666564,4206.666564,4192.30759
63,0,4230.769127,4228.717845,4232.307589,4236.410153,4218.974256,4224.102461,4233.33323,4225.640922,4222.051179,4210.769128,4218.974256,4216.410153,4213.33323,4201.025538
64,0,4230.256307,4226.153743,4232.820409,4237.948614,4219.487076,4226.666563,4237.948614,4229.230666,4221.538358,4220.512717,4219.487076,4219.487076,4210.769128,4213.33323
65,0,4211.281948,4221.025538,4226.666563,4232.820409,4224.615281,4222.051179,4237.435794,4227.692204,4218.974256,4226.666563,4215.897333,4215.384512,4207.692205,4216.922974
66,0,4205.128102,4215.384512,4221.025538,4228.717845,4216.410153,4218.461435,4226.666563,4224.615281,4216.922974,4218.974256,4214.358871,4210.769128,4209.743487,4210.769128
67,0,4219.999897,4221.025538,4227.692204,4233.84605,4224.102461,4227.692204,4233.84605,4228.205025,4223.58964,4221.025538,4221.025538,4219.999897,4215.384512,4207.179384
68,0,4218.461435,4221.538358,4224.615281,4232.820409,4234.358871,4228.205025,4236.922973,4225.640922,4219.999897,4219.487076,4213.846051,4215.897333,4209.743487,4200.512718
69,0,4210.256307,4222.563999,4219.999897,4230.769127,4233.84605,4226.153743,4237.948614,4223.58964,4216.410153,4222.051179,4208.717846,4205.640923,4206.666564,4204.102461
70,0,4213.33323,4222.051179,4226.153743,4231.281948,4224.615281,4229.743486,4243.076819,4228.205025,4221.025538,4228.717845,4217.948615,4210.256307,4213.846051,4215.897333
71,0,4222.563999,4225.640922,4234.871691,4235.897332,4229.743486,4231.281948,4246.153742,4230.256307,4225.640922,4229.743486,4226.666563,4223.07682,4221.538358,4217.435794
72,0,4218.461435,4228.717845,4228.205025,4234.358871,4235.384512,4226.153743,4237.948614,4223.58964,4220.512717,4225.640922,4219.487076,4219.999897,4217.435794,4201.025538
73,0,4213.33323,4225.640922,4224.615281,4228.205025,4234.358871,4224.615281,4235.384512,4222.563999,4219.487076,4236.922973,4218.461435,4210.769128,4214.358871,4198.974256
74,0,4219.999897,4226.666563,4230.769127,4233.84605,4222.563999,4222.563999,4236.922973,4228.717845,4221.538358,4243.076819,4227.179384,4212.82041,4219.487076,4216.410153
75,0,4223.58964,4233.84605,4230.769127,4242.051178,4211.281948,4216.410153,4233.84605,4225.640922,4217.948615,4226.153743,4225.640922,4218.461435,4220.512717,4215.384512
76,0,4213.846051,4228.717845,4224.615281,4234.358871,4224.615281,4217.435794,4235.897332,4222.051179,4218.974256,4225.640922,4217.948615,4218.461435,4216.922974,4208.205025
77,0,4205.128102,4213.846051,4219.999897,4221.538358,4232.820409,4222.051179,4231.281948,4222.563999,4221.025538,4229.230666,4213.33323,4210.769128,4213.33323,4210.256307
78,0,4210.769128,4219.999897,4225.128102,4228.205025,4229.230666,4222.051179,4230.256307,4222.051179,4220.512717,4219.999897,4215.384512,4213.846051,4213.33323,4209.743487
79,0,4211.794769,4225.640922,4226.666563,4232.307589,4219.487076,4215.384512,4231.281948,4215.897333,4214.358871,4211.281948,4212.82041,4218.974256,4209.743487,4198.974256
80,0,4215.384512,4220.512717,4227.179384,4233.33323,4216.922974,4214.871692,4233.33323,4216.922974,4215.897333,4222.051179,4213.846051,4216.922974,4210.769128,4210.256307
81,0,4210.769128,4210.256307,4224.615281,4230.769127,4227.179384,4223.07682,4236.922973,4223.07682,4220.512717,4223.58964,4213.846051,4209.743487,4206.666564,4209.230666
82,0,4209.743487,4219.999897,4230.769127,4233.84605,4242.051178,4230.769127,4248.717845,4229.743486,4224.615281,4216.922974,4223.07682,4218.974256,4208.717846,4202.051179
83,0,4219.487076,4228.717845,4232.820409,4236.410153,4232.820409,4223.58964,4243.58964,4229.230666,4221.025538,4214.358871,4229.743486,4225.640922,4221.025538,4222.563999
84,0,4236.410153,4229.743486,4231.794768,4238.974255,4224.102461,4216.922974,4239.487076,4230.769127,4221.538358,4231.281948,4233.84605,4227.179384,4236.410153,4253.333229
85,0,4236.410153,4221.538358,4230.256307,4230.769127,4227.692204,4219.999897,4243.58964,4231.794768,4222.051179,4244.615281,4229.743486,4227.179384,4235.384512,4244.615281
86,0,4233.84605,4229.230666,4238.974255,4235.384512,4225.640922,4225.128102,4244.10246,4232.820409,4223.58964,4240.512717,4227.692204,4235.897332,4228.205025,4231.281948
87,0,4234.871691,4235.384512,4241.025537,4242.563999,4218.974256,4217.948615,4236.922973,4229.743486,4221.538358,4231.281948,4225.128102,4239.487076,4223.58964,4235.384512
88,0,4232.307589,4223.58964,4231.281948,4236.410153,4225.640922,4214.871692,4241.538358,4226.666563,4218.461435,4230.256307,4221.538358,4231.794768,4223.07682,4233.84605
89,0,4227.179384,4217.435794,4226.153743,4230.769127,4220.512717,4216.410153,4236.922973,4222.051179,4216.922974,4223.58964,4215.897333,4223.07682,4218.974256,4225.640922
90,0,4237.948614,4243.58964,4243.58964,4248.205024,4222.563999,4221.025538,4237.948614,4228.205025,4226.153743,4230.769127,4224.615281,4234.871691,4223.58964,4236.922973
91,0,4239.999896,4254.35887,4246.666563,4253.84605,4235.384512,4222.051179,4246.153742,4233.84605,4230.769127,4243.076819,4232.820409,4242.563999,4229.743486,4241.025537
92,0,4226.666563,4227.692204,4226.153743,4234.871691,4233.84605,4219.999897,4237.948614,4228.205025,4224.615281,4235.384512,4225.640922,4228.717845,4219.999897,4220.512717
93,0,4222.563999,4214.358871,4222.051179,4223.07682,4230.769127,4216.922974,4224.102461,4223.07682,4222.051179,4229.743486,4217.435794,4220.512717,4209.743487,4213.33323
94,0,4217.435794,4218.974256,4228.205025,4223.07682,4231.794768,4215.384512,4219.999897,4218.461435,4221.538358,4227.179384,4215.897333,4218.974256,4208.205025,4215.384512
95,0,4213.846051,4224.102461,4227.692204,4228.205025,4224.102461,4220.512717,4227.692204,4219.487076,4219.487076,4224.102461,4216.922974,4215.897333,4209.230666,4210.769128
96,0,4219.487076,4232.307589,4220.512717,4231.281948,4215.897333,4218.461435,4225.128102,4222.563999,4217.948615,4215.384512,4214.871692,4211.794769,4204.615282,4208.717846
97,0,4222.051179,4241.025537,4220.512717,4227.692204,4218.974256,4213.33323,4218.974256,4222.051179,4217.435794,4214.871692,4214.871692,4213.846051,4204.615282,4213.33323
98,0,4214.358871,4235.384512,4225.128102,4221.538358,4209.743487,4214.871692,4221.538358,4215.897333,4214.358871,4217.435794,4216.922974,4216.922974,4207.692205,4211.281948
99,0,4227.692204,4240.512717,4239.487076,4230.769127,4209.743487,4218.974256,4235.384512,4218.974256,4216.410153,4220.512717,4223.58964,4228.205025,4212.307589,4223.07682
100,0,4233.33323,4243.076819,4236.922973,4232.307589,4224.615281,4219.487076,4230.256307,4222.563999,4214.871692,4216.922974,4222.563999,4225.640922,4208.717846,4226.666563
101,0,4222.051179,4244.10246,4229.230666,4228.205025,4240.512717,4223.58964,4228.717845,4223.58964,4213.846051,4227.179384,4223.58964,4221.025538,4208.205025,4220.512717
102,0,4218.974256,4243.076819,4225.640922,4222.563999,4236.410153,4219.487076,4231.794768,4218.974256,4211.794769,4228.205025,4219.999897,4216.410153,4210.769128,4216.922974
103,0,4226.153743,4241.025537,4224.615281,4219.487076,4226.153743,4215.897333,4233.33323,4218.974256,4212.307589,4217.435794,4219.487076,4218.461435,4213.33323,4224.102461
104,0,4212.307589,4224.615281,4219.999897,4211.794769,4216.410153,4211.794769,4223.07682,4220.512717,4209.230666,4207.179384,4214.871692,4214.358871,4201.538359,4212.307589
105,0,4192.30759,4211.281948,4212.307589,4203.589641,4213.846051,4199.999897,4197.435795,4209.743487,4201.538359,4197.948615,4197.948615,4198.461436,4181.538359,4186.153744
106,0,4207.179384,4227.179384,4214.871692,4207.179384,4212.82041,4205.128102,4200.512718,4209.230666,4206.666564,4206.153743,4202.564,4200.512718,4190.256308,4193.333231
107,0,4251.794768,4265.128101,4239.487076,4228.205025,4222.563999,4227.179384,4242.051178,4231.794768,4225.640922,4243.076819,4239.487076,4237.948614,4232.820409,4249.230665
108,0,4247.179383,4258.974255,4226.666563,4218.974256,4222.051179,4209.743487,4214.871692,4219.487076,4212.307589,4225.640922,4228.717845,4227.692204,4227.692204,4255.897332
109,0,4225.128102,4250.256306,4211.794769,4211.794769,4219.999897,4196.922974,4180.512718,4199.487077,4197.948615,4187.692205,4207.179384,4205.128102,4204.615282,4228.205025
110,0,4246.153742,4278.974254,4243.076819,4235.384512,4231.281948,4221.025538,4222.563999,4220.512717,4216.922974,4213.33323,4231.281948,4236.922973,4226.153743,4245.128101
111,0,4230.256307,4250.256306,4228.717845,4208.717846,4216.410153,4206.666564,4212.307589,4216.410153,4206.666564,4211.794769,4219.999897,4225.128102,4217.948615,4234.358871
112,0,4166.666565,4173.846052,4157.948616,4143.076822,4173.846052,4162.564001,4130.256309,4169.230667,4167.692206,4149.743488,4166.666565,4154.358873,4169.743488,4170.769129
113,0,4143.589642,4152.307591,4133.846053,4129.743489,4149.230668,4155.897334,4102.564002,4152.820411,4159.487078,4117.435797,4156.410155,4130.256309,4153.846052,4141.02554
114,0,4169.743488,4186.153744,4169.743488,4154.871693,4162.05118,4176.410154,4132.820412,4177.435795,4176.410154,4145.128104,4187.179385,4162.05118,4178.974257,4172.30759
115,0,4167.692206,4186.153744,4169.743488,4143.589642,4173.846052,4179.487077,4132.307591,4177.948616,4177.435795,4157.435796,4190.769128,4163.076821,4186.153744,4181.538359
116,0,4146.153745,4161.53836,4139.999899,4129.743489,4173.333231,4167.692206,4111.794771,4166.153744,4172.820411,4143.076822,4176.922975,4146.666565,4173.333231,4158.461437
117,0,4131.28195,4147.179386,4123.589643,4126.153745,4162.05118,4156.922975,4090.769131,4158.461437,4163.076821,4122.564002,4160.512719,4130.256309,4154.358873,4130.76913
118,0,4138.974258,4160.512719,4133.846053,4130.256309,4157.435796,4168.205026,4106.666566,4158.461437,4163.589642,4130.256309,4165.128103,4130.256309,4154.871693,4138.974258
119,0,4143.076822,4163.076821,4133.333232,4131.794771,4153.846052,4172.820411,4121.02554,4153.846052,4166.153744,4136.922976,4171.79477,4130.256309,4163.076821,4146.153745
120,0,4134.871694,4150.256309,4123.076822,4130.256309,4166.153744,4167.179385,4110.25631,4150.769129,4164.615283,4128.205027,4165.128103,4119.487079,4158.461437,4133.846053
121,0,4138.974258,4154.871693,4132.307591,4132.820412,4190.769128,4173.846052,4114.871694,4158.461437,4165.640924,4130.76913,4164.615283,4122.051181,4155.384514,4135.897335
122,0,4146.666565,4163.076821,4139.487078,4143.076822,4193.846051,4177.435795,4125.640925,4160.512719,4164.102462,4131.28195,4167.692206,4130.76913,4156.922975,4141.02554
123,0,4133.333232,4144.615283,4125.128104,4137.948617,4174.358872,4176.410154,4114.358874,4152.820411,4156.922975,4113.333233,4163.589642,4125.128104,4150.256309,4129.230668
124,0,4143.076822,4145.640924,4134.358873,4141.53836,4183.589641,4199.999897,4130.256309,4163.589642,4168.205026,4134.871694,4179.487077,4141.02554,4159.999898,4144.615283
125,0,4161.025539,4156.922975,4152.307591,4155.897334,4201.538359,4209.230666,4148.717847,4174.358872,4176.922975,4165.128103,4187.692205,4152.820411,4169.230667,4156.922975
126,0,4142.051181,4141.53836,4137.948617,4142.564001,4184.615282,4183.076821,4113.333233,4160.512719,4162.05118,4143.589642,4166.153744,4129.743489,4156.922975,4135.897335
127,0,4133.333232,4136.410155,4128.717848,4130.76913,4167.179385,4182.564,4094.358874,4151.28195,4160.512719,4117.435797,4166.153744,4124.102463,4152.820411,4131.28195
128,0,4194.871692,4193.333231,4189.743487,4188.205026,4212.307589,4224.102461,4169.230667,4185.128103,4197.948615,4173.846052,4213.846051,4186.153744,4192.30759,4183.589641
0,0,4229.743486,4225.128102,4229.743486,4229.743486,4265.128101,4227.179384,4209.230666,4207.179384,4214.358871,4228.205025,4223.07682,4218.974256,4211.794769,4210.256307
1,0,4181.025539,4173.846052,4178.974257,4185.128103,4254.35887,4196.922974,4154.358873,4181.025539,4187.179385,4194.871692,4182.564,4170.769129,4181.025539,4175.897334
2,0,4172.820411,4156.922975,4162.564001,4168.717847,4239.999896,4212.307589,4153.846052,4174.358872,4184.615282,4180.512718,4183.589641,4156.922975,4174.358872,4168.205026
3,0,4228.205025,4204.102461,4224.102461,4219.999897,4255.384511,4245.128101,4233.33323,4207.692205,4212.307589,4223.58964,4219.487076,4206.666564,4207.179384,4215.384512
4,0,4232.820409,4209.743487,4231.281948,4226.666563,4244.10246,4226.153743,4237.435794,4213.846051,4208.205025,4222.051179,4211.794769,4215.897333,4210.769128,4231.281948
5,0,4182.564,4154.871693,4166.666565,4179.487077,4211.794769,4194.871692,4153.333232,4177.948616,4176.922975,4168.717847,4168.717847,4159.999898,4175.897334,4182.05118
6,0,4185.640923,4148.205027,4162.564001,4177.948616,4237.435794,4207.692205,4139.999899,4173.846052,4183.589641,4173.846052,4174.358872,4155.897334,4176.410154,4172.30759
7,0,4212.307589,4177.948616,4197.948615,4198.461436,4266.153742,4220.512717,4185.128103,4196.410154,4204.102461,4212.307589,4208.205025,4199.999897,4202.564,4215.384512
8,0,4207.179384,4174.358872,4195.384513,4193.846051,4251.281947,4214.358871,4188.717846,4194.358872,4194.871692,4217.435794,4208.717846,4206.153743,4206.153743,4228.717845
9,0,4203.07682,4153.846052,4183.589641,4183.076821,4243.076819,4210.256307,4167.179385,4183.589641,4182.564,4204.102461,4194.358872,4187.179385,4196.922974,4211.281948
10,0,4239.487076,4178.461436,4219.999897,4209.230666,4264.61528,4223.07682,4204.102461,4204.102461,4205.640923,4225.640922,4223.07682,4222.563999,4216.922974,4244.615281
11,0,4247.692204,4184.615282,4231.794768,4217.948615,4248.717845,4218.461435,4215.384512,4204.615282,4204.102461,4216.922974,4224.615281,4234.871691,4218.461435,4252.307588
12,0,4206.666564,4146.666565,4186.666564,4187.692205,4230.769127,4197.948615,4160.512719,4174.871693,4172.820411,4165.640924,4176.410154,4179.487077,4180.512718,4198.974256
13,0,4182.05118,4127.692207,4155.384514,4168.717847,4259.999896,4195.897333,4137.435796,4167.179385,4171.79477,4163.589642,4168.205026,4151.28195,4166.666565,4176.410154
14,0,4219.487076,4163.589642,4192.82041,4202.051179,4281.538357,4221.025538,4186.153744,4190.769128,4199.487077,4219.999897,4214.358871,4197.948615,4202.051179,4219.487076
15,0,4244.615281,4186.153744,4223.58964,4224.615281,4264.61528,4221.538358,4207.692205,4201.538359,4204.102461,4233.84605,4216.922974,4220.512717,4214.871692,4236.922973
16,0,4212.82041,4161.53836,4195.897333,4198.461436,4248.717845,4197.948615,4172.820411,4189.230667,4186.153744,4191.794769,4181.025539,4188.205026,4186.666564,4207.179384
17,0,4204.615282,4150.256309,4187.692205,4192.82041,4244.10246,4201.538359,4172.30759,4186.153744,4187.692205,4186.153744,4191.794769,4186.153744,4188.205026,4206.153743
18,0,4230.769127,4167.692206,4214.871692,4215.897333,4247.179383,4217.948615,4205.128102,4192.82041,4202.564,4226.666563,4215.897333,4208.205025,4213.846051,4223.58964
19,0,4216.410153,4155.897334,4199.999897,4201.025538,4250.769127,4196.410154,4183.589641,4186.153744,4199.999897,4230.256307,4196.410154,4190.256308,4203.07682,4211.281948
20,0,4177.435795,4121.02554,4157.435796,4168.717847,4241.025537,4194.871692,4141.02554,4174.358872,4185.128103,4187.179385,4176.410154,4155.384514,4179.999898,4184.615282
21,0,4179.999898,4120.51272,4166.666565,4175.384513,4232.307589,4259.999896,4152.307591,4182.05118,4190.769128,4184.615282,4192.82041,4164.615283,4189.230667,4185.128103
22,0,4197.435795,4127.179386,4191.281949,4188.205026,4228.717845,4301.025536,4173.333231,4188.717846,4202.051179,4209.230666,4200.512718,4183.589641,4194.871692,4195.897333
23,0,4204.102461,4126.666566,4189.743487,4187.692205,4234.358871,4270.769126,4172.30759,4189.230667,4202.564,4207.179384,4196.410154,4184.615282,4192.30759,4204.102461
24,0,4193.846051,4125.640925,4175.897334,4184.102462,4245.128101,4232.820409,4165.640924,4191.794769,4198.974256,4199.999897,4194.358872,4178.461436,4193.333231,4200.512718
25,0,4202.564,4144.615283,4189.230667,4198.974256,4257.948614,4229.230666,4190.769128,4205.128102,4207.179384,4225.128102,4206.666564,4193.333231,4202.564,4209.230666
26,0,4206.666564,4143.076822,4191.281949,4202.051179,4238.974255,4213.846051,4191.281949,4201.538359,4201.025538,4213.33323,4199.487077,4189.230667,4196.922974,4203.589641
27,0,4184.615282,4116.922976,4167.179385,4180.512718,4222.051179,4188.205026,4158.974257,4178.461436,4181.538359,4184.102462,4177.435795,4158.974257,4182.564,4174.871693
28,0,4172.30759,4109.743489,4161.025539,4166.666565,4230.769127,4179.999898,4150.769129,4171.281949,4175.897334,4186.666564,4172.820411,4149.230668,4185.128103,4172.30759
29,0,4203.07682,4140.512719,4195.384513,4189.743487,4245.128101,4187.179385,4189.230667,4193.846051,4193.333231,4203.07682,4202.051179,4183.589641,4217.435794,4219.999897
30,0,4207.179384,4138.974258,4182.564,4188.205026,4233.33323,4177.948616,4179.487077,4191.281949,4183.076821,4178.974257,4201.538359,4183.589641,4227.179384,4219.999897
31,0,4213.33323,4139.999899,4174.871693,4185.128103,4214.871692,4169.743488,4166.666565,4183.589641,4173.846052,4180.512718,4195.384513,4180.512718,4230.256307,4212.307589
32,0,4274.35887,4191.794769,4236.922973,4223.58964,4216.410153,4182.564,4219.487076,4206.153743,4197.435795,4220.512717,4227.179384,4229.230666,4268.717844,4281.538357
33,0,4290.769126,4206.666564,4236.410153,4225.128102,4234.358871,4183.076821,4213.33323,4202.564,4195.384513,4202.051179,4228.205025,4232.820409,4281.538357,4314.871689
34,0,4253.333229,4168.717847,4170.256308,4187.692205,4238.461435,4169.743488,4146.666565,4169.743488,4168.717847,4164.102462,4190.769128,4182.564,4252.820409,4265.128101
35,0,4257.435793,4166.666565,4176.922975,4191.281949,4227.179384,4174.358872,4149.743488,4168.717847,4170.256308,4175.384513,4189.230667,4184.102462,4244.10246,4254.35887
36,0,4283.076818,4189.743487,4215.384512,4215.384512,4215.384512,4179.487077,4179.999898,4185.128103,4182.05118,4186.153744,4209.743487,4216.922974,4257.435793,4289.743485
37,0,4273.333229,4189.230667,4198.974256,4206.666564,4207.692205,4172.820411,4161.53836,4181.025539,4179.999898,4170.769129,4207.179384,4210.256307,4254.871691,4290.256305
38,0,4251.794768,4174.871693,4179.487077,4191.794769,4205.640923,4172.820411,4141.53836,4172.820411,4179.487077,4172.30759,4195.897333,4194.358872,4243.58964,4266.153742
39,0,4261.538357,4180.512718,4206.153743,4207.179384,4214.358871,4185.128103,4171.79477,4184.615282,4189.743487,4195.384513,4205.640923,4204.615282,4248.205024,4268.717844
40,0,4265.640921,4187.179385,4217.435794,4218.974256,4214.871692,4185.128103,4193.846051,4195.897333,4196.922974,4205.640923,4213.846051,4202.564,4250.769127,4273.333229
41,0,4226.153743,4156.922975,4179.487077,4190.769128,4199.999897,4170.769129,4165.640924,4184.102462,4187.179385,4184.615282,4196.922974,4176.410154,4228.717845,4239.999896
42,0,4198.461436,4134.871694,4162.05118,4167.692206,4216.922974,4173.846052,4155.384514,4178.974257,4181.025539,4173.846052,4186.666564,4174.358872,4214.871692,4213.33323
43,0,4214.871692,4147.692206,4191.794769,4184.102462,4225.128102,4187.692205,4183.589641,4194.358872,4193.846051,4192.30759,4202.051179,4196.922974,4227.179384,4225.640922
44,0,4227.179384,4158.974257,4207.179384,4205.128102,4202.051179,4188.717846,4193.333231,4197.948615,4206.666564,4212.307589,4212.307589,4210.256307,4235.384512,4239.999896
45,0,4198.461436,4131.794771,4174.358872,4187.179385,4191.281949,4175.384513,4160.512719,4179.487077,4193.846051,4194.871692,4191.281949,4187.692205,4215.897333,4205.640923
46,0,4197.435795,4134.871694,4183.589641,4190.256308,4205.640923,4183.589641,4173.333231,4189.230667,4198.974256,4198.974256,4194.871692,4191.281949,4217.435794,4199.487077
47,0,4212.307589,4148.717847,4205.128102,4200.512718,4199.487077,4189.230667,4194.871692,4201.025538,4208.205025,4210.256307,4205.128102,4208.717846,4224.615281,4218.461435
48,0,4201.538359,4132.307591,4192.82041,4186.153744,4199.999897,4180.512718,4181.538359,4190.769128,4198.974256,4197.435795,4194.358872,4200.512718,4214.871692,4205.640923
49,0,4177.948616,4111.794771,4178.461436,4170.769129,4211.794769,4174.358872,4171.79477,4185.640923,4191.281949,4183.589641,4184.615282,4179.999898,4202.051179,4179.999898
50,0,4170.256308,4115.384515,4183.076821,4175.384513,4195.384513,4175.384513,4181.025539,4191.281949,4193.846051,4181.538359,4189.230667,4179.999898,4197.948615,4179.487077
51,0,4175.897334,4125.128104,4188.717846,4178.974257,4179.487077,4176.922975,4184.102462,4191.794769,4193.846051,4188.205026,4193.333231,4191.794769,4197.435795,4186.153744
52,0,4186.666564,4134.358873,4198.974256,4182.564,4194.871692,4185.128103,4198.974256,4201.025538,4200.512718,4207.692205,4205.640923,4204.615282,4206.666564,4192.30759
53,0,4184.102462,4129.743489,4201.025538,4184.102462,4188.717846,4183.076821,4204.102461,4208.717846,4204.615282,4208.205025,4207.692205,4207.692205,4208.205025,4196.410154
54,0,4167.179385,4115.897335,4185.640923,4177.435795,4175.897334,4171.79477,4182.05118,4194.358872,4194.358872,4188.205026,4193.333231,4195.384513,4196.410154,4184.615282
55,0,4171.281949,4122.051181,4185.640923,4182.05118,4195.897333,4171.79477,4182.05118,4190.769128,4194.358872,4194.358872,4194.871692,4197.435795,4199.487077,4176.410154
56,0,4182.05118,4130.256309,4194.871692,4182.564,4202.051179,4176.922975,4192.30759,4198.461436,4199.999897,4201.025538,4203.07682,4202.051179,4205.640923,4178.974257
57,0,4172.820411,4123.076822,4188.205026,4173.846052,4183.076821,4178.461436,4185.128103,4195.897333,4195.897333,4186.153744,4194.358872,4191.281949,4197.948615,4182.564
58,0,4163.076821,4122.564002,4185.128103,4176.922975,4179.999898,4184.102462,4187.692205,4193.333231,4197.948615,4186.153744,4188.205026,4186.666564,4190.769128,4177.435795
59,0,4173.333231,4136.922976,4195.897333,4185.128103,4197.435795,4192.30759,4203.07682,4200.512718,4203.589641,4199.487077,4192.82041,4197.948615,4191.794769,4165.128103
60,0,4175.384513,4142.051181,4196.410154,4181.025539,4193.846051,4190.769128,4200.512718,4200.512718,4201.025538,4191.794769,4190.256308,4194.871692,4190.256308,4161.53836
61,0,4178.461436,4149.743488,4201.025538,4188.717846,4180.512718,4187.179385,4201.025538,4204.102461,4206.666564,4191.281949,4191.281949,4193.846051,4196.922974,4178.461436
62,0,4163.589642,4138.974258,4187.179385,4176.410154,4174.871693,4181.025539,4183.589641,4195.897333,4197.435795,4172.820411,4178.974257,4179.487077,4185.128103,4156.922975
63,0,4165.640924,4142.564001,4187.692205,4173.846052,4188.205026,4190.256308,4188.205026,4191.794769,4196.410154,4174.871693,4183.589641,4178.461436,4179.999898,4149.230668
64,0,4194.871692,4161.53836,4214.358871,4197.948615,4196.922974,4203.07682,4223.58964,4208.205025,4214.358871,4210.256307,4204.102461,4202.051179,4198.974256,4179.999898
65,0,4187.692205,4150.769129,4208.717846,4191.281949,4190.256308,4195.384513,4218.461435,4211.794769,4214.871692,4204.102461,4196.922974,4202.564,4199.999897,4176.922975
66,0,4150.256309,4127.692207,4172.820411,4160.512719,4176.922975,4184.615282,4183.076821,4191.794769,4198.974256,4165.640924,4174.358872,4174.358872,4179.487077,4147.692206
67,0,4162.564001,4150.769129,4180.512718,4179.487077,4182.564,4195.384513,4196.410154,4197.948615,4212.307589,4182.05118,4189.743487,4186.153744,4186.666564,4165.128103
68,0,4185.640923,4169.230667,4203.589641,4202.051179,4193.333231,4198.461436,4214.358871,4213.846051,4222.051179,4201.538359,4205.128102,4210.256307,4202.051179,4182.05118
69,0,4175.384513,4154.871693,4196.410154,4184.615282,4189.743487,4190.769128,4205.128102,4207.692205,4209.743487,4185.640923,4194.871692,4201.538359,4194.358872,4171.79477
70,0,4171.79477,4155.897334,4192.82041,4175.897334,4186.666564,4192.82041,4203.589641,4203.07682,4211.281948,4191.794769,4193.846051,4193.846051,4192.82041,4180.512718
71,0,4191.281949,4174.358872,4207.692205,4187.692205,4201.025538,4201.538359,4215.384512,4211.794769,4222.563999,4217.435794,4210.256307,4212.82041,4208.717846,4194.871692
72,0,4194.871692,4174.358872,4210.256307,4187.692205,4199.999897,4199.487077,4217.948615,4214.358871,4217.948615,4218.974256,4211.794769,4222.051179,4213.33323,4187.692205
73,0,4178.461436,4167.692206,4199.999897,4179.999898,4185.640923,4195.384513,4210.769128,4209.743487,4210.256307,4205.128102,4201.538359,4210.256307,4204.102461,4179.999898
74,0,4177.948616,4176.410154,4202.051179,4182.05118,4193.846051,4198.461436,4214.871692,4213.846051,4217.948615,4211.794769,4204.102461,4208.717846,4203.589641,4188.205026
75,0,4189.230667,4182.05118,4211.794769,4185.128103,4192.82041,4198.974256,4224.615281,4220.512717,4227.179384,4232.820409,4214.871692,4219.487076,4211.794769,4193.846051
76,0,4186.666564,4172.820411,4208.205025,4179.487077,4177.435795,4196.922974,4222.051179,4221.025538,4223.07682,4232.307589,4211.281948,4220.512717,4212.82041,4191.281949
77,0,4173.846052,4161.025539,4197.948615,4173.846052,4188.717846,4200.512718,4209.230666,4214.358871,4211.794769,4207.179384,4198.461436,4204.615282,4201.538359,4182.05118
78,0,4181.538359,4171.79477,4208.205025,4183.589641,4215.384512,4211.794769,4220.512717,4214.871692,4219.487076,4213.33323,4207.692205,4206.666564,4205.128102,4184.102462
79,0,4188.717846,4179.999898,4215.384512,4190.256308,4208.717846,4213.846051,4238.461435,4221.025538,4227.179384,4232.307589,4217.948615,4216.922974,4212.82041,4190.769128
80,0,4190.769128,4179.999898,4217.435794,4194.358872,4200.512718,4208.717846,4237.948614,4224.615281,4222.563999,4231.794768,4213.33323,4221.025538,4210.256307,4189.743487
81,0,4184.102462,4173.333231,4212.307589,4188.205026,4193.846051,4200.512718,4214.871692,4214.871692,4213.846051,4212.307589,4201.025538,4209.230666,4198.461436,4174.871693
82,0,4184.102462,4184.102462,4213.33323,4189.743487,4186.666564,4203.07682,4212.307589,4212.307589,4221.538358,4205.128102,4206.153743,4208.205025,4202.564,4183.589641
83,0,4196.410154,4202.051179,4224.615281,4201.538359,4196.410154,4213.33323,4238.461435,4224.615281,4230.256307,4212.82041,4216.410153,4225.640922,4212.82041,4195.897333
84,0,4194.871692,4195.384513,4226.153743,4197.948615,4214.358871,4214.358871,4243.076819,4229.743486,4224.102461,4217.948615,4208.717846,4229.230666,4205.128102,4184.615282
85,0,4170.256308,4167.692206,4203.589641,4174.358872,4196.922974,4201.025538,4205.640923,4213.846051,4212.307589,4205.128102,4194.871692,4204.615282,4190.769128,4173.846052
86,0,4183.076821,4182.05118,4205.640923,4185.128103,4187.692205,4205.128102,4208.205025,4211.794769,4219.487076,4213.846051,4209.743487,4207.692205,4206.666564,4194.871692
87,0,4207.179384,4206.153743,4220.512717,4201.538359,4205.640923,4215.384512,4235.897332,4220.512717,4228.205025,4227.179384,4218.461435,4223.07682,4221.025538,4207.179384
88,0,4200.512718,4201.025538,4219.487076,4194.871692,4208.717846,4213.846051,4235.897332,4221.025538,4224.102461,4216.410153,4208.717846,4221.538358,4214.358871,4203.07682
89,0,4199.487077,4196.922974,4219.487076,4199.487077,4196.922974,4209.230666,4227.692204,4218.974256,4224.102461,4211.281948,4211.281948,4223.07682,4212.82041,4204.615282
90,0,4217.948615,4206.666564,4230.769127,4211.794769,4204.615282,4213.846051,4240.512717,4222.051179,4229.230666,4228.205025,4222.563999,4233.33323,4220.512717,4215.384512
91,0,4213.846051,4203.07682,4226.153743,4202.564,4213.846051,4215.897333,4243.58964,4218.461435,4223.07682,4227.179384,4214.358871,4224.102461,4213.846051,4209.743487
92,0,4197.948615,4202.564,4217.435794,4198.461436,4204.102461,4213.846051,4230.769127,4214.358871,4217.948615,4210.769128,4207.692205,4207.692205,4207.692205,4186.153744
93,0,4208.205025,4222.051179,4231.794768,4217.435794,4208.717846,4215.897333,4237.948614,4223.07682,4225.640922,4226.153743,4217.435794,4220.512717,4218.461435,4192.82041
94,0,4208.717846,4214.358871,4227.692204,4206.153743,4217.948615,4212.82041,4233.84605,4220.512717,4224.102461,4232.307589,4213.33323,4225.640922,4217.948615,4203.589641
95,0,4199.999897,4194.871692,4214.358871,4186.153744,4207.179384,4209.230666,4218.461435,4214.871692,4218.974256,4222.563999,4209.743487,4219.999897,4213.846051,4195.897333
96,0,4198.461436,4194.871692,4212.82041,4189.743487,4188.717846,4205.128102,4212.307589,4214.358871,4212.82041,4216.410153,4211.281948,4216.410153,4213.846051,4182.564
97,0,4208.205025,4211.794769,4222.051179,4203.07682,4190.256308,4204.615282,4224.102461,4216.922974,4213.846051,4221.538358,4222.563999,4224.615281,4223.07682,4193.846051
98,0,4215.384512,4217.948615,4225.128102,4204.102461,4197.948615,4211.794769,4230.769127,4221.538358,4222.563999,4230.769127,4229.743486,4227.692204,4231.281948,4211.794769
99,0,4222.051179,4223.58964,4232.307589,4211.281948,4214.358871,4219.999897,4235.897332,4232.820409,4229.230666,4251.281947,4231.281948,4230.769127,4235.384512,4217.435794
100,0,4214.871692,4217.948615,4228.205025,4205.640923,4226.153743,4215.384512,4235.897332,4233.84605,4226.153743,4251.794768,4222.563999,4226.666563,4230.769127,4202.564
101,0,4207.179384,4211.281948,4223.58964,4197.948615,4221.025538,4214.358871,4239.487076,4232.820409,4231.794768,4242.563999,4224.102461,4225.128102,4231.794768,4207.179384
102,0,4205.128102,4205.128102,4222.563999,4197.948615,4206.666564,4217.435794,4240.512717,4233.84605,4238.461435,4244.10246,4224.615281,4225.640922,4230.769127,4217.435794
103,0,4208.717846,4201.025538,4221.025538,4199.999897,4201.025538,4218.461435,4242.051178,4233.84605,4236.410153,4245.128101,4218.974256,4223.58964,4225.128102,4208.205025
104,0,4208.205025,4202.564,4223.58964,4202.564,4194.871692,4216.922974,4244.10246,4232.820409,4232.820409,4241.025537,4218.974256,4221.025538,4226.666563,4201.025538
105,0,4207.692205,4214.358871,4231.794768,4207.179384,4208.717846,4220.512717,4245.128101,4231.794768,4235.384512,4249.743486,4224.615281,4227.179384,4232.820409,4212.82041
106,0,4220.512717,4230.256307,4239.487076,4212.307589,4247.692204,4230.769127,4252.307588,4233.33323,4241.538358,4257.435793,4230.256307,4238.461435,4233.84605,4226.666563
107,0,4247.179383,4248.205024,4257.948614,4230.256307,4251.794768,4238.974255,4274.35887,4241.025537,4244.10246,4258.974255,4238.461435,4253.84605,4242.051178,4238.461435
108,0,4238.461435,4235.897332,4254.35887,4228.717845,4211.794769,4226.666563,4262.563998,4232.820409,4228.205025,4245.128101,4227.179384,4241.538358,4238.974255,4225.640922
109,0,4208.205025,4207.179384,4225.640922,4201.025538,4202.051179,4215.897333,4228.717845,4215.384512,4217.435794,4226.666563,4209.743487,4213.33323,4222.563999,4201.025538
110,0,4210.769128,4211.794769,4222.563999,4197.435795,4212.307589,4219.999897,4227.692204,4218.461435,4226.153743,4230.256307,4214.358871,4209.743487,4222.051179,4206.153743
111,0,4217.948615,4218.974256,4228.205025,4208.717846,4197.948615,4219.487076,4231.794768,4219.999897,4222.563999,4229.743486,4216.410153,4200.512718,4225.640922,4209.743487
112,0,4217.435794,4213.846051,4226.666563,4211.794769,4207.179384,4219.487076,4231.794768,4218.974256,4220.512717,4233.84605,4217.435794,4193.846051,4225.640922,4207.692205
113,0,4229.230666,4223.58964,4235.897332,4216.922974,4231.794768,4226.153743,4246.666563,4228.717845,4229.230666,4245.640922,4230.256307,4207.692205,4233.84605,4219.487076
114,0,4242.051178,4242.563999,4248.205024,4224.615281,4227.179384,4236.410153,4260.512716,4235.897332,4231.281948,4245.640922,4235.897332,4219.487076,4242.563999,4224.615281
115,0,4227.692204,4236.410153,4236.922973,4214.871692,4215.384512,4244.10246,4254.871691,4231.281948,4224.615281,4235.384512,4225.128102,4207.179384,4232.307589,4206.666564
116,0,4217.948615,4224.102461,4226.153743,4203.589641,4222.563999,4237.948614,4253.333229,4229.743486,4226.153743,4242.051178,4220.512717,4203.07682,4227.179384,4203.589641
117,0,4212.307589,4216.922974,4222.051179,4195.897333,4207.692205,4217.948615,4246.153742,4225.128102,4225.640922,4232.820409,4215.897333,4197.948615,4228.717845,4208.205025
118,0,4232.820409,4243.58964,4246.153742,4222.051179,4208.717846,4227.179384,4269.743485,4237.948614,4241.025537,4253.333229,4235.384512,4218.974256,4242.051178,4228.717845
119,0,4244.10246,4250.256306,4252.820409,4232.820409,4233.33323,4231.281948,4275.897331,4245.640922,4245.640922,4266.153742,4240.512717,4231.281948,4244.10246,4230.769127
120,0,4214.871692,4214.358871,4221.538358,4202.051179,4232.307589,4206.153743,4229.743486,4225.128102,4222.051179,4223.58964,4213.846051,4202.051179,4227.179384,4204.615282
121,0,4195.384513,4202.051179,4210.256307,4191.281949,4207.692205,4198.461436,4206.153743,4212.82041,4217.435794,4216.922974,4207.692205,4191.794769,4222.051179,4194.358872
122,0,4218.461435,4230.256307,4236.410153,4222.051179,4208.205025,4216.410153,4238.461435,4233.33323,4240.512717,4257.435793,4235.384512,4227.179384,4238.461435,4218.461435
123,0,4219.999897,4225.128102,4233.84605,4224.102461,4221.538358,4214.358871,4242.051178,4235.897332,4235.897332,4242.563999,4231.281948,4230.256307,4233.84605,4214.871692
124,0,4217.435794,4217.948615,4232.307589,4216.922974,4231.794768,4213.33323,4239.999896,4231.794768,4232.307589,4233.84605,4224.615281,4227.692204,4227.692204,4205.640923
125,0,4234.358871,4232.820409,4249.743486,4228.205025,4218.974256,4219.487076,4253.333229,4240.512717,4241.538358,4258.461434,4236.410153,4245.640922,4234.358871,4221.025538
126,0,4228.205025,4232.820409,4239.999896,4226.666563,4198.974256,4214.871692,4239.999896,4233.33323,4233.84605,4240.512717,4229.230666,4235.897332,4230.256307,4224.615281
127,0,4229.230666,4241.538358,4236.922973,4230.769127,4224.615281,4218.461435,4241.538358,4229.230666,4233.84605,4232.307589,4227.692204,4231.281948,4232.820409,4224.615281
128,0,4239.487076,4248.205024,4247.179383,4232.307589,4246.153742,4227.179384,4258.974255,4233.84605,4238.974255,4239.999896,4231.281948,4240.512717,4238.461435,4219.487076
0,0,4221.538358,4229.743486,4233.84605,4216.410153,4224.102461,4219.999897,4245.640922,4226.153743,4226.666563,4224.615281,4222.051179,4229.743486,4230.256307,4205.640923
1,0,4212.82041,4229.743486,4225.128102,4216.922974,4214.358871,4214.871692,4233.84605,4220.512717,4223.58964,4226.153743,4222.051179,4224.615281,4226.666563,4210.769128
2,0,4233.33323,4246.666563,4238.461435,4233.33323,4228.717845,4223.07682,4250.769127,4231.794768,4235.384512,4237.435794,4230.769127,4238.461435,4233.84605,4223.58964
3,0,4228.205025,4228.717845,4233.33323,4226.666563,4220.512717,4222.563999,4248.205024,4231.281948,4227.692204,4212.307589,4221.538358,4228.717845,4226.666563,4207.179384
4,0,4221.538358,4222.051179,4231.794768,4226.153743,4221.025538,4221.538358,4243.58964,4229.743486,4225.640922,4206.153743,4222.563999,4229.230666,4225.640922,4202.564
5,0,4225.128102,4228.205025,4237.435794,4227.692204,4232.307589,4219.487076,4239.999896,4229.230666,4229.743486,4216.922974,4226.666563,4237.948614,4228.205025,4207.179384
6,0,4216.410153,4216.410153,4229.230666,4216.410153,4224.615281,4216.410153,4230.769127,4224.102461,4226.153743,4214.358871,4215.384512,4224.615281,4219.999897,4202.564
7,0,4197.435795,4202.051179,4211.281948,4204.615282,4204.615282,4211.281948,4217.948615,4217.948615,4219.487076,4197.948615,4204.102461,4205.128102,4209.230666,4191.794769
8,0,4204.102461,4224.102461,4220.512717,4217.948615,4216.922974,4217.435794,4232.307589,4223.58964,4222.563999,4195.897333,4219.487076,4221.538358,4221.025538,4198.974256
9,0,4218.461435,4240.512717,4238.461435,4230.256307,4228.205025,4221.025538,4252.820409,4228.717845,4220.512717,4200.512718,4232.820409,4239.999896,4232.820409,4208.205025
10,0,4207.692205,4221.025538,4225.640922,4216.410153,4205.640923,4206.666564,4233.33323,4217.948615,4207.692205,4192.82041,4216.410153,4221.025538,4218.974256,4196.410154
11,0,4183.589641,4203.589641,4201.538359,4197.948615,4192.82041,4198.974256,4202.051179,4205.128102,4198.461436,4182.05118,4195.897333,4198.461436,4203.07682,4177.948616
12,0,4193.333231,4221.538358,4215.384512,4211.281948,4219.487076,4221.025538,4225.640922,4216.922974,4213.846051,4198.461436,4215.897333,4219.999897,4221.538358,4199.487077
13,0,4208.205025,4228.717845,4231.794768,4221.538358,4222.563999,4232.820409,4249.743486,4228.717845,4225.640922,4213.33323,4233.84605,4237.948614,4235.384512,4221.538358
14,0,4198.461436,4212.82041,4223.58964,4211.794769,4202.051179,4224.615281,4237.435794,4224.102461,4219.487076,4203.07682,4222.051179,4225.640922,4224.102461,4205.640923
15,0,4190.769128,4206.666564,4215.384512,4208.205025,4205.128102,4218.974256,4230.256307,4225.640922,4218.461435,4192.30759,4213.846051,4218.974256,4216.922974,4189.743487
16,0,4187.179385,4205.128102,4210.256307,4207.179384,4212.82041,4217.948615,4234.358871,4230.769127,4224.102461,4200.512718,4215.897333,4213.846051,4217.435794,4186.153744
17,0,4185.640923,4202.564,4209.743487,4202.564,4206.153743,4216.922974,4235.897332,4228.717845,4220.512717,4222.051179,4215.384512,4208.717846,4213.846051,4176.922975
18,0,4193.333231,4211.794769,4217.435794,4210.769128,4204.102461,4222.563999,4242.051178,4228.717845,4212.307589,4223.07682,4217.948615,4218.461435,4214.871692,4178.974257
19,0,4195.897333,4218.974256,4218.974256,4218.461435,4215.897333,4222.051179,4241.538358,4230.769127,4210.769128,4203.589641,4216.922974,4221.025538,4218.461435,4194.871692
20,0,4184.615282,4208.717846,4209.230666,4208.205025,4214.871692,4211.281948,4227.692204,4224.102461,4207.692205,4191.794769,4208.205025,4207.692205,4209.230666,4189.230667
21,0,4188.205026,4206.666564,4211.794769,4206.153743,4203.07682,4211.794769,4223.07682,4219.487076,4206.666564,4198.461436,4210.256307,4213.33323,4204.615282,4183.589641
22,0,4210.769128,4225.640922,4230.769127,4221.538358,4210.256307,4225.128102,4236.410153,4223.58964,4213.846051,4211.794769,4225.128102,4235.384512,4218.974256,4209.230666
23,0,4228.717845,4241.538358,4247.692204,4236.922973,4226.666563,4230.256307,4254.871691,4230.769127,4220.512717,4218.974256,4237.948614,4252.307588,4234.871691,4235.897332
24,0,4209.743487,4213.846051,4225.128102,4216.922974,4209.743487,4212.307589,4228.717845,4216.922974,4204.102461,4191.281949,4223.07682,4233.84605,4222.051179,4208.717846
25,0,4199.487077,4202.564,4210.256307,4202.051179,4202.051179,4206.153743,4200.512718,4205.640923,4199.999897,4188.205026,4213.33323,4222.051179,4212.82041,4190.256308
26,0,4214.871692,4221.538358,4223.58964,4211.281948,4209.230666,4218.974256,4209.230666,4211.281948,4215.384512,4210.256307,4223.07682,4235.897332,4222.563999,4213.33323
27,0,4226.666563,4235.897332,4236.410153,4223.07682,4211.794769,4228.205025,4230.256307,4222.051179,4221.538358,4210.256307,4234.871691,4249.743486,4233.84605,4240.512717
28,0,4214.871692,4231.281948,4227.692204,4217.948615,4210.256307,4219.487076,4225.128102,4219.487076,4213.33323,4196.922974,4226.153743,4234.358871,4229.743486,4231.281948
29,0,4211.281948,4233.84605,4223.58964,4216.410153,4217.948615,4215.897333,4221.025538,4217.435794,4214.871692,4209.230666,4219.487076,4227.692204,4225.640922,4214.358871
30,0,4217.435794,4235.897332,4220.512717,4215.897333,4222.051179,4219.487076,4220.512717,4221.025538,4215.897333,4210.769128,4221.025538,4234.358871,4229.230666,4219.999897
31,0,4223.07682,4241.025537,4218.461435,4223.07682,4218.974256,4222.563999,4221.538358,4226.153743,4212.82041,4202.564,4225.640922,4236.410153,4238.974255,4238.974255
32,0,4222.563999,4248.717845,4218.974256,4231.281948,4207.179384,4218.461435,4221.538358,4225.640922,4212.307589,4206.153743,4226.153743,4234.358871,4247.692204,4242.051178
33,0,4230.256307,4255.897332,4222.051179,4230.769127,4203.589641,4217.435794,4221.025538,4222.051179,4212.307589,4202.051179,4224.615281,4234.358871,4251.794768,4241.538358
34,0,4244.615281,4259.999896,4228.205025,4231.794768,4215.384512,4221.538358,4227.692204,4222.563999,4209.743487,4199.487077,4226.666563,4237.435794,4255.384511,4257.435793
35,0,4250.256306,4258.974255,4224.615281,4230.256307,4217.948615,4219.999897,4226.153743,4219.487076,4207.179384,4207.179384,4229.743486,4243.076819,4264.10246,4271.794767
36,0,4263.076819,4269.230665,4223.07682,4228.717845,4216.410153,4216.922974,4215.897333,4213.846051,4206.153743,4206.666564,4233.33323,4253.333229,4276.922972,4277.435793
37,0,4279.999895,4278.974254,4229.230666,4235.384512,4209.743487,4215.897333,4210.769128,4212.307589,4206.666564,4189.230667,4233.33323,4255.384511,4276.410152,4280.512716
38,0,4291.281946,4283.076818,4241.538358,4248.205024,4196.922974,4218.461435,4217.948615,4216.922974,4209.743487,4186.666564,4236.922973,4259.999896,4273.333229,4295.897331
39,0,4294.87169,4291.794767,4244.615281,4250.256306,4192.82041,4218.974256,4219.487076,4217.948615,4212.82041,4200.512718,4240.512717,4264.61528,4278.974254,4310.256305
40,0,4295.38451,4305.64092,4241.025537,4246.153742,4206.153743,4217.948615,4218.974256,4218.974256,4218.461435,4214.358871,4237.948614,4259.999896,4279.487075,4298.974254
41,0,4279.487075,4296.410151,4232.307589,4236.410153,4210.769128,4218.974256,4216.410153,4216.410153,4216.410153,4206.153743,4224.615281,4248.205024,4259.487075,4265.640921
42,0,4268.717844,4291.281946,4237.435794,4240.512717,4214.871692,4228.205025,4224.102461,4217.948615,4213.846051,4198.974256,4222.563999,4253.333229,4247.692204,4262.563998
43,0,4260.512716,4288.205023,4237.435794,4241.538358,4210.769128,4232.307589,4224.102461,4218.974256,4212.82041,4191.794769,4223.07682,4250.256306,4246.666563,4265.640921
44,0,4245.128101,4272.820408,4221.538358,4226.666563,4204.615282,4226.666563,4209.743487,4216.410153,4211.794769,4192.82041,4222.563999,4236.410153,4245.128101,4244.615281
45,0,4227.692204,4259.487075,4208.717846,4214.871692,4214.358871,4225.128102,4203.07682,4212.82041,4208.205025,4199.999897,4216.922974,4226.153743,4235.897332,4214.358871
46,0,4243.58964,4278.974254,4240.512717,4239.487076,4235.384512,4242.051178,4250.769127,4237.948614,4229.230666,4225.640922,4232.820409,4250.256306,4247.179383,4230.256307
47,0,4248.205024,4276.922972,4253.333229,4246.666563,4220.512717,4238.461435,4267.692203,4250.769127,4238.974255,4227.692204,4239.487076,4256.922973,4252.820409,4245.640922
48,0,4214.871692,4244.10246,4218.461435,4222.051179,4202.564,4215.897333,4225.128102,4225.640922,4217.435794,4205.640923,4218.461435,4224.102461,4231.794768,4216.922974
49,0,4193.846051,4231.794768,4203.589641,4214.358871,4209.230666,4213.33323,4208.205025,4211.281948,4206.666564,4202.564,4207.179384,4211.794769,4219.999897,4191.794769
50,0,4212.307589,4242.563999,4227.692204,4229.230666,4208.717846,4225.128102,4231.794768,4221.025538,4216.410153,4211.794769,4220.512717,4231.281948,4230.256307,4205.128102
51,0,4210.256307,4230.769127,4225.640922,4224.615281,4193.333231,4219.487076,4227.692204,4219.487076,4214.358871,4206.666564,4214.871692,4217.948615,4223.07682,4204.615282
52,0,4178.461436,4210.769128,4202.051179,4207.179384,4197.435795,4214.358871,4210.769128,4213.33323,4205.640923,4193.846051,4198.461436,4181.538359,4205.128102,4175.897334
53,0,4175.384513,4218.461435,4207.179384,4209.743487,4209.743487,4223.07682,4223.07682,4227.179384,4213.33323,4188.717846,4207.179384,4178.461436,4208.717846,4172.820411
54,0,4187.692205,4222.051179,4216.410153,4213.846051,4201.538359,4223.58964,4229.230666,4231.794768,4216.922974,4186.153744,4213.33323,4185.128103,4212.82041,4182.564
55,0,4194.871692,4220.512717,4218.461435,4216.410153,4198.974256,4224.102461,4230.769127,4226.666563,4217.948615,4206.666564,4212.307589,4185.640923,4210.769128,4191.281949
56,0,4197.948615,4228.205025,4224.615281,4222.563999,4210.256307,4226.153743,4239.999896,4227.692204,4225.128102,4226.153743,4217.435794,4190.256308,4212.82041,4196.922974
57,0,4196.410154,4230.769127,4225.640922,4222.563999,4211.281948,4223.07682,4236.410153,4230.769127,4229.743486,4218.461435,4219.999897,4193.333231,4215.384512,4189.743487
58,0,4188.717846,4223.07682,4216.922974,4217.435794,4202.051179,4223.07682,4225.640922,4230.769127,4228.717845,4211.281948,4215.384512,4185.640923,4212.82041,4178.461436
59,0,4210.256307,4247.692204,4237.435794,4241.025537,4214.871692,4233.84605,4254.35887,4246.153742,4244.10246,4237.948614,4230.256307,4202.564,4226.153743,4204.615282
60,0,4220.512717,4259.487075,4247.692204,4252.307588,4220.512717,4231.281948,4264.61528,4252.307588,4248.717845,4240.512717,4237.948614,4212.82041,4233.33323,4215.384512
61,0,4203.589641,4235.384512,4227.692204,4233.84605,4218.461435,4225.640922,4234.358871,4239.487076,4232.307589,4222.051179,4226.153743,4197.435795,4223.07682,4187.179385
62,0,4201.025538,4227.179384,4219.487076,4224.615281,4227.692204,4230.769127,4230.769127,4233.33323,4224.102461,4229.743486,4217.948615,4185.128103,4217.435794,4180.512718
63,0,4215.384512,4248.205024,4238.974255,4237.435794,4236.410153,4236.922973,4261.025537,4243.076819,4232.820409,4252.307588,4228.205025,4202.564,4223.07682,4206.666564
64,0,4202.051179,4237.948614,4234.871691,4230.256307,4222.051179,4229.230666,4250.769127,4236.410153,4223.58964,4227.692204,4223.07682,4202.564,4216.410153,4194.358872
65,0,4197.948615,4224.615281,4232.820409,4226.153743,4213.33323,4226.666563,4238.974255,4231.794768,4216.922974,4203.07682,4215.897333,4191.281949,4211.281948,4183.589641
66,0,4215.897333,4236.410153,4246.666563,4236.922973,4209.230666,4230.256307,4253.84605,4242.051178,4225.128102,4222.563999,4219.999897,4198.974256,4216.922974,4201.025538
67,0,4215.897333,4244.615281,4247.692204,4237.948614,4219.999897,4230.769127,4253.333229,4243.076819,4225.640922,4238.461435,4224.615281,4210.769128,4219.487076,4200.512718
68,0,4206.666564,4236.922973,4238.461435,4227.179384,4242.051178,4230.256307,4240.512717,4235.384512,4220.512717,4224.615281,4223.58964,4209.230666,4219.487076,4190.769128
69,0,4211.281948,4236.410153,4240.512717,4227.692204,4237.435794,4233.33323,4244.615281,4235.897332,4222.563999,4216.410153,4226.153743,4209.230666,4224.102461,4206.666564
70,0,4216.410153,4242.051178,4244.10246,4233.33323,4217.948615,4232.307589,4245.640922,4237.948614,4226.666563,4226.666563,4227.179384,4213.846051,4226.153743,4207.179384
71,0,4217.948615,4243.58964,4245.128101,4237.435794,4213.33323,4227.179384,4240.512717,4235.897332,4228.205025,4229.230666,4227.692204,4216.410153,4226.153743,4198.974256
72,0,4223.58964,4244.10246,4247.179383,4240.512717,4221.538358,4228.717845,4246.153742,4240.512717,4228.205025,4225.640922,4230.769127,4216.922974,4227.179384,4214.358871
73,0,4218.974256,4241.025537,4243.58964,4234.358871,4227.692204,4228.717845,4239.999896,4241.025537,4223.07682,4231.281948,4225.640922,4212.82041,4222.563999,4211.794769
74,0,4213.33323,4242.563999,4244.615281,4232.307589,4227.179384,4226.153743,4230.769127,4236.410153,4223.07682,4243.58964,4223.58964,4211.794769,4223.58964,4205.128102
75,0,4219.487076,4242.051178,4245.640922,4233.33323,4225.640922,4230.769127,4239.487076,4238.461435,4224.102461,4242.051178,4230.256307,4212.307589,4228.205025,4215.384512
76,0,4221.538358,4241.538358,4241.538358,4235.384512,4235.384512,4237.948614,4250.769127,4245.128101,4226.153743,4243.58964,4236.410153,4210.769128,4230.256307,4211.281948
77,0,4201.538359,4236.410153,4229.743486,4230.256307,4230.256307,4232.820409,4237.948614,4238.974255,4225.128102,4241.538358,4225.640922,4196.410154,4222.563999,4188.717846
78,0,4197.948615,4235.897332,4229.230666,4227.692204,4228.717845,4231.281948,4232.820409,4234.871691,4225.128102,4235.897332,4221.025538,4191.794769,4221.538358,4199.487077
79,0,4206.153743,4232.307589,4232.820409,4225.128102,4233.84605,4233.84605,4235.384512,4237.948614,4222.563999,4225.640922,4223.07682,4197.948615,4221.538358,4205.128102
80,0,4206.153743,4234.871691,4234.358871,4229.743486,4221.025538,4233.33323,4235.384512,4241.538358,4227.179384,4231.281948,4224.615281,4202.051179,4222.563999,4190.256308
81,0,4196.410154,4230.769127,4226.153743,4227.692204,4204.615282,4230.256307,4233.33323,4234.358871,4224.102461,4229.743486,4218.974256,4192.30759,4221.538358,4186.153744
82,0,4199.487077,4227.692204,4226.153743,4224.102461,4223.58964,4236.410153,4245.128101,4230.256307,4220.512717,4223.58964,4223.58964,4191.794769,4224.102461,4199.487077
83,0,4202.051179,4225.640922,4228.717845,4222.563999,4222.051179,4234.871691,4242.563999,4232.307589,4221.538358,4224.615281,4225.128102,4195.384513,4222.563999,4199.999897
84,0,4206.666564,4233.33323,4232.307589,4229.743486,4208.717846,4227.692204,4232.820409,4235.384512,4225.128102,4231.281948,4223.58964,4202.051179,4219.999897,4201.025538
85,0,4214.358871,4239.999896,4235.384512,4233.84605,4225.128102,4228.205025,4232.820409,4232.820409,4223.58964,4227.692204,4227.179384,4210.256307,4222.051179,4204.615282
86,0,4222.051179,4241.538358,4240.512717,4236.922973,4232.307589,4237.435794,4239.487076,4232.307589,4226.666563,4227.179384,4231.794768,4214.358871,4227.692204,4205.128102
87,0,4222.051179,4244.10246,4242.051178,4239.487076,4219.999897,4237.948614,4238.461435,4237.948614,4231.281948,4236.410153,4230.769127,4213.33323,4228.717845,4213.33323
88,0,4219.999897,4248.205024,4244.10246,4239.999896,4231.794768,4235.897332,4244.10246,4242.563999,4233.33323,4242.051178,4233.33323,4215.384512,4230.769127,4227.692204
89,0,4219.999897,4243.58964,4241.025537,4234.871691,4244.615281,4237.435794,4253.84605,4241.025537,4231.794768,4245.640922,4231.794768,4214.358871,4231.794768,4221.025538
90,0,4217.435794,4236.410153,4231.281948,4226.153743,4231.281948,4240.512717,4250.256306,4241.025537,4229.230666,4251.281947,4224.615281,4209.230666,4229.230666,4202.564
91,0,4224.615281,4249.230665,4236.922973,4234.871691,4227.692204,4243.076819,4250.769127,4248.205024,4233.33323,4249.230665,4232.307589,4218.974256,4234.871691,4212.307589
92,0,4228.717845,4252.307588,4244.615281,4243.58964,4222.563999,4236.410153,4251.281947,4248.205024,4234.871691,4238.461435,4236.922973,4221.538358,4236.922973,4225.128102
93,0,4235.384512,4254.35887,4249.230665,4249.743486,4226.153743,4235.384512,4254.871691,4249.230665,4238.461435,4250.256306,4239.487076,4224.102461,4239.999896,4229.230666
94,0,4235.897332,4257.435793,4252.307588,4250.769127,4249.743486,4247.179383,4259.487075,4252.307588,4242.051178,4261.025537,4243.58964,4232.820409,4242.051178,4228.717845
95,0,4229.743486,4246.666563,4253.333229,4246.666563,4255.384511,4251.281947,4263.076819,4252.820409,4243.58964,4258.974255,4240.512717,4235.384512,4235.384512,4224.102461
96,0,4218.461435,4234.871691,4241.538358,4237.435794,4237.435794,4241.538358,4254.871691,4244.615281,4235.897332,4246.666563,4228.205025,4221.538358,4223.58964,4212.82041
97,0,4227.692204,4253.84605,4241.538358,4243.58964,4238.461435,4242.051178,4257.948614,4243.076819,4233.33323,4245.640922,4237.948614,4224.615281,4234.871691,4230.256307
98,0,4241.025537,4263.076819,4245.128101,4249.230665,4239.999896,4241.025537,4252.820409,4242.563999,4228.205025,4241.538358,4242.051178,4229.230666,4243.076819,4247.692204
99,0,4244.615281,4256.922973,4243.076819,4248.205024,4238.461435,4237.435794,4243.58964,4237.435794,4222.051179,4238.461435,4232.820409,4226.666563,4237.948614,4249.230665
100,0,4241.538358,4256.922973,4239.999896,4248.717845,4232.307589,4235.897332,4241.025537,4229.230666,4221.025538,4231.281948,4229.230666,4228.205025,4232.307589,4246.666563
101,0,4249.230665,4267.179383,4250.769127,4259.487075,4228.205025,4237.948614,4248.205024,4232.820409,4224.615281,4233.84605,4237.948614,4238.974255,4237.948614,4252.820409
102,0,4252.820409,4261.025537,4250.769127,4255.384511,4238.461435,4237.948614,4243.076819,4236.922973,4224.102461,4242.051178,4236.410153,4237.948614,4239.999896,4244.10246
103,0,4245.640922,4251.794768,4243.58964,4244.615281,4252.307588,4239.487076,4239.999896,4236.922973,4229.230666,4241.538358,4235.384512,4236.922973,4237.948614,4235.384512
104,0,4244.10246,4253.333229,4247.692204,4249.743486,4238.461435,4235.897332,4247.692204,4241.538358,4238.461435,4246.153742,4241.538358,4243.58964,4240.512717,4249.230665
105,0,4256.410152,4264.10246,4258.974255,4261.538357,4231.281948,4237.948614,4253.333229,4249.230665,4240.512717,4264.10246,4248.717845,4249.230665,4247.692204,4267.179383
106,0,4257.948614,4264.61528,4257.948614,4256.922973,4246.153742,4243.076819,4250.769127,4246.666563,4232.820409,4264.10246,4244.615281,4244.615281,4246.666563,4256.410152
107,0,4246.666563,4251.794768,4247.692204,4246.153742,4247.179383,4237.948614,4245.128101,4240.512717,4224.102461,4237.435794,4230.256307,4233.33323,4236.410153,4236.922973
108,0,4245.128101,4246.666563,4244.10246,4248.717845,4233.84605,4230.769127,4245.128101,4241.538358,4222.051179,4224.102461,4224.102461,4233.84605,4229.230666,4233.84605
109,0,4245.128101,4247.692204,4244.615281,4247.692204,4229.230666,4234.871691,4248.717845,4244.615281,4226.153743,4230.769127,4229.230666,4241.025537,4226.666563,4228.205025
110,0,4239.999896,4251.794768,4244.615281,4244.10246,4246.666563,4242.051178,4256.410152,4249.230665,4231.794768,4243.58964,4234.871691,4242.563999,4231.281948,4231.281948
111,0,4236.922973,4252.307588,4238.461435,4244.615281,4258.974255,4241.538358,4255.897332,4248.717845,4228.717845,4242.051178,4228.205025,4237.435794,4233.33323,4232.820409
112,0,4247.179383,4261.025537,4244.615281,4257.948614,4249.743486,4243.076819,4257.435793,4248.717845,4230.256307,4244.10246,4232.307589,4249.743486,4235.384512,4229.230666
113,0,4249.230665,4265.640921,4251.794768,4263.589639,4233.33323,4241.538358,4253.84605,4248.717845,4234.871691,4250.769127,4238.974255,4256.410152,4236.922973,4230.769127
114,0,4249.743486,4270.769126,4251.794768,4262.563998,4242.051178,4242.051178,4253.84605,4250.769127,4238.974255,4255.897332,4239.999896,4256.922973,4240.512717,4247.179383
115,0,4250.769127,4270.769126,4249.230665,4263.076819,4247.179383,4245.640922,4251.794768,4247.692204,4237.435794,4244.615281,4237.948614,4262.563998,4241.538358,4245.128101
116,0,4250.769127,4266.153742,4249.743486,4261.025537,4240.512717,4246.666563,4250.256306,4242.563999,4235.384512,4239.487076,4240.512717,4265.640921,4242.051178,4236.410153
117,0,4241.538358,4254.35887,4242.051178,4247.179383,4237.435794,4236.922973,4240.512717,4236.922973,4228.205025,4251.794768,4234.871691,4251.281947,4236.922973,4233.33323
118,0,4252.820409,4265.128101,4251.794768,4255.897332,4252.820409,4237.948614,4247.179383,4247.692204,4231.281948,4272.307588,4240.512717,4263.589639,4240.512717,4247.179383
119,0,4258.974255,4274.87169,4258.974255,4265.128101,4258.461434,4247.692204,4256.922973,4255.384511,4236.922973,4260.512716,4244.615281,4277.948613,4245.128101,4247.692204
120,0,4243.076819,4266.153742,4251.794768,4253.333229,4240.512717,4247.692204,4257.435793,4250.256306,4237.435794,4243.076819,4236.922973,4264.10246,4239.487076,4235.384512
121,0,4235.897332,4258.461434,4245.128101,4247.179383,4226.666563,4238.461435,4254.871691,4250.256306,4234.871691,4247.692204,4231.281948,4249.743486,4230.769127,4233.33323
122,0,4240.512717,4261.025537,4245.640922,4254.871691,4236.922973,4240.512717,4258.974255,4258.461434,4234.358871,4255.897332,4232.820409,4257.435793,4230.769127,4227.692204
123,0,4232.820409,4253.333229,4241.538358,4249.230665,4236.410153,4246.153742,4256.922973,4253.333229,4230.769127,4248.205024,4229.230666,4256.922973,4230.769127,4213.33323
124,0,4231.794768,4251.794768,4243.076819,4245.640922,4229.743486,4246.666563,4253.333229,4245.128101,4230.256307,4243.58964,4231.281948,4251.794768,4229.230666,4224.615281
125,0,4242.051178,4259.999896,4249.743486,4250.256306,4251.794768,4246.666563,4259.999896,4248.205024,4233.33323,4250.769127,4239.487076,4259.487075,4233.84605,4246.666563
126,0,4237.435794,4253.84605,4244.10246,4243.076819,4257.948614,4242.563999,4258.461434,4249.230665,4231.794768,4250.256306,4236.922973,4263.589639,4233.33323,4233.33323
127,0,4234.871691,4247.692204,4244.10246,4242.051178,4227.179384,4237.435794,4250.769127,4247.179383,4230.256307,4239.999896,4234.871691,4267.692203,4230.769127,4216.922974
128,0,4236.922973,4250.769127,4246.153742,4246.153742,4214.358871,4234.871691,4247.179383,4243.076819,4226.153743,4233.84605,4236.922973,4264.10246,4231.794768,4227.179384
0,0,4236.922973,4255.897332,4241.538358,4246.666563,4231.794768,4235.897332,4248.717845,4241.025537,4225.128102,4241.538358,4232.307589,4254.35887,4232.307589,4239.999896
1,0,4237.948614,4257.435793,4240.512717,4246.666563,4242.563999,4238.974255,4247.179383,4241.538358,4225.640922,4233.33323,4228.205025,4252.820409,4227.179384,4230.769127
2,0,4242.051178,4265.640921,4246.153742,4252.307588,4256.410152,4244.615281,4254.35887,4244.615281,4228.717845,4231.794768,4236.922973,4263.589639,4231.794768,4231.281948
3,0,4230.256307,4259.487075,4235.897332,4245.128101,4246.666563,4238.461435,4248.717845,4236.922973,4224.615281,4233.84605,4232.820409,4256.410152,4231.281948,4225.640922
4,0,4226.666563,4255.384511,4231.794768,4243.58964,4225.128102,4231.281948,4237.948614,4231.794768,4221.025538,4227.692204,4225.640922,4249.743486,4229.230666,4219.487076
5,0,4235.897332,4259.487075,4240.512717,4247.179383,4224.615281,4234.358871,4234.358871,4229.230666,4220.512717,4220.512717,4228.717845,4254.35887,4234.358871,4227.179384
6,0,4246.153742,4270.256306,4250.256306,4252.307588,4241.538358,4237.948614,4236.922973,4232.307589,4225.640922,4235.384512,4242.051178,4264.10246,4243.58964,4237.435794
7,0,4242.051178,4268.205024,4245.640922,4246.153742,4243.58964,4232.820409,4228.717845,4237.948614,4226.153743,4245.128101,4240.512717,4261.025537,4240.512717,4230.769127
8,0,4244.10246,4268.717844,4247.692204,4249.230665,4246.666563,4238.461435,4234.871691,4247.179383,4233.33323,4256.922973,4243.076819,4266.666562,4242.051178,4239.487076
9,0,4246.153742,4271.281947,4247.692204,4251.794768,4256.410152,4244.615281,4244.615281,4249.230665,4241.538358,4259.487075,4246.666563,4270.256306,4246.666563,4246.153742
10,0,4239.487076,4272.307588,4245.640922,4248.717845,4245.640922,4242.563999,4246.666563,4247.179383,4238.461435,4241.025537,4242.563999,4262.563998,4246.666563,4238.461435
11,0,4233.84605,4265.640921,4245.128101,4246.666563,4226.666563,4237.435794,4246.666563,4248.205024,4231.794768,4228.717845,4233.33323,4251.794768,4241.538358,4231.794768
12,0,4243.076819,4264.61528,4246.153742,4248.205024,4241.538358,4239.999896,4251.794768,4250.256306,4235.384512,4239.999896,4231.794768,4251.281947,4240.512717,4228.717845
13,0,4251.794768,4276.922972,4246.153742,4250.256306,4258.974255,4241.538358,4252.307588,4250.256306,4236.922973,4244.615281,4238.461435,4255.897332,4248.717845,4234.871691
14,0,4247.692204,4284.61528,4243.58964,4251.794768,4239.487076,4239.999896,4247.179383,4245.128101,4229.230666,4230.256307,4239.487076,4252.307588,4257.435793,4250.256306
15,0,4248.205024,4282.051177,4241.538358,4253.333229,4218.974256,4236.922973,4244.615281,4236.410153,4223.58964,4221.025538,4231.794768,4245.128101,4255.897332,4254.35887
16,0,4256.922973,4282.051177,4240.512717,4248.205024,4241.025537,4237.948614,4243.076819,4225.640922,4221.025538,4211.794769,4227.692204,4242.563999,4253.84605,4253.84605
17,0,4270.256306,4296.410151,4246.666563,4250.769127,4265.128101,4244.10246,4247.179383,4228.205025,4220.512717,4210.769128,4238.974255,4253.333229,4264.61528,4269.230665
18,0,4274.87169,4302.051177,4252.307588,4257.948614,4249.743486,4243.076819,4243.076819,4234.358871,4216.922974,4216.410153,4243.076819,4256.922973,4269.230665,4274.87169
19,0,4271.794767,4293.333228,4249.743486,4254.35887,4238.974255,4239.487076,4237.948614,4229.230666,4213.846051,4216.410153,4230.769127,4249.230665,4261.025537,4264.10246
20,0,4255.384511,4275.897331,4233.33323,4238.461435,4232.820409,4235.897332,4231.281948,4219.999897,4213.846051,4202.051179,4217.435794,4239.999896,4245.640922,4242.563999
21,0,4250.769127,4276.410152,4234.871691,4241.025537,4215.384512,4236.410153,4234.871691,4228.205025,4225.128102,4206.666564,4225.640922,4249.743486,4246.153742,4247.692204
22,0,4257.435793,4281.538357,4246.153742,4248.205024,4212.82041,4238.461435,4241.025537,4238.461435,4235.384512,4221.538358,4238.974255,4259.487075,4255.384511,4265.640921
23,0,4262.563998,4281.538357,4247.179383,4245.640922,4249.743486,4243.58964,4251.794768,4246.153742,4241.025537,4241.025537,4247.179383,4262.051178,4261.538357,4274.35887
24,0,4249.743486,4268.205024,4235.384512,4233.33323,4259.999896,4240.512717,4250.769127,4246.666563,4238.461435,4245.128101,4239.487076,4256.410152,4251.794768,4258.461434
25,0,4241.025537,4264.10246,4237.948614,4235.897332,4236.922973,4237.435794,4247.692204,4249.743486,4239.487076,4243.58964,4239.487076,4262.563998,4245.640922,4241.025537
26,0,4241.025537,4263.589639,4239.999896,4237.435794,4221.025538,4235.384512,4241.538358,4248.717845,4238.461435,4238.461435,4241.538358,4263.589639,4245.128101,4237.948614
27,0,4242.051178,4262.051178,4237.435794,4236.922973,4215.897333,4232.307589,4237.435794,4243.58964,4235.897332,4237.948614,4237.435794,4257.948614,4245.128101,4252.307588
28,0,4234.871691,4257.948614,4235.384512,4235.384512,4208.717846,4228.717845,4231.794768,4235.897332,4232.307589,4235.384512,4229.743486,4253.333229,4241.538358,4247.692204
29,0,4233.33323,4263.076819,4242.563999,4242.563999,4221.538358,4236.410153,4238.461435,4235.384512,4231.794768,4234.358871,4231.794768,4256.922973,4240.512717,4229.743486
30,0,4239.487076,4266.153742,4246.153742,4245.128101,4238.974255,4241.538358,4247.179383,4236.410153,4230.769127,4226.666563,4233.84605,4257.435793,4236.922973,4235.384512
31,0,4233.33323,4258.461434,4235.384512,4232.307589,4237.435794,4235.897332,4243.58964,4230.256307,4225.640922,4217.948615,4228.717845,4244.10246,4228.717845,4241.025537
32,0,4221.538358,4253.84605,4225.640922,4224.102461,4230.769127,4231.281948,4237.948614,4222.563999,4222.051179,4225.128102,4223.07682,4233.84605,4224.615281,4222.563999
33,0,4224.102461,4258.974255,4230.769127,4232.307589,4223.58964,4234.358871,4238.974255,4222.563999,4222.563999,4224.615281,4224.615281,4239.487076,4223.58964,4214.871692
34,0,4229.230666,4262.563998,4236.410153,4238.461435,4219.487076,4235.897332,4241.025537,4228.205025,4226.153743,4214.358871,4227.179384,4246.153742,4220.512717,4218.461435
35,0,4221.538358,4257.948614,4232.307589,4231.794768,4232.307589,4233.33323,4239.999896,4228.717845,4225.640922,4216.922974,4227.692204,4237.435794,4217.435794,4211.281948
36,0,4221.025538,4259.999896,4235.384512,4231.281948,4249.743486,4236.410153,4245.128101,4229.743486,4223.07682,4229.743486,4229.230666,4233.84605,4221.025538,4211.794769
37,0,4216.410153,4255.384511,4230.256307,4228.205025,4229.743486,4235.384512,4237.435794,4225.640922,4215.897333,4219.999897,4221.538358,4230.256307,4215.384512,4214.871692
38,0,4214.871692,4252.307588,4229.743486,4232.307589,4208.717846,4233.33323,4233.33323,4225.128102,4218.974256,4211.794769,4219.999897,4235.897332,4210.256307,4219.999897
39,0,4223.58964,4251.281947,4237.435794,4234.358871,4223.07682,4235.897332,4237.435794,4230.769127,4229.230666,4219.487076,4226.666563,4243.58964,4214.871692,4218.974256
40,0,4230.256307,4253.333229,4242.563999,4230.256307,4245.640922,4240.512717,4243.58964,4235.384512,4232.307589,4235.384512,4234.358871,4248.717845,4224.615281,4219.487076
41,0,4214.358871,4243.076819,4236.922973,4223.58964,4232.820409,4234.358871,4236.922973,4229.743486,4222.563999,4236.922973,4228.205025,4241.538358,4222.051179,4211.794769
42,0,4212.82041,4240.512717,4239.999896,4227.179384,4216.922974,4227.692204,4234.871691,4230.256307,4223.07682,4231.794768,4229.230666,4247.179383,4220.512717,4216.922974
43,0,4223.07682,4245.640922,4238.974255,4225.128102,4220.512717,4229.230666,4238.461435,4231.794768,4228.717845,4226.153743,4234.871691,4257.948614,4223.58964,4222.051179
44,0,4231.794768,4254.871691,4239.487076,4227.692204,4230.769127,4235.384512,4244.10246,4234.358871,4233.84605,4237.948614,4242.051178,4265.128101,4228.717845,4234.358871
45,0,4232.307589,4253.333229,4243.076819,4230.256307,4224.615281,4234.871691,4239.487076,4237.948614,4234.871691,4244.10246,4240.512717,4264.10246,4227.179384,4243.076819
46,0,4232.307589,4252.820409,4248.205024,4230.769127,4219.999897,4233.33323,4240.512717,4240.512717,4238.974255,4239.999896,4242.051178,4264.10246,4229.743486,4234.871691
47,0,4232.307589,4257.948614,4247.179383,4231.281948,4217.948615,4231.281948,4242.051178,4237.948614,4237.435794,4236.410153,4244.10246,4263.589639,4232.307589,4225.128102
48,0,4238.974255,4264.10246,4249.743486,4234.871691,4229.230666,4236.922973,4248.717845,4238.974255,4233.33323,4244.10246,4244.10246,4259.999896,4230.256307,4235.897332
49,0,4238.974255,4263.589639,4247.692204,4229.743486,4247.179383,4242.563999,4255.384511,4239.999896,4235.384512,4250.256306,4242.051178,4254.35887,4231.794768,4243.076819
50,0,4224.615281,4258.974255,4242.051178,4224.615281,4236.410153,4237.948614,4247.692204,4236.410153,4236.922973,4236.922973,4239.999896,4249.230665,4230.769127,4225.128102
51,0,4227.692204,4261.538357,4246.153742,4232.820409,4222.051179,4237.435794,4242.563999,4237.435794,4236.922973,4230.769127,4237.435794,4247.692204,4226.666563,4217.948615
52,0,4242.051178,4270.256306,4251.281947,4244.10246,4234.871691,4246.153742,4251.281947,4242.563999,4237.948614,4249.230665,4238.974255,4249.230665,4231.794768,4239.487076
53,0,4240.512717,4277.435793,4251.794768,4245.640922,4246.666563,4248.205024,4257.948614,4243.076819,4237.948614,4261.538357,4240.512717,4251.794768,4239.487076,4251.794768
54,0,4226.153743,4270.256306,4247.692204,4239.487076,4236.410153,4240.512717,4248.205024,4236.410153,4233.33323,4240.512717,4232.820409,4244.615281,4228.717845,4225.128102
55,0,4229.743486,4267.179383,4249.230665,4242.563999,4243.58964,4239.487076,4250.256306,4234.871691,4236.922973,4229.743486,4232.307589,4244.10246,4225.640922,4212.82041
56,0,4233.33323,4266.153742,4244.10246,4239.487076,4249.743486,4242.051178,4252.820409,4232.820409,4238.974255,4233.33323,4237.435794,4244.10246,4232.820409,4235.384512
57,0,4229.743486,4264.61528,4244.615281,4233.33323,4239.999896,4242.563999,4251.794768,4233.33323,4237.435794,4242.051178,4241.025537,4245.640922,4236.410153,4251.281947
58,0,4221.538358,4253.84605,4244.615281,4228.205025,4234.358871,4235.384512,4241.025537,4229.230666,4233.84605,4242.563999,4231.794768,4238.974255,4229.230666,4224.615281
59,0,4222.563999,4253.84605,4245.128101,4230.256307,4238.974255,4235.384512,4241.538358,4229.743486,4235.897332,4236.922973,4229.230666,4241.025537,4228.205025,4219.487076
60,0,4228.205025,4255.897332,4248.205024,4232.820409,4228.717845,4241.538358,4253.333229,4238.974255,4238.974255,4239.487076,4234.358871,4250.256306,4229.743486,4235.384512
61,0,4233.33323,4254.871691,4248.717845,4233.33323,4225.128102,4242.563999,4259.999896,4246.153742,4244.10246,4247.179383,4239.487076,4256.922973,4230.256307,4236.922973
62,0,4223.07682,4241.538358,4234.358871,4216.922974,4237.948614,4232.307589,4244.615281,4235.897332,4235.897332,4229.230666,4230.256307,4245.128101,4222.051179,4225.128102
63,0,4221.025538,4241.025537,4233.33323,4210.769128,4250.769127,4231.794768,4241.538358,4229.230666,4231.794768,4227.692204,4225.128102,4237.435794,4217.435794,4220.512717
64,0,4224.102461,4247.692204,4241.538358,4221.025538,4239.487076,4235.384512,4249.230665,4232.820409,4234.871691,4246.153742,4224.102461,4238.974255,4217.948615,4214.871692
65,0,4225.640922,4254.35887,4242.051178,4230.769127,4229.743486,4235.897332,4248.717845,4235.384512,4235.384512,4240.512717,4227.692204,4238.974255,4219.487076,4219.999897
66,0,4227.179384,4256.922973,4236.922973,4231.281948,4237.435794,4234.871691,4238.974255,4233.84605,4232.307589,4227.179384,4231.794768,4235.897332,4220.512717,4227.692204
67,0,4231.281948,4259.487075,4241.538358,4232.820409,4236.410153,4235.384512,4238.461435,4232.820409,4235.384512,4229.743486,4235.897332,4240.512717,4225.128102,4224.615281
68,0,4232.820409,4262.563998,4246.666563,4236.410153,4224.615281,4235.384512,4239.487076,4230.769127,4233.84605,4218.461435,4236.922973,4245.640922,4226.666563,4225.640922
69,0,4225.640922,4259.487075,4241.025537,4230.256307,4233.33323,4234.358871,4234.358871,4227.692204,4224.615281,4218.461435,4234.358871,4243.076819,4221.538358,4226.666563
70,0,4226.666563,4257.948614,4235.897332,4222.563999,4250.769127,4237.435794,4234.871691,4229.230666,4225.640922,4247.179383,4232.307589,4242.051178,4222.563999,4226.666563
71,0,4224.102461,4255.897332,4231.794768,4221.025538,4241.025537,4238.461435,4234.871691,4227.692204,4230.256307,4249.743486,4230.256307,4236.922973,4225.640922,4231.281948
72,0,4219.999897,4250.256306,4234.871691,4226.666563,4227.179384,4236.922973,4237.435794,4228.205025,4233.33323,4231.794768,4231.281948,4232.307589,4219.999897,4228.205025
73,0,4223.58964,4243.58964,4232.820409,4228.205025,4225.640922,4235.384512,4237.948614,4228.205025,4230.769127,4223.58964,4228.205025,4225.128102,4213.846051,4210.256307
74,0,4236.922973,4250.769127,4228.205025,4230.769127,4229.743486,4234.358871,4235.897332,4227.692204,4226.153743,4226.153743,4232.307589,4224.102461,4224.102461,4219.487076
75,0,4237.435794,4255.384511,4225.640922,4229.230666,4229.230666,4230.256307,4225.128102,4226.153743,4220.512717,4222.051179,4237.435794,4227.179384,4231.794768,4237.435794
76,0,4237.435794,4260.512716,4237.435794,4234.358871,4243.58964,4234.871691,4233.33323,4233.33323,4229.230666,4232.820409,4243.58964,4242.563999,4234.358871,4242.051178
77,0,4238.974255,4258.974255,4243.076819,4236.410153,4248.717845,4236.410153,4242.051178,4234.358871,4236.410153,4239.999896,4241.025537,4244.615281,4230.769127,4240.512717
78,0,4237.435794,4254.871691,4239.999896,4235.384512,4234.871691,4232.820409,4237.435794,4231.281948,4232.820409,4242.563999,4233.84605,4238.974255,4224.615281,4239.999896
79,0,4230.256307,4247.179383,4233.84605,4230.256307,4221.025538,4228.717845,4227.179384,4230.256307,4226.666563,4237.948614,4227.179384,4236.922973,4221.025538,4224.102461
80,0,4232.307589,4249.743486,4238.974255,4234.871691,4227.179384,4231.794768,4230.256307,4231.281948,4228.205025,4234.871691,4229.230666,4242.563999,4224.615281,4228.205025
81,0,4232.307589,4247.692204,4242.563999,4234.358871,4227.179384,4229.230666,4229.230666,4225.640922,4226.666563,4225.640922,4226.153743,4238.974255,4221.538358,4243.58964
82,0,4236.922973,4249.743486,4246.666563,4235.384512,4232.307589,4229.743486,4230.256307,4227.692204,4227.692204,4222.051179,4228.205025,4244.615281,4222.563999,4239.487076
83,0,4237.948614,4253.84605,4247.179383,4234.871691,4246.666563,4232.307589,4232.820409,4233.84605,4230.256307,4233.84605,4236.410153,4256.922973,4227.692204,4229.743486
84,0,4240.512717,4252.307588,4248.717845,4233.33323,4235.897332,4231.281948,4231.794768,4232.307589,4231.794768,4241.538358,4236.922973,4262.563998,4228.717845,4241.025537
85,0,4247.692204,4249.230665,4250.256306,4235.384512,4216.922974,4228.205025,4230.769127,4229.743486,4230.256307,4232.820409,4228.717845,4258.461434,4226.153743,4249.743486
86,0,4244.615281,4251.281947,4247.692204,4237.948614,4228.205025,4231.281948,4239.487076,4234.358871,4233.84605,4237.435794,4232.307589,4254.871691,4225.640922,4245.128101
87,0,4229.743486,4251.281947,4244.615281,4236.410153,4241.025537,4232.307589,4240.512717,4237.948614,4234.871691,4241.538358,4234.871691,4253.84605,4224.102461,4240.512717
88,0,4223.58964,4241.538358,4238.974255,4229.230666,4235.897332,4229.743486,4233.84605,4232.820409,4230.769127,4217.948615,4224.102461,4244.615281,4218.461435,4231.281948
89,0,4235.897332,4240.512717,4235.384512,4228.205025,4236.922973,4232.307589,4241.538358,4236.410153,4234.358871,4219.487076,4226.666563,4244.10246,4222.051179,4235.384512
90,0,4234.358871,4241.538358,4228.205025,4227.692204,4233.84605,4234.871691,4250.256306,4244.10246,4237.948614,4247.692204,4236.922973,4247.179383,4228.205025,4237.948614
91,0,4223.58964,4242.051178,4227.692204,4228.205025,4225.640922,4234.358871,4249.743486,4246.666563,4234.871691,4247.179383,4233.84605,4245.640922,4227.179384,4226.153743
92,0,4222.563999,4243.58964,4228.717845,4229.743486,4224.102461,4231.794768,4240.512717,4236.922973,4229.230666,4227.692204,4225.128102,4237.435794,4219.999897,4222.051179
93,0,4236.922973,4254.35887,4233.33323,4239.999896,4232.820409,4235.897332,4244.615281,4230.769127,4232.307589,4237.435794,4232.820409,4239.487076,4226.666563,4242.051178
94,0,4231.281948,4250.256306,4227.179384,4238.461435,4231.281948,4234.358871,4239.999896,4224.615281,4226.153743,4230.769127,4229.743486,4232.307589,4227.179384,4230.769127
95,0,4223.58964,4244.615281,4225.128102,4235.897332,4230.769127,4228.717845,4231.794768,4220.512717,4222.563999,4216.922974,4221.538358,4228.717845,4221.538358,4210.769128
96,0,4228.717845,4248.717845,4230.256307,4240.512717,4235.897332,4229.743486,4232.307589,4223.07682,4229.230666,4227.692204,4223.58964,4233.84605,4224.102461,4226.153743
97,0,4236.410153,4256.922973,4236.922973,4245.128101,4247.692204,4240.512717,4246.666563,4232.820409,4239.999896,4246.153742,4236.410153,4242.563999,4232.307589,4248.717845
98,0,4227.692204,4249.230665,4232.820409,4236.922973,4240.512717,4238.974255,4245.640922,4233.84605,4241.538358,4241.025537,4234.358871,4238.461435,4227.179384,4237.948614
99,0,4225.128102,4245.640922,4229.743486,4235.897332,4235.384512,4232.820409,4241.538358,4231.281948,4239.487076,4238.461435,4229.230666,4239.487076,4224.615281,4225.640922
100,0,4226.666563,4244.615281,4226.153743,4235.897332,4240.512717,4234.358871,4238.461435,4229.743486,4235.897332,4239.487076,4224.102461,4238.461435,4222.563999,4224.615281
101,0,4223.07682,4240.512717,4224.615281,4232.820409,4235.897332,4236.410153,4234.358871,4231.794768,4236.410153,4228.717845,4224.615281,4235.897332,4216.922974,4231.794768
102,0,4222.051179,4236.922973,4224.615281,4228.205025,4221.025538,4231.794768,4236.922973,4230.256307,4234.871691,4215.384512,4225.640922,4234.358871,4215.384512,4232.307589
103,0,4224.102461,4239.487076,4228.205025,4226.666563,4223.58964,4233.84605,4245.640922,4229.743486,4233.33323,4222.051179,4226.666563,4235.897332,4223.07682,4224.102461
104,0,4223.58964,4237.948614,4229.743486,4228.717845,4233.84605,4237.435794,4242.051178,4229.230666,4235.384512,4232.820409,4224.102461,4236.922973,4225.128102,4218.974256
105,0,4223.58964,4232.307589,4226.666563,4229.230666,4233.33323,4236.922973,4236.410153,4228.717845,4234.871691,4213.33323,4219.999897,4234.358871,4216.410153,4222.563999
106,0,4226.666563,4233.33323,4227.179384,4229.230666,4223.07682,4234.358871,4237.435794,4229.743486,4228.717845,4192.82041,4222.563999,4235.384512,4213.33323,4227.179384
107,0,4227.179384,4237.948614,4229.230666,4236.410153,4206.153743,4232.820409,4232.820409,4226.666563,4227.179384,4212.82041,4224.615281,4237.435794,4220.512717,4229.230666
108,0,4235.384512,4245.640922,4233.33323,4245.128101,4219.487076,4236.410153,4233.84605,4230.256307,4237.948614,4247.692204,4229.743486,4247.692204,4227.179384,4237.435794
109,0,4233.84605,4240.512717,4231.281948,4235.384512,4247.692204,4238.461435,4234.358871,4233.84605,4239.487076,4240.512717,4229.230666,4252.307588,4224.102461,4231.794768
110,0,4229.230666,4238.461435,4234.871691,4231.281948,4245.640922,4237.435794,4235.897332,4235.384512,4236.410153,4224.615281,4233.33323,4253.333229,4225.640922,4234.358871
111,0,4238.461435,4242.563999,4239.487076,4240.512717,4227.179384,4239.999896,4241.025537,4235.384512,4237.948614,4232.820409,4237.435794,4256.410152,4231.281948,4249.743486
112,0,4250.256306,4250.769127,4243.076819,4247.179383,4230.256307,4244.10246,4252.820409,4238.461435,4245.128101,4248.717845,4242.051178,4264.61528,4236.410153,4256.922973
113,0,4233.33323,4243.076819,4233.33323,4232.307589,4233.84605,4237.435794,4244.10246,4236.410153,4240.512717,4235.384512,4234.871691,4254.871691,4227.692204,4239.999896
114,0,4224.102461,4241.538358,4231.794768,4230.256307,4233.84605,4235.897332,4239.487076,4238.974255,4235.897332,4229.230666,4232.307589,4246.666563,4225.128102,4244.615281
115,0,4229.230666,4239.487076,4234.871691,4235.897332,4225.640922,4236.410153,4239.999896,4239.487076,4235.384512,4233.33323,4235.384512,4250.769127,4230.769127,4250.256306
116,0,4229.743486,4239.487076,4236.410153,4237.435794,4225.640922,4235.384512,4241.025537,4233.84605,4238.974255,4232.820409,4235.897332,4255.897332,4234.358871,4237.948614
117,0,4217.948615,4233.33323,4226.666563,4226.666563,4228.205025,4230.769127,4234.871691,4225.640922,4234.871691,4215.897333,4224.615281,4238.974255,4224.102461,4229.230666
118,0,4215.897333,4229.230666,4221.025538,4222.051179,4224.102461,4228.205025,4228.717845,4224.102461,4230.256307,4210.769128,4219.999897,4228.205025,4219.999897,4231.281948
119,0,4216.410153,4231.794768,4221.025538,4226.666563,4216.922974,4226.666563,4220.512717,4225.640922,4230.769127,4217.948615,4222.563999,4230.256307,4221.025538,4221.025538
120,0,4216.922974,4234.871691,4223.07682,4228.717845,4219.999897,4230.256307,4222.563999,4228.717845,4235.384512,4217.435794,4229.230666,4235.897332,4222.563999,4223.07682
121,0,4218.461435,4229.230666,4221.538358,4222.051179,4224.615281,4234.871691,4228.717845,4229.230666,4234.871691,4211.281948,4230.769127,4236.922973,4225.128102,4238.461435
122,0,4219.999897,4232.307589,4221.538358,4221.538358,4229.743486,4235.384512,4230.769127,4232.820409,4238.461435,4223.07682,4230.769127,4237.435794,4227.692204,4232.820409
123,0,4216.410153,4239.487076,4219.999897,4226.153743,4227.179384,4232.820409,4230.769127,4239.487076,4246.153742,4241.538358,4229.743486,4239.999896,4225.640922,4216.922974
124,0,4215.384512,4235.384512,4217.435794,4223.07682,4219.999897,4231.794768,4230.769127,4237.435794,4241.025537,4239.487076,4227.692204,4238.974255,4221.025538,4223.07682
125,0,4229.743486,4237.435794,4228.717845,4225.128102,4224.615281,4235.384512,4241.538358,4233.84605,4236.410153,4233.84605,4233.33323,4246.666563,4226.666563,4245.128101
126,0,4236.410153,4245.128101,4236.410153,4232.820409,4219.487076,4233.84605,4245.640922,4237.435794,4238.974255,4231.281948,4241.538358,4255.897332,4236.922973,4251.281947
127,0,4228.205025,4244.10246,4231.794768,4231.281948,4214.871692,4231.794768,4238.461435,4237.435794,4237.948614,4233.33323,4239.999896,4257.435793,4237.948614,4243.076819
128,0,4217.948615,4233.84605,4226.153743,4220.512717,4225.640922,4230.769127,4231.281948,4228.717845,4231.794768,4229.230666,4229.743486,4245.640922,4224.615281,4238.461435
0,0,4224.615281,4239.487076,4231.794768,4224.102461,4233.84605,4231.281948,4241.025537,4229.743486,4234.358871,4222.563999,4233.84605,4247.179383,4228.717845,4247.179383
1,0,4230.256307,4240.512717,4230.769127,4225.640922,4222.051179,4230.256307,4238.974255,4232.307589,4235.897332,4219.999897,4237.948614,4254.871691,4237.948614,4242.051178
2,0,4228.205025,4234.871691,4227.692204,4222.563999,4217.435794,4229.743486,4230.769127,4233.33323,4236.410153,4233.84605,4233.84605,4252.307588,4232.820409,4237.435794
3,0,4214.358871,4225.128102,4222.563999,4217.435794,4210.769128,4225.128102,4223.07682,4229.230666,4231.794768,4227.692204,4226.153743,4238.461435,4222.563999,4236.410153
4,0,4211.281948,4227.179384,4226.153743,4223.07682,4209.743487,4227.179384,4226.666563,4225.640922,4227.692204,4215.897333,4228.717845,4237.435794,4226.153743,4231.281948
5,0,4212.307589,4222.563999,4221.538358,4218.461435,4213.846051,4231.281948,4229.230666,4221.538358,4225.640922,4209.230666,4224.102461,4232.307589,4221.025538,4214.871692
6,0,4216.922974,4222.563999,4223.07682,4217.948615,4219.999897,4235.897332,4234.871691,4228.205025,4233.33323,4216.922974,4229.743486,4234.358871,4221.025538,4219.487076
7,0,4218.974256,4228.205025,4231.794768,4227.692204,4224.615281,4234.871691,4234.871691,4234.871691,4239.487076,4231.281948,4237.435794,4241.538358,4230.256307,4227.692204
8,0,4217.435794,4232.307589,4231.794768,4229.743486,4238.461435,4235.897332,4235.897332,4234.871691,4237.435794,4241.025537,4235.897332,4244.10246,4233.33323,4227.692204
9,0,4221.025538,4232.820409,4220.512717,4224.102461,4238.461435,4236.922973,4235.384512,4231.794768,4228.717845,4229.230666,4231.281948,4233.84605,4229.230666,4232.307589
10,0,4232.307589,4238.974255,4223.07682,4231.794768,4214.871692,4237.948614,4234.871691,4228.717845,4227.692204,4226.153743,4233.33323,4224.615281,4231.794768,4239.487076
11,0,4229.743486,4242.051178,4228.717845,4237.435794,4205.640923,4235.897332,4231.794768,4226.666563,4234.871691,4239.487076,4231.281948,4219.487076,4234.358871,4232.820409
12,0,4221.538358,4241.025537,4227.692204,4231.794768,4228.717845,4238.974255,4234.871691,4230.256307,4238.461435,4235.384512,4231.794768,4220.512717,4232.307589,4227.179384
13,0,4231.794768,4248.717845,4229.230666,4235.384512,4244.615281,4244.10246,4246.153742,4236.922973,4238.461435,4232.820409,4241.538358,4227.692204,4235.897332,4242.051178
