title:C                                                                               , recorded:01.07.20 13.25.12, sampling:128, subject:C                                                                               , labels:COUNTER INTERPOLATED AF3 F7 F3 FC5 T7 P7 O1 O2 P8 T8 FC6 F4 F8 AF4, chan:37, units:emotiv,,,,,,,,,
108,0,4250.769127,4274.35887,4242.563999,4257.435793,4265.640921,4235.897332,4242.563999,4241.538358,4238.461435,4288.205023,4255.384511,4264.10246,4234.358871,4256.922973
109,0,4255.897332,4282.051177,4242.563999,4266.666562,4261.538357,4236.922973,4241.538358,4245.640922,4245.128101,4285.640921,4255.897332,4263.076819,4236.922973,4253.84605
110,0,4256.922973,4277.435793,4243.076819,4267.692203,4265.128101,4237.435794,4242.563999,4242.563999,4248.717845,4277.435793,4255.384511,4261.538357,4234.358871,4263.076819
111,0,4254.35887,4259.487075,4242.563999,4260.512716,4266.666562,4234.871691,4240.512717,4239.999896,4246.666563,4282.563998,4261.538357,4266.666562,4238.974255,4267.179383
112,0,4256.410152,4252.307588,4245.128101,4266.153742,4266.153742,4235.897332,4236.410153,4242.563999,4244.10246,4282.563998,4262.563998,4267.692203,4244.10246,4261.538357
113,0,4257.948614,4247.179383,4253.84605,4277.435793,4261.025537,4238.974255,4241.538358,4247.179383,4247.692204,4269.230665,4258.974255,4265.640921,4239.487076,4263.589639
114,0,4256.922973,4232.307589,4256.410152,4272.820408,4255.384511,4242.051178,4244.10246,4246.666563,4246.666563,4267.179383,4255.384511,4264.61528,4235.384512,4268.717844
115,0,4259.487075,4226.666563,4250.256306,4268.717844,4255.897332,4239.999896,4237.948614,4239.999896,4242.051178,4273.333229,4253.333229,4259.487075,4237.435794,4264.10246
116,0,4253.84605,4217.948615,4241.025537,4267.179383,4252.307588,4226.153743,4231.281948,4232.307589,4236.410153,4259.999896,4247.692204,4246.666563,4232.307589,4253.333229
117,0,4247.179383,4207.692205,4239.487076,4261.025537,4247.692204,4223.07682,4234.871691,4232.307589,4232.307589,4243.076819,4244.10246,4242.563999,4227.692204,4248.717845
118,0,4248.717845,4210.256307,4247.179383,4262.563998,4238.461435,4233.33323,4236.410153,4237.435794,4230.256307,4236.410153,4244.10246,4247.179383,4227.692204,4251.281947
119,0,4250.256306,4213.33323,4251.281947,4273.333229,4240.512717,4237.435794,4231.794768,4232.307589,4227.179384,4228.717845,4241.538358,4246.153742,4225.640922,4256.922973
120,0,4247.692204,4208.717846,4247.692204,4274.87169,4255.897332,4236.410153,4232.307589,4227.179384,4227.179384,4227.692204,4243.58964,4244.10246,4225.128102,4258.461434
121,0,4246.153742,4208.717846,4242.563999,4268.717844,4254.35887,4236.410153,4233.84605,4230.256307,4227.692204,4231.281948,4248.205024,4245.640922,4229.743486,4252.820409
122,0,4245.640922,4210.769128,4240.512717,4266.666562,4237.435794,4233.33323,4228.205025,4230.256307,4225.640922,4226.666563,4243.076819,4247.692204,4228.205025,4247.179383
123,0,4241.538358,4208.205025,4238.461435,4267.179383,4226.666563,4228.717845,4223.58964,4229.743486,4225.128102,4224.102461,4235.384512,4245.640922,4221.538358,4242.563999
124,0,4239.999896,4212.307589,4236.410153,4265.640921,4229.230666,4230.769127,4226.666563,4239.487076,4231.281948,4230.769127,4236.410153,4242.051178,4221.538358,4238.974255
125,0,4239.487076,4216.922974,4231.794768,4261.025537,4235.384512,4233.33323,4227.179384,4236.410153,4229.743486,4224.615281,4236.410153,4237.435794,4221.025538,4235.384512
126,0,4239.999896,4215.384512,4236.922973,4263.589639,4239.999896,4234.871691,4234.358871,4227.692204,4224.102461,4219.999897,4236.922973,4243.076819,4221.538358,4241.538358
127,0,4234.871691,4206.666564,4237.948614,4265.128101,4231.281948,4229.743486,4234.871691,4227.692204,4222.563999,4221.538358,4235.897332,4244.615281,4221.538358,4239.487076
128,0,4235.897332,4209.743487,4237.435794,4266.666562,4227.692204,4230.256307,4229.743486,4230.256307,4228.205025,4219.487076,4238.461435,4246.153742,4225.640922,4240.512717
0,0,4235.384512,4209.743487,4236.410153,4262.563998,4217.948615,4235.384512,4225.640922,4224.102461,4223.58964,4204.615282,4231.281948,4243.58964,4225.128102,4240.512717
1,0,4228.717845,4204.102461,4230.769127,4255.384511,4210.769128,4231.281948,4226.666563,4222.563999,4215.384512,4198.974256,4222.051179,4235.897332,4218.974256,4234.358871
2,0,4221.025538,4201.025538,4224.102461,4249.230665,4221.025538,4227.179384,4226.153743,4226.666563,4221.025538,4205.128102,4224.615281,4228.717845,4216.410153,4229.743486
3,0,4230.256307,4215.384512,4231.281948,4258.974255,4239.487076,4237.948614,4232.307589,4230.769127,4231.281948,4210.256307,4235.897332,4238.974255,4223.58964,4237.948614
4,0,4238.461435,4227.179384,4238.461435,4270.769126,4235.897332,4240.512717,4232.307589,4231.794768,4227.179384,4203.589641,4231.794768,4244.615281,4225.128102,4239.999896
5,0,4237.435794,4224.615281,4239.487076,4270.769126,4221.025538,4237.435794,4230.769127,4232.820409,4233.84605,4210.769128,4232.307589,4241.538358,4226.153743,4240.512717
6,0,4235.897332,4215.897333,4236.922973,4266.153742,4224.615281,4237.948614,4235.897332,4236.922973,4251.281947,4227.692204,4243.076819,4239.999896,4234.358871,4245.128101
7,0,4234.358871,4205.128102,4228.717845,4259.487075,4237.435794,4235.384512,4236.410153,4239.999896,4246.666563,4223.07682,4237.948614,4234.358871,4234.358871,4241.538358
8,0,4232.820409,4202.051179,4224.102461,4256.410152,4233.84605,4231.794768,4231.794768,4236.410153,4236.410153,4212.307589,4230.769127,4232.307589,4228.205025,4238.974255
9,0,4237.948614,4212.307589,4231.794768,4263.589639,4224.615281,4239.487076,4239.999896,4237.948614,4245.128101,4214.871692,4234.871691,4239.999896,4226.666563,4243.58964
10,0,4243.076819,4218.461435,4236.922973,4268.717844,4237.948614,4247.179383,4251.794768,4245.640922,4254.35887,4222.563999,4239.487076,4245.128101,4233.84605,4246.666563
11,0,4235.384512,4205.128102,4230.256307,4258.461434,4245.640922,4237.948614,4243.076819,4242.563999,4249.230665,4225.128102,4240.512717,4241.025537,4240.512717,4245.128101
12,0,4233.84605,4203.589641,4231.794768,4259.999896,4230.256307,4229.743486,4233.84605,4237.948614,4247.179383,4223.58964,4239.487076,4242.563999,4235.897332,4242.563999
13,0,4242.563999,4209.743487,4239.999896,4269.230665,4227.692204,4236.922973,4241.025537,4243.076819,4253.333229,4218.974256,4235.897332,4248.717845,4229.743486,4243.076819
14,0,4246.666563,4193.333231,4245.128101,4265.128101,4238.461435,4247.179383,4254.871691,4251.281947,4261.538357,4233.33323,4245.128101,4257.435793,4240.512717,4253.333229
15,0,4232.820409,4165.640924,4234.358871,4250.769127,4226.153743,4237.948614,4246.666563,4242.051178,4252.820409,4236.410153,4243.076819,4249.743486,4240.512717,4249.743486
16,0,4223.58964,4162.05118,4228.205025,4251.794768,4216.410153,4233.84605,4237.435794,4236.410153,4243.076819,4217.948615,4229.230666,4239.999896,4228.205025,4237.948614
17,0,4229.230666,4162.564001,4234.358871,4256.410152,4229.743486,4242.051178,4242.051178,4247.179383,4247.692204,4213.846051,4231.281948,4245.640922,4231.281948,4237.948614
18,0,4236.410153,4151.79477,4241.538358,4257.435793,4241.025537,4240.512717,4250.256306,4255.897332,4252.307588,4232.307589,4242.051178,4254.871691,4241.025537,4244.10246
19,0,4225.128102,4133.846053,4234.358871,4252.820409,4232.307589,4232.820409,4246.153742,4249.743486,4244.615281,4229.743486,4233.33323,4244.10246,4231.794768,4239.487076
20,0,4213.846051,4123.076822,4228.717845,4247.692204,4222.563999,4237.435794,4239.999896,4243.58964,4237.435794,4216.922974,4223.58964,4232.820409,4221.538358,4234.871691
21,0,4212.82041,4112.820412,4229.230666,4241.538358,4214.358871,4232.820409,4228.717845,4238.461435,4234.358871,4215.384512,4222.051179,4230.769127,4221.025538,4226.666563
22,0,4218.974256,4108.717848,4229.743486,4243.076819,4211.281948,4222.563999,4225.640922,4233.33323,4241.025537,4220.512717,4225.640922,4233.84605,4225.640922,4224.615281
23,0,4224.102461,4119.487079,4228.717845,4252.820409,4216.922974,4229.743486,4237.435794,4235.384512,4241.538358,4216.410153,4226.666563,4232.820409,4227.179384,4232.307589
24,0,4224.102461,4126.153745,4230.256307,4256.922973,4226.666563,4241.025537,4245.128101,4241.538358,4234.358871,4211.281948,4224.615281,4230.769127,4226.153743,4233.33323
25,0,4217.948615,4112.820412,4229.743486,4245.640922,4227.179384,4233.84605,4236.410153,4237.948614,4234.871691,4213.33323,4219.999897,4226.666563,4224.102461,4222.563999
26,0,4216.410153,4110.76913,4224.102461,4241.538358,4216.922974,4224.102461,4233.33323,4236.410153,4236.410153,4209.230666,4215.897333,4217.948615,4219.487076,4216.922974
27,0,4224.102461,4131.28195,4223.58964,4252.820409,4219.487076,4234.358871,4243.58964,4243.076819,4229.230666,4202.564,4215.897333,4215.897333,4215.897333,4222.563999
28,0,4230.256307,4135.384514,4231.794768,4255.897332,4230.256307,4244.615281,4248.717845,4246.153742,4232.820409,4215.897333,4229.743486,4229.230666,4226.153743,4235.384512
29,0,4231.281948,4129.743489,4238.974255,4252.820409,4229.743486,4237.948614,4248.205024,4244.615281,4241.025537,4227.179384,4237.435794,4241.025537,4234.871691,4239.487076
30,0,4228.717845,4131.28195,4233.84605,4250.256306,4223.58964,4231.794768,4242.563999,4242.563999,4231.281948,4213.33323,4223.58964,4233.33323,4230.256307,4230.769127
31,0,4225.640922,4125.640925,4224.102461,4244.10246,4224.102461,4232.820409,4234.358871,4242.563999,4228.717845,4213.846051,4224.102461,4229.230666,4231.794768,4232.307589
32,0,4212.307589,4112.307592,4216.922974,4234.871691,4222.563999,4228.205025,4225.128102,4237.948614,4230.769127,4216.410153,4223.07682,4227.692204,4223.07682,4224.102461
33,0,4207.692205,4118.974258,4220.512717,4243.076819,4225.640922,4227.692204,4231.794768,4237.435794,4228.717845,4211.281948,4214.871692,4228.205025,4214.358871,4211.281948
34,0,4223.07682,4128.205027,4227.179384,4250.256306,4229.230666,4235.384512,4240.512717,4238.461435,4229.743486,4217.435794,4229.743486,4236.922973,4234.358871,4230.769127
35,0,4241.538358,4130.76913,4231.281948,4248.717845,4228.717845,4238.461435,4241.025537,4239.487076,4234.358871,4228.717845,4254.35887,4247.692204,4262.051178,4268.205024
36,0,4239.999896,4125.128104,4228.717845,4243.076819,4225.640922,4235.897332,4236.922973,4237.435794,4233.33323,4225.128102,4248.717845,4248.205024,4263.589639,4269.743485
37,0,4233.84605,4115.897335,4226.666563,4238.974255,4223.58964,4236.922973,4236.922973,4237.948614,4235.384512,4227.692204,4243.58964,4251.281947,4265.128101,4265.128101
38,0,4234.871691,4110.76913,4226.666563,4238.461435,4217.435794,4235.384512,4237.948614,4241.538358,4239.487076,4233.33323,4257.948614,4257.435793,4278.461434,4283.076818
39,0,4245.128101,4117.948617,4236.410153,4244.615281,4219.999897,4241.538358,4249.230665,4248.205024,4245.128101,4239.487076,4270.256306,4264.10246,4290.256305,4303.589638
40,0,4247.179383,4117.435797,4237.435794,4240.512717,4230.256307,4245.640922,4254.871691,4249.743486,4248.717845,4245.128101,4270.256306,4262.051178,4295.38451,4301.025536
41,0,4233.84605,4108.205028,4229.743486,4230.769127,4233.33323,4239.487076,4248.205024,4248.205024,4249.230665,4241.538358,4272.307588,4257.435793,4296.410151,4288.717844
42,0,4224.615281,4106.666566,4232.820409,4229.743486,4225.128102,4235.897332,4246.666563,4251.281947,4248.717845,4239.487076,4274.35887,4261.025537,4293.333228,4284.61528
43,0,4229.743486,4108.205028,4238.461435,4232.307589,4215.384512,4238.974255,4249.230665,4253.84605,4245.640922,4244.615281,4267.179383,4267.692203,4287.692203,4286.153741
44,0,4229.743486,4104.102464,4233.33323,4226.666563,4208.205025,4233.33323,4241.538358,4246.153742,4238.974255,4237.948614,4257.948614,4261.025537,4282.051177,4282.563998
45,0,4227.692204,4109.230669,4234.358871,4228.717845,4211.281948,4228.205025,4238.461435,4238.461435,4241.025537,4229.230666,4259.487075,4254.871691,4281.025536,4277.435793
46,0,4230.769127,4121.538361,4237.948614,4233.84605,4225.128102,4235.897332,4246.153742,4242.563999,4247.179383,4232.307589,4258.461434,4258.974255,4279.487075,4269.230665
47,0,4227.179384,4123.076822,4231.794768,4229.743486,4227.692204,4240.512717,4246.153742,4244.10246,4239.999896,4227.179384,4249.230665,4258.974255,4274.87169,4264.10246
48,0,4227.692204,4121.02554,4233.84605,4227.179384,4225.128102,4237.948614,4244.615281,4246.666563,4241.025537,4227.179384,4254.871691,4265.128101,4279.487075,4275.897331
49,0,4229.230666,4122.051181,4239.999896,4228.205025,4229.743486,4237.948614,4244.615281,4249.743486,4248.717845,4238.461435,4261.538357,4270.769126,4284.102459,4282.563998
50,0,4222.563999,4127.692207,4235.384512,4229.743486,4236.410153,4242.051178,4247.179383,4249.230665,4246.153742,4242.051178,4255.897332,4265.640921,4281.538357,4270.256306
51,0,4217.435794,4128.205027,4227.692204,4226.666563,4228.717845,4239.487076,4254.871691,4253.333229,4245.640922,4235.897332,4253.333229,4258.461434,4279.999895,4269.743485
52,0,4227.692204,4132.820412,4234.358871,4229.230666,4219.999897,4234.358871,4265.128101,4263.076819,4255.384511,4242.563999,4264.10246,4267.179383,4285.1281,4290.256305
53,0,4225.640922,4139.487078,4230.769127,4229.230666,4218.974256,4233.84605,4255.897332,4252.820409,4244.615281,4235.897332,4255.384511,4260.512716,4278.461434,4281.025536
54,0,4210.256307,4138.974258,4215.384512,4222.563999,4222.563999,4236.922973,4244.615281,4238.974255,4230.256307,4221.538358,4238.974255,4241.025537,4268.717844,4251.281947
55,0,4204.102461,4128.717848,4208.717846,4212.82041,4224.615281,4238.461435,4247.692204,4246.153742,4239.487076,4228.717845,4245.128101,4240.512717,4271.281947,4248.205024
56,0,4216.410153,4138.974258,4219.999897,4219.487076,4232.307589,4243.58964,4255.384511,4256.922973,4249.743486,4243.076819,4256.410152,4250.769127,4278.974254,4265.640921
57,0,4223.58964,4161.53836,4224.102461,4230.256307,4232.820409,4242.563999,4250.769127,4251.281947,4245.640922,4237.948614,4245.128101,4244.10246,4273.846049,4260.512716
58,0,4217.948615,4162.05118,4216.922974,4227.179384,4227.179384,4234.871691,4244.10246,4245.640922,4246.153742,4235.897332,4237.948614,4239.487076,4267.179383,4251.794768
59,0,4208.205025,4149.743488,4212.307589,4214.358871,4233.84605,4231.794768,4237.435794,4242.563999,4240.512717,4231.794768,4242.051178,4239.487076,4264.10246,4254.35887
60,0,4212.307589,4160.512719,4217.948615,4215.897333,4246.153742,4238.461435,4239.999896,4242.563999,4227.179384,4222.051179,4242.051178,4239.487076,4263.589639,4255.384511
61,0,4215.897333,4173.846052,4222.051179,4225.640922,4232.307589,4237.948614,4244.10246,4245.640922,4222.563999,4212.82041,4235.384512,4241.025537,4257.435793,4248.717845
62,0,4199.999897,4159.487078,4211.281948,4215.897333,4217.435794,4230.256307,4239.999896,4241.025537,4223.07682,4202.564,4230.769127,4236.410153,4247.692204,4236.922973
63,0,4193.333231,4152.307591,4206.666564,4203.07682,4233.84605,4232.307589,4240.512717,4234.871691,4218.974256,4201.538359,4232.820409,4228.717845,4249.743486,4236.410153
64,0,4208.205025,4174.871693,4222.563999,4214.871692,4249.230665,4236.922973,4248.717845,4242.051178,4224.102461,4214.871692,4241.025537,4237.435794,4262.051178,4254.35887
65,0,4212.307589,4190.256308,4229.230666,4227.179384,4243.58964,4234.358871,4248.717845,4249.230665,4232.307589,4221.025538,4242.563999,4244.10246,4259.999896,4258.974255
66,0,4203.07682,4186.666564,4221.025538,4219.999897,4239.999896,4233.84605,4244.10246,4244.615281,4231.794768,4221.025538,4238.974255,4236.410153,4252.307588,4245.640922
67,0,4205.128102,4189.230667,4219.999897,4217.948615,4245.640922,4237.435794,4250.769127,4246.153742,4235.384512,4229.743486,4245.128101,4239.487076,4260.512716,4250.769127
68,0,4200.512718,4190.256308,4217.948615,4215.384512,4241.538358,4236.410153,4249.743486,4248.205024,4236.410153,4223.58964,4245.128101,4243.58964,4260.512716,4254.871691
69,0,4189.743487,4195.897333,4215.897333,4213.846051,4245.128101,4237.948614,4247.692204,4246.666563,4232.820409,4213.33323,4236.922973,4239.487076,4247.692204,4242.563999
70,0,4194.871692,4202.564,4218.461435,4216.922974,4248.717845,4241.538358,4254.871691,4248.717845,4229.230666,4209.743487,4233.33323,4234.358871,4245.128101,4232.820409
71,0,4206.153743,4204.102461,4224.102461,4223.07682,4242.563999,4242.051178,4264.10246,4251.794768,4234.871691,4217.948615,4242.563999,4242.051178,4256.922973,4244.10246
72,0,4202.051179,4207.692205,4221.538358,4222.051179,4238.974255,4237.948614,4255.897332,4243.076819,4233.84605,4225.128102,4242.563999,4244.615281,4254.871691,4248.717845
73,0,4205.640923,4218.461435,4224.102461,4223.58964,4246.666563,4236.922973,4245.640922,4239.487076,4234.358871,4227.179384,4237.948614,4243.58964,4250.256306,4246.153742
74,0,4211.794769,4209.230666,4229.230666,4222.051179,4248.205024,4238.974255,4247.692204,4245.128101,4234.358871,4222.563999,4236.922973,4243.076819,4249.230665,4249.230665
75,0,4206.666564,4199.999897,4229.230666,4219.487076,4244.615281,4242.051178,4251.281947,4247.179383,4228.717845,4217.435794,4234.871691,4242.051178,4247.692204,4248.205024
76,0,4197.948615,4205.128102,4223.58964,4220.512717,4242.563999,4239.487076,4242.051178,4241.025537,4225.640922,4213.33323,4230.769127,4237.948614,4244.10246,4238.974255
77,0,4210.256307,4216.410153,4230.769127,4229.230666,4249.743486,4240.512717,4245.640922,4243.076819,4231.281948,4218.461435,4236.922973,4242.563999,4244.615281,4244.615281
78,0,4224.102461,4219.999897,4242.563999,4235.384512,4254.35887,4247.179383,4257.948614,4249.743486,4236.410153,4227.692204,4244.10246,4252.307588,4248.205024,4255.384511
79,0,4219.999897,4208.717846,4239.999896,4228.205025,4252.820409,4248.205024,4253.333229,4246.666563,4236.922973,4225.128102,4243.076819,4253.333229,4251.281947,4250.256306
80,0,4207.692205,4196.922974,4230.769127,4219.999897,4251.794768,4242.563999,4244.10246,4241.538358,4237.948614,4218.974256,4242.563999,4249.743486,4254.35887,4245.640922
81,0,4199.999897,4197.435795,4225.640922,4222.563999,4248.717845,4238.974255,4245.128101,4243.076819,4236.922973,4220.512717,4242.563999,4243.58964,4251.281947,4246.666563
82,0,4206.666564,4196.410154,4224.615281,4223.07682,4236.922973,4239.487076,4250.256306,4246.666563,4236.410153,4225.640922,4242.563999,4243.58964,4248.717845,4239.999896
83,0,4208.205025,4189.230667,4223.07682,4217.435794,4229.743486,4240.512717,4249.743486,4251.794768,4238.461435,4223.07682,4239.999896,4245.128101,4249.743486,4237.948614
84,0,4199.487077,4188.717846,4221.538358,4221.538358,4238.974255,4239.999896,4245.640922,4256.410152,4240.512717,4217.435794,4237.435794,4241.538358,4247.179383,4242.051178
85,0,4202.051179,4190.256308,4223.07682,4224.102461,4249.743486,4241.025537,4242.051178,4254.35887,4247.179383,4225.640922,4242.051178,4242.051178,4248.717845,4244.10246
86,0,4215.897333,4193.846051,4227.692204,4223.07682,4252.307588,4243.58964,4245.128101,4255.384511,4251.281947,4239.999896,4248.717845,4251.794768,4257.435793,4255.897332
87,0,4212.82041,4192.82041,4227.179384,4223.58964,4248.717845,4241.025537,4242.563999,4252.307588,4243.076819,4231.794768,4240.512717,4248.205024,4253.84605,4256.410152
88,0,4206.666564,4187.179385,4228.205025,4224.615281,4246.666563,4239.999896,4241.025537,4245.640922,4242.563999,4223.07682,4235.384512,4244.10246,4247.179383,4248.205024
89,0,4215.897333,4188.205026,4232.307589,4224.102461,4239.999896,4239.487076,4245.640922,4246.153742,4246.153742,4225.640922,4240.512717,4247.692204,4249.230665,4249.743486
90,0,4223.58964,4194.871692,4233.33323,4228.205025,4236.410153,4240.512717,4249.230665,4248.717845,4242.563999,4223.07682,4243.58964,4251.794768,4251.794768,4251.794768
91,0,4213.846051,4183.076821,4227.179384,4224.615281,4228.717845,4235.897332,4243.076819,4239.999896,4231.794768,4211.281948,4231.794768,4246.153742,4244.10246,4241.025537
92,0,4209.743487,4177.435795,4226.153743,4222.563999,4225.128102,4229.743486,4240.512717,4239.999896,4234.358871,4216.922974,4228.717845,4246.153742,4244.10246,4239.487076
93,0,4210.769128,4183.076821,4227.692204,4224.615281,4232.307589,4229.230666,4238.974255,4248.717845,4242.563999,4221.025538,4236.410153,4247.692204,4248.717845,4243.076819
94,0,4212.82041,4187.692205,4229.230666,4229.230666,4244.615281,4240.512717,4242.051178,4250.769127,4244.615281,4218.461435,4241.538358,4248.205024,4248.717845,4243.58964
95,0,4211.281948,4186.153744,4225.640922,4227.692204,4242.051178,4242.051178,4239.999896,4248.205024,4240.512717,4221.538358,4239.487076,4249.230665,4248.717845,4242.563999
96,0,4211.281948,4184.615282,4223.58964,4223.07682,4232.307589,4230.769127,4233.84605,4249.230665,4236.922973,4218.974256,4239.999896,4251.794768,4250.256306,4241.025537
97,0,4212.307589,4183.076821,4221.538358,4222.563999,4226.666563,4224.102461,4231.794768,4244.615281,4231.794768,4207.692205,4234.358871,4244.10246,4246.153742,4240.512717
98,0,4207.179384,4173.846052,4219.999897,4223.58964,4225.128102,4226.153743,4231.794768,4236.410153,4228.205025,4208.717846,4228.205025,4234.871691,4243.58964,4245.640922
99,0,4207.179384,4164.102462,4223.07682,4219.999897,4229.743486,4230.256307,4232.307589,4237.948614,4234.871691,4219.999897,4232.307589,4239.999896,4247.692204,4241.538358
100,0,4218.974256,4172.30759,4230.256307,4223.58964,4237.435794,4234.871691,4235.897332,4244.10246,4241.025537,4219.487076,4234.358871,4247.692204,4244.10246,4235.384512
101,0,4230.769127,4189.230667,4235.384512,4240.512717,4243.076819,4238.461435,4236.922973,4242.051178,4236.922973,4212.82041,4232.307589,4247.692204,4237.948614,4246.666563
102,0,4229.743486,4181.538359,4235.897332,4244.615281,4237.948614,4236.410153,4230.256307,4238.461435,4232.820409,4216.410153,4237.435794,4247.179383,4246.153742,4254.871691
103,0,4226.153743,4167.692206,4237.948614,4238.461435,4228.717845,4233.33323,4228.205025,4241.538358,4235.897332,4218.461435,4236.922973,4250.769127,4249.230665,4245.640922
104,0,4224.102461,4167.179385,4234.358871,4235.897332,4223.58964,4230.256307,4226.666563,4237.948614,4232.307589,4198.974256,4223.07682,4246.153742,4232.307589,4235.384512
105,0,4222.563999,4166.153744,4229.743486,4236.922973,4225.128102,4231.281948,4232.307589,4238.461435,4229.743486,4195.897333,4226.153743,4243.58964,4227.692204,4242.563999
106,0,4217.435794,4153.846052,4228.205025,4234.358871,4229.743486,4231.794768,4239.487076,4245.640922,4229.230666,4211.794769,4235.384512,4242.051178,4235.384512,4246.153742
107,0,4216.922974,4157.435796,4227.692204,4235.384512,4230.769127,4230.256307,4236.410153,4243.076819,4227.179384,4210.256307,4228.205025,4235.897332,4233.33323,4237.435794
108,0,4219.487076,4166.153744,4226.666563,4236.922973,4223.07682,4228.205025,4229.743486,4235.897332,4225.128102,4195.897333,4219.487076,4230.769127,4225.640922,4229.743486
109,0,4223.58964,4165.128103,4231.794768,4237.435794,4228.205025,4233.84605,4241.025537,4244.615281,4234.358871,4210.256307,4231.281948,4239.999896,4232.307589,4234.358871
110,0,4218.461435,4157.435796,4228.205025,4230.769127,4237.435794,4233.33323,4239.487076,4246.153742,4236.922973,4218.461435,4234.358871,4242.563999,4235.384512,4230.256307
111,0,4219.487076,4165.128103,4223.58964,4230.256307,4235.384512,4230.769127,4232.307589,4242.563999,4234.358871,4211.281948,4228.717845,4241.538358,4233.33323,4228.205025
112,0,4224.102461,4172.30759,4226.153743,4236.410153,4227.179384,4232.820409,4239.487076,4250.256306,4239.999896,4212.82041,4230.769127,4246.153742,4235.384512,4237.948614
113,0,4222.563999,4165.128103,4223.07682,4235.897332,4222.051179,4227.179384,4238.974255,4252.820409,4243.58964,4212.82041,4232.307589,4243.076819,4238.461435,4243.58964
114,0,4212.82041,4155.384514,4211.794769,4228.205025,4214.871692,4216.922974,4223.07682,4241.025537,4230.769127,4199.487077,4220.512717,4225.128102,4231.281948,4233.33323
115,0,4210.256307,4155.897334,4213.846051,4226.666563,4220.512717,4226.666563,4229.743486,4242.563999,4228.205025,4197.435795,4219.999897,4224.102461,4225.640922,4230.256307
116,0,4213.846051,4157.948616,4217.948615,4227.179384,4228.717845,4234.358871,4239.487076,4248.205024,4235.897332,4206.666564,4228.717845,4233.33323,4231.281948,4232.820409
117,0,4210.256307,4158.974257,4213.33323,4229.230666,4217.948615,4224.615281,4224.615281,4236.410153,4229.230666,4202.564,4224.102461,4226.666563,4232.307589,4222.051179
118,0,4207.692205,4161.025539,4213.33323,4232.820409,4214.871692,4223.58964,4218.461435,4230.256307,4219.999897,4194.871692,4219.487076,4218.974256,4227.692204,4214.871692
119,0,4212.82041,4165.640924,4215.384512,4233.33323,4229.230666,4233.84605,4225.128102,4233.84605,4222.051179,4198.974256,4224.102461,4224.102461,4227.692204,4221.538358
120,0,4218.974256,4167.179385,4214.358871,4229.743486,4231.794768,4229.230666,4221.538358,4231.794768,4223.58964,4204.102461,4227.692204,4227.179384,4228.717845,4228.205025
121,0,4221.025538,4158.974257,4215.897333,4227.179384,4220.512717,4217.948615,4212.307589,4227.179384,4221.538358,4198.974256,4228.205025,4224.102461,4227.179384,4226.666563
122,0,4223.58964,4162.05118,4224.615281,4235.384512,4222.563999,4225.640922,4218.974256,4231.281948,4228.717845,4203.589641,4232.307589,4230.769127,4230.256307,4227.179384
123,0,4225.640922,4173.846052,4229.230666,4242.563999,4224.102461,4233.84605,4228.205025,4235.897332,4233.33323,4207.692205,4229.743486,4233.84605,4228.205025,4229.230666
124,0,4230.769127,4173.333231,4231.794768,4243.58964,4224.102461,4233.84605,4237.948614,4242.051178,4240.512717,4211.794769,4229.743486,4236.410153,4228.205025,4238.974255
125,0,4228.205025,4163.589642,4226.666563,4236.922973,4227.692204,4230.769127,4234.871691,4245.128101,4243.58964,4213.33323,4231.794768,4234.358871,4231.281948,4242.051178
126,0,4226.666563,4170.769129,4224.615281,4236.922973,4229.743486,4232.307589,4226.153743,4240.512717,4238.461435,4213.33323,4234.358871,4237.948614,4231.794768,4235.384512
127,0,4227.179384,4170.256308,4226.153743,4237.948614,4225.128102,4230.769127,4223.07682,4235.897332,4233.84605,4205.640923,4231.281948,4239.999896,4225.640922,4234.358871
128,0,4229.743486,4163.589642,4228.205025,4238.461435,4224.102461,4227.692204,4227.692204,4242.563999,4236.922973,4205.128102,4229.230666,4236.410153,4228.205025,4246.666563
0,0,4219.487076,4154.871693,4224.615281,4231.794768,4221.025538,4225.640922,4223.58964,4243.58964,4235.384512,4205.128102,4223.07682,4226.666563,4228.205025,4236.922973
1,0,4211.281948,4147.692206,4224.102461,4228.717845,4223.58964,4227.179384,4219.999897,4237.948614,4227.692204,4194.871692,4215.897333,4225.640922,4219.487076,4221.025538
2,0,4219.487076,4151.79477,4227.692204,4232.820409,4225.640922,4227.692204,4220.512717,4235.897332,4223.58964,4192.82041,4211.794769,4229.743486,4216.410153,4231.794768
3,0,4230.769127,4169.743488,4227.179384,4237.948614,4220.512717,4226.666563,4221.025538,4235.897332,4227.179384,4201.025538,4212.307589,4227.179384,4219.487076,4246.153742
4,0,4234.358871,4179.487077,4221.538358,4239.487076,4223.58964,4224.615281,4217.435794,4231.281948,4224.615281,4193.846051,4208.205025,4218.974256,4211.281948,4234.358871
5,0,4238.974255,4186.153744,4225.640922,4242.563999,4235.384512,4228.717845,4223.07682,4232.820409,4220.512717,4186.666564,4209.743487,4219.999897,4200.512718,4233.33323
6,0,4243.58964,4205.640923,4229.230666,4248.205024,4231.281948,4228.717845,4224.102461,4232.307589,4219.487076,4186.153744,4206.666564,4221.538358,4195.384513,4242.563999
7,0,4237.948614,4214.358871,4221.025538,4249.230665,4221.025538,4221.025538,4212.82041,4224.102461,4217.435794,4172.820411,4194.358872,4209.230666,4187.179385,4226.153743
8,0,4236.410153,4209.743487,4219.487076,4247.692204,4225.640922,4220.512717,4211.281948,4224.102461,4212.307589,4162.05118,4187.692205,4201.538359,4175.897334,4210.256307
9,0,4241.025537,4212.82041,4225.640922,4248.717845,4238.461435,4228.717845,4219.487076,4227.179384,4213.846051,4167.692206,4189.743487,4209.230666,4174.358872,4215.897333
10,0,4243.58964,4223.07682,4225.640922,4253.333229,4246.153742,4233.84605,4222.563999,4227.179384,4221.025538,4171.79477,4195.384513,4215.897333,4181.538359,4219.487076
11,0,4240.512717,4220.512717,4221.025538,4253.84605,4239.487076,4229.743486,4219.999897,4231.281948,4223.58964,4174.358872,4200.512718,4212.307589,4182.05118,4214.871692
12,0,4237.435794,4211.281948,4223.07682,4250.256306,4236.410153,4229.230666,4228.205025,4239.487076,4228.717845,4187.692205,4199.999897,4212.307589,4181.025539,4222.563999
13,0,4234.358871,4208.205025,4221.538358,4244.615281,4239.487076,4230.256307,4228.205025,4241.025537,4233.33323,4190.256308,4192.30759,4210.769128,4182.05118,4221.538358
14,0,4236.922973,4214.871692,4221.538358,4248.717845,4238.461435,4232.820409,4224.102461,4241.538358,4235.384512,4189.230667,4197.948615,4212.82041,4183.076821,4211.794769
15,0,4233.33323,4217.435794,4221.025538,4249.230665,4234.358871,4231.281948,4218.461435,4236.922973,4228.717845,4184.615282,4196.410154,4210.256307,4175.384513,4208.717846
16,0,4232.820409,4212.82041,4225.128102,4244.615281,4237.948614,4229.743486,4215.384512,4233.33323,4226.666563,4182.05118,4191.794769,4211.794769,4175.384513,4217.435794
17,0,4238.974255,4209.230666,4227.692204,4246.153742,4237.435794,4230.769127,4214.358871,4233.33323,4228.205025,4180.512718,4196.922974,4217.948615,4183.589641,4215.384512
18,0,4241.538358,4216.922974,4230.256307,4255.384511,4236.410153,4232.307589,4218.974256,4232.820409,4227.692204,4182.564,4203.07682,4223.07682,4187.179385,4214.871692
19,0,4232.307589,4212.82041,4229.743486,4248.717845,4238.974255,4229.743486,4220.512717,4230.769127,4226.153743,4184.615282,4198.974256,4218.974256,4184.615282,4219.487076
20,0,4224.102461,4205.640923,4224.102461,4237.948614,4243.076819,4228.717845,4220.512717,4229.230666,4224.615281,4184.615282,4195.384513,4211.794769,4181.538359,4209.743487
21,0,4223.07682,4208.717846,4219.999897,4241.025537,4242.051178,4231.794768,4222.051179,4231.794768,4225.128102,4180.512718,4199.487077,4211.794769,4185.128103,4204.102461
22,0,4227.179384,4215.897333,4225.640922,4248.205024,4238.461435,4233.84605,4226.153743,4233.84605,4228.205025,4182.05118,4201.538359,4216.410153,4190.769128,4216.410153
23,0,4225.128102,4213.33323,4225.128102,4244.615281,4237.435794,4229.230666,4224.102461,4231.794768,4227.179384,4187.692205,4195.897333,4212.82041,4184.615282,4215.384512
24,0,4223.07682,4210.769128,4222.051179,4241.025537,4237.435794,4227.692204,4222.051179,4236.922973,4228.205025,4188.717846,4199.999897,4214.871692,4182.05118,4207.179384
25,0,4226.666563,4212.307589,4226.666563,4243.076819,4236.410153,4227.179384,4221.025538,4243.076819,4231.281948,4186.153744,4206.153743,4224.615281,4190.256308,4211.281948
26,0,4224.615281,4210.769128,4222.563999,4239.999896,4231.281948,4224.102461,4214.871692,4234.871691,4226.153743,4185.128103,4198.974256,4220.512717,4190.769128,4212.307589
27,0,4222.051179,4209.230666,4214.358871,4240.512717,4226.666563,4222.051179,4213.846051,4226.666563,4220.512717,4185.128103,4194.358872,4210.769128,4183.589641,4209.230666
28,0,4225.128102,4207.692205,4219.487076,4244.615281,4223.07682,4224.615281,4221.538358,4228.205025,4222.051179,4187.179385,4200.512718,4215.897333,4186.666564,4214.358871
29,0,4227.692204,4208.205025,4228.205025,4245.128101,4226.666563,4224.102461,4220.512717,4230.256307,4225.640922,4195.897333,4207.179384,4228.717845,4196.410154,4215.897333
30,0,4224.102461,4210.256307,4228.205025,4243.58964,4233.33323,4222.563999,4210.256307,4231.281948,4228.717845,4198.974256,4208.717846,4231.281948,4195.897333,4213.33323
31,0,4230.256307,4217.948615,4235.897332,4251.794768,4242.563999,4225.128102,4216.922974,4238.461435,4236.922973,4203.589641,4216.922974,4237.948614,4197.948615,4227.179384
32,0,4232.820409,4219.487076,4239.487076,4251.281947,4239.487076,4222.563999,4220.512717,4239.487076,4235.897332,4204.102461,4216.922974,4239.999896,4201.538359,4232.307589
33,0,4231.794768,4215.897333,4235.384512,4247.179383,4231.794768,4223.07682,4215.897333,4234.871691,4235.384512,4205.640923,4213.33323,4239.999896,4204.102461,4226.153743
34,0,4232.820409,4213.846051,4235.897332,4251.281947,4231.794768,4225.128102,4215.897333,4231.794768,4237.948614,4204.615282,4211.794769,4238.461435,4201.025538,4221.538358
35,0,4236.410153,4219.999897,4242.051178,4257.948614,4239.487076,4229.743486,4226.666563,4238.461435,4238.461435,4206.666564,4213.33323,4234.871691,4201.025538,4225.640922
36,0,4235.897332,4218.461435,4234.871691,4251.281947,4238.974255,4228.205025,4228.205025,4241.538358,4232.307589,4201.538359,4206.666564,4222.563999,4197.948615,4214.871692
37,0,4233.84605,4216.922974,4227.179384,4248.717845,4236.922973,4224.615281,4224.102461,4235.384512,4232.307589,4195.384513,4203.07682,4216.922974,4192.30759,4203.589641
38,0,4229.743486,4219.487076,4226.153743,4253.333229,4235.897332,4222.563999,4221.025538,4230.769127,4233.33323,4196.922974,4205.640923,4217.948615,4194.358872,4211.794769
39,0,4228.717845,4216.922974,4230.769127,4252.820409,4233.33323,4221.538358,4219.487076,4230.256307,4225.128102,4202.051179,4206.666564,4219.487076,4199.999897,4222.051179
40,0,4232.307589,4208.205025,4233.84605,4247.179383,4223.07682,4218.461435,4214.871692,4225.128102,4216.922974,4196.922974,4204.102461,4221.025538,4196.922974,4213.33323
41,0,4232.820409,4209.743487,4233.84605,4246.666563,4219.999897,4217.948615,4214.358871,4223.07682,4216.922974,4186.153744,4203.589641,4219.999897,4191.794769,4205.128102
42,0,4225.640922,4212.307589,4231.281948,4246.666563,4233.33323,4224.102461,4218.974256,4226.666563,4215.897333,4181.025539,4202.564,4217.435794,4191.794769,4215.384512
43,0,4225.640922,4211.281948,4232.307589,4247.179383,4239.487076,4227.692204,4221.538358,4229.743486,4216.922974,4184.615282,4205.640923,4221.538358,4194.358872,4218.974256
44,0,4229.230666,4208.205025,4232.307589,4247.692204,4225.640922,4222.051179,4220.512717,4228.717845,4219.999897,4191.281949,4210.256307,4225.128102,4199.487077,4210.256307
45,0,4224.615281,4197.948615,4228.205025,4241.025537,4221.538358,4219.999897,4219.999897,4228.205025,4219.999897,4195.897333,4211.281948,4224.615281,4204.102461,4212.82041
46,0,4217.435794,4194.358872,4225.640922,4236.922973,4230.256307,4221.025538,4217.948615,4230.769127,4218.974256,4194.871692,4209.230666,4226.666563,4202.051179,4218.974256
47,0,4214.358871,4197.948615,4226.666563,4235.897332,4227.179384,4214.871692,4209.230666,4228.205025,4215.897333,4185.128103,4201.538359,4225.640922,4196.922974,4204.615282
48,0,4221.538358,4205.128102,4231.281948,4238.974255,4223.07682,4214.358871,4211.281948,4227.179384,4219.999897,4186.666564,4202.564,4225.640922,4198.974256,4201.025538
49,0,4224.102461,4207.179384,4230.256307,4241.025537,4231.281948,4221.025538,4217.948615,4229.743486,4226.666563,4191.794769,4205.640923,4225.128102,4199.999897,4215.384512
50,0,4219.487076,4205.128102,4224.102461,4241.025537,4236.410153,4221.025538,4213.846051,4229.743486,4226.666563,4189.743487,4202.564,4224.102461,4197.948615,4213.846051
51,0,4211.794769,4192.82041,4213.846051,4233.84605,4219.999897,4214.871692,4198.461436,4221.025538,4216.410153,4180.512718,4192.30759,4211.281948,4193.846051,4195.897333
52,0,4218.461435,4193.333231,4214.871692,4234.358871,4214.871692,4219.999897,4204.615282,4221.025538,4216.922974,4181.025539,4194.358872,4207.692205,4194.871692,4201.538359
53,0,4224.102461,4202.564,4220.512717,4238.974255,4226.666563,4225.128102,4214.871692,4226.666563,4222.051179,4185.640923,4202.051179,4216.410153,4198.461436,4212.82041
54,0,4217.435794,4203.07682,4219.487076,4238.461435,4230.769127,4223.58964,4212.82041,4227.179384,4224.102461,4190.769128,4204.615282,4218.461435,4201.025538,4209.230666
55,0,4210.769128,4198.974256,4211.281948,4233.84605,4219.999897,4218.974256,4204.102461,4223.58964,4221.538358,4188.717846,4195.897333,4203.07682,4197.948615,4199.487077
56,0,4212.82041,4195.897333,4213.33323,4234.871691,4219.999897,4222.563999,4206.153743,4226.153743,4221.538358,4186.666564,4192.82041,4198.461436,4194.871692,4193.333231
57,0,4206.666564,4187.692205,4216.410153,4233.33323,4224.615281,4226.153743,4210.769128,4225.640922,4221.025538,4185.640923,4195.384513,4204.102461,4190.769128,4186.666564
58,0,4208.717846,4193.333231,4216.922974,4234.358871,4225.128102,4225.128102,4209.743487,4223.07682,4218.974256,4186.153744,4198.461436,4206.666564,4191.794769,4199.487077
59,0,4230.256307,4213.846051,4222.051179,4242.051178,4223.07682,4224.615281,4208.205025,4225.128102,4217.435794,4186.153744,4201.025538,4209.743487,4198.974256,4219.487076
60,0,4233.84605,4214.358871,4223.07682,4245.128101,4219.487076,4223.07682,4212.307589,4229.743486,4217.435794,4183.076821,4198.974256,4211.281948,4202.051179,4215.897333
61,0,4213.846051,4191.281949,4211.794769,4236.922973,4221.538358,4215.384512,4212.307589,4227.692204,4215.384512,4181.538359,4194.871692,4202.564,4194.871692,4206.666564
62,0,4214.871692,4185.128103,4211.281948,4237.435794,4235.897332,4218.974256,4214.871692,4226.153743,4214.871692,4186.153744,4197.435795,4202.564,4193.846051,4210.769128
63,0,4234.871691,4196.922974,4225.640922,4248.717845,4237.948614,4229.743486,4227.692204,4230.256307,4221.025538,4192.30759,4202.051179,4215.384512,4201.025538,4217.948615
64,0,4235.897332,4198.461436,4227.179384,4250.256306,4222.051179,4227.179384,4226.153743,4227.692204,4220.512717,4184.615282,4196.922974,4214.871692,4199.999897,4215.897333
65,0,4227.179384,4195.897333,4219.487076,4243.076819,4228.205025,4222.051179,4215.897333,4224.615281,4214.358871,4182.564,4197.948615,4209.743487,4197.948615,4210.769128
66,0,4223.07682,4194.871692,4216.922974,4235.384512,4241.025537,4222.051179,4217.435794,4227.692204,4212.82041,4189.743487,4206.153743,4213.846051,4200.512718,4211.794769
67,0,4217.948615,4193.846051,4217.948615,4235.897332,4229.743486,4218.974256,4217.948615,4227.692204,4216.410153,4195.897333,4206.153743,4215.897333,4202.564,4219.487076
68,0,4213.846051,4192.30759,4215.384512,4238.461435,4214.871692,4215.897333,4206.666564,4219.487076,4214.871692,4190.769128,4196.410154,4207.179384,4199.487077,4212.307589
69,0,4225.128102,4205.128102,4220.512717,4245.640922,4228.205025,4222.563999,4214.358871,4224.615281,4215.384512,4187.692205,4201.025538,4211.794769,4202.051179,4205.128102
70,0,4231.794768,4205.128102,4227.179384,4245.640922,4234.871691,4225.128102,4227.692204,4235.384512,4219.999897,4192.82041,4212.307589,4220.512717,4206.153743,4214.871692
71,0,4226.666563,4194.871692,4225.128102,4238.974255,4232.307589,4226.666563,4230.256307,4237.948614,4225.128102,4200.512718,4214.871692,4221.538358,4205.640923,4228.205025
72,0,4221.025538,4189.743487,4215.384512,4232.307589,4231.281948,4227.692204,4223.58964,4230.769127,4218.461435,4191.281949,4205.640923,4215.384512,4198.974256,4218.974256
73,0,4227.692204,4196.922974,4220.512717,4238.974255,4224.615281,4227.179384,4223.58964,4227.692204,4216.410153,4190.769128,4206.666564,4215.897333,4202.051179,4215.897333
74,0,4235.384512,4201.538359,4233.33323,4244.615281,4223.58964,4228.717845,4224.102461,4230.769127,4226.153743,4208.205025,4212.307589,4221.538358,4209.230666,4222.563999
75,0,4231.794768,4197.948615,4231.281948,4239.999896,4234.871691,4230.769127,4217.948615,4230.256307,4230.769127,4214.871692,4211.794769,4222.563999,4207.692205,4218.974256
76,0,4223.58964,4190.256308,4221.538358,4236.410153,4228.717845,4224.102461,4205.128102,4220.512717,4222.563999,4196.410154,4204.615282,4216.410153,4202.564,4209.230666
77,0,4223.07682,4192.30759,4224.615281,4238.974255,4219.999897,4222.051179,4202.564,4217.435794,4219.487076,4188.205026,4204.102461,4215.384512,4206.153743,4214.871692
78,0,4224.615281,4198.974256,4225.128102,4238.461435,4233.84605,4224.615281,4211.281948,4222.563999,4221.025538,4195.897333,4205.128102,4213.846051,4209.743487,4216.922974
79,0,4225.640922,4198.974256,4220.512717,4237.435794,4244.615281,4224.615281,4220.512717,4224.102461,4219.487076,4198.974256,4202.564,4208.205025,4204.615282,4202.051179
80,0,4226.666563,4198.974256,4220.512717,4240.512717,4231.281948,4224.102461,4225.128102,4226.666563,4220.512717,4198.461436,4201.538359,4204.615282,4200.512718,4201.538359
81,0,4218.974256,4200.512718,4217.435794,4237.948614,4228.717845,4224.615281,4226.153743,4231.794768,4221.538358,4195.897333,4198.974256,4199.999897,4202.051179,4207.179384
82,0,4209.230666,4193.333231,4208.205025,4230.256307,4238.974255,4223.07682,4227.179384,4231.794768,4218.974256,4189.743487,4194.358872,4193.846051,4199.999897,4198.461436
83,0,4206.153743,4185.128103,4203.07682,4225.128102,4223.07682,4218.461435,4218.461435,4225.640922,4209.230666,4178.461436,4185.640923,4185.640923,4190.256308,4187.179385
84,0,4212.307589,4191.281949,4209.230666,4228.717845,4212.82041,4217.948615,4212.307589,4221.538358,4204.102461,4179.999898,4183.589641,4186.666564,4189.743487,4188.205026
85,0,4217.948615,4194.871692,4213.846051,4233.84605,4228.717845,4218.974256,4214.871692,4222.051179,4208.205025,4185.640923,4190.769128,4193.333231,4198.461436,4191.281949
86,0,4223.07682,4189.230667,4215.384512,4232.820409,4238.461435,4221.025538,4218.974256,4224.615281,4214.358871,4185.640923,4199.999897,4199.999897,4201.538359,4200.512718
87,0,4216.922974,4182.564,4212.82041,4222.051179,4223.58964,4217.948615,4211.794769,4223.07682,4212.82041,4186.153744,4198.974256,4199.487077,4199.999897,4205.128102
88,0,4214.358871,4189.230667,4217.435794,4224.102461,4217.435794,4218.974256,4214.358871,4224.615281,4215.384512,4197.435795,4197.948615,4202.051179,4205.128102,4202.051179
89,0,4216.922974,4192.30759,4219.999897,4233.84605,4223.07682,4223.07682,4227.179384,4229.230666,4218.974256,4200.512718,4199.999897,4202.564,4208.717846,4201.025538
90,0,4216.922974,4186.666564,4218.461435,4232.820409,4221.538358,4223.58964,4233.33323,4232.820409,4221.025538,4197.435795,4202.051179,4204.615282,4207.692205,4204.615282
91,0,4214.871692,4182.564,4214.358871,4225.128102,4216.410153,4223.58964,4228.717845,4230.256307,4218.974256,4195.897333,4200.512718,4205.128102,4204.102461,4198.974256
92,0,4218.461435,4189.230667,4215.897333,4228.205025,4225.128102,4230.256307,4230.769127,4231.794768,4221.538358,4203.07682,4205.128102,4207.692205,4205.640923,4201.538359
93,0,4220.512717,4188.717846,4219.999897,4233.84605,4229.743486,4230.256307,4231.281948,4236.922973,4224.615281,4207.179384,4211.281948,4209.743487,4210.256307,4215.384512
94,0,4223.58964,4188.717846,4226.153743,4235.384512,4223.07682,4223.07682,4225.640922,4236.410153,4223.58964,4205.640923,4213.33323,4214.358871,4212.82041,4221.025538
95,0,4225.128102,4188.717846,4225.128102,4233.33323,4217.435794,4217.948615,4215.384512,4224.102461,4214.358871,4195.384513,4207.692205,4215.897333,4209.230666,4213.33323
96,0,4224.615281,4185.640923,4224.102461,4233.33323,4220.512717,4217.435794,4211.281948,4216.410153,4207.179384,4186.666564,4206.666564,4216.922974,4206.666564,4212.82041
97,0,4224.102461,4184.615282,4225.640922,4235.384512,4219.999897,4215.897333,4213.846051,4217.948615,4206.666564,4189.230667,4210.256307,4221.025538,4209.230666,4222.051179
98,0,4221.025538,4182.564,4219.487076,4229.743486,4213.846051,4213.846051,4215.897333,4218.461435,4208.205025,4193.333231,4207.692205,4218.461435,4208.205025,4217.948615
99,0,4215.897333,4181.538359,4211.281948,4225.128102,4214.358871,4218.974256,4224.615281,4222.563999,4216.410153,4194.358872,4203.07682,4211.281948,4205.640923,4202.564
100,0,4217.948615,4189.230667,4214.358871,4229.743486,4226.666563,4228.717845,4237.948614,4228.717845,4223.58964,4194.358872,4206.153743,4209.230666,4208.717846,4203.589641
101,0,4225.128102,4194.358872,4223.07682,4231.281948,4236.410153,4230.256307,4240.512717,4230.256307,4221.538358,4195.384513,4209.743487,4213.846051,4213.846051,4219.487076
102,0,4224.615281,4186.666564,4223.07682,4226.666563,4228.717845,4224.615281,4228.717845,4227.692204,4219.487076,4193.333231,4207.179384,4218.461435,4212.307589,4217.948615
103,0,4229.230666,4193.333231,4225.640922,4235.384512,4222.051179,4225.640922,4228.717845,4231.794768,4224.102461,4207.692205,4217.948615,4227.179384,4217.948615,4222.051179
104,0,4235.384512,4202.564,4230.256307,4241.025537,4224.102461,4225.640922,4228.205025,4233.33323,4223.07682,4214.871692,4223.07682,4230.256307,4221.538358,4234.871691
105,0,4238.974255,4203.07682,4236.410153,4238.461435,4233.33323,4225.640922,4225.128102,4229.743486,4220.512717,4202.564,4215.384512,4229.743486,4218.974256,4236.922973
106,0,4234.871691,4199.487077,4235.897332,4234.358871,4232.820409,4224.615281,4222.563999,4224.102461,4217.948615,4191.794769,4207.692205,4223.58964,4216.410153,4221.025538
107,0,4227.179384,4196.410154,4228.717845,4232.307589,4219.999897,4222.051179,4220.512717,4221.025538,4215.384512,4196.922974,4210.769128,4219.999897,4214.871692,4213.33323
108,0,4224.102461,4192.30759,4221.538358,4231.794768,4217.435794,4223.58964,4222.051179,4218.974256,4214.871692,4196.410154,4212.307589,4220.512717,4212.307589,4221.025538
109,0,4227.179384,4196.410154,4226.153743,4232.820409,4233.84605,4232.307589,4237.435794,4222.563999,4222.563999,4194.871692,4212.82041,4224.102461,4215.384512,4224.615281
110,0,4224.102461,4195.897333,4226.153743,4229.230666,4226.153743,4231.281948,4242.563999,4228.205025,4226.666563,4201.538359,4211.281948,4218.974256,4215.384512,4215.384512
111,0,4223.58964,4195.897333,4225.128102,4234.358871,4217.948615,4228.717845,4239.999896,4232.820409,4231.794768,4216.922974,4213.846051,4221.025538,4215.897333,4218.974256
112,0,4225.128102,4195.384513,4226.153743,4235.384512,4231.281948,4224.102461,4236.922973,4229.743486,4234.871691,4216.410153,4211.794769,4223.58964,4217.948615,4226.666563
113,0,4222.563999,4190.256308,4224.615281,4224.615281,4231.794768,4218.974256,4225.128102,4223.58964,4229.743486,4202.051179,4206.153743,4219.487076,4214.871692,4214.871692
114,0,4218.461435,4187.692205,4221.538358,4221.538358,4214.358871,4217.435794,4213.846051,4221.538358,4222.051179,4191.794769,4206.666564,4219.487076,4209.743487,4205.640923
115,0,4218.461435,4189.743487,4219.487076,4225.128102,4214.871692,4216.922974,4216.922974,4218.974256,4219.487076,4194.358872,4211.794769,4224.102461,4210.769128,4219.999897
116,0,4221.538358,4188.717846,4217.948615,4223.07682,4226.153743,4218.974256,4227.179384,4221.025538,4223.07682,4198.974256,4212.82041,4224.102461,4212.82041,4229.743486
117,0,4221.538358,4190.769128,4218.461435,4222.563999,4222.563999,4224.615281,4233.33323,4225.128102,4226.153743,4200.512718,4208.205025,4218.461435,4213.33323,4224.102461
118,0,4217.948615,4194.871692,4220.512717,4223.07682,4225.128102,4225.640922,4230.256307,4224.102461,4223.07682,4201.025538,4203.589641,4217.948615,4214.358871,4215.897333
119,0,4216.410153,4189.230667,4219.999897,4219.487076,4227.692204,4221.025538,4224.615281,4223.07682,4219.999897,4195.384513,4205.640923,4217.435794,4211.794769,4213.33323
120,0,4221.538358,4187.179385,4220.512717,4222.563999,4218.461435,4221.538358,4228.205025,4227.692204,4225.128102,4194.358872,4209.230666,4216.410153,4211.794769,4212.82041
121,0,4221.025538,4189.743487,4215.384512,4223.07682,4217.948615,4222.051179,4228.717845,4225.128102,4224.615281,4191.281949,4203.07682,4207.179384,4208.717846,4203.589641
122,0,4214.871692,4189.743487,4210.769128,4217.435794,4229.743486,4219.999897,4221.025538,4221.538358,4217.948615,4186.153744,4193.333231,4199.487077,4201.538359,4201.025538
123,0,4206.153743,4183.589641,4209.230666,4212.307589,4222.563999,4214.871692,4211.281948,4218.461435,4213.846051,4179.487077,4187.692205,4195.384513,4195.897333,4203.589641
124,0,4207.179384,4186.666564,4213.846051,4217.948615,4215.384512,4214.358871,4215.384512,4217.435794,4217.435794,4178.974257,4196.922974,4202.564,4201.538359,4202.564
125,0,4215.384512,4193.846051,4216.410153,4221.025538,4217.435794,4216.410153,4217.948615,4217.435794,4215.897333,4184.102462,4204.102461,4211.281948,4207.692205,4201.538359
126,0,4223.58964,4202.051179,4219.487076,4226.153743,4221.538358,4220.512717,4218.461435,4218.461435,4214.358871,4197.435795,4202.051179,4215.384512,4206.666564,4214.358871
127,0,4221.025538,4201.538359,4215.897333,4226.153743,4225.128102,4222.051179,4215.384512,4215.384512,4215.384512,4196.922974,4198.974256,4209.743487,4202.051179,4213.846051
128,0,4217.435794,4200.512718,4213.33323,4223.58964,4232.820409,4224.102461,4219.487076,4217.435794,4219.999897,4193.846051,4205.640923,4209.230666,4206.666564,4206.153743
0,0,4213.846051,4199.999897,4210.769128,4221.025538,4228.205025,4223.58964,4222.051179,4219.999897,4221.538358,4199.487077,4206.666564,4211.794769,4207.179384,4204.615282
1,0,4205.128102,4192.82041,4203.07682,4216.922974,4215.897333,4217.948615,4217.948615,4217.435794,4217.948615,4198.461436,4202.564,4208.717846,4201.538359,4202.564
2,0,4193.333231,4185.128103,4194.871692,4208.717846,4209.230666,4213.846051,4216.922974,4216.922974,4217.435794,4190.256308,4199.487077,4198.974256,4200.512718,4200.512718
3,0,4199.999897,4194.871692,4201.538359,4212.307589,4221.025538,4223.07682,4228.205025,4225.640922,4224.615281,4200.512718,4202.051179,4200.512718,4205.128102,4203.589641
4,0,4208.717846,4201.538359,4208.717846,4218.974256,4236.410153,4228.717845,4230.256307,4229.743486,4229.743486,4206.153743,4203.589641,4206.666564,4205.128102,4203.07682
5,0,4196.410154,4187.692205,4197.435795,4209.743487,4232.307589,4219.487076,4216.922974,4217.948615,4224.615281,4191.281949,4196.922974,4197.948615,4198.974256,4197.948615
6,0,4189.230667,4185.128103,4194.358872,4205.128102,4217.948615,4217.435794,4212.307589,4210.769128,4215.897333,4186.153744,4191.794769,4192.30759,4195.897333,4194.358872
7,0,4199.487077,4196.410154,4207.179384,4217.435794,4213.846051,4225.640922,4216.922974,4215.897333,4211.794769,4189.743487,4195.384513,4198.974256,4197.435795,4193.846051
8,0,4199.487077,4193.846051,4203.589641,4217.948615,4216.410153,4225.128102,4216.922974,4217.435794,4217.435794,4191.281949,4194.871692,4196.410154,4197.435795,4191.794769
9,0,4187.692205,4183.076821,4193.333231,4206.666564,4211.794769,4221.538358,4215.897333,4214.358871,4222.563999,4195.897333,4189.230667,4187.692205,4193.846051,4179.999898
10,0,4196.410154,4185.640923,4206.666564,4211.281948,4212.82041,4224.102461,4221.538358,4217.948615,4222.563999,4204.615282,4195.897333,4197.435795,4197.948615,4184.615282
11,0,4202.051179,4189.743487,4211.281948,4215.384512,4218.461435,4218.974256,4215.897333,4212.307589,4212.82041,4199.487077,4192.82041,4198.461436,4196.922974,4194.358872
12,0,4195.897333,4196.922974,4197.948615,4208.717846,4217.948615,4214.358871,4210.769128,4204.615282,4204.615282,4193.333231,4184.102462,4184.615282,4192.82041,4191.281949
13,0,4200.512718,4207.692205,4198.461436,4209.230666,4210.769128,4216.922974,4213.846051,4208.717846,4203.07682,4191.794769,4191.281949,4185.128103,4198.461436,4189.743487
14,0,4209.743487,4218.974256,4212.82041,4222.563999,4215.897333,4222.051179,4221.025538,4218.461435,4210.256307,4201.025538,4204.615282,4199.999897,4207.179384,4201.538359
15,0,4197.435795,4219.487076,4207.692205,4219.999897,4217.948615,4219.487076,4216.410153,4219.999897,4211.794769,4211.281948,4201.538359,4196.410154,4204.615282,4199.487077
16,0,4191.794769,4223.07682,4201.538359,4212.82041,4222.563999,4218.974256,4214.871692,4224.615281,4213.33323,4219.487076,4205.128102,4194.358872,4206.153743,4197.948615
17,0,4201.538359,4232.820409,4205.640923,4217.948615,4235.384512,4222.563999,4219.999897,4227.179384,4218.974256,4224.615281,4216.410153,4205.128102,4212.307589,4205.128102
18,0,4212.82041,4249.230665,4213.33323,4227.179384,4233.33323,4225.640922,4221.538358,4222.563999,4221.538358,4234.358871,4224.102461,4214.358871,4216.922974,4207.179384
19,0,4213.846051,4257.948614,4216.410153,4224.102461,4221.025538,4221.538358,4214.358871,4217.948615,4216.410153,4234.358871,4227.179384,4213.33323,4219.487076,4211.281948
20,0,4213.33323,4261.025537,4218.974256,4218.461435,4230.256307,4220.512717,4210.256307,4216.410153,4214.358871,4225.640922,4229.743486,4215.384512,4219.999897,4219.487076
21,0,4212.82041,4268.717844,4216.410153,4217.948615,4241.025537,4217.948615,4205.128102,4210.769128,4214.358871,4223.07682,4224.102461,4217.435794,4215.384512,4216.410153
22,0,4215.897333,4274.35887,4211.281948,4219.999897,4233.33323,4214.871692,4199.999897,4207.692205,4210.769128,4231.794768,4223.07682,4213.33323,4214.871692,4210.256307
23,0,4217.435794,4269.230665,4210.769128,4218.974256,4225.128102,4214.358871,4199.999897,4210.769128,4211.281948,4234.871691,4229.230666,4209.230666,4216.410153,4212.307589
24,0,4213.33323,4265.128101,4213.33323,4218.974256,4221.538358,4212.82041,4200.512718,4211.281948,4214.871692,4226.153743,4225.640922,4205.640923,4213.846051,4216.922974
25,0,4212.307589,4265.640921,4212.82041,4220.512717,4216.410153,4212.82041,4201.538359,4209.230666,4211.281948,4219.487076,4215.897333,4202.564,4209.743487,4211.794769
26,0,4212.307589,4256.410152,4212.307589,4215.384512,4225.128102,4217.435794,4207.179384,4210.256307,4206.153743,4217.948615,4218.461435,4205.128102,4209.230666,4206.153743
27,0,4212.307589,4250.256306,4214.358871,4211.281948,4238.974255,4219.999897,4209.230666,4212.307589,4207.179384,4217.948615,4227.179384,4209.743487,4210.769128,4205.128102
28,0,4206.153743,4250.769127,4207.179384,4210.256307,4230.256307,4212.82041,4201.538359,4210.256307,4206.153743,4212.307589,4221.025538,4201.025538,4209.743487,4198.461436
29,0,4203.07682,4245.640922,4200.512718,4208.717846,4215.897333,4214.358871,4205.128102,4213.846051,4212.307589,4220.512717,4223.58964,4199.999897,4211.794769,4205.640923
30,0,4198.974256,4232.820409,4198.461436,4206.666564,4212.307589,4215.897333,4206.666564,4214.358871,4213.846051,4223.07682,4223.58964,4201.538359,4207.692205,4205.640923
31,0,4198.974256,4230.256307,4203.07682,4209.743487,4219.999897,4212.82041,4204.615282,4209.230666,4207.692205,4215.384512,4215.384512,4195.384513,4206.153743,4193.333231
32,0,4207.692205,4233.33323,4212.82041,4211.794769,4229.230666,4215.384512,4209.230666,4212.307589,4213.33323,4222.051179,4224.615281,4202.051179,4216.410153,4203.07682
33,0,4221.538358,4242.563999,4228.205025,4222.563999,4230.769127,4222.563999,4217.948615,4226.153743,4231.794768,4241.025537,4246.666563,4227.179384,4229.230666,4235.384512
34,0,4220.512717,4244.615281,4227.692204,4226.153743,4223.58964,4218.974256,4212.307589,4226.153743,4230.256307,4236.922973,4242.563999,4226.153743,4226.666563,4231.281948
35,0,4211.794769,4242.563999,4220.512717,4219.999897,4227.179384,4214.871692,4207.179384,4220.512717,4224.615281,4229.743486,4228.717845,4212.82041,4218.974256,4210.256307
36,0,4208.205025,4239.999896,4220.512717,4217.435794,4229.230666,4213.846051,4207.692205,4222.563999,4227.179384,4226.153743,4225.128102,4210.769128,4214.871692,4211.794769
37,0,4212.307589,4241.538358,4221.538358,4219.487076,4218.974256,4214.871692,4208.717846,4222.563999,4224.615281,4218.974256,4225.640922,4211.281948,4214.358871,4215.897333
38,0,4211.281948,4236.922973,4214.871692,4211.281948,4210.256307,4212.82041,4202.564,4214.358871,4217.435794,4216.922974,4223.07682,4203.589641,4211.281948,4208.717846
39,0,4201.538359,4227.179384,4206.666564,4203.589641,4212.82041,4211.281948,4197.948615,4210.256307,4218.461435,4218.974256,4217.948615,4199.999897,4207.179384,4206.666564
40,0,4197.435795,4222.563999,4207.179384,4204.102461,4209.743487,4209.230666,4199.999897,4212.307589,4217.435794,4209.743487,4212.82041,4202.051179,4207.692205,4206.153743
41,0,4205.128102,4226.153743,4213.846051,4204.615282,4209.230666,4211.794769,4203.07682,4213.846051,4213.33323,4207.179384,4216.922974,4203.07682,4213.846051,4205.128102
42,0,4208.717846,4229.230666,4213.846051,4204.102461,4226.153743,4216.922974,4204.615282,4212.82041,4214.358871,4211.794769,4219.999897,4202.051179,4212.82041,4206.153743
43,0,4206.666564,4225.128102,4209.743487,4203.589641,4236.410153,4218.461435,4208.717846,4212.307589,4215.384512,4205.640923,4217.948615,4203.07682,4210.256307,4208.717846
44,0,4205.128102,4218.974256,4208.717846,4199.999897,4221.538358,4212.82041,4209.230666,4214.358871,4210.256307,4199.999897,4216.922974,4209.230666,4211.794769,4205.128102
45,0,4201.025538,4215.384512,4204.615282,4197.435795,4208.205025,4208.717846,4203.589641,4212.82041,4206.153743,4200.512718,4215.897333,4208.205025,4208.205025,4201.025538
46,0,4207.179384,4225.128102,4208.205025,4205.640923,4222.051179,4216.922974,4210.769128,4215.384512,4218.974256,4210.256307,4224.102461,4213.846051,4212.307589,4214.871692
47,0,4214.358871,4233.84605,4215.897333,4210.769128,4226.666563,4221.025538,4221.538358,4222.051179,4229.743486,4218.974256,4229.230666,4224.102461,4221.025538,4221.025538
48,0,4212.82041,4233.33323,4217.948615,4209.743487,4222.563999,4217.948615,4224.615281,4227.179384,4227.692204,4223.07682,4227.692204,4225.128102,4221.538358,4214.871692
49,0,4209.230666,4230.256307,4213.846051,4208.205025,4228.205025,4213.846051,4220.512717,4226.666563,4224.102461,4217.948615,4223.07682,4213.846051,4215.384512,4212.307589
50,0,4211.794769,4232.820409,4215.384512,4209.743487,4231.281948,4213.33323,4221.025538,4229.230666,4226.666563,4213.846051,4221.025538,4208.717846,4214.871692,4211.794769
51,0,4207.179384,4225.128102,4211.281948,4206.666564,4217.948615,4212.82041,4217.435794,4225.640922,4224.615281,4210.256307,4214.871692,4202.564,4211.794769,4198.974256
52,0,4205.128102,4219.487076,4210.256307,4206.666564,4214.358871,4216.922974,4217.948615,4223.58964,4222.051179,4212.307589,4215.384512,4198.974256,4209.743487,4197.435795
53,0,4207.179384,4218.974256,4212.307589,4208.205025,4217.948615,4218.461435,4221.025538,4223.07682,4218.461435,4207.179384,4212.82041,4196.922974,4209.230666,4203.589641
54,0,4207.179384,4215.897333,4214.358871,4207.179384,4214.358871,4216.922974,4224.615281,4221.025538,4216.410153,4199.487077,4208.205025,4199.999897,4208.205025,4201.538359
55,0,4207.179384,4205.640923,4219.487076,4205.640923,4209.743487,4215.897333,4223.07682,4217.948615,4217.948615,4202.051179,4213.33323,4210.256307,4209.230666,4204.102461
56,0,4209.230666,4208.717846,4219.999897,4208.205025,4214.871692,4214.358871,4214.871692,4213.33323,4214.358871,4200.512718,4215.384512,4210.769128,4207.692205,4205.640923
57,0,4204.615282,4214.358871,4210.256307,4204.102461,4216.410153,4209.743487,4208.717846,4210.769128,4207.179384,4189.230667,4207.692205,4199.999897,4205.128102,4197.948615
58,0,4204.102461,4208.717846,4212.82041,4198.461436,4211.281948,4213.846051,4216.410153,4216.922974,4214.871692,4195.384513,4213.846051,4208.205025,4212.307589,4203.07682
59,0,4205.640923,4204.102461,4218.974256,4196.922974,4209.230666,4217.948615,4222.051179,4222.051179,4219.999897,4206.666564,4217.948615,4219.487076,4213.846051,4201.025538
60,0,4204.102461,4208.717846,4215.384512,4194.871692,4216.410153,4214.871692,4217.435794,4217.948615,4214.358871,4201.025538,4209.230666,4213.33323,4205.640923,4184.102462
61,0,4204.615282,4209.230666,4213.33323,4192.30759,4215.897333,4209.743487,4215.384512,4215.897333,4213.846051,4195.897333,4207.692205,4209.230666,4207.692205,4185.640923
62,0,4208.205025,4205.640923,4213.846051,4192.82041,4210.256307,4211.281948,4216.410153,4218.974256,4214.358871,4195.384513,4211.794769,4211.794769,4214.871692,4197.948615
63,0,4207.179384,4208.205025,4211.281948,4191.794769,4211.794769,4213.33323,4213.33323,4218.974256,4212.307589,4192.82041,4210.769128,4212.307589,4211.794769,4188.205026
64,0,4202.051179,4207.692205,4212.307589,4186.666564,4209.230666,4206.666564,4205.640923,4211.281948,4211.281948,4189.230667,4208.205025,4215.384512,4205.128102,4184.615282
65,0,4210.769128,4211.794769,4221.538358,4192.82041,4200.512718,4202.564,4209.743487,4210.256307,4212.82041,4191.281949,4213.33323,4225.640922,4211.281948,4205.640923
66,0,4217.948615,4216.922974,4223.07682,4194.871692,4198.461436,4206.153743,4211.281948,4213.33323,4209.743487,4189.230667,4217.948615,4226.666563,4217.435794,4208.205025
67,0,4219.999897,4215.897333,4223.58964,4189.230667,4207.179384,4210.769128,4212.307589,4215.897333,4212.307589,4194.871692,4223.07682,4226.153743,4219.999897,4206.153743
68,0,4218.461435,4213.33323,4220.512717,4186.666564,4207.179384,4208.717846,4210.256307,4212.82041,4209.230666,4192.30759,4217.435794,4218.974256,4215.897333,4210.256307
69,0,4215.897333,4213.846051,4213.846051,4187.179385,4200.512718,4206.153743,4207.692205,4212.82041,4202.051179,4181.538359,4210.256307,4209.743487,4212.307589,4204.615282
70,0,4210.769128,4209.230666,4209.230666,4182.564,4194.871692,4204.615282,4206.153743,4214.358871,4201.538359,4177.948616,4209.743487,4204.102461,4213.33323,4195.384513
71,0,4213.846051,4210.256307,4212.307589,4185.128103,4201.538359,4209.743487,4211.281948,4216.410153,4206.153743,4187.179385,4210.769128,4206.153743,4218.461435,4202.564
72,0,4215.384512,4213.846051,4210.769128,4183.589641,4202.564,4209.230666,4206.666564,4215.897333,4203.589641,4187.179385,4203.07682,4203.589641,4216.410153,4199.487077
73,0,4217.948615,4216.410153,4215.384512,4185.128103,4204.102461,4204.102461,4200.512718,4216.922974,4204.102461,4186.666564,4207.179384,4204.102461,4216.410153,4196.410154
74,0,4225.128102,4218.461435,4221.025538,4191.281949,4214.871692,4207.179384,4203.07682,4217.435794,4206.153743,4193.846051,4215.897333,4208.717846,4221.538358,4211.281948
75,0,4230.769127,4225.640922,4223.07682,4193.333231,4218.974256,4213.33323,4206.153743,4214.358871,4203.589641,4197.435795,4215.897333,4211.794769,4224.615281,4221.538358
76,0,4227.692204,4228.717845,4227.692204,4190.256308,4208.717846,4211.281948,4207.179384,4213.846051,4200.512718,4189.743487,4216.410153,4215.384512,4223.07682,4216.922974
77,0,4226.666563,4224.102461,4230.769127,4191.281949,4207.692205,4210.769128,4215.897333,4220.512717,4204.615282,4191.281949,4222.051179,4222.051179,4224.615281,4212.82041
78,0,4230.769127,4222.051179,4225.128102,4193.333231,4208.717846,4213.33323,4218.461435,4224.102461,4208.717846,4199.999897,4219.999897,4223.07682,4229.743486,4216.410153
79,0,4226.666563,4225.640922,4218.461435,4190.256308,4203.589641,4209.230666,4207.179384,4219.487076,4203.589641,4196.922974,4214.358871,4214.871692,4227.179384,4221.025538
80,0,4217.948615,4223.07682,4213.846051,4182.564,4206.666564,4205.128102,4198.974256,4215.897333,4197.948615,4188.717846,4214.358871,4212.307589,4218.974256,4217.948615
81,0,4217.435794,4213.33323,4212.307589,4175.897334,4213.846051,4206.153743,4201.538359,4216.410153,4202.564,4193.333231,4214.358871,4217.948615,4218.974256,4211.794769
82,0,4224.615281,4217.435794,4219.999897,4179.487077,4216.410153,4210.769128,4208.717846,4219.487076,4211.794769,4205.128102,4218.461435,4221.538358,4227.692204,4219.999897
83,0,4223.07682,4224.102461,4219.999897,4182.05118,4210.256307,4213.33323,4210.256307,4223.58964,4208.717846,4204.615282,4218.974256,4211.794769,4225.640922,4222.051179
84,0,4222.563999,4220.512717,4214.871692,4179.999898,4208.205025,4215.384512,4213.33323,4227.692204,4204.102461,4202.564,4216.410153,4208.717846,4219.999897,4215.384512
85,0,4224.102461,4215.897333,4215.384512,4178.461436,4207.692205,4211.794769,4214.358871,4223.07682,4201.025538,4200.512718,4214.358871,4212.82041,4221.538358,4212.307589
86,0,4225.640922,4222.563999,4222.051179,4181.538359,4211.281948,4212.307589,4219.999897,4221.538358,4202.564,4201.025538,4218.974256,4218.461435,4228.205025,4214.871692
87,0,4225.128102,4222.563999,4223.07682,4183.589641,4217.435794,4218.974256,4225.640922,4228.205025,4210.769128,4208.205025,4223.07682,4216.922974,4232.820409,4218.461435
88,0,4223.58964,4216.410153,4217.948615,4183.589641,4221.538358,4215.897333,4222.051179,4226.666563,4210.769128,4208.205025,4216.922974,4210.769128,4229.230666,4221.025538
89,0,4215.897333,4213.846051,4208.205025,4179.999898,4213.846051,4203.589641,4212.307589,4215.897333,4196.922974,4185.640923,4200.512718,4200.512718,4216.410153,4207.692205
90,0,4217.948615,4220.512717,4212.82041,4183.589641,4215.897333,4209.230666,4218.461435,4217.435794,4197.435795,4182.05118,4203.07682,4202.564,4215.897333,4204.102461
91,0,4222.051179,4218.974256,4216.922974,4183.076821,4222.563999,4216.922974,4219.999897,4222.563999,4205.128102,4193.846051,4212.82041,4204.102461,4220.512717,4210.256307
92,0,4221.025538,4218.461435,4209.743487,4179.999898,4216.922974,4212.307589,4211.281948,4220.512717,4203.07682,4186.153744,4209.743487,4199.999897,4214.871692,4206.153743
93,0,4218.461435,4221.538358,4210.769128,4182.564,4210.769128,4211.794769,4204.615282,4215.897333,4199.487077,4173.333231,4204.102461,4199.999897,4210.256307,4200.512718
94,0,4213.846051,4213.33323,4217.435794,4181.025539,4211.794769,4208.717846,4202.051179,4210.769128,4198.974256,4178.461436,4205.128102,4201.025538,4212.82041,4205.128102
95,0,4208.717846,4202.564,4212.82041,4172.820411,4206.666564,4194.358872,4198.974256,4206.666564,4191.794769,4172.820411,4197.435795,4195.384513,4210.769128,4202.051179
96,0,4219.999897,4216.922974,4216.922974,4179.487077,4210.769128,4204.102461,4209.743487,4215.897333,4195.384513,4170.769129,4202.051179,4202.564,4212.307589,4209.743487
97,0,4231.281948,4231.794768,4226.666563,4192.30759,4224.615281,4225.640922,4223.07682,4229.743486,4210.769128,4195.384513,4219.999897,4216.922974,4223.07682,4230.256307
98,0,4222.563999,4223.07682,4217.948615,4187.692205,4221.538358,4220.512717,4220.512717,4226.153743,4214.358871,4205.640923,4217.948615,4210.256307,4223.58964,4222.563999
99,0,4218.461435,4221.538358,4209.230666,4181.538359,4214.358871,4210.769128,4214.871692,4214.871692,4206.666564,4192.82041,4204.102461,4194.358872,4214.358871,4206.666564
100,0,4223.07682,4231.794768,4210.769128,4182.05118,4218.461435,4214.871692,4214.871692,4212.82041,4201.025538,4182.564,4198.974256,4188.717846,4210.769128,4208.717846
101,0,4219.999897,4230.256307,4211.281948,4182.564,4218.974256,4216.922974,4218.974256,4215.897333,4201.538359,4187.692205,4202.564,4194.358872,4213.846051,4207.179384
102,0,4207.692205,4219.999897,4204.102461,4179.487077,4206.153743,4211.794769,4213.33323,4213.846051,4202.051179,4185.640923,4203.07682,4194.871692,4212.307589,4191.794769
103,0,4208.205025,4224.615281,4201.538359,4181.025539,4206.666564,4210.769128,4208.717846,4210.256307,4202.051179,4179.999898,4202.051179,4190.256308,4210.256307,4195.897333
104,0,4207.179384,4223.58964,4200.512718,4178.974257,4207.692205,4204.102461,4203.589641,4203.589641,4195.897333,4167.179385,4194.358872,4185.128103,4206.153743,4196.922974
105,0,4207.179384,4221.025538,4208.717846,4181.538359,4209.230666,4204.615282,4204.102461,4205.640923,4197.435795,4166.666565,4195.384513,4191.281949,4206.153743,4190.256308
106,0,4213.33323,4227.692204,4217.435794,4186.666564,4219.487076,4212.82041,4210.256307,4216.922974,4205.128102,4183.076821,4206.666564,4199.487077,4210.769128,4201.025538
107,0,4223.58964,4239.487076,4222.563999,4190.769128,4231.281948,4214.871692,4216.922974,4225.640922,4212.82041,4197.948615,4216.410153,4209.230666,4217.948615,4216.410153
108,0,4227.179384,4239.999896,4223.58964,4191.281949,4227.179384,4212.82041,4214.358871,4220.512717,4210.256307,4195.897333,4214.358871,4213.33323,4217.948615,4212.307589
109,0,4228.717845,4239.999896,4227.692204,4195.384513,4218.461435,4215.897333,4213.33323,4216.410153,4208.205025,4191.794769,4212.307589,4214.871692,4214.871692,4206.666564
110,0,4223.58964,4235.897332,4228.717845,4194.871692,4211.281948,4213.846051,4212.82041,4219.487076,4212.307589,4189.230667,4209.743487,4215.897333,4209.230666,4203.589641
111,0,4219.487076,4228.205025,4223.58964,4189.230667,4214.358871,4210.256307,4208.205025,4217.948615,4214.871692,4191.281949,4207.692205,4216.922974,4206.666564,4206.666564
112,0,4220.512717,4226.666563,4216.922974,4187.692205,4224.615281,4214.358871,4209.230666,4215.384512,4217.948615,4206.153743,4211.794769,4215.897333,4210.256307,4218.974256
113,0,4226.153743,4232.307589,4219.999897,4194.358872,4231.281948,4223.58964,4219.999897,4221.538358,4221.538358,4216.922974,4219.487076,4218.974256,4214.358871,4225.640922
114,0,4226.153743,4234.871691,4224.102461,4196.922974,4228.205025,4221.538358,4221.538358,4224.102461,4220.512717,4207.179384,4215.384512,4224.615281,4210.256307,4215.384512
115,0,4224.615281,4231.794768,4224.102461,4196.922974,4219.999897,4214.358871,4215.384512,4219.487076,4222.051179,4202.051179,4212.82041,4228.205025,4206.666564,4215.384512
116,0,4226.153743,4227.692204,4227.692204,4196.922974,4219.487076,4216.922974,4217.435794,4219.999897,4227.179384,4211.281948,4223.58964,4230.256307,4211.794769,4227.692204
117,0,4225.640922,4225.128102,4230.769127,4194.871692,4231.281948,4222.563999,4223.58964,4224.615281,4224.102461,4210.256307,4223.07682,4227.179384,4213.846051,4224.102461
118,0,4222.051179,4225.128102,4228.205025,4194.358872,4233.84605,4218.461435,4223.58964,4226.666563,4219.999897,4200.512718,4212.307589,4224.102461,4209.743487,4217.948615
119,0,4223.58964,4223.58964,4228.205025,4194.871692,4221.025538,4212.307589,4218.974256,4224.615281,4221.025538,4196.922974,4208.205025,4224.615281,4207.692205,4218.461435
120,0,4236.410153,4230.769127,4237.948614,4202.564,4218.461435,4218.974256,4225.128102,4225.640922,4226.153743,4207.179384,4217.435794,4231.281948,4216.410153,4228.205025
121,0,4236.410153,4234.358871,4236.410153,4204.615282,4225.640922,4222.051179,4227.692204,4225.128102,4223.58964,4208.205025,4220.512717,4232.307589,4219.999897,4229.743486
122,0,4225.640922,4231.281948,4230.769127,4196.410154,4233.84605,4221.025538,4223.07682,4222.051179,4221.025538,4203.07682,4218.461435,4229.743486,4215.897333,4225.640922
123,0,4225.128102,4227.692204,4231.281948,4193.333231,4225.128102,4218.461435,4215.897333,4218.461435,4221.025538,4201.025538,4217.435794,4225.128102,4214.358871,4226.153743
124,0,4236.410153,4234.871691,4238.974255,4205.128102,4214.871692,4217.948615,4217.435794,4222.563999,4226.666563,4204.102461,4223.58964,4227.179384,4219.999897,4236.410153
125,0,4235.384512,4236.922973,4237.435794,4204.102461,4222.051179,4215.897333,4218.461435,4224.102461,4227.692204,4198.461436,4222.563999,4226.666563,4218.461435,4235.384512
126,0,4227.179384,4232.307589,4230.256307,4196.410154,4227.179384,4216.922974,4218.461435,4222.563999,4226.153743,4197.948615,4219.487076,4226.666563,4217.435794,4223.07682
127,0,4226.153743,4224.615281,4227.179384,4195.384513,4212.307589,4217.435794,4215.384512,4223.58964,4227.179384,4202.051179,4219.999897,4226.153743,4218.974256,4223.58964
128,0,4223.07682,4219.487076,4228.717845,4192.82041,4211.281948,4215.384512,4217.948615,4227.179384,4233.84605,4203.589641,4219.999897,4225.128102,4217.435794,4233.33323
0,0,4211.794769,4215.384512,4222.051179,4185.640923,4217.948615,4213.33323,4219.999897,4229.230666,4233.33323,4206.666564,4215.897333,4220.512717,4214.871692,4226.666563
1,0,4213.846051,4217.435794,4219.487076,4188.717846,4216.922974,4218.461435,4222.563999,4229.743486,4225.128102,4211.794769,4217.435794,4218.461435,4216.410153,4217.948615
2,0,4221.538358,4222.051179,4225.640922,4193.846051,4221.025538,4227.179384,4228.717845,4230.256307,4223.58964,4210.256307,4220.512717,4217.435794,4218.974256,4219.487076
3,0,4218.974256,4221.025538,4225.128102,4187.692205,4223.58964,4228.717845,4231.281948,4225.640922,4228.205025,4205.640923,4218.974256,4213.33323,4219.487076,4222.051179
4,0,4215.384512,4213.846051,4216.922974,4180.512718,4215.384512,4222.563999,4225.640922,4220.512717,4223.58964,4201.025538,4216.922974,4211.794769,4217.948615,4214.871692
5,0,4218.461435,4209.230666,4217.435794,4182.564,4213.846051,4220.512717,4224.615281,4221.025538,4219.999897,4200.512718,4214.871692,4217.435794,4216.410153,4210.256307
6,0,4216.922974,4211.281948,4219.999897,4184.615282,4219.487076,4220.512717,4226.666563,4227.179384,4224.615281,4204.615282,4215.384512,4216.922974,4217.435794,4215.897333
7,0,4211.281948,4211.794769,4214.358871,4180.512718,4213.33323,4215.897333,4219.487076,4227.692204,4224.615281,4202.051179,4218.974256,4211.794769,4215.897333,4220.512717
8,0,4221.025538,4216.922974,4220.512717,4186.153744,4213.846051,4215.897333,4220.512717,4225.640922,4229.743486,4207.179384,4224.102461,4225.640922,4216.922974,4227.692204
9,0,4230.769127,4223.07682,4231.281948,4195.384513,4218.461435,4218.461435,4223.58964,4226.666563,4237.948614,4215.897333,4223.58964,4214.871692,4221.025538,4231.794768
10,0,4230.256307,4224.102461,4229.230666,4197.435795,4213.33323,4217.948615,4219.999897,4227.692204,4232.307589,4211.794769,4221.538358,4164.102462,4221.025538,4225.640922
11,0,4221.025538,4218.974256,4219.487076,4192.82041,4207.179384,4214.358871,4214.871692,4221.538358,4218.974256,4195.384513,4214.871692,4126.153745,4212.307589,4217.435794
12,0,4223.07682,4217.435794,4222.563999,4193.846051,4218.461435,4217.435794,4220.512717,4222.563999,4223.58964,4194.871692,4212.82041,4133.846053,4210.256307,4224.102461
13,0,4227.179384,4217.435794,4223.07682,4191.794769,4226.153743,4219.999897,4220.512717,4225.640922,4226.153743,4193.846051,4211.281948,4138.461437,4212.307589,4225.640922
14,0,4219.999897,4219.487076,4212.82041,4187.692205,4216.410153,4218.461435,4215.897333,4222.051179,4217.948615,4186.153744,4207.692205,4127.692207,4211.794769,4214.358871
15,0,4210.769128,4214.358871,4207.179384,4184.102462,4207.179384,4215.384512,4213.846051,4215.384512,4217.435794,4184.615282,4203.07682,4126.153745,4209.743487,4211.281948
16,0,4220.512717,4215.384512,4216.922974,4190.769128,4210.769128,4218.974256,4221.538358,4222.051179,4229.230666,4198.974256,4210.769128,4138.461437,4215.384512,4227.179384
17,0,4224.102461,4218.461435,4216.410153,4189.230667,4209.743487,4216.922974,4219.487076,4227.179384,4227.692204,4203.589641,4214.871692,4142.564001,4217.948615,4228.717845
18,0,4218.974256,4216.410153,4211.281948,4182.05118,4216.410153,4214.871692,4212.82041,4221.025538,4220.512717,4200.512718,4209.230666,4139.999899,4216.922974,4219.487076
19,0,4225.640922,4219.487076,4221.538358,4189.230667,4229.230666,4221.025538,4218.461435,4221.538358,4224.615281,4208.205025,4212.82041,4147.692206,4222.563999,4224.615281
20,0,4234.871691,4232.307589,4232.307589,4199.999897,4229.230666,4225.128102,4228.717845,4231.281948,4229.743486,4219.487076,4225.640922,4162.564001,4230.769127,4231.794768
21,0,4229.230666,4231.281948,4225.128102,4194.358872,4218.461435,4222.051179,4227.179384,4230.769127,4221.025538,4212.307589,4223.07682,4162.05118,4227.179384,4228.205025
22,0,4225.640922,4219.999897,4219.999897,4187.692205,4211.794769,4224.102461,4225.640922,4222.563999,4216.410153,4199.999897,4214.871692,4157.948616,4217.948615,4227.179384
23,0,4229.230666,4221.025538,4226.666563,4193.846051,4208.717846,4225.640922,4229.230666,4224.615281,4221.538358,4200.512718,4216.410153,4161.025539,4216.410153,4226.666563
24,0,4226.666563,4222.563999,4227.179384,4198.461436,4212.82041,4221.538358,4224.615281,4226.153743,4219.999897,4201.538359,4213.33323,4162.564001,4217.435794,4220.512717
25,0,4226.153743,4217.948615,4225.128102,4196.410154,4225.128102,4219.487076,4219.487076,4223.07682,4212.307589,4198.461436,4211.281948,4164.615283,4218.461435,4224.102461
26,0,4225.128102,4212.82041,4223.07682,4191.281949,4223.07682,4219.999897,4217.435794,4218.974256,4209.743487,4197.435795,4214.358871,4165.640924,4214.871692,4226.153743
27,0,4227.692204,4216.922974,4222.563999,4194.358872,4217.948615,4221.025538,4217.435794,4218.461435,4213.846051,4204.615282,4217.435794,4168.717847,4213.846051,4220.512717
28,0,4231.794768,4225.128102,4223.07682,4199.999897,4221.025538,4223.58964,4217.948615,4220.512717,4214.871692,4206.666564,4217.948615,4170.256308,4221.025538,4223.07682
29,0,4232.307589,4228.205025,4225.128102,4201.025538,4218.461435,4226.666563,4223.07682,4224.102461,4213.846051,4205.128102,4224.102461,4174.871693,4228.717845,4234.358871
30,0,4221.538358,4216.922974,4215.897333,4190.769128,4206.666564,4221.025538,4215.384512,4219.999897,4206.666564,4192.30759,4216.410153,4168.205026,4219.487076,4227.179384
31,0,4221.538358,4220.512717,4210.769128,4190.256308,4214.358871,4216.410153,4212.307589,4215.897333,4208.205025,4187.692205,4207.692205,4164.102462,4210.769128,4217.948615
32,0,4235.384512,4235.384512,4224.615281,4199.487077,4226.153743,4221.025538,4221.025538,4218.461435,4217.435794,4201.025538,4215.897333,4175.897334,4217.948615,4223.58964
33,0,4238.461435,4233.33323,4230.769127,4197.435795,4221.025538,4223.07682,4223.58964,4221.538358,4215.384512,4210.256307,4227.179384,4188.717846,4227.692204,4232.820409
34,0,4222.563999,4214.871692,4213.33323,4183.589641,4212.307589,4211.794769,4210.769128,4215.897333,4201.538359,4197.435795,4218.461435,4182.05118,4223.07682,4223.58964
35,0,4226.153743,4215.897333,4212.307589,4187.692205,4216.922974,4211.281948,4212.82041,4215.897333,4206.153743,4202.051179,4218.461435,4178.974257,4221.025538,4219.999897
36,0,4240.512717,4228.717845,4226.153743,4197.948615,4221.538358,4219.999897,4227.179384,4222.563999,4219.487076,4218.461435,4229.230666,4185.640923,4230.256307,4226.666563
37,0,4237.435794,4229.743486,4226.153743,4194.871692,4224.102461,4221.538358,4227.179384,4220.512717,4219.999897,4210.256307,4226.666563,4186.666564,4231.794768,4225.640922
38,0,4223.07682,4215.897333,4215.384512,4188.205026,4221.538358,4214.871692,4214.358871,4212.82041,4213.846051,4193.333231,4210.256307,4175.384513,4217.435794,4210.256307
39,0,4218.974256,4208.205025,4210.256307,4189.743487,4215.384512,4212.307589,4211.281948,4213.33323,4213.33323,4195.384513,4208.205025,4172.30759,4209.230666,4205.640923
40,0,4225.128102,4215.384512,4213.33323,4192.82041,4210.769128,4212.307589,4213.846051,4213.846051,4215.897333,4199.999897,4221.538358,4183.076821,4219.999897,4227.179384
41,0,4235.384512,4225.128102,4221.538358,4195.897333,4213.33323,4213.846051,4214.358871,4213.33323,4220.512717,4203.589641,4230.769127,4194.358872,4234.871691,4247.692204
42,0,4238.461435,4225.128102,4222.051179,4196.410154,4220.512717,4215.897333,4214.871692,4217.435794,4222.051179,4207.179384,4228.717845,4196.922974,4236.410153,4243.58964
43,0,4232.307589,4219.999897,4215.897333,4193.333231,4224.102461,4215.897333,4213.846051,4216.410153,4218.974256,4201.538359,4223.07682,4193.846051,4227.692204,4232.820409
44,0,4234.871691,4219.999897,4222.563999,4195.897333,4226.153743,4216.410153,4220.512717,4217.435794,4223.07682,4206.153743,4228.717845,4196.922974,4229.743486,4242.051178
45,0,4241.025537,4221.538358,4228.717845,4197.435795,4225.640922,4218.461435,4227.179384,4220.512717,4224.615281,4218.461435,4234.871691,4199.487077,4237.948614,4247.179383
46,0,4243.58964,4227.179384,4224.102461,4201.025538,4226.153743,4222.051179,4227.179384,4218.461435,4222.563999,4219.487076,4231.281948,4201.538359,4233.33323,4235.384512
47,0,4236.922973,4224.102461,4217.948615,4201.025538,4216.922974,4218.461435,4219.999897,4213.846051,4216.410153,4205.640923,4217.948615,4195.897333,4221.538358,4224.615281
48,0,4229.230666,4215.384512,4218.461435,4195.384513,4214.358871,4213.33323,4220.512717,4215.384512,4211.281948,4202.051179,4211.281948,4191.281949,4221.025538,4228.205025
49,0,4222.563999,4206.666564,4212.82041,4187.179385,4217.948615,4213.846051,4218.974256,4215.897333,4208.717846,4201.538359,4213.846051,4189.743487,4221.538358,4222.563999
50,0,4223.58964,4207.179384,4211.281948,4189.743487,4219.487076,4218.974256,4221.025538,4216.922974,4214.871692,4202.564,4222.563999,4198.461436,4222.051179,4217.435794
51,0,4223.58964,4206.153743,4215.897333,4192.30759,4213.33323,4216.410153,4226.153743,4218.461435,4220.512717,4203.589641,4223.07682,4201.538359,4226.666563,4225.128102
52,0,4226.666563,4209.230666,4222.051179,4193.846051,4209.743487,4214.871692,4228.717845,4222.563999,4224.102461,4209.230666,4224.102461,4203.589641,4231.281948,4230.769127
53,0,4234.871691,4215.384512,4223.58964,4197.948615,4213.846051,4219.487076,4226.153743,4225.128102,4222.051179,4209.743487,4225.128102,4204.615282,4228.717845,4224.615281
54,0,4236.410153,4215.897333,4221.025538,4196.410154,4221.538358,4222.563999,4230.256307,4223.58964,4219.487076,4207.179384,4221.538358,4201.025538,4226.666563,4224.102461
55,0,4225.640922,4204.615282,4213.846051,4185.640923,4218.461435,4217.435794,4230.769127,4219.487076,4218.461435,4202.564,4214.871692,4198.461436,4222.051179,4218.974256
56,0,4217.435794,4197.435795,4208.717846,4180.512718,4207.179384,4211.794769,4219.999897,4215.384512,4217.435794,4195.897333,4212.307589,4198.974256,4214.358871,4208.205025
57,0,4219.487076,4203.589641,4209.230666,4185.128103,4199.999897,4211.281948,4213.33323,4209.230666,4213.33323,4189.743487,4213.33323,4196.410154,4214.358871,4213.846051
58,0,4227.692204,4212.82041,4216.410153,4195.897333,4203.07682,4216.922974,4220.512717,4209.230666,4210.769128,4195.897333,4215.897333,4195.897333,4219.999897,4224.102461
59,0,4234.358871,4213.846051,4224.102461,4202.051179,4213.846051,4220.512717,4222.051179,4214.358871,4212.307589,4202.051179,4216.922974,4203.589641,4221.538358,4219.999897
60,0,4232.307589,4214.358871,4222.563999,4198.974256,4224.102461,4219.999897,4215.384512,4214.358871,4215.897333,4197.948615,4218.461435,4209.743487,4223.07682,4223.07682
61,0,4227.692204,4214.358871,4215.897333,4193.846051,4220.512717,4215.897333,4211.281948,4212.307589,4217.948615,4198.974256,4219.999897,4211.281948,4227.692204,4230.769127
62,0,4224.615281,4208.205025,4211.281948,4191.794769,4210.256307,4211.281948,4205.128102,4212.82041,4214.358871,4201.538359,4217.435794,4210.256307,4226.153743,4221.538358
63,0,4225.128102,4208.205025,4214.358871,4193.846051,4208.205025,4211.794769,4203.589641,4213.33323,4210.256307,4199.999897,4216.922974,4208.717846,4223.58964,4218.974256
64,0,4226.153743,4211.794769,4217.948615,4193.846051,4207.179384,4212.82041,4209.743487,4212.307589,4210.256307,4199.487077,4217.435794,4209.230666,4223.07682,4223.07682
65,0,4229.743486,4215.384512,4223.07682,4197.948615,4210.769128,4214.358871,4222.051179,4215.897333,4215.384512,4207.692205,4218.974256,4217.435794,4226.666563,4223.58964
66,0,4222.563999,4205.128102,4214.358871,4191.794769,4204.102461,4210.256307,4220.512717,4215.897333,4214.358871,4199.487077,4215.384512,4209.743487,4227.179384,4218.974256
67,0,4213.33323,4195.384513,4205.128102,4183.076821,4192.30759,4206.666564,4217.435794,4213.33323,4212.307589,4190.769128,4213.33323,4198.461436,4222.563999,4218.974256
68,0,4215.897333,4202.564,4209.743487,4186.666564,4196.922974,4212.307589,4221.538358,4214.358871,4217.948615,4201.538359,4215.897333,4206.153743,4220.512717,4217.435794
69,0,4226.666563,4219.487076,4219.487076,4198.461436,4211.281948,4221.025538,4231.281948,4221.538358,4229.230666,4215.897333,4225.128102,4225.128102,4228.205025,4222.563999
70,0,4224.102461,4216.922974,4215.384512,4194.871692,4205.640923,4214.871692,4226.153743,4219.487076,4224.102461,4208.717846,4221.538358,4219.487076,4229.230666,4219.999897
71,0,4224.102461,4212.82041,4215.384512,4192.82041,4201.025538,4212.307589,4220.512717,4217.435794,4217.948615,4208.717846,4218.461435,4211.794769,4227.692204,4215.384512
72,0,4235.897332,4221.025538,4226.153743,4203.589641,4212.82041,4220.512717,4225.640922,4223.07682,4222.563999,4220.512717,4223.58964,4224.102461,4234.358871,4222.563999
73,0,4237.948614,4228.205025,4231.281948,4213.846051,4221.025538,4225.128102,4230.769127,4222.563999,4224.102461,4221.025538,4227.179384,4231.281948,4239.487076,4233.33323
74,0,4226.153743,4222.563999,4223.58964,4211.281948,4214.358871,4220.512717,4227.692204,4215.384512,4215.897333,4211.794769,4220.512717,4223.07682,4235.384512,4228.717845
75,0,4221.025538,4216.922974,4221.538358,4206.666564,4214.871692,4218.461435,4226.153743,4215.384512,4210.256307,4206.153743,4217.435794,4221.025538,4231.794768,4214.358871
76,0,4221.538358,4217.435794,4222.563999,4207.179384,4219.487076,4218.461435,4228.717845,4219.487076,4211.794769,4205.128102,4218.461435,4221.538358,4230.769127,4211.281948
77,0,4217.435794,4218.461435,4215.384512,4206.153743,4213.33323,4215.384512,4226.153743,4217.948615,4212.307589,4204.615282,4211.794769,4213.33323,4230.256307,4217.948615
78,0,4210.256307,4216.922974,4207.692205,4202.051179,4205.640923,4210.256307,4218.974256,4214.358871,4211.281948,4203.07682,4207.692205,4209.230666,4230.769127,4214.871692
79,0,4207.692205,4215.897333,4208.205025,4202.051179,4209.230666,4212.82041,4219.487076,4217.948615,4215.384512,4207.179384,4215.897333,4217.948615,4232.307589,4207.179384
80,0,4214.871692,4220.512717,4212.82041,4205.128102,4216.410153,4218.461435,4229.743486,4228.717845,4222.563999,4217.435794,4225.640922,4225.128102,4234.358871,4216.410153
81,0,4218.461435,4221.025538,4214.871692,4204.102461,4212.307589,4214.871692,4229.743486,4226.666563,4221.025538,4214.871692,4221.025538,4220.512717,4232.307589,4224.102461
82,0,4216.410153,4217.435794,4217.948615,4206.153743,4207.692205,4211.794769,4223.07682,4216.922974,4216.922974,4209.230666,4216.410153,4218.461435,4232.307589,4215.384512
83,0,4216.410153,4216.922974,4218.461435,4207.179384,4207.692205,4211.281948,4221.538358,4213.846051,4212.82041,4207.692205,4214.871692,4217.435794,4230.769127,4208.205025
84,0,4220.512717,4224.102461,4222.563999,4206.153743,4214.358871,4214.358871,4228.205025,4215.384512,4211.281948,4209.230666,4216.922974,4217.435794,4231.794768,4217.435794
85,0,4215.897333,4226.153743,4219.999897,4204.102461,4215.897333,4214.871692,4225.640922,4213.33323,4209.743487,4207.179384,4215.897333,4214.871692,4233.33323,4217.435794
86,0,4217.435794,4231.794768,4216.922974,4209.230666,4218.461435,4216.922974,4224.615281,4217.435794,4213.846051,4211.794769,4218.974256,4221.538358,4236.410153,4211.794769
87,0,4225.128102,4237.948614,4221.025538,4213.846051,4224.102461,4218.974256,4227.179384,4218.461435,4214.358871,4213.33323,4222.051179,4230.256307,4236.922973,4216.922974
88,0,4225.640922,4236.922973,4226.153743,4215.384512,4226.153743,4222.051179,4226.666563,4215.897333,4212.307589,4210.769128,4221.538358,4233.33323,4235.897332,4222.563999
89,0,4217.948615,4228.205025,4219.487076,4212.307589,4216.410153,4216.922974,4216.922974,4214.358871,4208.717846,4203.07682,4214.358871,4230.769127,4229.743486,4207.179384
90,0,4218.461435,4229.230666,4217.948615,4211.281948,4211.281948,4211.281948,4213.846051,4215.897333,4208.717846,4203.07682,4215.384512,4234.358871,4228.205025,4205.128102
91,0,4217.435794,4230.256307,4219.487076,4210.769128,4214.871692,4210.256307,4215.384512,4216.922974,4208.717846,4209.230666,4219.999897,4236.922973,4231.281948,4221.025538
92,0,4211.281948,4222.563999,4215.384512,4208.717846,4217.435794,4211.281948,4216.410153,4215.897333,4205.640923,4207.179384,4216.410153,4233.84605,4229.743486,4219.487076
93,0,4211.281948,4218.974256,4215.897333,4207.692205,4212.82041,4210.769128,4212.307589,4210.256307,4203.07682,4199.487077,4210.769128,4234.871691,4225.128102,4205.640923
94,0,4219.487076,4225.640922,4226.153743,4212.307589,4218.461435,4214.358871,4211.281948,4209.230666,4205.640923,4202.051179,4212.82041,4240.512717,4229.230666,4214.871692
95,0,4221.538358,4226.666563,4225.640922,4213.33323,4224.615281,4212.307589,4215.384512,4209.230666,4204.615282,4204.102461,4211.794769,4238.974255,4230.769127,4225.640922
96,0,4217.435794,4218.461435,4215.897333,4209.230666,4214.358871,4210.256307,4215.897333,4206.666564,4201.538359,4198.974256,4208.717846,4234.358871,4225.128102,4216.922974
97,0,4215.384512,4218.461435,4215.897333,4210.769128,4207.692205,4215.897333,4214.871692,4206.666564,4204.615282,4202.051179,4216.922974,4238.461435,4228.717845,4210.256307
98,0,4211.794769,4218.974256,4216.410153,4209.230666,4214.871692,4218.974256,4212.307589,4206.153743,4204.102461,4207.179384,4221.025538,4242.051178,4234.871691,4208.205025
99,0,4209.743487,4215.897333,4214.358871,4205.640923,4219.999897,4217.948615,4211.794769,4208.205025,4204.615282,4210.769128,4216.410153,4238.461435,4231.794768,4211.281948
100,0,4208.205025,4215.384512,4213.846051,4207.692205,4216.410153,4217.948615,4210.256307,4212.307589,4207.692205,4208.205025,4214.358871,4231.794768,4225.640922,4217.435794
101,0,4210.256307,4220.512717,4217.948615,4212.307589,4218.974256,4221.025538,4215.384512,4215.897333,4211.794769,4207.692205,4219.999897,4236.922973,4231.281948,4222.051179
102,0,4215.897333,4223.58964,4221.025538,4212.307589,4221.025538,4221.025538,4217.948615,4216.410153,4211.794769,4209.743487,4222.563999,4244.10246,4236.922973,4218.974256
103,0,4221.538358,4227.692204,4224.615281,4212.82041,4221.025538,4217.948615,4214.871692,4215.897333,4208.717846,4214.358871,4222.051179,4247.179383,4235.897332,4215.384512
104,0,4215.384512,4223.58964,4219.999897,4210.769128,4213.33323,4212.307589,4205.128102,4207.692205,4198.974256,4209.743487,4215.384512,4243.076819,4229.230666,4211.281948
105,0,4218.974256,4227.179384,4222.051179,4217.435794,4215.897333,4212.82041,4208.717846,4205.640923,4197.948615,4210.256307,4216.410153,4247.179383,4230.769127,4220.512717
106,0,4226.666563,4234.358871,4230.769127,4224.615281,4225.128102,4216.922974,4215.897333,4211.281948,4201.025538,4212.82041,4217.435794,4250.256306,4231.794768,4223.07682
107,0,4224.615281,4233.33323,4232.820409,4223.07682,4230.769127,4218.974256,4214.871692,4215.384512,4203.07682,4208.205025,4213.33323,4246.153742,4228.717845,4210.769128
108,0,4223.58964,4229.743486,4226.666563,4219.487076,4229.743486,4217.435794,4212.82041,4214.358871,4205.640923,4205.640923,4212.307589,4242.051178,4229.743486,4209.743487
109,0,4230.769127,4235.897332,4229.230666,4225.640922,4229.230666,4219.999897,4222.051179,4214.358871,4210.769128,4215.384512,4221.538358,4251.281947,4234.871691,4222.051179
110,0,4225.128102,4230.769127,4229.230666,4222.051179,4223.58964,4218.974256,4222.051179,4214.871692,4207.692205,4212.82041,4221.025538,4254.35887,4235.384512,4218.461435
111,0,4215.897333,4219.487076,4224.102461,4212.307589,4213.846051,4214.358871,4214.358871,4213.846051,4206.153743,4204.615282,4212.307589,4246.666563,4230.256307,4212.82041
112,0,4219.999897,4223.58964,4227.179384,4215.384512,4216.922974,4213.33323,4217.435794,4214.871692,4211.281948,4211.281948,4215.897333,4248.205024,4229.743486,4222.051179
113,0,4234.358871,4237.435794,4237.948614,4228.717845,4236.922973,4220.512717,4227.692204,4222.563999,4220.512717,4227.692204,4227.692204,4258.461434,4239.487076,4234.871691
114,0,4237.435794,4243.076819,4242.563999,4234.358871,4246.153742,4228.205025,4231.281948,4228.717845,4225.640922,4236.410153,4230.769127,4264.61528,4247.692204,4231.281948
115,0,4224.102461,4234.358871,4232.820409,4223.58964,4229.743486,4226.153743,4223.58964,4221.538358,4219.487076,4227.179384,4222.051179,4259.999896,4239.487076,4218.974256
116,0,4219.487076,4227.692204,4226.153743,4219.999897,4223.07682,4221.025538,4220.512717,4213.846051,4214.871692,4219.999897,4216.922974,4254.35887,4230.769127,4220.512717
117,0,4225.128102,4229.743486,4229.743486,4224.615281,4234.358871,4222.051179,4221.025538,4218.461435,4215.897333,4221.025538,4219.487076,4250.256306,4232.307589,4225.128102
118,0,4226.153743,4232.820409,4230.256307,4226.153743,4233.33323,4224.102461,4224.102461,4225.128102,4215.897333,4225.128102,4225.128102,4253.333229,4236.922973,4222.051179
119,0,4218.461435,4230.769127,4223.58964,4224.102461,4222.051179,4222.051179,4224.102461,4221.025538,4210.256307,4226.153743,4225.640922,4256.922973,4237.948614,4217.948615
120,0,4216.922974,4232.820409,4224.102461,4223.58964,4226.666563,4219.487076,4224.102461,4216.922974,4209.230666,4228.205025,4220.512717,4254.871691,4235.897332,4218.461435
121,0,4212.82041,4227.179384,4222.051179,4216.922974,4226.153743,4217.948615,4222.563999,4216.922974,4212.307589,4219.999897,4213.33323,4246.666563,4230.769127,4210.256307
122,0,4215.384512,4226.153743,4223.07682,4218.461435,4220.512717,4223.07682,4228.205025,4221.025538,4216.922974,4217.435794,4219.487076,4253.84605,4236.410153,4211.794769
123,0,4224.615281,4232.820409,4232.820409,4226.666563,4224.615281,4227.692204,4233.33323,4221.538358,4219.487076,4229.230666,4227.179384,4268.205024,4244.615281,4222.051179
124,0,4229.230666,4237.435794,4235.384512,4226.666563,4234.871691,4225.640922,4228.717845,4220.512717,4221.538358,4236.410153,4225.128102,4269.743485,4241.538358,4223.07682
125,0,4221.538358,4231.281948,4222.051179,4215.384512,4229.743486,4214.871692,4212.82041,4217.435794,4213.846051,4225.128102,4214.358871,4256.922973,4231.794768,4213.846051
126,0,4224.102461,4233.33323,4226.666563,4218.974256,4230.256307,4214.871692,4214.871692,4221.025538,4213.846051,4227.179384,4219.487076,4261.025537,4234.871691,4223.58964
127,0,4234.871691,4236.410153,4240.512717,4229.230666,4231.794768,4223.58964,4227.179384,4225.128102,4222.051179,4236.410153,4229.743486,4272.307588,4242.051178,4236.410153
128,0,4235.897332,4236.922973,4237.435794,4229.230666,4226.666563,4229.743486,4228.205025,4224.615281,4223.07682,4234.358871,4228.717845,4273.333229,4242.051178,4228.205025
0,0,4227.179384,4236.922973,4226.153743,4224.102461,4229.230666,4228.205025,4225.128102,4223.58964,4219.487076,4233.33323,4223.58964,4270.769126,4242.051178,4218.461435
1,0,4222.563999,4233.84605,4225.640922,4223.07682,4236.922973,4223.58964,4226.666563,4222.563999,4218.461435,4233.84605,4220.512717,4270.256306,4242.051178,4222.563999
2,0,4225.640922,4230.769127,4229.743486,4224.102461,4230.769127,4220.512717,4222.563999,4219.487076,4215.897333,4223.58964,4216.410153,4267.692203,4235.897332,4225.128102
3,0,4228.205025,4231.794768,4231.281948,4225.640922,4217.948615,4221.538358,4219.487076,4218.461435,4213.846051,4223.58964,4216.410153,4268.717844,4233.84605,4221.025538
4,0,4231.281948,4234.871691,4233.84605,4229.230666,4222.563999,4226.666563,4228.205025,4221.538358,4222.051179,4239.487076,4225.128102,4275.897331,4241.538358,4223.07682
5,0,4233.33323,4236.410153,4233.33323,4228.717845,4237.948614,4228.717845,4228.205025,4222.051179,4223.58964,4240.512717,4228.205025,4273.846049,4245.128101,4228.717845
6,0,4232.820409,4239.487076,4232.307589,4226.666563,4246.666563,4225.128102,4221.538358,4222.051179,4218.461435,4229.230666,4226.153743,4272.307588,4241.538358,4231.794768
7,0,4231.794768,4239.999896,4232.820409,4227.179384,4237.948614,4221.538358,4221.025538,4221.025538,4216.410153,4227.179384,4225.128102,4276.922972,4240.512717,4228.717845
8,0,4236.410153,4245.640922,4237.435794,4236.922973,4232.307589,4224.102461,4230.769127,4223.07682,4218.974256,4235.384512,4229.743486,4280.512716,4243.076819,4228.717845
9,0,4238.461435,4249.230665,4239.487076,4241.538358,4233.84605,4228.717845,4234.871691,4223.58964,4219.487076,4238.461435,4231.281948,4278.461434,4243.076819,4229.230666
10,0,4235.384512,4247.179383,4236.410153,4234.358871,4231.794768,4228.205025,4230.769127,4223.07682,4217.435794,4233.33323,4228.205025,4277.948613,4243.076819,4230.256307
11,0,4231.281948,4241.538358,4227.692204,4228.205025,4225.128102,4222.563999,4224.615281,4219.487076,4214.358871,4225.128102,4221.025538,4271.281947,4239.999896,4225.128102
12,0,4233.84605,4244.615281,4226.666563,4234.358871,4227.692204,4223.07682,4227.179384,4219.999897,4217.948615,4230.769127,4223.58964,4268.205024,4239.487076,4219.487076
13,0,4228.205025,4243.076819,4225.640922,4232.307589,4228.717845,4222.563999,4223.07682,4218.974256,4218.461435,4231.281948,4219.999897,4263.589639,4236.922973,4216.922974
14,0,4223.58964,4241.538358,4225.640922,4230.256307,4229.743486,4225.640922,4223.07682,4218.461435,4216.922974,4225.128102,4216.410153,4265.128101,4236.410153,4224.615281
15,0,4223.07682,4238.461435,4224.102461,4229.230666,4227.179384,4223.58964,4224.102461,4217.435794,4213.846051,4216.410153,4217.948615,4267.692203,4234.358871,4219.999897
16,0,4226.153743,4237.435794,4223.58964,4227.179384,4224.615281,4217.435794,4224.615281,4218.461435,4213.33323,4217.435794,4218.974256,4265.640921,4232.820409,4212.307589
17,0,4226.153743,4237.435794,4222.051179,4225.640922,4221.025538,4216.410153,4219.999897,4218.461435,4211.794769,4218.974256,4213.846051,4258.974255,4229.743486,4214.871692
18,0,4227.179384,4239.487076,4224.615281,4227.692204,4217.435794,4219.487076,4218.974256,4215.897333,4211.281948,4217.948615,4217.435794,4259.999896,4229.743486,4215.384512
19,0,4234.871691,4245.128101,4230.256307,4231.281948,4218.461435,4218.461435,4223.58964,4215.897333,4216.922974,4223.07682,4224.615281,4268.205024,4234.358871,4219.999897
20,0,4242.051178,4251.281947,4233.84605,4237.948614,4231.794768,4219.999897,4226.666563,4219.999897,4224.615281,4231.281948,4225.128102,4272.820408,4239.487076,4233.33323
21,0,4239.487076,4251.281947,4232.820409,4237.948614,4234.871691,4223.07682,4224.102461,4221.538358,4222.051179,4230.769127,4221.538358,4270.256306,4241.538358,4229.743486
22,0,4231.281948,4246.153742,4228.717845,4230.769127,4220.512717,4218.461435,4219.999897,4217.948615,4215.384512,4223.07682,4218.974256,4265.128101,4235.897332,4219.487076
23,0,4234.871691,4247.692204,4232.820409,4234.358871,4226.666563,4219.999897,4222.563999,4217.948615,4218.974256,4226.153743,4222.563999,4270.769126,4235.897332,4229.743486
24,0,4236.922973,4249.230665,4233.33323,4236.410153,4236.410153,4221.025538,4219.999897,4219.999897,4218.461435,4227.692204,4224.102461,4275.384511,4239.487076,4228.205025
25,0,4230.256307,4247.692204,4228.717845,4230.769127,4233.33323,4217.435794,4219.999897,4219.999897,4214.358871,4222.563999,4223.58964,4271.281947,4237.435794,4215.384512
26,0,4228.717845,4246.153742,4226.666563,4229.230666,4234.358871,4221.025538,4227.179384,4221.025538,4217.435794,4225.128102,4227.179384,4270.256306,4235.897332,4224.615281
27,0,4233.33323,4246.153742,4229.743486,4231.794768,4242.051178,4228.205025,4232.307589,4225.640922,4224.615281,4234.871691,4231.794768,4276.922972,4242.051178,4239.487076
28,0,4225.640922,4238.461435,4219.999897,4221.025538,4237.948614,4226.153743,4227.179384,4226.666563,4222.051179,4229.230666,4222.051179,4270.769126,4236.410153,4223.58964
29,0,4220.512717,4230.769127,4210.769128,4213.846051,4235.897332,4224.615281,4225.128102,4226.153743,4221.538358,4223.58964,4215.384512,4263.076819,4227.179384,4211.281948
30,0,4223.58964,4227.179384,4215.897333,4218.974256,4235.897332,4224.615281,4225.640922,4223.07682,4225.640922,4226.153743,4219.487076,4263.589639,4230.769127,4217.948615
31,0,4229.230666,4233.33323,4225.640922,4225.640922,4226.666563,4224.615281,4226.666563,4224.102461,4226.153743,4230.256307,4225.640922,4267.692203,4236.922973,4221.538358
32,0,4224.102461,4232.820409,4221.538358,4222.051179,4221.538358,4221.025538,4222.051179,4220.512717,4215.897333,4222.563999,4219.487076,4263.076819,4231.281948,4211.281948
33,0,4222.051179,4228.717845,4217.435794,4223.58964,4236.922973,4227.179384,4227.692204,4215.897333,4216.922974,4225.640922,4217.948615,4259.487075,4232.307589,4215.897333
34,0,4230.256307,4231.281948,4220.512717,4228.205025,4249.743486,4236.922973,4235.384512,4219.487076,4230.256307,4232.820409,4222.051179,4259.487075,4237.948614,4225.640922
35,0,4235.897332,4238.461435,4224.615281,4230.256307,4242.051178,4237.435794,4236.410153,4223.07682,4229.230666,4226.666563,4219.487076,4259.999896,4234.871691,4221.538358
36,0,4227.179384,4232.307589,4222.051179,4227.692204,4229.743486,4231.281948,4231.794768,4216.922974,4216.922974,4214.871692,4214.871692,4256.922973,4228.205025,4212.82041
37,0,4222.563999,4223.07682,4222.563999,4225.640922,4235.897332,4231.794768,4231.281948,4216.410153,4219.487076,4217.948615,4221.025538,4257.435793,4230.769127,4213.846051
38,0,4225.640922,4223.07682,4221.025538,4221.538358,4239.999896,4226.666563,4225.128102,4217.948615,4221.538358,4222.563999,4219.999897,4255.384511,4231.794768,4213.33323
39,0,4228.205025,4228.205025,4218.461435,4223.58964,4234.871691,4218.461435,4219.999897,4212.82041,4214.871692,4218.461435,4214.871692,4252.307588,4228.717845,4215.897333
40,0,4235.384512,4234.871691,4228.717845,4233.33323,4234.358871,4226.666563,4228.205025,4218.461435,4221.025538,4228.717845,4226.666563,4264.10246,4234.871691,4224.102461
41,0,4238.974255,4235.384512,4237.948614,4234.871691,4237.435794,4237.948614,4235.384512,4230.256307,4234.358871,4240.512717,4236.410153,4274.87169,4240.512717,4225.128102
42,0,4235.384512,4226.153743,4232.820409,4227.179384,4243.076819,4233.33323,4231.794768,4229.743486,4236.410153,4237.948614,4228.717845,4271.281947,4238.461435,4225.640922
43,0,4227.179384,4214.358871,4223.07682,4218.461435,4237.435794,4222.051179,4221.538358,4225.128102,4225.640922,4230.256307,4221.025538,4263.076819,4232.307589,4223.07682
44,0,4225.640922,4214.871692,4230.256307,4223.58964,4221.025538,4221.538358,4222.563999,4226.666563,4221.025538,4231.281948,4226.153743,4265.128101,4232.307589,4220.512717
45,0,4226.666563,4217.435794,4236.410153,4227.692204,4222.563999,4228.205025,4229.230666,4227.692204,4225.128102,4228.205025,4223.07682,4266.666562,4231.281948,4221.538358
46,0,4226.153743,4212.82041,4229.230666,4219.487076,4243.58964,4229.743486,4227.179384,4225.640922,4230.256307,4222.051179,4213.846051,4257.948614,4226.153743,4215.897333
47,0,4217.948615,4206.153743,4218.974256,4213.33323,4240.512717,4225.640922,4218.974256,4219.999897,4226.666563,4218.974256,4207.692205,4246.153742,4221.025538,4200.512718
48,0,4222.051179,4212.82041,4226.666563,4225.640922,4230.256307,4229.743486,4232.307589,4223.07682,4231.281948,4225.640922,4211.794769,4251.281947,4221.538358,4205.128102
49,0,4232.820409,4221.538358,4234.871691,4232.820409,4234.871691,4232.307589,4244.615281,4230.256307,4238.461435,4229.743486,4217.435794,4257.435793,4224.102461,4219.999897
50,0,4234.871691,4222.563999,4229.743486,4228.717845,4246.666563,4231.794768,4237.435794,4230.769127,4234.871691,4229.230666,4222.563999,4254.35887,4228.717845,4223.07682
51,0,4226.666563,4216.410153,4222.563999,4225.128102,4238.461435,4230.769127,4226.666563,4223.58964,4226.153743,4224.615281,4222.051179,4251.281947,4232.307589,4213.846051
52,0,4230.256307,4223.07682,4228.205025,4230.256307,4228.717845,4232.307589,4229.743486,4223.58964,4229.743486,4228.717845,4225.640922,4257.948614,4235.897332,4218.974256
53,0,4233.84605,4232.820409,4231.281948,4231.794768,4237.435794,4232.307589,4230.769127,4226.666563,4233.84605,4236.410153,4229.230666,4260.512716,4237.435794,4230.769127
54,0,4229.743486,4228.717845,4228.205025,4228.205025,4242.563999,4231.794768,4226.153743,4228.205025,4231.281948,4238.974255,4227.692204,4262.051178,4236.922973,4227.179384
55,0,4224.102461,4219.487076,4223.58964,4224.615281,4231.281948,4230.256307,4222.563999,4227.692204,4228.717845,4232.307589,4222.051179,4258.974255,4231.281948,4216.922974
56,0,4219.487076,4220.512717,4218.974256,4224.615281,4233.33323,4231.794768,4224.102461,4227.179384,4228.717845,4228.205025,4218.974256,4250.769127,4228.717845,4214.871692
57,0,4213.846051,4223.58964,4217.435794,4222.051179,4244.615281,4233.33323,4225.640922,4227.692204,4228.205025,4228.205025,4219.487076,4246.153742,4230.256307,4213.33323
58,0,4215.384512,4221.025538,4220.512717,4220.512717,4232.820409,4230.256307,4228.205025,4227.692204,4226.666563,4224.102461,4220.512717,4246.666563,4233.33323,4212.307589
59,0,4220.512717,4222.051179,4225.128102,4227.692204,4221.025538,4228.205025,4231.281948,4226.153743,4228.205025,4223.58964,4218.974256,4251.794768,4232.820409,4222.051179
60,0,4218.974256,4223.58964,4219.999897,4228.205025,4227.692204,4227.179384,4226.666563,4223.07682,4227.692204,4220.512717,4214.358871,4249.743486,4225.640922,4222.563999
61,0,4220.512717,4221.538358,4221.025538,4225.128102,4233.33323,4224.615281,4221.538358,4226.153743,4227.692204,4220.512717,4217.948615,4250.769127,4227.179384,4213.846051
62,0,4223.58964,4218.974256,4228.205025,4224.102461,4233.84605,4220.512717,4220.512717,4228.717845,4227.179384,4223.58964,4223.07682,4253.333229,4231.794768,4215.897333
63,0,4225.128102,4223.58964,4226.153743,4228.205025,4231.794768,4218.461435,4221.025538,4227.692204,4224.615281,4225.640922,4223.58964,4252.820409,4230.256307,4226.153743
64,0,4226.666563,4226.666563,4221.538358,4234.871691,4224.102461,4220.512717,4222.563999,4225.640922,4222.563999,4223.07682,4225.640922,4253.333229,4230.769127,4227.179384
65,0,4236.410153,4233.84605,4233.33323,4244.10246,4225.640922,4228.717845,4232.307589,4230.256307,4227.179384,4231.794768,4235.384512,4262.563998,4240.512717,4231.794768
66,0,4237.948614,4235.897332,4239.999896,4241.538358,4230.769127,4228.205025,4233.33323,4231.281948,4226.666563,4236.922973,4233.33323,4264.10246,4239.999896,4236.410153
67,0,4231.794768,4234.358871,4238.461435,4236.922973,4232.307589,4228.205025,4231.281948,4229.230666,4223.07682,4233.33323,4226.666563,4261.538357,4235.384512,4236.922973
68,0,4228.717845,4230.769127,4235.897332,4236.922973,4231.281948,4230.256307,4231.794768,4227.692204,4223.07682,4226.666563,4224.102461,4257.435793,4234.358871,4230.256307
69,0,4231.794768,4232.820409,4235.897332,4237.948614,4237.948614,4231.794768,4233.84605,4229.230666,4228.717845,4227.179384,4224.102461,4252.820409,4234.871691,4228.205025
70,0,4229.230666,4228.717845,4231.281948,4231.794768,4233.33323,4227.179384,4230.256307,4228.205025,4226.666563,4225.640922,4219.999897,4250.256306,4232.820409,4224.615281
71,0,4228.717845,4228.717845,4232.307589,4232.820409,4222.563999,4226.153743,4229.743486,4227.179384,4223.58964,4225.640922,4223.58964,4257.948614,4234.871691,4228.205025
72,0,4227.692204,4227.692204,4230.769127,4231.794768,4220.512717,4223.58964,4227.179384,4223.58964,4222.563999,4222.563999,4224.615281,4261.025537,4236.410153,4231.794768
73,0,4218.461435,4219.487076,4217.948615,4221.538358,4225.640922,4220.512717,4224.102461,4222.051179,4223.07682,4217.948615,4221.025538,4253.84605,4233.33323,4228.717845
74,0,4214.358871,4220.512717,4214.358871,4220.512717,4228.205025,4226.666563,4229.230666,4228.205025,4228.205025,4226.666563,4228.717845,4252.307588,4233.33323,4233.33323
75,0,4224.102461,4232.820409,4228.205025,4232.820409,4230.769127,4234.358871,4241.538358,4236.922973,4235.384512,4241.538358,4235.384512,4261.025537,4237.948614,4239.999896
76,0,4227.692204,4237.435794,4233.84605,4236.410153,4232.307589,4230.769127,4242.563999,4233.84605,4237.948614,4239.999896,4229.230666,4262.051178,4238.461435,4231.281948
77,0,4219.999897,4229.743486,4224.615281,4229.743486,4229.230666,4225.128102,4233.33323,4224.102461,4234.358871,4221.538358,4222.563999,4251.281947,4231.281948,4221.538358
78,0,4212.82041,4218.974256,4220.512717,4224.615281,4223.58964,4226.153743,4230.256307,4224.615281,4231.794768,4217.435794,4226.666563,4248.717845,4228.717845,4222.051179
79,0,4211.281948,4214.358871,4223.58964,4224.615281,4218.461435,4225.640922,4226.666563,4225.640922,4229.743486,4225.128102,4229.230666,4251.281947,4231.281948,4219.999897
80,0,4216.922974,4223.07682,4227.179384,4226.666563,4226.153743,4226.153743,4225.128102,4219.999897,4230.769127,4223.58964,4226.153743,4250.769127,4230.256307,4222.563999
81,0,4217.435794,4226.666563,4227.179384,4227.179384,4226.153743,4224.615281,4224.102461,4215.897333,4229.230666,4213.846051,4220.512717,4247.179383,4226.666563,4225.640922
82,0,4221.538358,4228.205025,4232.307589,4232.820409,4221.538358,4225.128102,4226.153743,4223.58964,4226.666563,4223.07682,4225.128102,4252.307588,4230.769127,4227.692204
83,0,4226.153743,4229.743486,4234.871691,4236.410153,4228.717845,4227.692204,4229.743486,4231.281948,4227.179384,4235.384512,4232.820409,4258.461434,4236.410153,4233.33323
84,0,4231.281948,4233.84605,4240.512717,4239.487076,4241.538358,4231.794768,4237.435794,4234.871691,4236.922973,4239.487076,4238.974255,4265.128101,4241.025537,4242.051178
85,0,4232.820409,4234.871691,4237.948614,4239.999896,4241.025537,4232.820409,4235.897332,4231.281948,4237.948614,4238.974255,4240.512717,4267.692203,4241.025537,4243.076819
86,0,4229.230666,4228.205025,4228.717845,4238.461435,4229.743486,4230.256307,4230.769127,4226.153743,4229.743486,4235.897332,4236.922973,4263.076819,4239.487076,4241.538358
87,0,4219.999897,4214.871692,4220.512717,4232.820409,4218.974256,4222.051179,4222.563999,4222.563999,4224.102461,4225.128102,4224.615281,4248.717845,4231.794768,4230.769127
88,0,4222.051179,4222.051179,4224.615281,4233.33323,4231.794768,4226.666563,4222.563999,4228.205025,4230.256307,4228.717845,4226.153743,4250.769127,4230.769127,4226.153743
89,0,4225.128102,4230.769127,4226.153743,4233.33323,4243.58964,4234.871691,4224.615281,4232.820409,4231.794768,4237.435794,4233.33323,4256.410152,4237.948614,4227.179384
90,0,4218.974256,4221.025538,4223.07682,4230.769127,4232.820409,4229.743486,4224.615281,4230.769127,4227.692204,4233.33323,4230.256307,4249.743486,4237.435794,4228.717845
91,0,4217.435794,4212.307589,4225.640922,4230.769127,4221.025538,4223.58964,4227.179384,4227.692204,4229.230666,4225.640922,4226.666563,4247.692204,4231.281948,4230.256307
92,0,4219.487076,4215.384512,4226.666563,4232.307589,4221.025538,4224.615281,4230.769127,4230.256307,4230.256307,4226.153743,4230.256307,4253.333229,4231.281948,4225.640922
93,0,4210.769128,4209.743487,4215.384512,4226.666563,4219.487076,4221.538358,4223.58964,4229.230666,4224.615281,4222.563999,4225.128102,4246.153742,4228.717845,4215.897333
94,0,4207.179384,4198.461436,4208.717846,4219.999897,4219.999897,4221.025538,4219.487076,4223.07682,4222.563999,4216.410153,4217.435794,4232.820409,4223.58964,4218.461435
95,0,4211.794769,4199.999897,4213.846051,4222.051179,4224.615281,4227.179384,4229.230666,4224.102461,4230.256307,4223.58964,4223.58964,4233.84605,4228.205025,4227.179384
96,0,4211.281948,4205.640923,4215.897333,4224.615281,4223.07682,4226.666563,4233.84605,4229.230666,4231.281948,4229.743486,4226.666563,4238.974255,4231.281948,4223.07682
97,0,4209.230666,4208.205025,4214.871692,4221.538358,4220.512717,4224.102461,4230.256307,4227.179384,4225.640922,4220.512717,4221.025538,4238.974255,4226.666563,4217.948615
98,0,4210.256307,4208.205025,4216.410153,4222.051179,4209.230666,4227.179384,4228.205025,4221.538358,4225.640922,4216.410153,4216.922974,4235.384512,4223.07682,4215.384512
99,0,4216.922974,4215.384512,4223.07682,4229.743486,4213.33323,4231.281948,4232.307589,4227.692204,4229.743486,4228.205025,4221.538358,4237.435794,4228.717845,4223.07682
100,0,4216.922974,4217.948615,4222.563999,4227.692204,4236.922973,4230.769127,4236.922973,4233.84605,4229.230666,4231.281948,4225.640922,4241.538358,4230.769127,4230.256307
101,0,4216.410153,4218.461435,4219.999897,4226.153743,4243.58964,4231.281948,4239.999896,4234.358871,4231.794768,4230.769127,4229.230666,4244.615281,4230.769127,4228.717845
102,0,4219.487076,4221.025538,4218.974256,4232.820409,4224.615281,4233.33323,4236.922973,4233.33323,4233.84605,4230.256307,4230.256307,4240.512717,4230.769127,4228.717845
103,0,4222.563999,4225.640922,4220.512717,4238.974255,4224.615281,4235.897332,4236.410153,4235.384512,4234.358871,4233.84605,4231.281948,4235.897332,4233.84605,4235.897332
104,0,4216.922974,4219.999897,4214.871692,4229.743486,4235.384512,4230.769127,4228.205025,4227.692204,4225.128102,4237.948614,4226.666563,4231.281948,4233.33323,4227.179384
105,0,4215.897333,4215.897333,4216.922974,4225.640922,4239.487076,4228.205025,4216.922974,4220.512717,4218.974256,4236.410153,4226.153743,4235.897332,4229.743486,4218.461435
106,0,4222.051179,4219.487076,4227.179384,4231.281948,4242.563999,4230.769127,4214.358871,4221.538358,4222.051179,4227.692204,4231.281948,4245.640922,4229.743486,4224.102461
107,0,4230.256307,4230.769127,4238.974255,4242.051178,4239.487076,4235.384512,4225.128102,4227.179384,4231.794768,4242.051178,4243.076819,4254.35887,4239.487076,4242.051178
108,0,4232.820409,4232.820409,4241.538358,4246.666563,4224.102461,4233.33323,4227.179384,4230.256307,4233.33323,4254.871691,4244.10246,4253.333229,4244.10246,4250.256306
109,0,4228.205025,4225.640922,4232.307589,4238.974255,4231.794768,4230.256307,4222.563999,4228.717845,4229.743486,4237.435794,4234.871691,4244.10246,4238.461435,4239.487076
110,0,4220.512717,4217.948615,4222.051179,4228.717845,4248.205024,4228.205025,4222.051179,4226.153743,4227.692204,4225.640922,4228.205025,4235.897332,4232.820409,4227.179384
111,0,4224.102461,4218.974256,4226.666563,4233.84605,4236.410153,4228.717845,4226.153743,4228.205025,4227.692204,4234.358871,4231.281948,4239.487076,4234.358871,4233.33323
112,0,4229.230666,4223.07682,4234.358871,4243.58964,4219.487076,4228.205025,4229.230666,4230.256307,4224.615281,4230.256307,4231.794768,4244.10246,4234.871691,4233.84605
113,0,4221.025538,4217.948615,4225.128102,4235.384512,4216.922974,4222.563999,4221.538358,4222.051179,4216.922974,4210.256307,4226.153743,4235.384512,4229.743486,4219.999897
114,0,4219.999897,4214.871692,4223.07682,4230.769127,4219.999897,4221.025538,4218.974256,4217.948615,4216.410153,4214.358871,4228.205025,4235.384512,4229.230666,4228.717845
115,0,4230.256307,4217.948615,4235.384512,4237.948614,4227.179384,4225.640922,4228.205025,4221.538358,4221.025538,4229.743486,4231.281948,4244.615281,4233.33323,4241.025537
116,0,4231.794768,4219.487076,4237.435794,4239.999896,4232.820409,4223.58964,4227.179384,4222.051179,4218.974256,4227.692204,4231.794768,4246.153742,4238.461435,4235.384512
117,0,4225.128102,4215.897333,4228.717845,4234.358871,4222.563999,4218.461435,4214.358871,4214.358871,4212.82041,4216.410153,4230.769127,4239.487076,4235.384512,4230.256307
118,0,4226.153743,4215.384512,4226.666563,4230.769127,4212.82041,4221.025538,4215.384512,4212.307589,4215.897333,4221.538358,4230.256307,4241.538358,4231.281948,4235.384512
119,0,4220.512717,4212.307589,4223.07682,4227.692204,4214.358871,4219.999897,4214.358871,4214.358871,4218.461435,4223.58964,4225.128102,4237.435794,4227.692204,4227.692204
120,0,4223.58964,4219.487076,4224.102461,4234.358871,4224.615281,4219.487076,4210.769128,4216.922974,4217.435794,4221.025538,4227.692204,4235.897332,4228.717845,4224.102461
121,0,4230.256307,4219.487076,4226.153743,4237.435794,4224.102461,4221.025538,4216.410153,4218.974256,4217.948615,4219.999897,4231.794768,4242.051178,4230.256307,4228.717845
122,0,4221.025538,4203.07682,4225.128102,4228.205025,4217.435794,4225.640922,4228.205025,4224.102461,4227.179384,4223.58964,4232.307589,4244.615281,4227.692204,4229.743486
123,0,4213.33323,4200.512718,4222.051179,4223.58964,4215.897333,4227.692204,4226.666563,4224.102461,4229.230666,4221.538358,4228.717845,4238.461435,4223.07682,4229.230666
124,0,4226.153743,4224.615281,4223.07682,4235.384512,4214.871692,4224.615281,4222.563999,4220.512717,4225.640922,4218.461435,4223.58964,4235.384512,4223.07682,4232.820409
125,0,4228.717845,4235.384512,4217.435794,4239.999896,4209.743487,4218.461435,4217.948615,4216.410153,4219.487076,4212.307589,4215.384512,4229.230666,4217.435794,4226.666563
126,0,4222.051179,4231.281948,4216.922974,4233.84605,4218.974256,4221.538358,4216.922974,4218.461435,4218.974256,4208.717846,4213.33323,4226.153743,4208.205025,4220.512717
127,0,4224.102461,4231.281948,4221.025538,4230.769127,4227.179384,4226.666563,4219.487076,4222.563999,4222.051179,4212.307589,4215.384512,4234.871691,4204.615282,4215.897333
128,0,4226.666563,4237.435794,4219.999897,4237.948614,4230.769127,4227.179384,4225.640922,4223.07682,4226.153743,4218.974256,4219.487076,4239.999896,4207.692205,4222.051179
0,0,4224.615281,4237.948614,4219.487076,4241.025537,4232.820409,4227.692204,4225.128102,4218.974256,4224.102461,4214.871692,4217.435794,4232.307589,4207.179384,4227.179384
1,0,4223.07682,4231.281948,4218.974256,4232.820409,4222.051179,4226.153743,4215.897333,4214.358871,4217.435794,4205.640923,4209.743487,4223.58964,4201.025538,4213.846051
2,0,4224.102461,4230.256307,4218.461435,4232.307589,4211.281948,4221.538358,4210.256307,4214.871692,4217.948615,4202.051179,4209.743487,4221.538358,4198.974256,4207.179384
3,0,4225.640922,4236.410153,4221.538358,4239.487076,4216.922974,4222.563999,4210.256307,4216.410153,4221.538358,4204.615282,4215.384512,4223.07682,4202.051179,4220.512717
4,0,4223.07682,4233.84605,4223.07682,4235.897332,4222.563999,4224.102461,4208.205025,4214.871692,4222.563999,4208.205025,4215.897333,4225.640922,4203.589641,4225.128102
5,0,4222.051179,4230.256307,4221.025538,4231.281948,4217.435794,4222.563999,4205.640923,4216.410153,4225.640922,4210.256307,4214.871692,4225.128102,4202.564,4218.974256
6,0,4230.256307,4238.974255,4227.179384,4239.487076,4222.563999,4225.128102,4213.846051,4225.128102,4233.33323,4218.461435,4222.563999,4232.307589,4207.692205,4223.58964
7,0,4228.205025,4237.435794,4229.230666,4241.538358,4221.538358,4225.640922,4217.435794,4229.743486,4230.769127,4214.871692,4224.615281,4235.384512,4208.205025,4226.666563
8,0,4219.487076,4230.256307,4225.128102,4238.461435,4216.922974,4224.102461,4218.461435,4228.205025,4221.538358,4205.128102,4219.999897,4228.717845,4202.564,4223.58964
9,0,4210.769128,4223.58964,4216.922974,4229.230666,4221.025538,4221.025538,4215.897333,4224.102461,4214.358871,4198.974256,4209.743487,4214.358871,4194.871692,4212.82041
10,0,4210.769128,4222.563999,4213.846051,4226.153743,4228.205025,4223.58964,4218.461435,4225.640922,4219.999897,4206.153743,4212.307589,4212.307589,4194.871692,4205.128102
11,0,4216.922974,4224.615281,4217.435794,4232.820409,4223.58964,4228.205025,4223.58964,4226.666563,4227.179384,4210.256307,4219.999897,4216.410153,4201.025538,4211.794769
12,0,4226.153743,4233.33323,4222.563999,4239.487076,4224.615281,4229.743486,4228.205025,4227.179384,4226.153743,4208.717846,4221.025538,4220.512717,4204.615282,4221.025538
13,0,4225.128102,4233.33323,4216.410153,4233.33323,4224.615281,4223.58964,4221.025538,4222.563999,4217.435794,4203.07682,4214.871692,4216.410153,4201.538359,4211.281948
14,0,4223.58964,4230.256307,4213.846051,4233.33323,4215.384512,4219.999897,4215.384512,4218.974256,4213.33323,4202.564,4217.435794,4213.846051,4204.102461,4215.384512
15,0,4222.563999,4227.692204,4213.846051,4233.33323,4213.846051,4216.922974,4207.692205,4212.82041,4204.615282,4200.512718,4214.871692,4212.82041,4203.589641,4225.128102
16,0,4221.538358,4227.692204,4211.281948,4230.256307,4226.153743,4213.846051,4203.07682,4209.230666,4202.564,4198.461436,4210.769128,4213.33323,4198.974256,4222.051179
17,0,4222.051179,4229.743486,4211.281948,4233.33323,4223.58964,4214.871692,4206.666564,4214.358871,4212.307589,4199.487077,4211.794769,4213.846051,4199.487077,4217.435794
18,0,4227.179384,4231.281948,4219.487076,4238.974255,4211.281948,4215.384512,4208.205025,4218.974256,4217.948615,4204.102461,4216.410153,4215.897333,4203.589641,4221.538358
19,0,4231.794768,4234.358871,4226.153743,4240.512717,4211.794769,4215.897333,4208.205025,4220.512717,4217.948615,4211.281948,4223.07682,4220.512717,4207.179384,4232.307589
20,0,4228.717845,4234.358871,4222.563999,4238.974255,4218.974256,4218.974256,4215.897333,4225.128102,4216.410153,4212.307589,4226.666563,4223.58964,4210.769128,4238.461435
21,0,4225.640922,4231.281948,4217.435794,4236.922973,4224.102461,4222.563999,4222.563999,4229.743486,4212.307589,4208.205025,4224.102461,4224.102461,4210.256307,4231.794768
22,0,4229.230666,4229.743486,4219.487076,4237.948614,4229.743486,4226.666563,4223.58964,4230.256307,4212.82041,4210.256307,4222.563999,4223.58964,4208.717846,4222.051179
23,0,4231.281948,4234.358871,4223.58964,4241.025537,4236.922973,4228.717845,4230.256307,4229.743486,4218.461435,4216.410153,4223.58964,4220.512717,4210.256307,4226.666563
24,0,4225.640922,4235.897332,4222.051179,4239.487076,4226.153743,4225.128102,4226.153743,4227.692204,4214.871692,4210.256307,4219.487076,4215.897333,4207.692205,4228.717845
25,0,4230.256307,4236.922973,4226.153743,4243.076819,4216.410153,4223.58964,4219.999897,4225.128102,4209.230666,4209.743487,4217.948615,4221.025538,4206.666564,4225.640922
26,0,4229.743486,4228.717845,4225.128102,4237.948614,4226.666563,4225.640922,4215.384512,4218.461435,4204.102461,4205.128102,4215.384512,4221.538358,4205.640923,4219.999897
27,0,4221.025538,4218.974256,4213.846051,4225.128102,4235.384512,4224.102461,4207.692205,4212.82041,4198.974256,4192.30759,4213.846051,4216.410153,4199.999897,4212.307589
28,0,4216.922974,4218.461435,4206.666564,4223.07682,4222.563999,4219.487076,4202.564,4212.307589,4194.358872,4187.179385,4213.846051,4212.82041,4197.948615,4216.410153
29,0,4223.58964,4228.717845,4218.461435,4234.871691,4227.179384,4225.128102,4214.358871,4218.461435,4199.999897,4200.512718,4217.435794,4216.922974,4206.666564,4229.743486
30,0,4225.640922,4230.769127,4222.563999,4236.922973,4241.538358,4229.230666,4218.461435,4219.999897,4199.999897,4201.025538,4216.922974,4213.846051,4205.640923,4227.179384
