title:J                                                                               , recorded:01.07.20 13.41.40, sampling:128, subject:J                                                                               , labels:COUNTER INTERPOLATED AF3 F7 F3 FC5 T7 P7 O1 O2 P8 T8 FC6 F4 F8 AF4, chan:37, units:emotiv,,,,,,,,,
46,0,4230.256307,4229.743486,4219.487076,4211.281948,4261.538357,4244.615281,4229.230666,4235.897332,4069.74349,4166.666565,4218.461435,4232.307589,4209.230666,4215.897333
47,0,4230.256307,4246.666563,4208.717846,4204.102461,4234.358871,4245.128101,4228.717845,4234.358871,4073.846054,4164.102462,4214.358871,4227.179384,4212.307589,4209.743487
48,0,4226.666563,4232.307589,4210.769128,4194.871692,4231.794768,4246.666563,4229.230666,4242.051178,4073.333234,4171.79477,4218.974256,4228.205025,4211.281948,4210.769128
49,0,4226.666563,4234.871691,4217.948615,4203.07682,4250.769127,4239.487076,4226.153743,4241.025537,4074.871695,4176.410154,4231.794768,4230.256307,4212.307589,4214.358871
50,0,4233.33323,4251.281947,4216.410153,4221.025538,4254.871691,4232.820409,4219.487076,4235.897332,4088.717849,4173.333231,4234.871691,4232.820409,4217.948615,4217.948615
51,0,4241.025537,4234.358871,4223.07682,4212.82041,4230.769127,4232.820409,4219.487076,4238.974255,4109.230669,4176.922975,4227.692204,4238.461435,4220.512717,4225.128102
52,0,4238.461435,4230.256307,4225.128102,4194.871692,4211.281948,4230.256307,4220.512717,4236.922973,4119.999899,4177.435795,4219.999897,4235.384512,4216.922974,4221.538358
53,0,4227.692204,4244.10246,4217.435794,4205.128102,4232.820409,4232.307589,4215.897333,4230.256307,4122.051181,4168.205026,4220.512717,4227.179384,4214.871692,4212.82041
54,0,4230.256307,4238.974255,4224.615281,4226.666563,4262.051178,4236.922973,4213.33323,4232.820409,4128.717848,4173.846052,4232.820409,4235.897332,4216.410153,4224.102461
55,0,4243.076819,4243.076819,4234.358871,4221.025538,4253.333229,4238.974255,4219.487076,4237.435794,4136.410155,4189.743487,4236.410153,4248.205024,4222.051179,4237.435794
56,0,4240.512717,4259.487075,4230.256307,4211.281948,4237.948614,4242.563999,4226.153743,4235.897332,4133.333232,4186.666564,4229.230666,4244.615281,4227.179384,4230.256307
57,0,4228.717845,4248.717845,4227.179384,4213.33323,4237.948614,4240.512717,4222.051179,4232.307589,4132.820412,4176.410154,4227.692204,4238.974255,4224.102461,4224.102461
58,0,4238.974255,4243.076819,4230.769127,4224.102461,4243.076819,4232.307589,4217.435794,4234.871691,4163.076821,4183.589641,4236.410153,4245.128101,4221.025538,4233.33323
59,0,4253.84605,4252.820409,4233.33323,4221.538358,4240.512717,4232.307589,4223.07682,4240.512717,4214.871692,4192.30759,4244.10246,4250.769127,4221.025538,4235.384512
60,0,4239.999896,4238.974255,4232.307589,4204.615282,4218.461435,4234.871691,4223.58964,4232.820409,4252.307588,4181.538359,4232.820409,4238.974255,4215.897333,4219.487076
61,0,4228.205025,4234.358871,4227.179384,4215.384512,4212.82041,4231.794768,4215.897333,4224.615281,4267.692203,4171.281949,4224.615281,4229.230666,4217.948615,4219.487076
62,0,4247.692204,4254.871691,4234.358871,4233.33323,4249.230665,4233.84605,4219.999897,4236.410153,4281.025536,4183.589641,4244.10246,4246.666563,4233.33323,4243.076819
63,0,4254.35887,4253.84605,4237.948614,4219.999897,4255.897332,4235.897332,4221.025538,4239.999896,4286.153741,4189.743487,4246.153742,4252.820409,4228.717845,4244.10246
64,0,4237.948614,4236.922973,4226.153743,4212.307589,4228.205025,4233.84605,4214.871692,4225.128102,4281.538357,4180.512718,4220.512717,4233.84605,4213.33323,4226.666563
65,0,4237.948614,4241.538358,4227.179384,4222.051179,4229.230666,4234.871691,4223.58964,4228.717845,4289.230664,4181.538359,4219.487076,4236.922973,4224.615281,4234.871691
66,0,4242.563999,4249.230665,4234.871691,4217.948615,4236.410153,4232.307589,4227.179384,4240.512717,4297.948613,4187.179385,4234.358871,4249.743486,4233.84605,4244.10246
67,0,4235.897332,4234.358871,4229.230666,4212.307589,4232.307589,4232.820409,4219.487076,4235.897332,4294.358869,4187.179385,4234.871691,4240.512717,4220.512717,4233.84605
68,0,4229.230666,4216.922974,4221.025538,4222.563999,4232.307589,4234.871691,4215.897333,4226.666563,4292.820408,4182.05118,4225.128102,4230.256307,4213.33323,4223.58964
69,0,4225.128102,4218.974256,4216.410153,4221.025538,4229.743486,4233.33323,4219.999897,4227.692204,4297.435792,4182.05118,4222.051179,4233.33323,4219.487076,4223.07682
70,0,4224.102461,4222.563999,4215.897333,4202.051179,4231.281948,4241.025537,4226.153743,4232.307589,4296.410151,4192.30759,4223.07682,4232.307589,4219.487076,4226.153743
71,0,4230.769127,4220.512717,4223.07682,4201.025538,4249.230665,4245.640922,4225.640922,4234.358871,4297.948613,4204.102461,4223.07682,4234.358871,4218.461435,4230.256307
72,0,4230.256307,4215.384512,4223.58964,4228.717845,4245.128101,4235.897332,4219.999897,4234.358871,4301.538356,4204.102461,4226.666563,4240.512717,4219.487076,4226.666563
73,0,4213.846051,4198.974256,4212.82041,4235.897332,4213.846051,4226.153743,4214.358871,4225.128102,4288.717844,4192.30759,4223.58964,4226.666563,4215.897333,4215.384512
74,0,4214.358871,4203.07682,4218.461435,4213.33323,4222.051179,4234.358871,4218.974256,4223.58964,4283.076818,4192.82041,4221.025538,4223.58964,4217.948615,4220.512717
75,0,4225.128102,4217.435794,4234.358871,4215.384512,4254.35887,4247.179383,4228.717845,4236.410153,4293.333228,4201.538359,4229.230666,4241.025537,4223.58964,4233.33323
76,0,4226.153743,4216.410153,4233.33323,4229.743486,4254.35887,4245.128101,4232.307589,4237.435794,4292.820408,4197.435795,4237.435794,4241.538358,4218.461435,4232.820409
77,0,4228.205025,4219.487076,4227.179384,4223.07682,4231.794768,4236.410153,4227.692204,4226.666563,4277.435793,4192.30759,4233.33323,4229.230666,4214.358871,4227.692204
78,0,4234.871691,4230.256307,4232.307589,4221.025538,4235.384512,4242.051178,4228.205025,4231.794768,4272.820408,4205.640923,4229.230666,4241.025537,4224.102461,4231.794768
79,0,4234.358871,4224.102461,4234.358871,4231.281948,4248.205024,4247.179383,4233.84605,4243.076819,4277.948613,4215.384512,4232.820409,4250.769127,4228.205025,4234.871691
80,0,4225.128102,4212.307589,4229.230666,4224.615281,4239.999896,4236.410153,4232.820409,4235.384512,4275.897331,4206.666564,4232.307589,4234.871691,4219.487076,4230.769127
81,0,4219.999897,4215.897333,4230.256307,4218.461435,4229.230666,4238.461435,4232.307589,4229.743486,4275.384511,4204.102461,4231.281948,4229.743486,4216.922974,4229.230666
82,0,4215.897333,4212.82041,4227.179384,4223.58964,4225.640922,4244.10246,4226.153743,4233.84605,4278.974254,4200.512718,4225.640922,4233.84605,4217.948615,4218.974256
83,0,4214.871692,4201.538359,4221.538358,4225.128102,4232.820409,4236.922973,4220.512717,4235.897332,4282.051177,4194.358872,4223.58964,4231.794768,4214.871692,4211.794769
84,0,4225.640922,4196.922974,4231.794768,4239.999896,4239.487076,4235.897332,4229.230666,4232.820409,4282.051177,4207.179384,4234.358871,4238.974255,4213.33323,4227.179384
85,0,4230.256307,4207.692205,4233.33323,4247.179383,4225.640922,4237.435794,4229.230666,4231.281948,4279.999895,4209.230666,4231.794768,4244.10246,4214.871692,4232.820409
86,0,4222.563999,4222.051179,4216.922974,4222.563999,4221.025538,4230.769127,4218.974256,4232.307589,4277.948613,4196.410154,4223.07682,4235.384512,4215.897333,4220.512717
87,0,4220.512717,4210.769128,4218.974256,4209.230666,4244.10246,4229.743486,4216.922974,4229.743486,4278.974254,4197.435795,4228.717845,4229.743486,4215.384512,4221.025538
88,0,4233.84605,4208.717846,4235.384512,4230.769127,4259.999896,4234.871691,4223.07682,4230.256307,4288.717844,4210.769128,4244.10246,4236.922973,4219.999897,4235.897332
89,0,4239.999896,4226.666563,4234.871691,4248.205024,4247.692204,4234.358871,4225.640922,4235.897332,4299.487074,4210.256307,4242.051178,4240.512717,4229.230666,4238.974255
90,0,4235.384512,4230.256307,4229.230666,4244.615281,4232.307589,4237.948614,4226.153743,4236.410153,4302.563997,4207.179384,4233.33323,4238.461435,4231.794768,4235.897332
91,0,4236.410153,4224.102461,4232.820409,4241.025537,4228.717845,4245.128101,4228.205025,4234.871691,4302.563997,4208.205025,4237.948614,4241.538358,4229.230666,4238.974255
92,0,4246.666563,4233.84605,4241.538358,4248.205024,4250.256306,4245.128101,4236.410153,4249.230665,4307.179382,4216.410153,4245.128101,4250.256306,4235.384512,4249.230665
93,0,4249.230665,4241.025537,4242.563999,4256.410152,4256.922973,4239.999896,4235.384512,4258.461434,4305.64092,4220.512717,4241.538358,4252.307588,4233.33323,4250.256306
94,0,4228.205025,4221.538358,4221.025538,4237.948614,4209.743487,4229.230666,4214.358871,4238.461435,4292.307587,4194.871692,4223.07682,4232.307589,4212.307589,4227.179384
95,0,4221.025538,4220.512717,4210.769128,4216.410153,4204.102461,4228.717845,4213.33323,4232.307589,4292.820408,4189.743487,4218.974256,4225.640922,4214.358871,4216.410153
96,0,4240.512717,4247.692204,4229.743486,4227.692204,4255.384511,4238.461435,4228.717845,4249.230665,4308.205023,4214.358871,4238.974255,4243.58964,4231.794768,4231.794768
97,0,4241.025537,4251.794768,4233.33323,4249.743486,4264.61528,4237.948614,4223.07682,4251.794768,4307.692202,4209.743487,4242.563999,4244.10246,4223.07682,4234.871691
98,0,4228.205025,4236.410153,4223.07682,4251.794768,4239.999896,4233.84605,4223.07682,4250.256306,4302.051177,4201.025538,4231.794768,4231.794768,4218.461435,4228.717845
99,0,4228.717845,4235.897332,4224.102461,4237.948614,4230.769127,4238.461435,4235.897332,4253.333229,4304.102459,4212.307589,4229.230666,4229.230666,4230.256307,4230.769127
100,0,4235.384512,4240.512717,4231.281948,4238.461435,4239.999896,4237.948614,4231.281948,4250.769127,4301.538356,4217.948615,4232.307589,4235.897332,4231.281948,4234.358871
101,0,4235.897332,4233.33323,4232.820409,4241.538358,4249.230665,4229.743486,4222.563999,4246.666563,4294.358869,4215.897333,4232.307589,4240.512717,4226.153743,4233.84605
102,0,4236.410153,4240.512717,4232.307589,4242.563999,4246.666563,4230.769127,4229.230666,4250.769127,4293.846049,4216.410153,4238.974255,4240.512717,4226.666563,4233.84605
103,0,4233.33323,4255.897332,4228.717845,4245.128101,4234.358871,4234.358871,4226.153743,4251.281947,4297.435792,4206.153743,4241.538358,4238.461435,4219.999897,4231.794768
104,0,4229.743486,4245.128101,4227.179384,4234.871691,4229.743486,4229.230666,4213.33323,4243.076819,4294.87169,4196.922974,4230.256307,4238.461435,4214.358871,4232.820409
105,0,4235.384512,4235.897332,4233.84605,4236.410153,4235.384512,4228.717845,4219.999897,4241.025537,4296.922972,4203.07682,4226.666563,4245.128101,4221.025538,4234.358871
106,0,4236.410153,4245.128101,4233.33323,4250.256306,4239.487076,4231.281948,4229.743486,4248.205024,4304.102459,4206.153743,4233.33323,4244.615281,4222.563999,4233.33323
107,0,4233.84605,4245.128101,4230.256307,4243.58964,4239.487076,4232.307589,4222.563999,4247.692204,4305.1281,4207.179384,4236.922973,4237.948614,4218.461435,4232.820409
108,0,4229.743486,4226.153743,4227.179384,4233.84605,4233.84605,4230.769127,4211.794769,4232.307589,4301.538356,4202.051179,4229.230666,4232.820409,4215.897333,4227.692204
109,0,4231.281948,4228.717845,4224.102461,4246.153742,4247.692204,4233.33323,4216.922974,4232.307589,4307.179382,4194.358872,4221.538358,4235.897332,4216.410153,4227.179384
110,0,4230.256307,4242.563999,4220.512717,4238.461435,4253.333229,4228.717845,4221.025538,4241.538358,4313.333228,4190.769128,4222.051179,4234.871691,4213.33323,4227.692204
111,0,4218.974256,4234.871691,4211.794769,4223.07682,4229.230666,4217.435794,4213.846051,4234.871691,4308.717843,4195.384513,4225.640922,4223.07682,4212.307589,4219.999897
112,0,4220.512717,4232.307589,4213.33323,4243.58964,4228.717845,4224.102461,4210.769128,4230.769127,4311.281946,4210.769128,4230.769127,4225.128102,4223.07682,4224.102461
113,0,4235.384512,4245.128101,4226.153743,4250.256306,4246.666563,4236.410153,4218.461435,4245.640922,4322.051176,4207.179384,4234.358871,4234.871691,4228.205025,4236.922973
114,0,4235.897332,4238.974255,4229.743486,4231.281948,4238.461435,4233.33323,4224.615281,4251.281947,4325.64092,4192.82041,4232.820409,4235.384512,4219.487076,4235.384512
115,0,4223.58964,4229.230666,4217.435794,4226.666563,4226.153743,4228.205025,4219.999897,4236.922973,4322.563997,4200.512718,4232.307589,4231.281948,4215.897333,4226.666563
116,0,4230.256307,4242.051178,4215.384512,4238.461435,4242.051178,4233.33323,4222.563999,4236.410153,4323.589638,4211.281948,4238.461435,4234.358871,4223.58964,4228.717845
117,0,4238.461435,4238.461435,4226.153743,4250.769127,4248.205024,4231.281948,4231.794768,4249.230665,4326.666561,4202.564,4239.999896,4238.974255,4224.615281,4232.820409
118,0,4222.051179,4218.461435,4219.487076,4241.025537,4219.999897,4220.512717,4222.563999,4243.076819,4326.666561,4197.435795,4227.179384,4232.307589,4212.82041,4226.153743
119,0,4216.922974,4226.666563,4212.82041,4237.948614,4220.512717,4222.563999,4212.307589,4234.871691,4331.281945,4210.769128,4226.153743,4228.205025,4210.256307,4225.640922
120,0,4230.769127,4238.974255,4223.07682,4250.769127,4247.692204,4229.230666,4225.128102,4245.128101,4335.89733,4209.743487,4235.384512,4230.769127,4218.974256,4232.307589
121,0,4228.205025,4230.256307,4224.102461,4236.922973,4244.615281,4228.717845,4232.307589,4246.153742,4329.230663,4197.948615,4224.615281,4231.794768,4220.512717,4231.794768
122,0,4216.410153,4225.640922,4214.358871,4215.897333,4223.58964,4225.640922,4218.974256,4232.820409,4324.102458,4194.871692,4214.871692,4230.256307,4214.358871,4224.615281
123,0,4226.153743,4229.743486,4221.538358,4230.256307,4232.307589,4229.230666,4218.461435,4235.897332,4330.256304,4200.512718,4233.33323,4232.820409,4216.410153,4227.179384
124,0,4239.487076,4229.743486,4230.769127,4254.871691,4250.256306,4232.307589,4231.794768,4246.666563,4339.487073,4200.512718,4243.076819,4236.410153,4222.051179,4235.897332
125,0,4235.384512,4233.84605,4222.051179,4250.256306,4248.717845,4232.307589,4232.820409,4245.128101,4343.589637,4207.692205,4229.743486,4235.384512,4222.563999,4237.948614
126,0,4225.640922,4227.692204,4213.846051,4233.84605,4235.384512,4229.230666,4222.051179,4244.615281,4343.076817,4221.025538,4230.769127,4233.33323,4218.974256,4231.794768
127,0,4223.07682,4211.794769,4219.487076,4233.33323,4228.205025,4222.563999,4213.846051,4243.076819,4337.948612,4209.743487,4231.281948,4231.281948,4214.358871,4224.615281
128,0,4231.794768,4226.666563,4228.717845,4250.769127,4243.58964,4225.128102,4218.974256,4238.461435,4339.487073,4192.82041,4218.461435,4232.820409,4218.974256,4230.256307
0,0,4234.358871,4248.717845,4227.179384,4244.10246,4249.230665,4228.717845,4226.666563,4239.487076,4346.66656,4205.128102,4224.102461,4233.84605,4228.205025,4235.897332
1,0,4222.051179,4227.179384,4218.461435,4205.128102,4220.512717,4222.563999,4222.051179,4241.538358,4346.15374,4208.717846,4231.794768,4224.615281,4219.999897,4222.563999
2,0,4210.256307,4206.153743,4211.794769,4206.666564,4205.640923,4223.58964,4217.948615,4236.410153,4341.538355,4181.025539,4208.717846,4213.33323,4201.025538,4208.717846
3,0,4217.435794,4222.563999,4216.922974,4247.692204,4245.128101,4241.538358,4235.897332,4246.153742,4346.15374,4184.102462,4205.128102,4222.563999,4204.615282,4216.410153
4,0,4226.666563,4219.999897,4225.640922,4259.999896,4266.153742,4247.179383,4247.179383,4257.948614,4351.794765,4213.846051,4226.153743,4234.358871,4216.410153,4226.666563
5,0,4220.512717,4200.512718,4221.025538,4238.461435,4233.33323,4230.769127,4229.230666,4243.076819,4349.743483,4210.256307,4221.538358,4226.666563,4212.307589,4221.538358
6,0,4223.07682,4218.974256,4218.461435,4227.179384,4225.640922,4227.179384,4219.999897,4232.820409,4350.256304,4202.564,4219.999897,4223.07682,4217.435794,4223.07682
7,0,4234.871691,4242.051178,4226.666563,4237.435794,4251.281947,4235.384512,4233.33323,4247.692204,4356.92297,4211.281948,4232.307589,4235.384512,4231.281948,4235.897332
8,0,4226.153743,4229.230666,4224.615281,4234.358871,4240.512717,4231.794768,4234.358871,4252.307588,4360.512714,4206.153743,4222.051179,4234.871691,4225.128102,4234.358871
9,0,4217.435794,4215.384512,4216.410153,4224.615281,4215.897333,4226.666563,4223.58964,4241.025537,4358.461432,4201.538359,4215.897333,4225.640922,4210.769128,4225.128102
10,0,4237.435794,4230.256307,4227.692204,4241.025537,4237.948614,4235.384512,4235.384512,4247.692204,4366.153739,4222.563999,4242.563999,4236.922973,4217.435794,4235.897332
11,0,4248.717845,4246.153742,4239.487076,4258.974255,4264.10246,4237.948614,4247.692204,4263.589639,4378.461431,4236.410153,4251.281947,4250.769127,4229.743486,4249.743486
12,0,4232.820409,4235.897332,4227.692204,4248.205024,4245.640922,4231.281948,4236.410153,4255.897332,4377.948611,4218.974256,4232.820409,4239.999896,4223.07682,4239.999896
13,0,4226.153743,4223.58964,4222.051179,4238.461435,4225.640922,4230.769127,4229.230666,4244.615281,4373.333226,4206.666564,4230.769127,4227.692204,4216.922974,4230.256307
14,0,4236.922973,4239.487076,4230.769127,4248.205024,4244.10246,4232.307589,4236.922973,4250.769127,4381.538354,4222.563999,4237.948614,4232.307589,4227.692204,4243.076819
15,0,4237.435794,4244.615281,4233.33323,4246.153742,4254.871691,4232.307589,4238.461435,4253.333229,4380.512713,4227.692204,4229.230666,4231.794768,4235.897332,4246.666563
16,0,4228.205025,4219.487076,4227.692204,4238.461435,4232.820409,4230.769127,4229.743486,4244.10246,4361.025534,4216.922974,4225.640922,4222.563999,4230.769127,4231.281948
17,0,4238.974255,4223.07682,4231.794768,4246.666563,4237.948614,4233.33323,4238.974255,4249.743486,4357.435791,4229.230666,4245.128101,4228.717845,4229.230666,4237.948614
18,0,4252.820409,4245.640922,4237.948614,4254.35887,4260.512716,4243.58964,4248.717845,4259.999896,4367.692201,4238.461435,4248.717845,4239.999896,4234.358871,4251.281947
19,0,4239.487076,4238.461435,4232.820409,4252.307588,4252.820409,4245.640922,4237.435794,4251.794768,4366.66656,4223.07682,4236.922973,4231.794768,4232.820409,4239.487076
20,0,4228.205025,4228.205025,4226.153743,4244.10246,4237.948614,4236.410153,4228.717845,4246.666563,4364.615278,4225.128102,4241.538358,4220.512717,4230.769127,4229.743486
21,0,4242.563999,4234.871691,4220.512717,4239.999896,4238.974255,4229.230666,4233.33323,4251.794768,4366.153739,4235.897332,4241.025537,4221.538358,4228.717845,4237.435794
22,0,4250.769127,4237.948614,4224.615281,4245.640922,4255.897332,4232.307589,4236.922973,4253.84605,4366.66656,4229.230666,4233.84605,4231.281948,4228.717845,4241.538358
23,0,4238.461435,4236.922973,4229.230666,4249.230665,4265.640921,4232.307589,4233.84605,4249.743486,4366.153739,4227.692204,4238.461435,4231.794768,4233.84605,4238.461435
24,0,4225.640922,4228.205025,4217.948615,4235.384512,4240.512717,4226.666563,4229.743486,4245.128101,4351.794765,4221.025538,4234.358871,4217.948615,4229.743486,4230.256307
25,0,4229.743486,4223.58964,4219.487076,4231.794768,4231.281948,4227.692204,4229.743486,4245.128101,4331.794766,4216.410153,4232.820409,4220.512717,4225.640922,4232.307589
26,0,4237.948614,4233.33323,4234.871691,4251.794768,4269.230665,4235.384512,4234.358871,4251.794768,4328.205022,4234.871691,4246.666563,4236.922973,4232.307589,4247.179383
27,0,4217.948615,4219.999897,4226.153743,4253.333229,4280.512716,4235.384512,4233.33323,4249.743486,4328.205022,4234.871691,4238.974255,4227.179384,4226.153743,4240.512717
28,0,4197.948615,4199.999897,4213.846051,4241.025537,4253.84605,4232.307589,4230.256307,4244.10246,4326.666561,4223.58964,4224.102461,4213.846051,4215.384512,4226.153743
29,0,4203.07682,4216.922974,4221.025538,4242.563999,4254.35887,4233.84605,4232.820409,4246.666563,4333.333227,4233.84605,4231.794768,4223.07682,4226.153743,4232.820409
30,0,4206.153743,4233.33323,4218.461435,4242.051178,4265.640921,4230.769127,4231.281948,4247.692204,4335.384509,4236.922973,4234.871691,4223.07682,4230.256307,4237.435794
31,0,4207.692205,4229.230666,4218.974256,4236.922973,4261.025537,4228.205025,4230.256307,4249.230665,4333.846048,4234.358871,4231.794768,4220.512717,4219.999897,4232.307589
32,0,4214.871692,4224.615281,4228.205025,4233.84605,4252.307588,4229.743486,4233.84605,4246.666563,4316.410151,4239.999896,4229.743486,4229.743486,4222.563999,4234.358871
33,0,4206.666564,4217.435794,4218.974256,4234.358871,4248.717845,4230.769127,4231.794768,4236.410153,4254.35887,4230.769127,4224.615281,4222.563999,4221.025538,4232.307589
34,0,4196.922974,4211.794769,4211.794769,4242.051178,4257.948614,4230.769127,4228.717845,4234.358871,4248.205024,4224.102461,4228.205025,4212.307589,4211.281948,4226.666563
35,0,4214.358871,4217.948615,4223.58964,4252.307588,4269.230665,4232.307589,4229.743486,4239.999896,4351.794765,4234.871691,4234.358871,4221.538358,4222.051179,4233.33323
36,0,4218.974256,4213.846051,4223.07682,4247.692204,4252.820409,4232.307589,4230.256307,4235.384512,4286.666562,4233.84605,4229.230666,4222.563999,4231.281948,4235.384512
37,0,4201.025538,4211.281948,4209.743487,4235.897332,4229.743486,4229.230666,4229.743486,4229.743486,4621.538349,4226.153743,4226.153743,4213.846051,4219.487076,4229.230666
38,0,4212.307589,4232.307589,4221.538358,4240.512717,4248.717845,4229.743486,4231.794768,4241.025537,6020.512673,4233.84605,4236.922973,4226.153743,4223.07682,4237.948614
39,0,4230.769127,4241.025537,4233.33323,4240.512717,4270.769126,4229.743486,4231.794768,4249.230665,7235.384438,4234.871691,4243.58964,4237.435794,4236.922973,4248.205024
40,0,4222.563999,4228.717845,4224.102461,4237.948614,4263.076819,4231.281948,4230.256307,4248.205024,7209.743413,4233.33323,4243.58964,4233.33323,4232.820409,4244.615281
41,0,4218.974256,4230.769127,4224.615281,4256.410152,4264.10246,4235.897332,4232.820409,4248.717845,6926.666497,4246.153742,4244.615281,4232.307589,4229.743486,4246.153742
42,0,4225.640922,4232.820409,4229.230666,4255.384511,4255.384511,4231.281948,4232.307589,4249.230665,7037.435725,4242.563999,4236.410153,4231.794768,4235.897332,4247.692204
43,0,4219.999897,4215.897333,4224.615281,4226.153743,4230.769127,4222.051179,4228.205025,4246.666563,6998.974188,4230.256307,4229.230666,4229.230666,4234.871691,4239.487076
44,0,4221.025538,4214.358871,4225.128102,4238.461435,4238.974255,4227.179384,4228.205025,4245.640922,6836.410089,4243.076819,4238.974255,4231.281948,4234.358871,4241.025537
45,0,4234.358871,4234.358871,4230.256307,4269.230665,4259.487075,4236.922973,4230.769127,4254.871691,6820.512654,4259.487075,4252.307588,4235.384512,4245.128101,4252.307588
46,0,4233.33323,4240.512717,4231.794768,4256.410152,4255.897332,4234.871691,4238.974255,4265.640921,6781.025475,4251.794768,4251.281947,4243.076819,4249.743486,4253.333229
47,0,4229.743486,4227.692204,4232.820409,4245.640922,4259.487075,4232.307589,4242.563999,4266.153742,6734.35881,4244.615281,4246.153742,4247.179383,4247.692204,4249.230665
48,0,4234.871691,4226.666563,4230.769127,4251.794768,4268.717844,4233.33323,4234.871691,4260.512716,6695.897272,4247.179383,4249.230665,4236.410153,4246.153742,4248.205024
49,0,4236.410153,4235.384512,4229.230666,4243.58964,4265.640921,4234.871691,4238.974255,4263.589639,6653.333171,4249.743486,4252.307588,4230.769127,4247.179383,4249.743486
50,0,4231.281948,4227.179384,4230.769127,4242.051178,4259.487075,4237.948614,4247.692204,4265.128101,6614.358813,4250.256306,4245.128101,4236.410153,4248.205024,4250.769127
51,0,4227.179384,4217.948615,4226.153743,4253.333229,4251.281947,4235.897332,4237.435794,4261.025537,6569.230609,4244.10246,4238.974255,4231.794768,4246.666563,4246.153742
52,0,4236.922973,4230.256307,4227.179384,4243.076819,4248.205024,4232.820409,4230.769127,4263.589639,6537.948558,4244.615281,4247.179383,4232.307589,4248.717845,4249.743486
53,0,4233.84605,4224.102461,4224.615281,4227.692204,4243.58964,4234.871691,4234.871691,4256.410152,6502.051123,4237.435794,4240.512717,4231.281948,4243.58964,4248.717845
54,0,4215.897333,4201.025538,4213.33323,4237.948614,4234.871691,4229.743486,4230.256307,4243.076819,6454.871637,4216.410153,4218.461435,4217.948615,4231.281948,4233.84605
55,0,4216.410153,4212.307589,4214.358871,4247.692204,4243.58964,4218.974256,4228.717845,4247.179383,6419.999843,4213.846051,4223.58964,4215.897333,4229.230666,4233.33323
56,0,4221.538358,4225.640922,4218.461435,4231.794768,4249.743486,4215.384512,4228.205025,4249.743486,6389.230613,4223.58964,4232.307589,4220.512717,4233.84605,4238.974255
57,0,4224.615281,4223.07682,4218.461435,4229.230666,4250.256306,4224.615281,4224.615281,4248.205024,6350.769075,4224.102461,4228.717845,4222.051179,4235.897332,4238.974255
58,0,4241.538358,4239.999896,4229.743486,4251.281947,4265.640921,4234.358871,4232.820409,4259.999896,6322.051127,4230.769127,4243.076819,4232.820409,4243.58964,4252.820409
59,0,4254.35887,4250.256306,4236.922973,4254.35887,4259.999896,4232.820409,4237.948614,4257.435793,6294.871641,4235.384512,4249.230665,4237.948614,4254.35887,4266.153742
60,0,4252.307588,4231.281948,4228.717845,4248.205024,4239.487076,4230.256307,4229.743486,4243.076819,6259.487026,4220.512717,4229.743486,4227.692204,4255.384511,4259.487075
61,0,4259.999896,4230.769127,4228.205025,4251.281947,4248.717845,4231.281948,4230.256307,4252.820409,6231.794719,4218.461435,4231.794768,4233.33323,4254.35887,4260.512716
62,0,4276.410152,4256.410152,4241.025537,4257.948614,4253.84605,4227.692204,4231.794768,4259.999896,6209.743438,4232.307589,4262.563998,4248.717845,4266.666562,4284.102459
63,0,4288.205023,4266.666562,4248.205024,4267.692203,4239.999896,4218.974256,4225.640922,4250.769127,6184.615233,4237.948614,4267.179383,4251.281947,4279.999895,4298.974254
64,0,4294.87169,4260.512716,4246.153742,4263.076819,4237.948614,4218.461435,4226.153743,4249.743486,6154.871644,4224.102461,4245.128101,4251.794768,4272.307588,4295.38451
65,0,4307.179382,4268.717844,4254.871691,4258.974255,4249.230665,4223.58964,4231.281948,4256.410152,6123.076773,4213.846051,4251.794768,4260.512716,4268.205024,4303.076818
66,0,4324.615279,4291.794767,4269.230665,4271.794767,4256.922973,4223.58964,4234.871691,4261.025537,6100.512671,4233.33323,4278.461434,4272.820408,4285.640921,4326.15374
67,0,4309.230664,4274.87169,4259.999896,4268.717844,4242.051178,4215.384512,4227.179384,4256.410152,6073.333185,4230.769127,4269.230665,4264.10246,4279.999895,4313.846048
68,0,4277.948613,4235.384512,4244.10246,4252.307588,4223.58964,4211.281948,4214.358871,4244.615281,6035.897288,4203.07682,4239.999896,4243.58964,4256.410152,4277.435793
69,0,4276.410152,4237.435794,4243.076819,4252.307588,4230.769127,4214.871692,4217.435794,4244.615281,6014.358827,4212.82041,4240.512717,4242.563999,4257.948614,4274.35887
70,0,4274.35887,4249.230665,4237.948614,4246.666563,4232.307589,4217.948615,4229.743486,4257.948614,6005.128058,4234.358871,4250.256306,4249.230665,4263.076819,4278.974254
71,0,4259.487075,4238.974255,4235.897332,4244.10246,4239.999896,4225.640922,4233.84605,4267.179383,5985.640879,4232.307589,4248.717845,4247.179383,4256.922973,4266.666562
72,0,4258.461434,4232.820409,4244.10246,4252.820409,4264.61528,4233.33323,4234.358871,4268.205024,5964.102418,4237.435794,4247.692204,4246.666563,4261.025537,4262.051178
73,0,4255.897332,4235.897332,4237.948614,4242.563999,4255.897332,4224.615281,4232.820409,4266.666562,5944.615239,4234.871691,4246.666563,4244.615281,4259.999896,4258.461434
74,0,4245.128101,4231.794768,4227.179384,4226.666563,4233.33323,4219.487076,4229.230666,4265.640921,5919.999855,4210.256307,4244.10246,4232.820409,4245.128101,4248.717845
75,0,4240.512717,4218.974256,4228.205025,4229.743486,4238.461435,4223.58964,4229.230666,4259.999896,5893.333189,4219.999897,4230.769127,4223.07682,4242.563999,4243.076819
76,0,4234.358871,4212.307589,4225.640922,4239.999896,4245.128101,4222.563999,4229.230666,4255.384511,5870.769087,4242.563999,4219.999897,4224.615281,4246.666563,4236.410153
77,0,4230.256307,4219.487076,4215.384512,4236.922973,4232.307589,4219.999897,4229.230666,4258.974255,5852.82037,4223.07682,4226.666563,4226.153743,4239.487076,4229.230666
78,0,4231.281948,4220.512717,4216.410153,4213.846051,4220.512717,4221.025538,4228.205025,4259.487075,5829.230627,4202.564,4224.615281,4219.999897,4227.179384,4229.230666
79,0,4228.717845,4209.743487,4226.153743,4215.897333,4235.897332,4223.07682,4228.205025,4258.461434,5802.05114,4219.999897,4219.487076,4222.563999,4229.230666,4230.769127
80,0,4233.33323,4216.410153,4226.153743,4248.717845,4264.10246,4230.769127,4234.358871,4267.179383,5786.153705,4236.410153,4233.84605,4234.871691,4242.051178,4233.84605
81,0,4238.461435,4223.07682,4216.410153,4249.743486,4248.717845,4230.256307,4235.384512,4267.179383,5767.179346,4223.58964,4235.897332,4231.794768,4239.999896,4234.871691
82,0,4230.256307,4216.922974,4213.33323,4230.769127,4218.974256,4220.512717,4228.717845,4257.948614,5736.922937,4221.538358,4221.025538,4223.07682,4230.769127,4228.717845
83,0,4229.230666,4216.410153,4218.461435,4239.487076,4237.948614,4220.512717,4228.717845,4263.589639,5716.410117,4233.84605,4228.717845,4228.717845,4236.922973,4229.743486
84,0,4231.794768,4222.563999,4220.512717,4245.128101,4249.743486,4224.615281,4232.820409,4268.205024,5701.538322,4226.153743,4237.435794,4228.717845,4243.58964,4233.33323
85,0,4221.538358,4221.025538,4217.435794,4233.84605,4232.820409,4221.025538,4232.307589,4264.61528,5679.999861,4216.922974,4220.512717,4218.461435,4232.307589,4226.666563
86,0,4210.256307,4205.640923,4208.717846,4227.179384,4226.153743,4218.461435,4229.743486,4258.974255,5656.410118,4209.230666,4198.974256,4210.256307,4213.846051,4213.33323
87,0,4214.871692,4207.179384,4209.230666,4229.743486,4240.512717,4227.179384,4231.794768,4261.025537,5643.076785,4209.743487,4204.615282,4212.82041,4217.435794,4211.281948
88,0,4223.07682,4218.974256,4221.025538,4243.076819,4255.384511,4232.307589,4236.922973,4274.87169,5636.922939,4227.692204,4225.640922,4223.58964,4233.84605,4223.07682
89,0,4216.922974,4208.717846,4215.384512,4240.512717,4232.307589,4222.563999,4233.84605,4275.384511,5621.025504,4223.58964,4217.948615,4218.974256,4225.128102,4215.384512
90,0,4212.307589,4202.051179,4205.640923,4215.897333,4207.692205,4217.435794,4228.717845,4263.076819,5598.974222,4210.256307,4204.102461,4213.33323,4210.256307,4204.102461
91,0,4217.435794,4208.717846,4215.384512,4215.384512,4225.640922,4228.717845,4227.692204,4259.487075,5582.051146,4222.563999,4213.33323,4221.538358,4223.58964,4216.922974
92,0,4219.487076,4213.33323,4223.07682,4236.410153,4242.563999,4232.820409,4224.615281,4264.10246,5563.076787,4229.230666,4219.487076,4227.179384,4239.487076,4228.205025
93,0,4217.435794,4216.410153,4215.897333,4236.410153,4231.281948,4223.58964,4217.435794,4262.563998,5538.461403,4211.794769,4208.717846,4224.102461,4228.717845,4219.999897
94,0,4218.974256,4211.794769,4213.33323,4222.051179,4216.922974,4216.410153,4210.769128,4257.435793,5520.512686,4208.205025,4210.769128,4221.025538,4219.487076,4213.33323
95,0,4219.487076,4205.128102,4216.922974,4227.692204,4211.794769,4211.281948,4208.717846,4257.435793,5509.743455,4226.153743,4222.563999,4221.538358,4224.615281,4218.461435
96,0,4224.615281,4221.538358,4218.461435,4248.205024,4232.307589,4221.538358,4216.410153,4266.153742,5497.948584,4245.640922,4226.153743,4229.743486,4233.33323,4229.230666
97,0,4235.897332,4236.922973,4217.948615,4249.230665,4254.871691,4233.84605,4222.051179,4273.333229,5492.307558,4240.512717,4226.153743,4233.84605,4236.922973,4234.358871
98,0,4224.102461,4208.717846,4212.307589,4227.179384,4225.640922,4221.025538,4213.846051,4260.512716,5487.692174,4209.230666,4212.82041,4216.922974,4228.205025,4218.461435
99,0,4211.794769,4196.410154,4211.794769,4224.615281,4207.179384,4213.33323,4213.33323,4257.435793,5481.025507,4212.82041,4205.640923,4211.794769,4223.07682,4211.281948
100,0,4224.102461,4219.999897,4217.948615,4239.999896,4230.256307,4223.58964,4221.025538,4273.846049,5472.307558,4243.58964,4218.974256,4229.743486,4230.256307,4226.153743
101,0,4227.179384,4227.179384,4217.948615,4236.922973,4224.615281,4224.102461,4218.974256,4274.35887,5455.384482,4239.487076,4224.615281,4229.230666,4234.358871,4228.205025
102,0,4215.384512,4212.82041,4215.897333,4232.820409,4216.922974,4214.871692,4215.897333,4262.563998,5432.307559,4223.58964,4215.897333,4219.999897,4229.743486,4217.435794
103,0,4216.922974,4215.384512,4219.487076,4229.743486,4239.999896,4215.897333,4220.512717,4263.589639,5416.922944,4232.820409,4220.512717,4227.692204,4229.230666,4217.948615
104,0,4223.58964,4222.563999,4218.974256,4219.999897,4245.640922,4219.999897,4223.07682,4269.230665,5403.589611,4235.897332,4220.512717,4231.281948,4233.33323,4222.563999
105,0,4216.410153,4202.051179,4214.871692,4224.102461,4222.563999,4217.948615,4217.948615,4263.076819,5376.922945,4215.384512,4200.512718,4213.846051,4230.256307,4214.871692
106,0,4213.846051,4200.512718,4218.461435,4235.897332,4215.384512,4216.922974,4214.358871,4260.512716,5356.922946,4218.461435,4206.153743,4213.33323,4228.717845,4213.33323
107,0,4218.974256,4222.051179,4218.461435,4233.33323,4218.461435,4217.435794,4215.384512,4263.589639,5346.153715,4236.922973,4220.512717,4223.07682,4225.128102,4219.999897
108,0,4213.33323,4209.230666,4211.281948,4221.538358,4215.897333,4215.384512,4213.846051,4258.461434,5325.640895,4221.538358,4201.538359,4215.897333,4213.846051,4214.871692
109,0,4214.358871,4192.82041,4220.512717,4231.281948,4232.820409,4215.897333,4214.871692,4259.999896,5311.794742,4213.846051,4200.512718,4218.974256,4219.487076,4218.461435
110,0,4225.128102,4209.230666,4235.897332,4242.051178,4247.692204,4218.461435,4218.974256,4266.666562,5306.153716,4239.999896,4234.871691,4234.358871,4230.769127,4234.358871
111,0,4222.563999,4215.897333,4228.205025,4230.256307,4231.794768,4216.922974,4217.948615,4266.666562,5285.640896,4249.230665,4234.358871,4236.410153,4224.102461,4231.794768
112,0,4213.846051,4201.538359,4218.461435,4226.666563,4223.58964,4214.871692,4215.897333,4265.640921,5263.076794,4238.974255,4209.743487,4231.281948,4219.487076,4221.025538
113,0,4223.58964,4205.128102,4226.153743,4245.128101,4236.922973,4216.922974,4217.948615,4269.230665,5255.384487,4245.640922,4218.974256,4233.33323,4231.281948,4228.205025
114,0,4235.384512,4213.33323,4227.179384,4252.307588,4242.051178,4219.999897,4218.461435,4267.179383,5244.615256,4254.871691,4233.84605,4236.922973,4236.922973,4236.922973
115,0,4223.07682,4204.615282,4216.922974,4233.33323,4229.230666,4219.999897,4213.846051,4260.512716,5228.205,4250.256306,4230.769127,4235.897332,4231.794768,4232.820409
116,0,4212.307589,4195.384513,4216.922974,4222.563999,4219.487076,4219.487076,4213.846051,4264.10246,5218.461411,4250.256306,4231.281948,4233.84605,4231.281948,4231.281948
117,0,4222.051179,4202.051179,4219.999897,4232.820409,4227.179384,4225.128102,4218.461435,4273.333229,5205.640898,4261.025537,4235.384512,4233.84605,4235.384512,4235.384512
118,0,4224.615281,4204.102461,4213.846051,4234.358871,4240.512717,4228.205025,4218.461435,4275.897331,5187.17936,4265.128101,4231.281948,4232.820409,4234.358871,4235.384512
119,0,4215.897333,4199.487077,4213.846051,4227.692204,4246.153742,4224.615281,4217.948615,4274.35887,5177.948591,4262.051178,4230.256307,4231.794768,4231.794768,4233.84605
120,0,4217.435794,4208.205025,4221.025538,4242.563999,4248.717845,4227.179384,4227.692204,4278.461434,5172.820386,4262.563998,4236.922973,4236.410153,4232.820409,4233.84605
121,0,4222.563999,4221.538358,4218.974256,4262.051178,4250.256306,4235.384512,4236.410153,4284.61528,5157.948592,4257.948614,4236.410153,4236.410153,4238.974255,4235.897332
122,0,4218.461435,4214.871692,4212.82041,4249.743486,4233.84605,4231.794768,4227.692204,4276.922972,5137.948592,4241.025537,4225.128102,4229.230666,4234.871691,4230.769127
123,0,4224.615281,4206.666564,4224.102461,4238.974255,4224.615281,4228.717845,4226.153743,4274.87169,5128.717823,4252.307588,4230.769127,4237.435794,4230.769127,4232.820409
124,0,4235.384512,4220.512717,4232.820409,4250.769127,4233.84605,4232.307589,4235.897332,4282.051177,5122.051157,4277.435793,4244.615281,4248.205024,4235.384512,4242.051178
125,0,4225.640922,4218.461435,4219.487076,4248.205024,4223.58964,4222.051179,4227.179384,4273.333229,5102.563978,4260.512716,4230.256307,4235.384512,4230.256307,4234.871691
126,0,4214.358871,4201.025538,4213.33323,4235.384512,4214.358871,4213.846051,4212.82041,4262.563998,5083.076799,4233.33323,4214.871692,4225.128102,4216.410153,4224.102461
127,0,4217.948615,4205.128102,4220.512717,4231.281948,4231.794768,4219.487076,4216.410153,4265.640921,5071.794748,4241.538358,4221.538358,4231.281948,4214.871692,4228.205025
128,0,4227.179384,4214.358871,4218.461435,4235.897332,4242.051178,4219.487076,4220.512717,4265.128101,5058.974235,4253.333229,4227.692204,4234.871691,4226.153743,4234.358871
0,0,4230.769127,4203.589641,4215.384512,4250.769127,4231.281948,4211.794769,4214.358871,4260.512716,5043.58962,4239.999896,4225.640922,4230.769127,4231.281948,4232.820409
1,0,4231.794768,4201.538359,4222.051179,4253.333229,4224.615281,4218.974256,4223.07682,4273.333229,5035.384492,4239.999896,4233.33323,4234.358871,4229.230666,4233.84605
2,0,4230.769127,4218.461435,4225.128102,4236.410153,4235.897332,4233.84605,4235.897332,4281.538357,5026.153723,4247.179383,4235.384512,4235.384512,4231.794768,4236.410153
3,0,4223.07682,4215.384512,4217.435794,4225.640922,4236.410153,4231.794768,4227.692204,4270.256306,5007.179365,4236.922973,4220.512717,4224.615281,4233.33323,4233.84605
4,0,4214.358871,4199.487077,4205.128102,4234.871691,4213.846051,4222.563999,4213.33323,4259.999896,4990.256288,4237.948614,4208.205025,4212.307589,4227.692204,4226.153743
5,0,4220.512717,4208.205025,4203.589641,4248.205024,4218.974256,4228.205025,4222.563999,4266.153742,4982.563981,4248.717845,4216.410153,4213.33323,4225.128102,4225.640922
6,0,4232.307589,4222.051179,4216.410153,4246.666563,4250.769127,4238.461435,4239.999896,4282.051177,4978.974237,4242.563999,4234.358871,4226.153743,4232.307589,4241.538358
7,0,4227.692204,4215.384512,4216.410153,4240.512717,4236.410153,4227.692204,4226.666563,4277.948613,4966.666545,4234.871691,4232.820409,4225.128102,4234.358871,4240.512717
8,0,4228.717845,4219.487076,4210.256307,4251.794768,4216.922974,4217.435794,4215.384512,4269.743485,4952.307571,4249.743486,4238.461435,4223.58964,4229.230666,4230.256307
9,0,4238.461435,4229.743486,4217.948615,4246.666563,4234.871691,4223.58964,4231.281948,4276.410152,4943.589623,4251.281947,4245.128101,4231.281948,4228.717845,4236.922973
10,0,4230.256307,4218.974256,4217.948615,4223.07682,4235.897332,4224.615281,4232.307589,4275.897331,4929.743469,4235.384512,4224.615281,4225.640922,4231.281948,4238.974255
11,0,4218.974256,4212.307589,4207.179384,4227.692204,4221.538358,4222.051179,4217.435794,4265.128101,4914.358854,4236.410153,4213.33323,4215.384512,4230.769127,4230.769127
12,0,4227.692204,4216.922974,4210.769128,4250.769127,4224.102461,4226.153743,4222.563999,4265.128101,4903.589624,4237.435794,4227.692204,4220.512717,4229.230666,4231.794768
13,0,4235.897332,4219.487076,4217.948615,4251.281947,4227.692204,4228.205025,4231.281948,4273.333229,4895.897316,4235.384512,4231.281948,4228.205025,4229.743486,4233.84605
14,0,4231.794768,4228.205025,4215.384512,4242.051178,4230.256307,4222.563999,4226.153743,4276.922972,4891.281932,4247.692204,4226.153743,4227.692204,4234.871691,4235.897332
15,0,4230.256307,4232.820409,4214.871692,4241.025537,4239.487076,4225.128102,4226.666563,4279.487075,4884.615265,4254.35887,4234.358871,4231.794768,4237.948614,4242.051178
16,0,4231.281948,4221.025538,4216.410153,4242.051178,4233.84605,4227.692204,4227.692204,4276.410152,4866.666548,4242.051178,4234.871691,4233.33323,4231.794768,4238.974255
17,0,4232.820409,4219.487076,4215.384512,4244.615281,4226.666563,4220.512717,4222.563999,4274.35887,4842.051164,4229.230666,4227.692204,4231.281948,4228.205025,4233.84605
18,0,4234.358871,4230.256307,4213.846051,4248.717845,4238.974255,4222.051179,4223.58964,4279.999895,4824.615267,4227.692204,4234.871691,4228.717845,4235.384512,4239.487076
19,0,4226.153743,4223.07682,4208.717846,4244.10246,4238.974255,4232.307589,4227.692204,4275.384511,4809.743472,4227.692204,4234.358871,4219.999897,4234.358871,4235.384512
20,0,4213.846051,4201.025538,4203.07682,4234.871691,4213.33323,4231.281948,4224.102461,4263.076819,4791.281934,4219.999897,4208.717846,4209.743487,4218.974256,4217.435794
21,0,4215.897333,4195.384513,4207.692205,4239.999896,4207.692205,4219.999897,4222.563999,4261.538357,4779.999883,4213.33323,4199.999897,4211.281948,4215.897333,4217.948615
22,0,4233.84605,4226.666563,4218.974256,4246.666563,4246.153742,4223.07682,4234.358871,4279.999895,4783.589627,4230.769127,4229.230666,4226.666563,4232.307589,4238.461435
23,0,4239.999896,4247.692204,4218.461435,4228.205025,4250.769127,4235.384512,4236.922973,4286.153741,4782.051165,4245.128101,4242.563999,4233.33323,4241.538358,4243.58964
24,0,4218.461435,4213.33323,4204.102461,4207.692205,4198.461436,4226.666563,4221.025538,4266.153742,4759.999884,4221.538358,4222.563999,4216.922974,4230.256307,4227.179384
25,0,4210.256307,4201.025538,4204.615282,4222.563999,4201.025538,4216.922974,4221.025538,4265.128101,4750.769115,4212.307589,4223.58964,4211.794769,4226.153743,4224.615281
26,0,4230.769127,4238.461435,4219.999897,4246.666563,4252.307588,4229.230666,4239.999896,4285.1281,4747.692192,4237.948614,4237.948614,4226.153743,4235.897332,4242.051178
27,0,4230.256307,4228.717845,4213.846051,4235.384512,4230.769127,4230.256307,4233.33323,4274.87169,4714.358859,4230.769127,4219.999897,4222.051179,4231.281948,4233.33323
28,0,4212.307589,4195.897333,4197.948615,4216.922974,4182.05118,4213.33323,4213.846051,4256.922973,4684.10245,4208.717846,4208.717846,4209.743487,4222.563999,4215.897333
29,0,4220.512717,4211.281948,4207.179384,4215.897333,4209.743487,4220.512717,4224.102461,4271.794767,4692.307578,4219.487076,4226.666563,4215.384512,4228.717845,4227.179384
30,0,4230.256307,4228.205025,4217.948615,4216.410153,4242.051178,4235.384512,4237.435794,4282.563998,4697.948603,4227.692204,4228.717845,4218.974256,4231.794768,4232.820409
31,0,4222.563999,4216.922974,4214.358871,4226.153743,4226.153743,4231.794768,4231.794768,4268.205024,4681.025527,4216.922974,4222.563999,4215.897333,4229.230666,4223.58964
32,0,4218.461435,4204.615282,4214.358871,4234.358871,4209.743487,4225.128102,4226.153743,4259.487075,4668.717835,4212.82041,4224.102461,4211.281948,4229.230666,4223.58964
33,0,4218.974256,4204.102461,4215.384512,4219.487076,4205.128102,4219.999897,4229.230666,4264.10246,4663.58963,4216.922974,4216.922974,4204.102461,4226.153743,4226.153743
34,0,4221.025538,4217.948615,4211.794769,4220.512717,4212.82041,4221.025538,4230.769127,4268.205024,4658.461425,4219.999897,4214.358871,4205.128102,4223.58964,4221.538358
35,0,4222.051179,4228.717845,4209.743487,4242.051178,4224.615281,4231.794768,4226.153743,4264.61528,4650.769117,4224.615281,4222.563999,4210.256307,4224.102461,4221.538358
36,0,4217.435794,4213.846051,4208.717846,4239.487076,4207.179384,4224.615281,4215.384512,4254.35887,4637.948605,4225.640922,4215.897333,4199.999897,4222.051179,4221.025538
37,0,4221.025538,4212.82041,4207.692205,4227.692204,4202.051179,4215.897333,4214.871692,4254.871691,4628.205015,4227.692204,4209.743487,4195.384513,4224.615281,4223.58964
38,0,4236.410153,4236.410153,4219.487076,4242.051178,4243.58964,4230.769127,4231.794768,4271.281947,4627.179374,4239.487076,4226.666563,4204.102461,4233.84605,4239.487076
39,0,4238.974255,4237.948614,4229.230666,4245.128101,4247.692204,4237.948614,4237.948614,4276.410152,4621.025528,4239.999896,4237.435794,4181.538359,4233.33323,4241.025537
40,0,4229.230666,4224.615281,4222.563999,4233.84605,4211.794769,4229.230666,4229.743486,4266.153742,4605.640913,4226.666563,4230.769127,4138.974258,4228.205025,4230.256307
41,0,4232.820409,4230.256307,4215.384512,4237.948614,4219.999897,4228.717845,4229.230666,4264.61528,4599.487067,4226.666563,4227.179384,4136.922976,4231.794768,4234.358871
42,0,4235.897332,4235.384512,4217.435794,4246.153742,4232.820409,4228.717845,4233.84605,4269.230665,4594.871683,4236.410153,4229.743486,4152.307591,4233.33323,4236.410153
43,0,4222.051179,4215.897333,4218.461435,4245.640922,4216.922974,4228.717845,4231.281948,4264.61528,4578.974247,4228.717845,4218.461435,4142.051181,4223.58964,4220.512717
44,0,4213.846051,4204.615282,4214.358871,4246.666563,4220.512717,4234.871691,4231.281948,4263.076819,4567.692196,4218.461435,4198.461436,4134.871694,4214.358871,4211.281948
45,0,4223.07682,4215.897333,4213.846051,4245.640922,4228.717845,4234.358871,4236.410153,4270.256306,4565.128093,4227.179384,4206.153743,4151.79477,4217.435794,4218.461435
46,0,4222.563999,4206.153743,4214.871692,4222.563999,4211.281948,4229.230666,4231.281948,4268.717844,4558.974247,4225.128102,4220.512717,4156.922975,4218.974256,4218.974256
47,0,4213.846051,4195.897333,4212.82041,4206.666564,4207.692205,4229.743486,4227.692204,4266.666562,4553.846042,4220.512717,4213.33323,4152.820411,4222.051179,4219.487076
48,0,4229.743486,4223.07682,4221.025538,4227.179384,4221.538358,4233.84605,4233.84605,4274.35887,4551.79476,4233.84605,4219.487076,4163.076821,4231.281948,4232.820409
49,0,4249.743486,4237.435794,4233.33323,4247.692204,4226.153743,4229.743486,4233.84605,4276.922972,4545.128094,4240.512717,4244.615281,4180.512718,4234.358871,4239.999896
50,0,4239.487076,4223.58964,4231.281948,4237.948614,4217.948615,4221.538358,4228.717845,4273.846049,4537.948607,4233.33323,4242.051178,4173.333231,4234.871691,4239.999896
51,0,4217.435794,4213.846051,4214.871692,4215.897333,4194.358872,4222.051179,4228.717845,4265.128101,4528.717838,4227.692204,4210.256307,4128.717848,4227.692204,4229.743486
52,0,4218.461435,4216.410153,4214.358871,4212.307589,4193.846051,4228.205025,4227.692204,4259.999896,4518.974248,4235.384512,4211.794769,4099.9999,4224.615281,4225.128102
53,0,4242.563999,4229.743486,4233.33323,4217.948615,4229.743486,4233.33323,4229.230666,4269.743485,4518.461428,4243.076819,4243.58964,4119.487079,4238.974255,4241.025537
54,0,4247.179383,4231.794768,4232.307589,4223.58964,4233.33323,4228.205025,4231.794768,4273.333229,4515.384505,4235.384512,4237.948614,4127.692207,4244.10246,4247.179383
55,0,4225.640922,4207.179384,4217.948615,4228.717845,4208.205025,4222.563999,4227.692204,4259.999896,4501.025531,4216.922974,4213.846051,4106.153746,4227.692204,4230.256307
56,0,4215.384512,4196.410154,4214.871692,4229.230666,4206.666564,4223.58964,4219.999897,4255.384511,4491.794762,4206.666564,4214.871692,4100.51272,4217.435794,4217.435794
57,0,4215.384512,4209.743487,4208.205025,4215.384512,4205.128102,4220.512717,4216.922974,4257.948614,4484.615275,4202.564,4209.743487,4106.153746,4216.410153,4213.33323
58,0,4215.384512,4215.897333,4204.102461,4195.384513,4199.999897,4221.538358,4223.58964,4258.461434,4477.435788,4216.922974,4206.666564,4109.743489,4221.025538,4217.435794
59,0,4223.07682,4217.948615,4216.410153,4205.128102,4218.461435,4231.281948,4235.897332,4266.666562,4477.948608,4241.025537,4228.205025,4120.51272,4230.769127,4231.281948
60,0,4233.84605,4226.666563,4221.025538,4228.205025,4238.974255,4235.384512,4237.435794,4273.846049,4473.333224,4238.461435,4236.922973,4124.615284,4233.84605,4236.410153
61,0,4227.179384,4224.615281,4213.33323,4219.487076,4231.281948,4231.281948,4230.769127,4265.128101,4458.461429,4224.102461,4220.512717,4121.02554,4231.281948,4230.769127
62,0,4215.384512,4207.179384,4214.871692,4207.179384,4214.358871,4231.281948,4230.256307,4261.025537,4456.922968,4226.153743,4213.846051,4123.589643,4229.743486,4229.230666
63,0,4218.461435,4203.589641,4216.410153,4219.487076,4208.205025,4226.666563,4229.230666,4264.61528,4458.97425,4225.128102,4217.435794,4123.076822,4225.640922,4225.128102
64,0,4231.794768,4227.692204,4217.435794,4223.58964,4222.051179,4218.461435,4224.615281,4264.61528,4447.692199,4230.256307,4226.153743,4126.153745,4231.281948,4228.717845
65,0,4242.051178,4241.538358,4231.794768,4214.358871,4239.487076,4228.717845,4230.769127,4266.153742,4442.563994,4247.692204,4241.538358,4142.564001,4244.615281,4243.58964
66,0,4232.307589,4222.051179,4234.358871,4213.846051,4221.025538,4236.922973,4235.897332,4264.61528,4441.025532,4240.512717,4233.33323,4141.53836,4238.461435,4238.461435
67,0,4222.051179,4209.743487,4226.666563,4217.435794,4213.33323,4234.358871,4233.84605,4265.128101,4430.769122,4230.769127,4222.563999,4135.384514,4226.153743,4228.205025
68,0,4233.84605,4226.666563,4230.769127,4227.692204,4244.615281,4234.358871,4234.358871,4274.35887,4427.692199,4251.281947,4235.384512,4148.717847,4232.307589,4241.025537
69,0,4236.410153,4219.487076,4235.897332,4229.743486,4245.128101,4229.230666,4230.256307,4274.35887,4427.692199,4257.435793,4239.487076,4151.79477,4237.948614,4245.128101
70,0,4218.461435,4195.897333,4230.256307,4211.281948,4209.230666,4216.922974,4224.615281,4262.051178,4417.435789,4243.58964,4228.205025,4139.487078,4230.256307,4229.743486
71,0,4214.871692,4205.640923,4226.666563,4217.948615,4215.897333,4222.051179,4229.743486,4261.538357,4410.256302,4247.179383,4230.256307,4139.487078,4227.692204,4228.205025
72,0,4224.102461,4227.692204,4227.179384,4233.33323,4245.640922,4236.922973,4237.435794,4273.846049,4407.179379,4251.794768,4233.33323,4146.153745,4230.769127,4232.820409
73,0,4218.461435,4216.410153,4226.666563,4217.948615,4237.435794,4234.358871,4232.820409,4273.846049,4392.820405,4242.051178,4219.487076,4145.128104,4227.692204,4225.640922
74,0,4216.410153,4204.615282,4227.692204,4211.794769,4232.820409,4229.230666,4230.769127,4265.640921,4382.051175,4246.666563,4221.538358,4149.230668,4228.205025,4227.692204
75,0,4219.999897,4214.871692,4222.051179,4231.281948,4232.307589,4231.794768,4231.794768,4261.538357,4379.487072,4249.230665,4229.743486,4154.871693,4233.33323,4234.358871
76,0,4215.897333,4209.743487,4215.897333,4220.512717,4206.666564,4227.179384,4222.051179,4261.025537,4373.333226,4230.769127,4217.435794,4152.820411,4229.230666,4225.640922
77,0,4209.743487,4191.281949,4216.410153,4191.794769,4195.897333,4221.538358,4215.897333,4259.999896,4366.153739,4221.025538,4209.230666,4146.666565,4215.384512,4212.307589
78,0,4206.153743,4194.871692,4214.871692,4206.666564,4222.563999,4229.743486,4225.640922,4259.487075,4362.563996,4233.84605,4216.410153,4142.564001,4212.82041,4215.897333
79,0,4215.897333,4205.640923,4225.640922,4235.384512,4244.10246,4236.922973,4237.435794,4271.794767,4363.589637,4250.256306,4233.33323,4156.922975,4232.820409,4232.820409
80,0,4232.820409,4208.205025,4237.948614,4223.07682,4226.666563,4227.692204,4233.84605,4275.897331,4361.025534,4257.435793,4247.179383,4172.30759,4247.692204,4238.974255
81,0,4230.256307,4214.358871,4226.153743,4205.640923,4206.666564,4221.538358,4226.153743,4262.563998,4349.743483,4250.769127,4239.999896,4165.128103,4237.948614,4233.33323
82,0,4222.563999,4221.025538,4218.974256,4219.999897,4217.948615,4233.33323,4235.384512,4263.589639,4345.128099,4242.051178,4231.794768,4160.512719,4230.256307,4231.281948
83,0,4223.07682,4213.33323,4230.769127,4236.410153,4233.33323,4240.512717,4239.999896,4275.384511,4347.692201,4246.153742,4236.922973,4168.205026,4233.33323,4232.307589
84,0,4229.743486,4212.82041,4234.871691,4233.33323,4233.33323,4233.33323,4236.922973,4277.948613,4345.128099,4265.128101,4242.051178,4176.410154,4237.948614,4239.999896
85,0,4239.487076,4223.07682,4233.33323,4230.256307,4235.384512,4232.820409,4245.128101,4279.999895,4343.076817,4269.230665,4245.640922,4183.076821,4244.615281,4250.769127
86,0,4234.871691,4213.846051,4233.33323,4229.743486,4230.256307,4235.897332,4246.153742,4277.948613,4338.974253,4251.794768,4242.051178,4179.487077,4243.076819,4242.563999
87,0,4222.563999,4205.640923,4226.153743,4228.205025,4215.897333,4230.769127,4231.281948,4264.10246,4330.256304,4245.128101,4228.205025,4169.230667,4233.33323,4227.692204
88,0,4225.128102,4214.871692,4222.051179,4223.58964,4223.07682,4231.281948,4227.179384,4262.051178,4324.615279,4253.333229,4228.717845,4169.743488,4234.871691,4232.307589
89,0,4227.179384,4210.256307,4222.051179,4215.384512,4227.692204,4233.84605,4234.358871,4263.076819,4318.974253,4246.153742,4233.33323,4171.79477,4234.358871,4232.820409
90,0,4214.871692,4196.922974,4215.384512,4209.230666,4204.102461,4228.205025,4229.230666,4253.84605,4310.769125,4226.153743,4219.487076,4163.076821,4221.538358,4217.948615
91,0,4212.82041,4201.025538,4211.794769,4220.512717,4195.384513,4226.666563,4222.051179,4253.84605,4309.743484,4230.256307,4212.307589,4163.589642,4221.025538,4212.307589
92,0,4218.974256,4202.564,4215.384512,4224.615281,4209.743487,4231.281948,4224.615281,4259.999896,4306.153741,4237.948614,4217.948615,4169.743488,4232.307589,4217.948615
93,0,4216.922974,4194.871692,4213.846051,4207.692205,4212.307589,4232.307589,4228.205025,4257.948614,4293.846049,4224.102461,4217.948615,4167.692206,4228.717845,4216.922974
94,0,4215.384512,4212.307589,4211.281948,4209.743487,4213.846051,4232.820409,4232.307589,4262.051178,4293.333228,4222.051179,4214.358871,4166.153744,4221.025538,4214.358871
95,0,4216.922974,4231.281948,4214.871692,4216.410153,4218.974256,4232.820409,4231.281948,4265.128101,4297.948613,4234.871691,4213.846051,4170.769129,4225.128102,4216.410153
96,0,4221.538358,4223.58964,4217.948615,4211.281948,4214.871692,4231.794768,4228.717845,4260.512716,4290.256305,4236.922973,4219.487076,4179.487077,4229.743486,4218.461435
97,0,4227.179384,4217.435794,4220.512717,4226.666563,4216.410153,4233.33323,4229.743486,4262.563998,4286.153741,4234.358871,4231.794768,4185.640923,4228.205025,4219.487076
98,0,4225.128102,4222.563999,4222.563999,4244.10246,4223.07682,4230.769127,4231.794768,4267.692203,4278.974254,4232.307589,4232.307589,4187.179385,4230.256307,4220.512717
99,0,4222.051179,4218.461435,4222.051179,4229.230666,4217.435794,4226.666563,4230.256307,4264.10246,4258.974255,4219.999897,4220.512717,4185.128103,4230.256307,4218.461435
100,0,4224.102461,4213.846051,4219.999897,4224.102461,4211.281948,4228.717845,4230.769127,4260.512716,4250.769127,4211.794769,4217.948615,4183.589641,4223.07682,4215.384512
101,0,4224.615281,4216.410153,4224.102461,4235.897332,4216.922974,4232.307589,4232.820409,4263.589639,4234.358871,4216.922974,4218.974256,4186.153744,4219.487076,4216.410153
102,0,4217.435794,4209.743487,4223.58964,4222.051179,4219.999897,4230.769127,4232.307589,4265.128101,4185.640923,4212.82041,4214.871692,4188.205026,4219.487076,4216.922974
103,0,4213.846051,4209.230666,4216.922974,4213.846051,4216.922974,4230.256307,4234.871691,4263.076819,4156.410155,4210.256307,4215.384512,4185.640923,4218.461435,4215.897333
104,0,4215.897333,4211.281948,4217.435794,4224.615281,4217.948615,4231.281948,4235.384512,4261.538357,4164.615283,4216.922974,4209.230666,4183.076821,4218.974256,4212.82041
105,0,4215.384512,4204.102461,4214.871692,4218.974256,4218.461435,4230.769127,4230.769127,4262.051178,4159.999898,4216.410153,4199.999897,4182.564,4217.948615,4205.128102
106,0,4213.846051,4206.153743,4210.256307,4203.589641,4211.794769,4229.230666,4228.717845,4261.025537,4148.205027,4211.281948,4206.153743,4182.564,4214.871692,4201.025538
107,0,4212.82041,4209.743487,4213.33323,4208.205025,4207.692205,4223.58964,4225.128102,4254.871691,4154.358873,4211.281948,4208.717846,4184.615282,4215.897333,4202.051179
108,0,4210.256307,4195.384513,4214.358871,4220.512717,4211.281948,4222.051179,4215.384512,4246.666563,4156.410155,4205.128102,4199.999897,4184.102462,4216.410153,4202.564
109,0,4210.256307,4197.435795,4208.205025,4211.794769,4215.897333,4224.102461,4211.794769,4245.640922,4150.769129,4198.461436,4202.564,4182.05118,4216.410153,4206.153743
110,0,4224.102461,4231.281948,4215.897333,4207.179384,4224.102461,4229.743486,4225.128102,4258.461434,4153.846052,4219.487076,4218.974256,4196.410154,4227.692204,4219.999897
111,0,4233.84605,4234.871691,4226.666563,4222.051179,4224.102461,4230.769127,4229.743486,4265.128101,4155.384514,4231.794768,4224.615281,4207.179384,4233.33323,4224.102461
112,0,4216.922974,4198.974256,4213.33323,4210.769128,4199.999897,4221.538358,4216.410153,4247.692204,4142.564001,4199.487077,4207.692205,4188.717846,4216.922974,4205.640923
113,0,4210.256307,4197.948615,4206.666564,4196.922974,4197.948615,4218.974256,4218.974256,4242.051178,4138.974258,4189.743487,4202.051179,4187.179385,4211.794769,4203.07682
114,0,4229.743486,4219.487076,4221.538358,4223.07682,4218.461435,4232.307589,4237.948614,4257.435793,4151.28195,4217.435794,4215.384512,4212.307589,4228.717845,4219.999897
115,0,4229.743486,4209.230666,4223.07682,4235.384512,4210.769128,4233.84605,4236.410153,4258.461434,4150.769129,4217.948615,4218.461435,4211.794769,4227.692204,4219.999897
116,0,4210.769128,4206.666564,4214.358871,4210.256307,4203.589641,4218.461435,4224.102461,4250.256306,4138.461437,4202.564,4215.897333,4197.435795,4215.384512,4211.794769
117,0,4206.153743,4218.461435,4213.846051,4208.205025,4212.82041,4213.846051,4226.153743,4253.333229,4138.461437,4208.717846,4217.948615,4202.051179,4220.512717,4211.281948
118,0,4214.358871,4207.692205,4216.410153,4223.07682,4211.281948,4222.051179,4228.717845,4255.384511,4142.051181,4213.846051,4214.871692,4206.153743,4228.205025,4213.33323
119,0,4225.640922,4209.743487,4219.487076,4213.846051,4213.33323,4220.512717,4227.179384,4255.384511,4139.487078,4212.307589,4210.769128,4205.640923,4228.717845,4215.384512
120,0,4230.256307,4228.717845,4223.07682,4217.948615,4216.410153,4217.435794,4231.794768,4263.589639,4142.564001,4218.974256,4217.435794,4216.410153,4230.769127,4221.538358
121,0,4225.128102,4219.999897,4224.615281,4236.410153,4207.692205,4221.538358,4233.84605,4267.179383,4144.615283,4224.102461,4226.666563,4225.640922,4233.33323,4227.179384
122,0,4229.230666,4210.256307,4230.256307,4233.33323,4216.410153,4223.07682,4230.769127,4260.512716,4142.051181,4232.820409,4237.435794,4224.615281,4234.871691,4230.769127
123,0,4227.692204,4217.948615,4224.102461,4215.897333,4212.82041,4216.922974,4220.512717,4251.281947,4136.410155,4231.281948,4235.384512,4216.922974,4233.84605,4221.538358
124,0,4218.461435,4216.922974,4210.769128,4214.871692,4191.281949,4214.358871,4213.33323,4245.128101,4132.820412,4218.974256,4218.461435,4210.769128,4228.205025,4209.743487
125,0,4226.666563,4219.999897,4223.58964,4230.256307,4205.128102,4217.948615,4222.563999,4249.230665,4131.28195,4224.102461,4217.435794,4215.897333,4229.230666,4221.538358
126,0,4232.820409,4229.230666,4233.33323,4232.820409,4220.512717,4218.974256,4227.692204,4251.281947,4125.128104,4221.538358,4218.974256,4218.461435,4233.84605,4229.743486
127,0,4226.153743,4223.07682,4219.487076,4219.999897,4210.769128,4216.922974,4216.410153,4246.153742,4120.51272,4198.974256,4211.281948,4211.281948,4228.205025,4218.974256
128,0,4225.640922,4216.410153,4214.871692,4215.897333,4209.743487,4216.410153,4215.897333,4246.666563,4120.51272,4196.410154,4208.717846,4206.153743,4221.538358,4216.410153
0,0,4220.512717,4213.33323,4213.846051,4221.025538,4205.128102,4222.563999,4225.640922,4247.179383,4114.871694,4202.051179,4202.051179,4201.025538,4213.846051,4213.33323
1,0,4210.769128,4206.666564,4207.179384,4218.461435,4196.410154,4228.205025,4228.717845,4243.58964,4109.743489,4191.281949,4195.897333,4196.410154,4204.102461,4201.538359
2,0,4214.871692,4207.179384,4211.794769,4215.897333,4209.230666,4224.102461,4232.820409,4255.384511,4122.051181,4209.230666,4206.666564,4206.153743,4206.666564,4204.102461
3,0,4221.538358,4218.974256,4218.974256,4215.384512,4208.205025,4216.410153,4230.256307,4264.10246,4132.820412,4243.076819,4217.435794,4217.948615,4223.58964,4219.487076
4,0,4220.512717,4219.999897,4215.384512,4218.974256,4190.769128,4217.948615,4216.922974,4249.743486,4123.589643,4236.410153,4210.256307,4214.358871,4231.794768,4222.051179
5,0,4228.717845,4220.512717,4223.58964,4230.769127,4206.153743,4226.153743,4223.58964,4253.84605,4124.102463,4234.358871,4219.487076,4221.538358,4228.717845,4225.640922
6,0,4239.487076,4225.640922,4234.871691,4225.640922,4223.58964,4225.128102,4239.487076,4270.769126,4134.871694,4253.84605,4241.025537,4235.897332,4232.820409,4235.384512
7,0,4229.743486,4213.33323,4220.512717,4216.922974,4203.589641,4217.948615,4230.256307,4256.922973,4129.743489,4237.435794,4227.179384,4224.102461,4231.281948,4226.666563
8,0,4216.922974,4208.717846,4207.692205,4228.205025,4185.128103,4215.384512,4213.33323,4241.025537,4119.487079,4219.999897,4205.128102,4211.281948,4223.07682,4219.999897
9,0,4219.999897,4225.128102,4216.410153,4231.281948,4195.384513,4215.384512,4217.435794,4246.153742,4121.02554,4240.512717,4215.897333,4222.563999,4227.692204,4227.692204
10,0,4225.128102,4227.179384,4219.999897,4217.948615,4207.692205,4212.82041,4221.025538,4249.743486,4121.538361,4238.974255,4224.615281,4223.58964,4231.794768,4226.153743
11,0,4222.051179,4213.33323,4211.794769,4209.230666,4195.897333,4213.846051,4214.358871,4244.615281,4115.384515,4216.410153,4213.33323,4212.307589,4228.717845,4221.025538
12,0,4226.666563,4221.538358,4219.999897,4217.435794,4196.922974,4221.025538,4221.025538,4247.692204,4121.538361,4235.897332,4223.58964,4225.128102,4230.256307,4229.230666
13,0,4236.410153,4234.358871,4232.307589,4233.33323,4223.58964,4220.512717,4231.794768,4254.871691,4130.256309,4251.794768,4238.974255,4241.538358,4234.358871,4237.435794
14,0,4230.769127,4224.615281,4224.102461,4229.743486,4225.640922,4217.435794,4225.640922,4253.333229,4126.153745,4224.615281,4224.102461,4230.769127,4231.794768,4231.794768
15,0,4223.58964,4218.461435,4214.871692,4219.999897,4208.717846,4224.102461,4219.999897,4246.666563,4126.153745,4218.461435,4211.281948,4221.025538,4230.256307,4225.640922
16,0,4230.256307,4228.717845,4218.974256,4244.10246,4210.769128,4227.179384,4229.743486,4248.717845,4137.948617,4233.33323,4219.999897,4232.820409,4231.281948,4228.205025
17,0,4231.794768,4234.871691,4219.999897,4254.35887,4213.33323,4219.487076,4231.794768,4252.820409,4143.589642,4225.128102,4224.102461,4238.461435,4232.307589,4230.769127
18,0,4224.102461,4221.538358,4216.410153,4223.58964,4202.564,4215.897333,4221.025538,4248.205024,4136.410155,4221.538358,4216.410153,4226.666563,4227.692204,4226.153743
19,0,4212.82041,4204.102461,4211.281948,4212.82041,4198.461436,4216.922974,4214.871692,4246.153742,4135.897335,4233.33323,4203.07682,4216.410153,4217.948615,4214.358871
20,0,4202.051179,4197.948615,4198.974256,4216.922974,4194.871692,4213.33323,4211.794769,4242.051178,4135.897335,4218.974256,4193.846051,4212.82041,4212.307589,4205.128102
21,0,4208.205025,4205.128102,4202.564,4208.205025,4206.666564,4221.538358,4219.487076,4241.025537,4134.871694,4213.846051,4214.358871,4219.487076,4216.410153,4210.769128
22,0,4226.153743,4220.512717,4218.461435,4225.640922,4238.461435,4233.33323,4234.358871,4257.948614,4148.205027,4249.743486,4238.461435,4235.384512,4226.666563,4230.256307
23,0,4224.102461,4221.538358,4218.461435,4240.512717,4239.999896,4225.128102,4229.743486,4264.61528,4153.333232,4259.999896,4223.58964,4236.410153,4233.33323,4236.410153
24,0,4211.794769,4209.743487,4210.769128,4220.512717,4223.58964,4213.846051,4218.461435,4248.717845,4142.051181,4235.897332,4208.717846,4225.640922,4231.281948,4225.640922
25,0,4213.33323,4203.589641,4212.307589,4218.974256,4227.179384,4214.358871,4216.410153,4235.897332,4135.897335,4226.153743,4216.922974,4227.692204,4224.615281,4219.999897
26,0,4213.846051,4202.051179,4213.846051,4231.281948,4225.128102,4217.948615,4214.871692,4232.307589,4134.358873,4230.769127,4209.743487,4226.666563,4216.922974,4215.384512
27,0,4210.256307,4202.051179,4214.871692,4222.563999,4215.384512,4218.461435,4216.922974,4234.871691,4130.76913,4233.84605,4198.974256,4218.461435,4215.384512,4211.794769
28,0,4213.33323,4206.666564,4216.922974,4222.563999,4223.58964,4218.974256,4222.051179,4243.076819,4133.846053,4233.84605,4211.281948,4226.666563,4218.974256,4218.974256
29,0,4215.897333,4214.358871,4218.974256,4237.435794,4232.820409,4218.461435,4221.025538,4247.692204,4138.974258,4241.538358,4220.512717,4237.948614,4219.999897,4226.666563
30,0,4218.974256,4215.384512,4224.102461,4234.871691,4230.256307,4223.58964,4220.512717,4245.640922,4132.307591,4255.384511,4218.461435,4235.384512,4221.538358,4227.179384
31,0,4216.922974,4203.07682,4224.102461,4228.717845,4227.692204,4229.230666,4224.615281,4249.230665,4131.28195,4242.563999,4214.871692,4231.281948,4222.051179,4223.07682
32,0,4203.589641,4185.128103,4215.384512,4225.640922,4217.435794,4220.512717,4222.051179,4250.256306,4135.897335,4216.922974,4204.615282,4230.769127,4211.794769,4215.384512
33,0,4195.897333,4177.435795,4211.794769,4205.640923,4202.051179,4211.281948,4214.871692,4241.538358,4128.717848,4226.666563,4194.871692,4224.615281,4206.153743,4205.640923
34,0,4208.205025,4185.640923,4214.871692,4207.179384,4205.128102,4213.846051,4215.897333,4241.025537,4125.128104,4250.256306,4205.128102,4227.692204,4210.769128,4208.717846
35,0,4219.999897,4196.410154,4216.922974,4231.281948,4216.922974,4216.922974,4226.153743,4249.230665,4132.820412,4246.153742,4217.948615,4242.051178,4216.922974,4224.102461
36,0,4216.922974,4203.589641,4218.974256,4230.769127,4220.512717,4216.922974,4232.307589,4251.281947,4131.794771,4241.025537,4217.948615,4243.58964,4225.640922,4233.84605
37,0,4212.307589,4201.025538,4216.410153,4214.871692,4215.384512,4219.487076,4222.563999,4248.205024,4124.102463,4252.820409,4214.358871,4234.358871,4228.205025,4229.230666
38,0,4214.871692,4190.769128,4216.410153,4207.179384,4212.307589,4217.948615,4213.846051,4244.10246,4123.076822,4246.666563,4212.307589,4235.897332,4219.999897,4223.58964
39,0,4226.153743,4202.051179,4227.692204,4220.512717,4226.153743,4216.410153,4224.102461,4246.666563,4123.589643,4236.922973,4223.07682,4250.256306,4222.051179,4228.717845
40,0,4236.410153,4224.102461,4233.84605,4233.84605,4233.84605,4222.563999,4234.358871,4256.410152,4126.666566,4237.948614,4239.487076,4257.435793,4231.281948,4234.358871
41,0,4236.410153,4226.666563,4232.820409,4227.179384,4228.717845,4230.256307,4233.84605,4258.974255,4135.384514,4238.461435,4242.563999,4257.948614,4233.33323,4236.410153
42,0,4231.794768,4217.435794,4232.307589,4227.692204,4231.281948,4227.692204,4231.281948,4248.717845,4133.333232,4243.58964,4231.794768,4257.435793,4231.281948,4235.897332
43,0,4232.307589,4214.358871,4230.769127,4236.922973,4229.743486,4224.615281,4229.743486,4243.58964,4122.564002,4253.333229,4225.128102,4252.307588,4229.743486,4233.33323
44,0,4236.410153,4216.922974,4233.33323,4229.230666,4222.051179,4227.179384,4231.281948,4250.769127,4124.102463,4246.666563,4224.102461,4249.743486,4232.820409,4234.871691
45,0,4226.666563,4216.922974,4229.743486,4221.538358,4222.051179,4228.205025,4228.717845,4251.281947,4129.230668,4230.256307,4218.461435,4244.615281,4230.256307,4228.205025
46,0,4217.435794,4219.487076,4218.461435,4233.33323,4221.025538,4230.769127,4226.666563,4246.666563,4127.692207,4230.769127,4216.922974,4242.051178,4221.538358,4218.974256
47,0,4225.640922,4222.051179,4223.07682,4236.922973,4223.07682,4230.769127,4229.230666,4247.692204,4123.589643,4234.358871,4226.666563,4248.205024,4223.58964,4224.102461
48,0,4234.871691,4220.512717,4232.307589,4232.307589,4230.769127,4219.487076,4225.640922,4247.179383,4122.051181,4230.769127,4226.666563,4252.820409,4230.256307,4234.871691
49,0,4231.281948,4220.512717,4223.07682,4233.84605,4226.666563,4215.384512,4217.948615,4240.512717,4118.974258,4228.717845,4213.846051,4246.666563,4226.666563,4231.794768
50,0,4225.128102,4213.846051,4213.846051,4229.230666,4211.281948,4222.563999,4215.384512,4230.769127,4110.25631,4217.948615,4214.358871,4235.384512,4216.922974,4219.487076
51,0,4222.563999,4202.051179,4219.487076,4226.666563,4205.640923,4218.974256,4215.897333,4229.743486,4107.692207,4209.743487,4219.999897,4233.33323,4214.871692,4213.846051
52,0,4223.58964,4208.717846,4226.153743,4234.871691,4215.384512,4217.948615,4219.999897,4239.999896,4112.307592,4217.948615,4217.435794,4242.563999,4223.58964,4221.025538
53,0,4236.410153,4235.897332,4232.307589,4243.076819,4236.410153,4230.769127,4231.281948,4249.743486,4116.922976,4233.33323,4225.640922,4253.333229,4234.871691,4234.358871
54,0,4242.563999,4234.871691,4236.410153,4237.435794,4238.974255,4233.84605,4234.358871,4249.230665,4118.974258,4237.435794,4235.897332,4252.820409,4234.871691,4235.897332
55,0,4231.794768,4215.897333,4230.769127,4222.051179,4215.384512,4226.153743,4229.230666,4246.153742,4119.999899,4231.794768,4228.205025,4247.179383,4228.717845,4229.230666
56,0,4229.230666,4224.102461,4228.717845,4225.128102,4216.410153,4228.205025,4232.820409,4249.743486,4121.538361,4231.794768,4223.58964,4248.205024,4229.230666,4230.769127
57,0,4232.307589,4226.153743,4230.256307,4237.435794,4236.410153,4233.33323,4233.84605,4249.743486,4121.02554,4231.281948,4220.512717,4248.205024,4230.256307,4232.307589
58,0,4231.281948,4214.358871,4233.84605,4242.051178,4243.58964,4231.281948,4231.281948,4249.743486,4122.564002,4228.205025,4215.384512,4247.179383,4230.256307,4229.743486
59,0,4230.256307,4216.410153,4230.256307,4234.358871,4233.33323,4229.230666,4233.33323,4252.820409,4123.589643,4229.743486,4228.205025,4247.692204,4228.717845,4230.256307
60,0,4228.717845,4215.384512,4218.461435,4223.07682,4230.769127,4231.794768,4231.794768,4245.640922,4121.02554,4225.640922,4235.897332,4246.666563,4229.230666,4231.794768
61,0,4227.692204,4208.205025,4220.512717,4234.358871,4248.717845,4232.820409,4226.666563,4238.461435,4119.999899,4226.666563,4227.692204,4245.128101,4234.871691,4230.769127
62,0,4227.692204,4220.512717,4225.640922,4247.692204,4243.58964,4219.999897,4226.153743,4243.58964,4119.999899,4233.33323,4228.205025,4245.640922,4234.871691,4229.230666
63,0,4229.230666,4238.461435,4223.58964,4239.999896,4233.33323,4216.922974,4230.769127,4248.205024,4122.051181,4226.153743,4234.871691,4247.179383,4230.769127,4231.281948
64,0,4230.256307,4231.794768,4228.205025,4235.384512,4242.563999,4227.179384,4227.179384,4244.615281,4122.051181,4218.974256,4229.743486,4249.230665,4232.307589,4232.307589
65,0,4228.717845,4217.435794,4230.769127,4234.358871,4234.871691,4222.563999,4220.512717,4244.615281,4118.461438,4232.307589,4218.461435,4247.692204,4231.794768,4223.58964
66,0,4224.102461,4213.33323,4223.07682,4233.33323,4223.58964,4212.307589,4218.974256,4245.128101,4122.051181,4238.461435,4211.281948,4241.025537,4226.153743,4215.897333
67,0,4225.128102,4224.102461,4219.487076,4230.769127,4248.717845,4217.435794,4225.128102,4244.10246,4137.948617,4227.179384,4222.051179,4242.563999,4223.58964,4219.999897
68,0,4226.153743,4226.153743,4224.102461,4221.538358,4256.922973,4222.563999,4228.717845,4243.076819,4148.717847,4218.461435,4235.384512,4242.563999,4215.384512,4219.487076
69,0,4223.07682,4205.128102,4226.153743,4236.410153,4224.102461,4216.922974,4220.512717,4235.384512,4148.205027,4213.33323,4213.846051,4233.33323,4209.230666,4208.717846
70,0,4230.769127,4211.794769,4230.769127,4256.922973,4218.461435,4217.435794,4222.051179,4237.948614,4154.871693,4218.461435,4201.538359,4239.487076,4224.615281,4217.435794
71,0,4236.410153,4233.84605,4233.33323,4236.410153,4236.410153,4217.948615,4233.33323,4248.717845,4160.512719,4224.102461,4234.871691,4252.820409,4230.769127,4233.84605
72,0,4230.256307,4220.512717,4228.717845,4221.025538,4233.84605,4216.922974,4232.820409,4241.025537,4148.717847,4220.512717,4241.025537,4248.205024,4218.461435,4227.179384
73,0,4226.153743,4205.640923,4223.07682,4234.871691,4221.538358,4223.58964,4224.102461,4230.769127,4134.358873,4222.563999,4210.769128,4241.538358,4222.051179,4216.922974
74,0,4224.615281,4217.948615,4219.999897,4226.153743,4219.487076,4225.640922,4223.07682,4241.025537,4133.333232,4233.84605,4212.307589,4247.179383,4232.307589,4222.563999
75,0,4231.281948,4227.692204,4227.692204,4222.051179,4232.307589,4225.128102,4230.769127,4250.769127,4135.384514,4236.410153,4234.358871,4249.743486,4232.307589,4231.794768
76,0,4237.435794,4228.717845,4235.897332,4250.256306,4236.922973,4231.794768,4232.307589,4247.692204,4129.743489,4234.358871,4235.897332,4249.743486,4234.871691,4234.871691
77,0,4229.743486,4228.205025,4230.769127,4248.717845,4229.743486,4232.307589,4230.256307,4249.230665,4123.589643,4235.897332,4230.769127,4250.256306,4236.922973,4233.33323
78,0,4224.615281,4221.025538,4222.051179,4227.692204,4237.435794,4229.743486,4229.230666,4250.256306,4122.564002,4234.871691,4222.051179,4246.153742,4231.794768,4224.615281
79,0,4230.769127,4216.410153,4223.07682,4234.871691,4241.538358,4227.179384,4227.692204,4245.640922,4118.974258,4232.307589,4216.410153,4244.615281,4230.769127,4216.922974
80,0,4233.84605,4218.461435,4229.743486,4245.128101,4232.820409,4222.051179,4225.640922,4247.692204,4112.307592,4227.692204,4226.153743,4247.179383,4233.84605,4223.07682
81,0,4228.717845,4219.487076,4228.717845,4233.33323,4236.922973,4226.153743,4228.205025,4248.205024,4107.179387,4227.692204,4226.153743,4248.205024,4238.461435,4228.717845
82,0,4224.615281,4222.563999,4228.205025,4221.025538,4241.538358,4230.256307,4229.230666,4242.563999,4099.487079,4231.281948,4230.256307,4249.743486,4239.487076,4226.666563
83,0,4217.435794,4213.846051,4227.692204,4221.538358,4227.692204,4221.538358,4226.666563,4239.487076,4090.25631,4216.922974,4236.922973,4248.717845,4227.692204,4216.922974
84,0,4211.794769,4201.538359,4217.948615,4222.051179,4226.666563,4226.666563,4229.230666,4235.384512,4085.640926,4198.974256,4214.871692,4244.615281,4215.897333,4208.717846
85,0,4219.487076,4205.640923,4215.897333,4230.769127,4240.512717,4238.461435,4232.307589,4233.33323,4086.666567,4204.102461,4202.051179,4245.128101,4220.512717,4211.794769
86,0,4225.128102,4209.230666,4230.769127,4231.281948,4236.922973,4227.692204,4231.281948,4246.153742,4091.281951,4218.974256,4223.58964,4252.307588,4230.769127,4219.999897
87,0,4217.948615,4207.179384,4234.358871,4216.410153,4228.205025,4218.461435,4230.256307,4247.179383,4090.25631,4219.999897,4225.128102,4254.871691,4233.84605,4217.948615
88,0,4219.487076,4216.410153,4227.692204,4223.58964,4234.871691,4224.615281,4228.717845,4234.358871,4087.692208,4215.897333,4214.871692,4258.461434,4236.410153,4219.999897
89,0,4233.33323,4221.538358,4233.33323,4241.538358,4235.897332,4225.128102,4227.179384,4234.871691,4089.230669,4215.897333,4232.307589,4263.076819,4243.58964,4230.256307
90,0,4235.384512,4218.461435,4236.410153,4242.563999,4232.820409,4226.153743,4231.281948,4244.10246,4090.25631,4221.538358,4236.922973,4257.948614,4251.281947,4228.205025
91,0,4219.999897,4216.922974,4222.051179,4225.128102,4233.84605,4232.307589,4230.256307,4241.538358,4084.102464,4218.974256,4213.846051,4248.205024,4246.153742,4216.922974
92,0,4212.82041,4213.33323,4212.82041,4216.922974,4238.974255,4233.84605,4224.102461,4236.922973,4076.922977,4211.281948,4211.281948,4244.615281,4233.33323,4211.281948
93,0,4216.410153,4206.666564,4216.922974,4226.666563,4235.897332,4226.153743,4224.102461,4242.051178,4081.025541,4221.538358,4224.615281,4247.179383,4228.717845,4214.358871
94,0,4217.948615,4214.358871,4219.999897,4236.410153,4234.871691,4224.615281,4232.307589,4251.281947,4088.717849,4231.794768,4219.999897,4248.717845,4237.948614,4215.384512
95,0,4213.33323,4214.871692,4214.871692,4233.33323,4243.58964,4233.33323,4234.358871,4249.230665,4081.025541,4217.435794,4211.281948,4243.58964,4233.84605,4207.179384
96,0,4212.307589,4213.33323,4213.33323,4221.538358,4244.10246,4233.84605,4229.743486,4242.563999,4071.794772,4210.769128,4232.820409,4242.051178,4217.435794,4208.717846
97,0,4222.051179,4222.563999,4221.025538,4213.33323,4242.563999,4228.205025,4231.794768,4245.128101,4076.410157,4218.974256,4239.487076,4247.179383,4222.051179,4219.487076
98,0,4228.717845,4222.563999,4228.717845,4225.128102,4252.307588,4232.307589,4235.384512,4247.692204,4071.794772,4210.769128,4208.205025,4245.640922,4234.358871,4219.999897
99,0,4233.84605,4228.205025,4232.820409,4249.230665,4257.948614,4237.948614,4235.384512,4246.666563,4063.076824,4212.307589,4208.205025,4247.179383,4239.487076,4222.051179
100,0,4231.794768,4239.487076,4233.33323,4245.640922,4248.717845,4233.84605,4235.897332,4248.205024,4072.820413,4224.615281,4232.307589,4258.974255,4247.179383,4230.769127
101,0,4224.615281,4231.281948,4231.794768,4228.205025,4244.10246,4224.615281,4231.794768,4241.025537,4075.384516,4209.743487,4228.717845,4257.435793,4245.128101,4227.692204
102,0,4226.153743,4224.615281,4229.230666,4234.358871,4249.743486,4226.666563,4223.07682,4233.33323,4061.538362,4200.512718,4225.640922,4247.692204,4234.871691,4225.640922
103,0,4229.743486,4233.33323,4231.281948,4225.640922,4238.974255,4233.33323,4219.999897,4234.358871,4058.461439,4216.410153,4230.256307,4249.230665,4234.358871,4230.256307
104,0,4222.563999,4231.794768,4233.33323,4210.769128,4226.153743,4225.640922,4226.153743,4235.384512,4061.025542,4212.307589,4219.487076,4250.769127,4237.435794,4228.205025
105,0,4213.846051,4223.58964,4227.179384,4224.615281,4232.820409,4217.435794,4230.256307,4235.897332,4057.435798,4195.897333,4215.384512,4247.692204,4237.948614,4226.153743
106,0,4223.07682,4230.769127,4226.666563,4237.948614,4253.84605,4230.769127,4232.820409,4244.615281,4062.564003,4213.846051,4232.820409,4253.333229,4242.563999,4231.794768
107,0,4232.307589,4239.999896,4232.820409,4235.384512,4266.153742,4241.538358,4235.897332,4250.256306,4070.256311,4235.384512,4238.461435,4257.948614,4242.563999,4228.717845
108,0,4223.07682,4231.794768,4225.640922,4233.33323,4259.487075,4232.820409,4231.281948,4243.076819,4066.153747,4225.128102,4218.461435,4248.717845,4232.820409,4217.435794
109,0,4207.692205,4206.666564,4213.33323,4232.307589,4242.051178,4230.256307,4222.051179,4233.33323,4059.48708,4210.256307,4201.538359,4234.871691,4221.538358,4211.794769
110,0,4204.615282,4198.461436,4213.846051,4227.179384,4233.33323,4231.794768,4214.358871,4227.692204,4054.358875,4212.82041,4209.230666,4231.281948,4215.384512,4210.256307
111,0,4211.794769,4228.717845,4219.999897,4234.871691,4253.333229,4229.743486,4218.461435,4234.358871,4058.461439,4230.769127,4227.179384,4242.051178,4218.461435,4215.384512
112,0,4215.897333,4244.615281,4219.999897,4231.281948,4269.743485,4233.33323,4229.230666,4242.563999,4060.512721,4239.487076,4230.256307,4250.256306,4217.948615,4225.640922
113,0,4214.358871,4224.615281,4218.461435,4215.384512,4257.948614,4235.897332,4231.281948,4238.974255,4034.871696,4222.563999,4226.153743,4246.666563,4211.794769,4226.666563
114,0,4217.435794,4225.128102,4223.07682,4226.666563,4251.281947,4233.33323,4225.640922,4235.384512,4003.076825,4219.999897,4227.692204,4246.153742,4220.512717,4226.153743
115,0,4222.051179,4236.410153,4230.769127,4229.230666,4244.615281,4231.281948,4223.07682,4234.871691,3998.461441,4240.512717,4230.256307,4250.769127,4229.230666,4230.769127
116,0,4219.487076,4221.025538,4233.33323,4220.512717,4237.948614,4230.769127,4221.025538,4233.33323,4005.640928,4242.051178,4233.84605,4252.307588,4226.153743,4231.794768
117,0,4213.846051,4208.717846,4227.692204,4235.384512,4244.10246,4227.692204,4216.410153,4230.256307,3999.487082,4228.205025,4230.256307,4250.256306,4225.640922,4228.205025
118,0,4222.051179,4222.051179,4228.205025,4249.743486,4254.871691,4230.256307,4221.538358,4230.769127,3994.871697,4230.769127,4230.769127,4253.333229,4231.794768,4232.820409
119,0,4232.307589,4227.692204,4233.84605,4237.435794,4253.84605,4233.84605,4229.230666,4232.820409,3998.461441,4235.897332,4237.948614,4261.538357,4232.820409,4240.512717
120,0,4224.615281,4215.384512,4232.820409,4230.256307,4242.563999,4232.307589,4230.256307,4231.281948,3999.487082,4234.871691,4235.897332,4257.435793,4226.153743,4235.384512
121,0,4217.948615,4211.281948,4228.717845,4235.384512,4238.974255,4232.820409,4225.128102,4230.769127,3998.461441,4236.410153,4229.743486,4248.717845,4226.666563,4231.794768
122,0,4224.615281,4215.897333,4231.281948,4227.179384,4245.128101,4229.743486,4219.999897,4229.743486,3997.94862,4236.410153,4232.307589,4251.794768,4231.281948,4234.871691
123,0,4232.820409,4225.640922,4235.897332,4236.410153,4252.307588,4224.615281,4224.615281,4231.794768,4002.564005,4237.948614,4240.512717,4262.563998,4234.871691,4237.435794
124,0,4232.820409,4222.051179,4233.33323,4237.435794,4238.974255,4225.640922,4230.256307,4236.410153,4008.717851,4241.025537,4238.461435,4261.025537,4233.33323,4233.84605
125,0,4222.563999,4199.999897,4227.179384,4215.897333,4223.07682,4231.794768,4224.615281,4234.871691,4002.051184,4233.33323,4223.58964,4250.769127,4228.717845,4228.717845
126,0,4217.435794,4199.999897,4228.205025,4228.717845,4237.948614,4232.307589,4218.461435,4228.717845,3989.743492,4232.307589,4227.179384,4252.307588,4228.717845,4230.769127
127,0,4227.692204,4223.07682,4238.974255,4249.743486,4250.769127,4229.743486,4223.07682,4229.743486,3996.922979,4246.666563,4247.179383,4263.076819,4230.256307,4237.948614
128,0,4237.435794,4227.692204,4245.640922,4238.461435,4244.10246,4230.769127,4228.205025,4239.999896,4010.769133,4254.871691,4243.076819,4271.281947,4234.358871,4243.076819
0,0,4223.58964,4210.769128,4236.410153,4224.615281,4226.666563,4221.025538,4218.974256,4229.230666,3995.897338,4237.435794,4214.871692,4260.512716,4231.281948,4234.358871
1,0,4211.281948,4210.256307,4227.179384,4233.33323,4228.717845,4211.794769,4209.230666,4211.794769,3976.92298,4206.666564,4210.256307,4245.640922,4221.025538,4219.999897
2,0,4216.410153,4223.07682,4230.256307,4229.230666,4250.769127,4227.179384,4215.897333,4221.538358,3985.128108,4210.769128,4226.153743,4246.666563,4215.897333,4216.922974
3,0,4215.897333,4218.974256,4226.153743,4205.128102,4239.999896,4238.974255,4217.435794,4223.58964,3986.153749,4238.974255,4214.358871,4244.10246,4218.974256,4216.410153
4,0,4209.743487,4210.256307,4218.974256,4218.461435,4221.538358,4224.102461,4207.179384,4208.717846,3973.333236,4233.33323,4196.410154,4232.820409,4219.487076,4215.384512
5,0,4211.794769,4215.384512,4227.179384,4244.10246,4243.076819,4219.999897,4210.769128,4209.230666,3973.846057,4214.871692,4207.179384,4237.948614,4214.358871,4218.974256
6,0,4218.974256,4231.281948,4235.897332,4225.640922,4267.179383,4237.435794,4222.563999,4221.538358,3982.564005,4232.820409,4223.07682,4251.281947,4221.025538,4224.102461
7,0,4220.512717,4241.025537,4231.281948,4204.102461,4247.179383,4232.307589,4219.487076,4222.051179,3987.17939,4252.820409,4219.487076,4248.205024,4232.820409,4224.615281
8,0,4219.999897,4243.076819,4225.128102,4229.743486,4239.487076,4222.563999,4214.358871,4219.999897,3984.615287,4231.281948,4213.33323,4244.615281,4229.743486,4222.051179
9,0,4221.025538,4239.487076,4225.640922,4239.999896,4263.076819,4233.84605,4218.974256,4221.025538,3977.948621,4225.128102,4211.281948,4248.717845,4225.640922,4221.025538
10,0,4212.82041,4230.256307,4226.153743,4207.692205,4251.281947,4229.743486,4212.307589,4217.435794,3975.897339,4244.615281,4213.846051,4246.153742,4230.256307,4218.461435
11,0,4210.769128,4241.538358,4229.743486,4210.769128,4234.871691,4214.358871,4205.640923,4219.999897,3977.948621,4242.563999,4230.769127,4249.230665,4234.871691,4220.512717
12,0,4217.435794,4238.461435,4226.153743,4243.58964,4243.58964,4212.82041,4206.666564,4218.974256,3973.333236,4225.128102,4224.102461,4246.153742,4229.230666,4217.948615
13,0,4214.358871,4212.307589,4216.922974,4233.33323,4256.922973,4222.563999,4213.33323,4214.358871,3969.230672,4233.33323,4202.564,4237.948614,4224.615281,4216.410153
14,0,4204.102461,4219.487076,4216.410153,4193.333231,4246.666563,4225.128102,4215.897333,4212.307589,3969.230672,4246.153742,4206.153743,4239.999896,4221.025538,4214.871692
15,0,4196.410154,4231.281948,4213.33323,4197.948615,4223.07682,4221.025538,4205.128102,4202.051179,3959.999903,4233.33323,4205.128102,4232.820409,4215.897333,4203.07682
16,0,4203.589641,4226.666563,4210.256307,4235.384512,4243.076819,4229.230666,4205.128102,4201.538359,3960.512724,4236.922973,4197.948615,4228.205025,4225.640922,4205.128102
17,0,4209.230666,4231.794768,4214.871692,4211.794769,4249.230665,4231.281948,4216.410153,4205.640923,3970.769134,4238.974255,4203.07682,4235.897332,4229.743486,4211.281948
18,0,4209.230666,4242.563999,4220.512717,4187.692205,4222.051179,4221.538358,4218.461435,4206.153743,3975.384518,4234.871691,4211.281948,4240.512717,4217.435794,4210.256307
19,0,4211.794769,4236.410153,4219.487076,4233.84605,4225.128102,4223.58964,4212.82041,4208.717846,3976.410159,4252.820409,4210.256307,4237.435794,4217.948615,4212.307589
20,0,4213.846051,4234.871691,4213.846051,4253.84605,4238.461435,4230.769127,4209.743487,4206.666564,3978.461441,4262.563998,4208.717846,4235.897332,4231.281948,4217.948615
21,0,4213.846051,4244.10246,4215.384512,4215.384512,4224.615281,4224.615281,4213.33323,4203.589641,3984.615287,4256.410152,4208.717846,4238.974255,4235.897332,4222.563999
22,0,4218.461435,4255.384511,4225.128102,4209.230666,4222.563999,4222.051179,4215.897333,4213.846051,3990.769133,4257.948614,4216.410153,4247.692204,4235.897332,4232.307589
23,0,4219.487076,4244.615281,4224.102461,4225.128102,4214.871692,4225.128102,4208.717846,4216.410153,3989.743492,4265.128101,4219.487076,4245.128101,4237.948614,4228.717845
24,0,4212.307589,4219.999897,4214.871692,4227.692204,4201.538359,4218.461435,4202.051179,4205.640923,3999.999902,4272.307588,4210.256307,4231.281948,4232.307589,4212.307589
25,0,4221.025538,4235.897332,4221.538358,4229.230666,4237.435794,4218.461435,4214.358871,4214.358871,4027.692209,4283.076818,4217.948615,4243.076819,4233.33323,4219.999897
26,0,4226.666563,4252.307588,4225.640922,4213.33323,4250.256306,4218.461435,4219.487076,4216.410153,4031.794773,4271.281947,4216.922974,4251.281947,4237.948614,4225.640922
27,0,4213.33323,4235.897332,4215.384512,4208.717846,4218.461435,4212.82041,4209.743487,4198.974256,4010.769133,4262.051178,4189.743487,4232.307589,4232.820409,4212.307589
28,0,4213.846051,4241.538358,4212.307589,4232.820409,4231.794768,4225.128102,4213.846051,4204.615282,4001.025543,4274.35887,4177.435795,4231.281948,4231.281948,4211.794769
29,0,4213.846051,4243.58964,4212.307589,4229.230666,4244.10246,4231.794768,4219.487076,4212.82041,3991.281954,4270.769126,4190.256308,4245.128101,4230.769127,4216.410153
30,0,4207.692205,4216.410153,4219.487076,4213.846051,4226.153743,4223.58964,4215.384512,4199.487077,3982.051185,4270.256306,4202.564,4248.717845,4230.769127,4214.871692
31,0,4214.358871,4219.487076,4230.769127,4235.897332,4231.794768,4223.58964,4214.358871,4201.025538,3987.17939,4283.589639,4193.846051,4246.666563,4233.84605,4216.922974
32,0,4215.897333,4246.666563,4224.102461,4242.051178,4232.307589,4226.666563,4211.794769,4213.846051,3990.256313,4284.61528,4186.666564,4245.128101,4232.307589,4221.025538
33,0,4214.871692,4248.717845,4222.563999,4216.922974,4224.102461,4221.025538,4213.846051,4217.948615,3996.410159,4297.435792,4205.640923,4250.769127,4237.435794,4223.58964
34,0,4231.794768,4249.230665,4238.974255,4239.999896,4241.025537,4220.512717,4221.025538,4225.640922,4003.589646,4316.410151,4234.871691,4261.538357,4246.666563,4232.820409
35,0,4233.84605,4250.256306,4237.435794,4253.333229,4237.948614,4222.563999,4217.435794,4224.615281,3994.358877,4301.538356,4228.205025,4256.410152,4247.692204,4231.794768
36,0,4215.897333,4234.358871,4227.179384,4212.307589,4213.846051,4218.461435,4214.358871,4215.897333,3994.871697,4291.281946,4200.512718,4243.58964,4243.076819,4219.999897
37,0,4223.07682,4239.487076,4238.974255,4219.487076,4223.07682,4220.512717,4222.051179,4223.07682,4011.281953,4320.512715,4207.692205,4248.205024,4248.717845,4225.640922
38,0,4236.922973,4263.076819,4243.58964,4259.487075,4231.281948,4232.820409,4221.538358,4224.615281,3994.871697,4331.281945,4217.435794,4250.769127,4255.897332,4234.871691
39,0,4231.794768,4261.025537,4232.307589,4249.230665,4221.025538,4235.384512,4216.410153,4216.410153,3966.153749,4301.538356,4208.205025,4245.640922,4252.820409,4229.743486
40,0,4229.743486,4235.897332,4233.33323,4227.692204,4217.435794,4217.435794,4215.897333,4223.07682,3984.615287,4296.410151,4212.82041,4246.666563,4247.179383,4228.717845
41,0,4233.33323,4236.410153,4237.948614,4236.410153,4212.307589,4204.615282,4210.769128,4228.205025,4019.487081,4324.615279,4228.717845,4249.230665,4251.794768,4233.33323
42,0,4227.179384,4249.743486,4233.84605,4236.410153,4206.666564,4213.846051,4208.205025,4216.410153,4018.974261,4334.358868,4212.307589,4242.051178,4259.487075,4226.153743
43,0,4216.410153,4226.153743,4229.743486,4225.128102,4207.179384,4217.948615,4209.743487,4209.230666,4000.512723,4316.410151,4182.05118,4230.256307,4249.230665,4213.33323
44,0,4225.640922,4221.538358,4235.897332,4228.717845,4228.717845,4222.563999,4217.435794,4226.153743,4006.666569,4310.769125,4196.922974,4239.487076,4250.769127,4223.58964
45,0,4234.871691,4243.58964,4239.487076,4254.871691,4236.922973,4233.84605,4227.179384,4239.999896,4017.94862,4330.256304,4212.82041,4247.179383,4265.640921,4235.384512
46,0,4218.461435,4224.102461,4229.230666,4262.563998,4195.897333,4226.153743,4218.461435,4221.025538,4002.564005,4346.66656,4192.30759,4225.640922,4258.974255,4221.538358
47,0,4203.589641,4205.640923,4217.948615,4223.07682,4179.999898,4212.82041,4207.692205,4210.769128,4004.102466,4329.230663,4188.717846,4211.794769,4243.076819,4209.230666
48,0,4219.999897,4245.640922,4223.07682,4210.769128,4236.410153,4230.769127,4226.153743,4233.33323,4032.307594,4323.589638,4221.025538,4211.794769,4248.205024,4219.999897
49,0,4225.640922,4256.410152,4224.615281,4238.461435,4238.974255,4238.461435,4233.33323,4231.794768,4027.179389,4349.743483,4217.435794,4174.358872,4261.538357,4224.615281
50,0,4203.07682,4208.717846,4211.281948,4221.025538,4180.512718,4219.487076,4212.82041,4207.692205,4001.025543,4343.076817,4177.435795,4131.794771,4256.410152,4211.794769
51,0,4203.07682,4213.846051,4210.769128,4215.384512,4202.564,4224.615281,4214.358871,4217.948615,3998.974261,4324.615279,4179.999898,4143.589642,4252.820409,4212.307589
52,0,4222.051179,4252.307588,4221.538358,4251.794768,4230.769127,4231.794768,4225.128102,4225.640922,3977.4358,4358.974252,4196.410154,4160.512719,4263.589639,4222.051179
53,0,4220.512717,4244.615281,4219.487076,4236.922973,4201.538359,4221.538358,4215.897333,4210.769128,3941.538365,4375.384508,4184.102462,4154.871693,4267.179383,4218.461435
54,0,4210.769128,4230.769127,4215.897333,4215.384512,4209.743487,4222.051179,4212.82041,4212.82041,3949.230673,4325.64092,4182.05118,4161.53836,4263.076819,4213.33323
55,0,4215.897333,4238.461435,4220.512717,4241.025537,4238.461435,4227.692204,4219.487076,4221.538358,3965.640929,4328.717843,4204.615282,4178.461436,4264.10246,4219.999897
56,0,4221.538358,4241.538358,4220.512717,4238.461435,4218.461435,4222.563999,4216.922974,4217.435794,3970.256313,4394.871687,4216.922974,4187.179385,4266.666562,4226.666563
57,0,4214.871692,4230.256307,4218.461435,4207.692205,4204.102461,4228.717845,4215.384512,4214.871692,3963.589647,4394.871687,4212.307589,4185.128103,4262.563998,4219.487076
58,0,4211.281948,4224.615281,4218.974256,4215.384512,4229.743486,4235.384512,4218.974256,4216.922974,3972.307595,4346.15374,4207.179384,4185.640923,4261.538357,4214.358871
59,0,4213.33323,4216.922974,4218.974256,4247.179383,4229.230666,4222.563999,4214.871692,4213.846051,3990.256313,4324.102458,4197.948615,4191.794769,4263.589639,4221.538358
60,0,4215.897333,4214.358871,4223.07682,4251.281947,4218.461435,4223.07682,4217.435794,4221.025538,3832.820419,4354.871688,4198.974256,4202.051179,4274.35887,4230.769127
61,0,4219.487076,4235.384512,4227.179384,4239.487076,4235.384512,4236.410153,4231.281948,4230.769127,3514.358888,4389.230662,4205.128102,4211.281948,4283.589639,4235.384512
62,0,4214.358871,4232.307589,4218.461435,4226.153743,4230.769127,4233.33323,4228.717845,4217.948615,3330.256329,4376.410149,4197.435795,4212.82041,4269.743485,4227.692204
63,0,4204.615282,4206.666564,4214.358871,4223.07682,4207.692205,4229.743486,4215.384512,4206.153743,3316.410175,4346.15374,4207.692205,4213.33323,4258.461434,4217.435794
64,0,4206.666564,4208.717846,4223.58964,4228.717845,4207.692205,4231.281948,4215.897333,4216.410153,3270.769151,4350.256304,4217.948615,4217.948615,4269.230665,4221.538358
65,0,4210.769128,4212.82041,4222.563999,4231.794768,4212.307589,4228.205025,4218.461435,4220.512717,3206.153768,4346.66656,4203.589641,4219.999897,4269.230665,4223.07682
66,0,4211.281948,4199.999897,4223.58964,4227.692204,4204.615282,4230.256307,4215.897333,4212.82041,3193.846076,4323.589638,4208.717846,4223.07682,4257.948614,4218.461435
67,0,4218.461435,4209.230666,4233.33323,4217.435794,4209.230666,4231.794768,4221.025538,4219.487076,3176.922999,4352.820406,4231.794768,4230.769127,4263.589639,4228.205025
68,0,4217.435794,4221.025538,4223.58964,4221.025538,4197.948615,4219.487076,4219.487076,4219.487076,3127.179411,4359.487073,4215.897333,4224.615281,4266.153742,4230.769127
69,0,4210.769128,4201.025538,4211.281948,4224.102461,4179.487077,4219.999897,4210.769128,4207.692205,2994.358901,4307.179382,4196.410154,4213.846051,4257.948614,4217.435794
70,0,4218.974256,4198.974256,4226.153743,4209.743487,4197.435795,4233.33323,4218.974256,4208.205025,2857.435828,4316.922971,4213.846051,4222.051179,4266.153742,4222.051179
71,0,4226.666563,4221.538358,4234.871691,4216.410153,4225.640922,4235.897332,4231.281948,4222.051179,2689.743524,4349.230663,4229.230666,4233.33323,4274.87169,4236.922973
72,0,4224.615281,4217.948615,4225.640922,4247.179383,4223.58964,4232.820409,4224.615281,4227.179384,2171.794819,4308.205023,4217.435794,4229.230666,4262.051178,4233.84605
73,0,4230.256307,4208.717846,4228.205025,4245.128101,4205.128102,4229.230666,4216.922974,4218.461435,1545.128167,4284.102459,4196.410154,4219.999897,4257.435793,4230.256307
74,0,4234.358871,4216.410153,4235.384512,4219.999897,4198.974256,4225.640922,4223.58964,4209.743487,1381.025607,4343.589637,4201.025538,4219.487076,4266.666562,4238.974255
75,0,4236.410153,4229.743486,4236.922973,4224.615281,4216.410153,4234.871691,4235.384512,4216.922974,1513.333296,4351.794765,4216.922974,4226.666563,4269.743485,4248.205024
76,0,4240.512717,4230.256307,4239.999896,4241.025537,4226.153743,4241.538358,4239.487076,4228.717845,1499.999963,4291.794767,4207.692205,4228.717845,4265.128101,4245.640922
77,0,4227.179384,4208.717846,4227.179384,4234.358871,4197.948615,4227.179384,4226.666563,4215.897333,1432.820478,4284.61528,4191.794769,4217.948615,4252.307588,4230.769127
78,0,4218.461435,4200.512718,4217.948615,4230.769127,4189.230667,4227.692204,4218.461435,4200.512718,1465.64099,4316.410151,4194.871692,4213.33323,4247.692204,4222.563999
79,0,4239.487076,4230.256307,4237.948614,4244.10246,4234.871691,4248.717845,4233.84605,4215.384512,1487.179451,4315.89733,4202.564,4230.256307,4262.563998,4236.922973
80,0,4248.717845,4242.563999,4247.692204,4250.256306,4245.640922,4243.58964,4240.512717,4223.07682,1482.051246,4286.153741,4203.589641,4241.538358,4260.512716,4242.051178
81,0,4225.128102,4210.769128,4227.179384,4228.717845,4200.512718,4223.58964,4224.102461,4196.410154,1489.230733,4282.051177,4195.384513,4228.717845,4241.025537,4223.58964
82,0,4217.948615,4206.153743,4223.07682,4205.128102,4193.333231,4226.153743,4216.410153,4184.102462,1517.948681,4301.538356,4187.692205,4222.563999,4244.10246,4217.435794
83,0,4242.051178,4235.897332,4243.58964,4227.692204,4230.256307,4238.461435,4233.33323,4209.743487,1555.384577,4307.692202,4206.666564,4246.666563,4262.051178,4234.871691
84,0,4246.153742,4228.205025,4243.58964,4249.230665,4227.692204,4235.897332,4241.538358,4219.487076,1541.025603,4306.666561,4217.948615,4253.333229,4260.512716,4240.512717
85,0,4226.153743,4198.974256,4227.692204,4222.563999,4196.922974,4228.205025,4226.153743,4196.922974,1498.974322,4305.64092,4196.922974,4231.281948,4246.666563,4226.153743
86,0,4223.58964,4203.589641,4228.717845,4213.846051,4203.07682,4228.717845,4218.461435,4193.333231,1484.615348,4289.230664,4198.461436,4231.794768,4242.563999,4224.102461
87,0,4234.871691,4222.563999,4236.410153,4247.179383,4224.102461,4229.743486,4225.640922,4204.102461,1484.615348,4279.487075,4222.563999,4246.666563,4247.692204,4231.281948
88,0,4229.743486,4214.358871,4232.307589,4250.769127,4215.897333,4226.153743,4221.025538,4192.30759,1468.205092,4293.333228,4211.281948,4238.974255,4249.230665,4227.179384
89,0,4221.025538,4212.307589,4227.179384,4223.07682,4214.871692,4227.179384,4216.410153,4181.025539,1475.384579,4300.512715,4173.846052,4224.102461,4246.153742,4222.563999
90,0,4228.205025,4235.897332,4231.794768,4224.615281,4242.563999,4235.384512,4229.743486,4193.333231,1546.153808,4279.999895,4175.384513,4231.794768,4247.179383,4226.153743
91,0,4231.281948,4232.820409,4231.794768,4236.922973,4238.974255,4232.307589,4229.743486,4204.102461,1621.025601,4253.84605,4211.281948,4244.10246,4243.076819,4226.666563
92,0,4230.256307,4214.358871,4233.33323,4233.33323,4220.512717,4229.743486,4224.102461,4196.922974,1658.461498,4270.769126,4224.102461,4242.563999,4235.897332,4226.153743
93,0,4226.153743,4222.051179,4234.871691,4227.179384,4234.358871,4237.948614,4227.692204,4186.666564,1686.666625,4299.999895,4198.461436,4232.820409,4234.358871,4226.153743
94,0,4219.999897,4229.230666,4229.743486,4228.717845,4239.487076,4235.384512,4222.563999,4185.128103,1723.589701,4272.820408,4185.640923,4230.256307,4232.307589,4221.025538
95,0,4217.435794,4216.922974,4226.666563,4228.717845,4225.128102,4227.179384,4217.435794,4186.666564,1739.487137,4244.615281,4190.769128,4232.820409,4227.179384,4216.410153
96,0,4216.410153,4214.358871,4228.717845,4227.692204,4230.769127,4230.256307,4224.102461,4185.128103,1717.948676,4268.205024,4189.743487,4230.256307,4230.769127,4216.410153
97,0,4215.384512,4222.051179,4229.743486,4239.487076,4239.487076,4234.358871,4221.538358,4182.05118,1721.025599,4271.281947,4191.281949,4233.84605,4236.410153,4217.948615
98,0,4223.07682,4215.384512,4228.717845,4228.205025,4229.743486,4227.179384,4213.33323,4184.102462,1737.435855,4239.999896,4195.384513,4243.58964,4232.820409,4217.435794
99,0,4230.769127,4209.743487,4234.358871,4207.692205,4227.179384,4222.563999,4220.512717,4193.333231,1715.384573,4241.538358,4203.589641,4246.666563,4231.281948,4216.410153
100,0,4230.769127,4226.153743,4240.512717,4232.820409,4236.922973,4229.743486,4231.281948,4197.948615,1759.999957,4270.769126,4219.487076,4249.743486,4234.871691,4223.07682
101,0,4230.769127,4233.33323,4237.948614,4251.281947,4236.922973,4233.84605,4229.230666,4190.256308,1908.205082,4278.974254,4216.410153,4252.307588,4236.410153,4226.666563
102,0,4230.769127,4220.512717,4234.358871,4228.205025,4231.794768,4230.256307,4226.153743,4185.128103,1989.230721,4265.640921,4193.333231,4246.666563,4235.384512,4220.512717
103,0,4228.205025,4220.512717,4232.820409,4227.179384,4236.410153,4231.281948,4229.230666,4189.743487,1945.640978,4269.230665,4203.07682,4248.205024,4231.794768,4221.025538
104,0,4230.769127,4233.84605,4235.384512,4250.769127,4245.640922,4233.84605,4228.717845,4188.717846,1922.051235,4293.846049,4227.179384,4256.410152,4232.820409,4229.230666
105,0,4231.794768,4234.358871,4239.487076,4252.820409,4244.615281,4230.769127,4225.640922,4186.666564,1966.666619,4277.435793,4209.743487,4255.384511,4237.435794,4230.769127
106,0,4230.769127,4230.256307,4237.948614,4242.563999,4239.487076,4230.769127,4225.640922,4190.256308,2009.743541,4261.025537,4197.948615,4251.281947,4234.871691,4227.179384
107,0,4231.281948,4231.281948,4231.281948,4231.794768,4229.230666,4229.743486,4221.538358,4185.640923,2030.256361,4291.794767,4227.692204,4250.769127,4228.205025,4222.051179
108,0,4230.769127,4235.384512,4232.820409,4242.051178,4230.769127,4231.794768,4221.538358,4181.538359,2057.948668,4272.820408,4235.897332,4247.692204,4230.256307,4220.512717
109,0,4224.102461,4235.384512,4230.769127,4245.640922,4246.666563,4238.461435,4232.307589,4186.666564,2118.461487,4227.179384,4186.153744,4236.410153,4227.179384,4215.897333
110,0,4208.717846,4223.07682,4216.410153,4211.281948,4235.384512,4235.897332,4234.871691,4183.076821,2161.025588,4235.897332,4169.743488,4228.717845,4210.256307,4202.564
111,0,4208.205025,4218.974256,4219.999897,4205.640923,4218.974256,4229.230666,4229.743486,4183.076821,2183.07687,4244.615281,4206.153743,4238.974255,4211.794769,4204.615282
112,0,4224.615281,4233.84605,4232.820409,4239.999896,4241.538358,4234.871691,4233.33323,4194.871692,2225.128151,4251.794768,4215.384512,4248.205024,4234.871691,4221.025538
113,0,4221.538358,4234.871691,4221.025538,4241.538358,4249.230665,4236.410153,4231.281948,4187.179385,2260.512765,4296.410151,4202.051179,4238.974255,4235.384512,4220.512717
114,0,4205.640923,4218.461435,4211.794769,4224.102461,4218.974256,4229.743486,4225.128102,4172.820411,2284.102508,4296.410151,4194.871692,4226.153743,4216.410153,4210.256307
115,0,4211.281948,4214.871692,4227.179384,4229.230666,4213.846051,4229.230666,4221.025538,4178.461436,2306.66661,4253.84605,4189.743487,4231.281948,4217.435794,4213.846051
116,0,4227.179384,4226.153743,4234.871691,4228.717845,4234.358871,4228.205025,4215.897333,4184.102462,2315.384559,4258.974255,4199.487077,4245.640922,4228.717845,4223.07682
117,0,4231.281948,4236.922973,4228.717845,4231.281948,4240.512717,4226.666563,4224.615281,4185.128103,2316.4102,4282.563998,4225.128102,4253.333229,4234.358871,4230.769127
118,0,4222.051179,4227.179384,4220.512717,4229.230666,4229.230666,4229.230666,4230.769127,4185.640923,2331.794815,4272.307588,4221.025538,4239.999896,4232.307589,4225.640922
119,0,4211.281948,4208.717846,4215.384512,4212.307589,4218.974256,4230.256307,4220.512717,4176.410154,2351.281994,4261.538357,4205.128102,4224.615281,4222.051179,4209.743487
120,0,4221.025538,4224.615281,4226.666563,4227.692204,4229.230666,4230.256307,4219.487076,4173.846052,2384.102506,4269.743485,4217.948615,4236.922973,4222.051179,4215.384512
121,0,4239.999896,4241.025537,4239.487076,4251.794768,4243.58964,4231.794768,4233.84605,4188.205026,2432.820453,4273.846049,4228.205025,4253.333229,4231.794768,4228.717845
122,0,4230.256307,4221.538358,4232.307589,4241.025537,4237.435794,4234.871691,4233.84605,4190.769128,2448.205068,4274.35887,4218.974256,4248.205024,4228.205025,4223.07682
123,0,4215.384512,4212.307589,4224.102461,4222.051179,4228.717845,4234.358871,4224.102461,4179.999898,2442.564043,4292.307587,4209.230666,4238.974255,4228.717845,4219.487076
124,0,4225.128102,4232.820409,4231.794768,4225.640922,4236.410153,4232.820409,4226.153743,4181.538359,2446.666607,4288.717844,4217.435794,4242.563999,4236.922973,4228.205025
125,0,4232.307589,4227.179384,4232.820409,4234.358871,4238.974255,4235.897332,4233.33323,4195.384513,2452.820453,4253.84605,4217.435794,4247.692204,4221.025538,4227.692204
126,0,4226.666563,4212.82041,4229.743486,4232.820409,4233.84605,4239.487076,4231.281948,4197.435795,2470.76917,4259.999896,4217.948615,4248.717845,4213.33323,4225.128102
127,0,4229.743486,4231.281948,4232.820409,4223.58964,4232.820409,4234.871691,4223.58964,4184.102462,2485.640965,4294.358869,4230.256307,4251.281947,4236.922973,4234.871691
128,0,4231.794768,4241.025537,4228.205025,4222.051179,4225.640922,4231.794768,4222.051179,4177.435795,2490.76917,4289.230664,4221.025538,4245.640922,4242.563999,4235.384512
0,0,4225.128102,4228.717845,4222.051179,4242.051178,4225.640922,4236.410153,4227.692204,4183.076821,2536.923015,4261.538357,4198.974256,4237.435794,4228.717845,4228.717845
1,0,4230.256307,4232.307589,4230.769127,4254.35887,4244.10246,4238.461435,4230.769127,4187.179385,2611.281987,4264.10246,4213.33323,4244.615281,4230.256307,4237.435794
2,0,4236.922973,4238.461435,4234.871691,4241.025537,4248.717845,4238.974255,4227.179384,4186.666564,2637.948653,4298.974254,4238.974255,4256.410152,4235.384512,4246.153742
3,0,4222.051179,4222.051179,4221.025538,4225.128102,4238.461435,4242.563999,4222.051179,4185.128103,2630.769166,4309.743484,4225.128102,4245.640922,4229.230666,4234.871691
4,0,4206.153743,4211.281948,4210.769128,4216.410153,4241.538358,4240.512717,4222.051179,4183.589641,2653.846089,4273.846049,4210.256307,4230.256307,4229.230666,4225.128102
5,0,4209.743487,4216.410153,4215.897333,4222.051179,4243.58964,4233.33323,4224.102461,4183.589641,2695.384549,4263.076819,4217.435794,4234.358871,4230.256307,4230.769127
6,0,4215.897333,4216.922974,4227.692204,4232.820409,4233.33323,4233.33323,4225.128102,4185.640923,2723.589677,4300.512715,4214.358871,4246.153742,4222.563999,4234.358871
7,0,4208.717846,4217.948615,4230.256307,4230.769127,4234.871691,4241.538358,4225.128102,4184.102462,2749.230702,4313.846048,4208.205025,4243.076819,4215.384512,4230.769127
8,0,4208.205025,4218.974256,4220.512717,4226.666563,4233.84605,4245.640922,4226.153743,4181.025539,2778.461471,4290.769126,4220.512717,4233.33323,4212.307589,4226.666563
9,0,4211.794769,4211.794769,4216.410153,4228.717845,4228.205025,4245.640922,4229.230666,4191.281949,2801.025573,4276.922972,4226.153743,4236.922973,4217.948615,4229.230666
10,0,4206.153743,4208.205025,4223.07682,4232.820409,4242.051178,4242.051178,4231.281948,4201.538359,2839.999931,4287.179382,4214.871692,4244.615281,4226.153743,4232.307589
11,0,4206.153743,4217.948615,4226.153743,4233.84605,4244.615281,4237.435794,4231.281948,4191.281949,2913.333262,4294.87169,4223.07682,4242.051178,4228.205025,4232.820409
12,0,4212.82041,4221.025538,4225.640922,4229.743486,4228.205025,4236.922973,4225.128102,4174.871693,2965.128133,4276.410152,4236.410153,4236.410153,4221.538358,4229.230666
13,0,4214.871692,4210.769128,4231.794768,4230.769127,4227.692204,4236.922973,4219.487076,4172.30759,2972.82044,4258.461434,4226.666563,4235.384512,4216.410153,4226.666563
14,0,4216.922974,4210.256307,4230.256307,4236.410153,4237.948614,4237.948614,4217.948615,4172.30759,2987.692235,4282.051177,4213.33323,4236.410153,4222.563999,4231.794768
15,0,4218.974256,4215.384512,4221.025538,4229.230666,4233.33323,4245.128101,4216.922974,4167.179385,3005.128132,4302.563997,4223.58964,4233.33323,4233.84605,4236.410153
16,0,4216.410153,4211.794769,4221.025538,4217.948615,4226.666563,4247.179383,4219.999897,4170.769129,3013.33326,4278.974254,4235.897332,4230.256307,4231.281948,4233.84605
17,0,4226.153743,4219.999897,4235.897332,4229.230666,4239.487076,4245.128101,4229.230666,4185.640923,3041.538387,4268.205024,4235.897332,4239.487076,4217.948615,4239.999896
18,0,4234.871691,4227.692204,4237.948614,4240.512717,4237.435794,4243.58964,4227.179384,4185.128103,3063.076848,4278.974254,4232.307589,4243.58964,4216.410153,4248.205024
19,0,4218.974256,4212.82041,4223.07682,4231.794768,4214.871692,4237.948614,4214.871692,4166.666565,3044.61531,4285.1281,4230.769127,4227.692204,4219.487076,4238.974255
20,0,4211.794769,4204.615282,4221.025538,4224.615281,4219.999897,4236.922973,4219.999897,4169.230667,3036.410182,4283.076818,4234.358871,4222.563999,4214.358871,4231.794768
21,0,4225.640922,4218.461435,4230.769127,4232.820409,4247.179383,4250.256306,4233.33323,4186.666564,3066.666592,4261.538357,4226.666563,4231.794768,4216.410153,4235.897332
22,0,4229.743486,4218.974256,4230.769127,4236.410153,4246.153742,4258.461434,4236.922973,4189.743487,3102.564027,4252.820409,4222.563999,4234.871691,4228.717845,4236.922973
23,0,4218.974256,4203.07682,4222.563999,4223.58964,4228.205025,4254.871691,4231.281948,4182.564,3120.512744,4288.205023,4228.205025,4230.769127,4231.794768,4237.948614
24,0,4213.33323,4197.435795,4215.897333,4213.33323,4215.897333,4242.563999,4215.897333,4168.205026,3116.41018,4274.35887,4219.999897,4224.615281,4222.051179,4236.410153
25,0,4213.33323,4202.564,4212.307589,4218.974256,4201.538359,4232.820409,4207.692205,4157.948616,3102.564027,4216.410153,4203.07682,4213.846051,4214.871692,4227.179384
26,0,4213.33323,4198.974256,4213.33323,4219.487076,4201.025538,4236.410153,4214.358871,4164.615283,3108.717873,4245.640922,4209.743487,4216.922974,4212.82041,4228.205025
27,0,4216.922974,4190.769128,4217.435794,4213.846051,4219.487076,4244.10246,4215.897333,4169.230667,3127.179411,4298.974254,4228.205025,4229.743486,4213.33323,4234.358871
28,0,4218.461435,4196.922974,4217.435794,4216.410153,4221.538358,4245.640922,4212.307589,4163.589642,3123.589667,4257.948614,4229.743486,4227.179384,4216.410153,4231.794768
29,0,4211.281948,4199.999897,4209.230666,4214.358871,4201.538359,4244.10246,4214.358871,4164.102462,3175.897358,4208.205025,4223.07682,4215.897333,4216.922974,4227.692204
30,0,4208.205025,4190.769128,4204.102461,4209.743487,4198.974256,4246.666563,4214.871692,4168.717847,3330.256329,4228.205025,4215.384512,4214.871692,4213.33323,4225.640922
31,0,4215.384512,4199.487077,4211.794769,4214.358871,4217.435794,4251.281947,4216.922974,4172.30759,3442.051198,4265.128101,4222.051179,4226.666563,4219.487076,4234.871691
32,0,4217.948615,4213.33323,4217.948615,4215.897333,4221.025538,4252.307588,4221.538358,4171.281949,3431.794788,4278.974254,4235.384512,4230.769127,4226.153743,4245.128101
33,0,4215.897333,4204.615282,4216.922974,4222.051179,4215.384512,4255.384511,4221.025538,4172.30759,3403.07684,4267.179383,4235.897332,4226.666563,4219.999897,4239.487076
34,0,4222.563999,4198.461436,4216.922974,4230.769127,4219.487076,4262.051178,4224.102461,4178.461436,3409.743506,4248.205024,4230.256307,4228.205025,4214.358871,4237.435794
35,0,4225.640922,4202.564,4214.871692,4224.615281,4219.487076,4261.025537,4227.692204,4173.846052,3393.846071,4256.410152,4233.33323,4231.794768,4218.461435,4248.205024
36,0,4224.615281,4201.538359,4216.922974,4214.358871,4218.974256,4256.410152,4229.743486,4172.30759,3377.435815,4270.769126,4242.051178,4233.33323,4223.07682,4250.256306
37,0,4230.769127,4206.153743,4226.666563,4218.461435,4230.769127,4263.076819,4232.307589,4184.615282,3451.794787,4254.35887,4240.512717,4234.871691,4225.640922,4247.692204
38,0,4228.205025,4209.230666,4224.102461,4223.07682,4226.666563,4264.61528,4224.615281,4177.435795,3577.94863,4257.435793,4236.410153,4233.84605,4224.615281,4248.205024
39,0,4217.435794,4205.640923,4212.82041,4220.512717,4211.794769,4257.435793,4216.922974,4163.589642,3636.922988,4276.922972,4239.487076,4232.820409,4220.512717,4246.153742
40,0,4223.07682,4205.128102,4222.563999,4229.230666,4213.846051,4259.999896,4227.179384,4176.922975,3620.512732,4268.205024,4253.84605,4239.999896,4223.58964,4251.794768
41,0,4234.358871,4207.692205,4230.769127,4230.769127,4221.538358,4265.640921,4231.281948,4183.076821,3617.948629,4273.846049,4265.128101,4240.512717,4230.769127,4258.461434
42,0,4229.230666,4202.051179,4222.051179,4219.487076,4215.384512,4263.076819,4217.948615,4166.666565,3634.358885,4273.333229,4253.84605,4231.794768,4227.692204,4249.743486
43,0,4224.615281,4201.025538,4220.512717,4226.153743,4214.358871,4259.999896,4216.410153,4166.153744,3638.461449,4242.051178,4241.025537,4230.769127,4225.640922,4245.640922
44,0,4230.256307,4206.153743,4226.153743,4235.384512,4221.538358,4261.025537,4219.999897,4171.79477,3635.897347,4256.410152,4248.717845,4229.230666,4232.820409,4253.333229
45,0,4227.692204,4194.871692,4218.461435,4220.512717,4210.256307,4258.974255,4212.307589,4163.589642,3632.820424,4275.384511,4240.512717,4221.025538,4229.230666,4250.769127
46,0,4222.051179,4188.717846,4212.82041,4217.435794,4202.564,4259.999896,4214.871692,4165.128103,3644.102475,4239.487076,4224.102461,4226.666563,4219.999897,4248.717845
47,0,4231.281948,4207.692205,4224.102461,4231.794768,4218.461435,4266.153742,4226.153743,4173.846052,3655.897346,4251.794768,4253.84605,4244.615281,4228.205025,4261.538357
48,0,4239.487076,4218.461435,4229.743486,4220.512717,4223.07682,4267.179383,4223.07682,4167.179385,3650.256321,4293.846049,4273.846049,4248.205024,4234.358871,4266.666562
49,0,4232.820409,4210.769128,4221.538358,4214.358871,4210.769128,4262.051178,4216.410153,4164.102462,3653.333244,4249.743486,4250.256306,4244.615281,4229.743486,4261.538357
50,0,4229.743486,4213.846051,4217.948615,4234.871691,4217.435794,4267.179383,4227.179384,4176.410154,3668.205039,4222.051179,4256.922973,4249.743486,4234.358871,4264.61528
51,0,4231.794768,4213.33323,4218.974256,4232.820409,4221.025538,4276.410152,4234.871691,4176.922975,3671.281962,4259.999896,4268.717844,4246.153742,4232.307589,4263.589639
52,0,4226.153743,4198.461436,4215.897333,4217.948615,4209.743487,4272.820408,4226.153743,4165.640924,3671.794782,4265.128101,4230.256307,4232.307589,4214.871692,4252.820409
53,0,4225.128102,4198.974256,4211.794769,4216.922974,4211.794769,4265.128101,4216.922974,4163.589642,3685.640936,4241.538358,4213.846051,4226.153743,4218.461435,4255.384511
54,0,4233.33323,4209.743487,4215.384512,4217.435794,4218.461435,4265.128101,4220.512717,4168.717847,3699.99991,4239.487076,4253.333229,4233.33323,4234.871691,4265.128101
55,0,4235.897332,4211.281948,4216.922974,4225.640922,4216.922974,4266.153742,4226.153743,4169.743488,3707.179397,4243.58964,4269.743485,4239.999896,4232.820409,4265.128101
56,0,4233.33323,4210.256307,4214.358871,4235.384512,4214.871692,4262.563998,4221.025538,4166.153744,3704.102474,4237.948614,4253.84605,4236.922973,4225.640922,4262.563998
57,0,4232.820409,4205.640923,4215.897333,4219.487076,4212.82041,4266.666562,4214.358871,4162.564001,3696.410166,4239.487076,4254.871691,4237.435794,4228.205025,4262.563998
58,0,4235.384512,4202.051179,4218.461435,4210.769128,4215.384512,4279.999895,4222.563999,4167.179385,3702.564012,4245.128101,4255.384511,4247.179383,4228.717845,4263.076819
59,0,4237.435794,4202.051179,4217.435794,4230.769127,4215.897333,4289.230664,4233.84605,4172.820411,3715.384525,4252.820409,4247.692204,4248.717845,4223.58964,4264.61528
60,0,4228.205025,4192.30759,4212.82041,4232.307589,4201.025538,4289.743485,4230.769127,4165.640924,3717.435807,4252.307588,4243.58964,4237.948614,4215.897333,4259.487075
61,0,4217.435794,4185.640923,4212.82041,4212.307589,4198.974256,4289.230664,4226.153743,4167.179385,3722.051191,4224.102461,4241.538358,4236.922973,4215.384512,4254.871691
62,0,4225.128102,4192.82041,4217.948615,4212.82041,4212.307589,4294.358869,4232.820409,4182.05118,3732.820422,4222.051179,4266.153742,4253.84605,4223.58964,4265.640921
63,0,4236.410153,4197.948615,4220.512717,4223.58964,4206.153743,4292.820408,4231.794768,4183.589641,3742.564011,4244.10246,4290.769126,4266.153742,4229.743486,4274.87169
64,0,4233.33323,4197.948615,4217.948615,4225.640922,4196.410154,4283.076818,4219.999897,4171.79477,3750.256319,4244.10246,4268.717844,4255.384511,4232.307589,4268.205024
65,0,4219.487076,4190.769128,4212.82041,4219.999897,4205.640923,4285.1281,4217.435794,4164.615283,3758.461447,4239.999896,4247.179383,4236.410153,4226.153743,4260.512716
66,0,4213.846051,4185.640923,4214.871692,4214.358871,4209.230666,4293.333228,4218.974256,4165.640924,3766.153754,4245.640922,4264.10246,4238.461435,4220.512717,4258.974255
67,0,4224.615281,4198.974256,4218.974256,4220.512717,4202.051179,4288.205023,4216.410153,4168.717847,3771.281959,4242.563999,4266.666562,4247.692204,4225.128102,4262.563998
68,0,4235.897332,4213.846051,4220.512717,4236.922973,4207.692205,4287.179382,4223.07682,4173.333231,3775.384523,4237.435794,4262.563998,4249.230665,4235.384512,4275.897331
69,0,4224.102461,4199.487077,4217.435794,4234.871691,4203.07682,4291.281946,4225.128102,4165.640924,3769.743498,4230.256307,4270.769126,4244.615281,4233.84605,4277.948613
70,0,4209.230666,4184.615282,4212.82041,4216.922974,4181.538359,4284.102459,4212.82041,4156.410155,3767.179395,4202.051179,4258.461434,4238.974255,4218.461435,4263.589639
71,0,4221.538358,4197.948615,4218.974256,4219.999897,4191.794769,4285.1281,4217.948615,4168.717847,3788.205036,4215.384512,4273.846049,4250.256306,4218.974256,4271.281947
72,0,4236.410153,4212.307589,4232.307589,4224.102461,4223.07682,4298.461433,4233.84605,4177.948616,3788.205036,4266.153742,4320.512715,4266.666562,4232.307589,4291.794767
73,0,4233.33323,4206.666564,4232.307589,4222.563999,4218.461435,4295.38451,4227.692204,4170.769129,3748.205037,4250.256306,4311.281946,4259.999896,4228.205025,4286.666562
74,0,4225.640922,4197.435795,4221.538358,4239.487076,4199.999897,4287.179382,4219.487076,4167.692206,3738.461447,4207.179384,4262.051178,4246.666563,4213.846051,4274.35887
75,0,4223.58964,4203.589641,4218.974256,4246.153742,4199.999897,4291.281946,4223.07682,4169.230667,3770.256318,4215.384512,4260.512716,4246.666563,4218.974256,4278.461434
76,0,4219.999897,4211.281948,4217.948615,4221.538358,4188.717846,4290.769126,4218.461435,4156.922975,3777.435805,4238.974255,4281.538357,4237.948614,4221.538358,4274.87169
77,0,4212.307589,4212.82041,4211.794769,4197.435795,4190.256308,4290.769126,4215.384512,4152.820411,3772.3076,4218.461435,4272.820408,4228.717845,4207.692205,4263.076819
78,0,4209.230666,4194.358872,4213.33323,4203.07682,4208.205025,4292.820408,4217.435794,4164.102462,3789.230677,4187.179385,4268.717844,4236.410153,4202.051179,4261.538357
79,0,4214.358871,4189.230667,4221.538358,4224.615281,4204.102461,4283.076818,4213.846051,4163.589642,3799.487087,4205.640923,4281.025536,4236.922973,4205.640923,4262.051178
80,0,4216.922974,4233.84605,4213.33323,4247.692204,4205.128102,4277.948613,4217.435794,4157.948616,3801.538369,4248.205024,4262.563998,4224.102461,4217.948615,4263.076819
81,0,4203.07682,4216.410153,4194.871692,4218.974256,4211.281948,4281.538357,4214.358871,4159.487078,3813.33324,4251.794768,4265.640921,4218.461435,4218.974256,4263.076819
82,0,4183.076821,4104.102464,4203.589641,4153.846052,4175.897334,4276.922972,4196.410154,4149.743488,3815.384522,4203.589641,4308.205023,4215.384512,4186.153744,4246.153742
83,0,4184.102462,4124.102463,4219.487076,4172.30759,4167.692206,4279.999895,4203.589641,4147.179386,3811.281958,4189.743487,4287.692203,4214.871692,4177.948616,4236.922973
84,0,4199.999897,4288.717844,4209.230666,4228.205025,4233.84605,4302.051177,4234.358871,4173.333231,3824.102471,4237.435794,4241.025537,4226.153743,4229.230666,4262.051178
85,0,4203.589641,4336.41015,4193.333231,4215.897333,4266.153742,4311.281946,4241.025537,4185.640923,3842.564009,4259.487075,4274.87169,4231.281948,4262.563998,4279.487075
86,0,4193.333231,4265.640921,4197.435795,4195.384513,4239.999896,4301.025536,4229.230666,4171.281949,3844.10247,4248.205024,4315.38451,4219.999897,4244.10246,4263.076819
87,0,4187.692205,4257.435793,4204.615282,4221.538358,4233.33323,4297.435792,4234.358871,4169.743488,3845.128111,4251.281947,4295.38451,4216.410153,4240.512717,4261.025537
88,0,4186.153744,4264.61528,4198.461436,4218.461435,4234.358871,4298.461433,4233.84605,4173.846052,3855.384521,4249.743486,4290.769126,4224.102461,4252.307588,4275.384511
89,0,4190.256308,4217.435794,4198.461436,4194.871692,4223.58964,4292.307587,4216.922974,4167.179385,3868.205034,4229.743486,4326.15374,4225.640922,4245.640922,4272.820408
90,0,4205.640923,4213.33323,4210.769128,4222.563999,4232.820409,4289.230664,4222.051179,4170.769129,3881.025546,4245.128101,4338.461432,4231.281948,4254.871691,4279.999895
91,0,4208.717846,4243.58964,4213.33323,4235.897332,4240.512717,4294.358869,4232.820409,4175.384513,3891.281956,4259.999896,4319.999894,4233.84605,4275.384511,4291.794767
92,0,4190.769128,4222.051179,4196.922974,4214.358871,4228.205025,4291.794767,4219.999897,4158.974257,3890.769136,4225.128102,4299.999895,4215.384512,4265.128101,4272.307588
93,0,4194.358872,4203.07682,4197.435795,4218.461435,4243.076819,4290.256305,4216.410153,4155.384514,3890.769136,4226.153743,4327.692202,4216.410153,4257.948614,4266.153742
94,0,4214.358871,4215.384512,4214.358871,4234.358871,4249.743486,4293.333228,4226.666563,4167.692206,3902.564007,4260.512716,4355.897329,4233.33323,4268.205024,4283.076818
95,0,4212.307589,4205.128102,4214.358871,4233.33323,4224.102461,4289.743485,4221.025538,4162.05118,3913.333238,4245.128101,4334.358868,4223.58964,4258.974255,4276.410152
96,0,4205.640923,4185.128103,4209.743487,4223.58964,4223.07682,4287.179382,4212.307589,4149.230668,3917.435802,4222.563999,4322.563997,4208.717846,4246.153742,4264.10246
97,0,4214.358871,4196.410154,4211.794769,4218.461435,4241.025537,4291.281946,4217.948615,4154.358873,3929.743494,4245.640922,4344.615278,4216.922974,4250.256306,4277.435793
