title:J                                                                               , recorded:01.07.20 13.53.10, sampling:128, subject:J                                                                               , labels:COUNTER INTERPOLATED AF3 F7 F3 FC5 T7 P7 O1 O2 P8 T8 FC6 F4 F8 AF4, chan:37, units:emotiv,,,,,,,,,
109,0,3954.871698,3959.487083,3941.538365,3912.820417,3953.846057,3953.846057,3952.820416,3962.564006,3957.435801,3959.487083,3963.589647,3971.794775,3954.871698,3956.41016
110,0,3959.999903,3970.256313,3953.333237,3927.179391,3960.512724,3952.820416,3961.025544,3970.256313,3960.512724,3962.051185,3971.794775,3974.871698,3959.487083,3960.512724
111,0,3960.512724,3968.717852,3950.769134,3927.692212,3948.717852,3950.256314,3954.358878,3967.692211,3958.461442,3961.025544,3961.025544,3971.281954,3957.948621,3958.461442
112,0,3954.358878,3963.076826,3944.615288,3923.589648,3943.076827,3950.769134,3952.307596,3959.487083,3955.897339,3959.999903,3959.999903,3971.794775,3956.92298,3955.384519
113,0,3957.435801,3970.769134,3952.820416,3925.64093,3963.076826,3953.846057,3956.92298,3958.974262,3956.41016,3958.974262,3973.333236,3974.358877,3959.487083,3963.076826
114,0,3971.794775,3979.487082,3959.487083,3924.615289,3970.256313,3952.307596,3953.846057,3959.999903,3957.435801,3963.076826,3976.92298,3973.846057,3970.256313,3967.692211
115,0,3972.307595,3972.307595,3954.358878,3922.564007,3954.871698,3948.717852,3948.205032,3957.948621,3955.897339,3958.974262,3964.615288,3973.333236,3972.820416,3959.999903
116,0,3963.589647,3966.66657,3953.846057,3928.205032,3963.076826,3951.794775,3955.897339,3957.435801,3955.384519,3951.794775,3958.461442,3975.384518,3962.051185,3958.461442
117,0,3955.384519,3963.076826,3951.281955,3924.102468,3975.897339,3956.92298,3959.487083,3949.743493,3950.256314,3944.615288,3955.384519,3967.692211,3954.871698,3957.435801
118,0,3945.640929,3955.384519,3941.538365,3909.230674,3961.538365,3956.92298,3950.256314,3939.999904,3943.589647,3942.051186,3951.281955,3955.384519,3953.846057,3942.564006
119,0,3949.230673,3964.102467,3946.15375,3905.12811,3954.871698,3955.384519,3953.333237,3952.307596,3952.820416,3946.15375,3952.307596,3961.025544,3956.92298,3942.051186
120,0,3959.999903,3976.410159,3955.897339,3908.205033,3956.41016,3951.281955,3958.461442,3960.512724,3960.512724,3941.538365,3955.897339,3973.333236,3959.999903,3957.948621
121,0,3959.487083,3973.333236,3957.435801,3909.230674,3951.794775,3949.743493,3950.769134,3947.692211,3953.333237,3945.128109,3961.025544,3973.333236,3961.025544,3960.512724
122,0,3964.615288,3970.769134,3957.435801,3907.179392,3958.461442,3954.871698,3951.281955,3948.717852,3952.820416,3958.461442,3969.230672,3971.794775,3961.538365,3956.41016
123,0,3975.384518,3973.846057,3957.948621,3912.820417,3963.589647,3956.92298,3958.974262,3959.999903,3958.974262,3948.205032,3969.230672,3974.871698,3961.538365,3959.487083
124,0,3965.640929,3965.640929,3958.461442,3923.589648,3955.384519,3952.820416,3950.256314,3955.384519,3956.92298,3937.435801,3958.461442,3972.820416,3963.589647,3959.999903
125,0,3953.846057,3953.333237,3957.948621,3926.15375,3951.281955,3950.769134,3938.461442,3948.205032,3954.358878,3950.256314,3956.41016,3968.205031,3962.564006,3957.948621
126,0,3964.615288,3963.589647,3957.435801,3922.051186,3961.025544,3955.384519,3949.230673,3953.846057,3958.461442,3956.92298,3966.153749,3968.205031,3962.564006,3957.948621
127,0,3969.230672,3974.358877,3956.41016,3921.538366,3967.17939,3959.487083,3962.564006,3959.487083,3959.999903,3954.358878,3971.794775,3969.230672,3966.153749,3959.487083
128,0,3961.538365,3970.769134,3956.41016,3926.15375,3962.051185,3957.435801,3958.461442,3958.461442,3957.948621,3956.41016,3970.256313,3971.281954,3966.66657,3962.051185
0,0,3960.512724,3969.743493,3954.871698,3925.128109,3954.871698,3956.41016,3953.846057,3955.897339,3956.92298,3956.41016,3965.640929,3970.256313,3962.051185,3959.999903
1,0,3964.102467,3973.846057,3957.435801,3927.692212,3964.102467,3959.999903,3957.435801,3956.41016,3958.974262,3963.589647,3961.025544,3969.230672,3966.153749,3958.974262
2,0,3970.769134,3972.820416,3962.051185,3933.846058,3975.384518,3957.948621,3961.025544,3960.512724,3961.538365,3969.230672,3960.512724,3974.871698,3975.897339,3967.17939
3,0,3970.769134,3968.205031,3957.435801,3930.769135,3964.102467,3954.358878,3957.435801,3958.974262,3958.974262,3953.333237,3963.589647,3973.846057,3969.230672,3966.66657
4,0,3963.589647,3967.692211,3953.846057,3925.64093,3952.820416,3955.897339,3953.846057,3955.384519,3955.897339,3947.179391,3969.230672,3967.692211,3962.051185,3956.41016
5,0,3962.564006,3971.281954,3955.384519,3926.15375,3957.435801,3956.92298,3954.871698,3955.897339,3955.897339,3958.974262,3971.794775,3970.769134,3969.743493,3958.461442
6,0,3970.256313,3969.230672,3955.897339,3927.179391,3959.999903,3956.41016,3958.974262,3956.41016,3956.92298,3959.999903,3971.281954,3975.897339,3973.333236,3968.205031
7,0,3970.256313,3961.538365,3954.358878,3924.102468,3952.820416,3956.92298,3962.051185,3959.999903,3958.461442,3957.435801,3970.256313,3969.743493,3970.256313,3966.66657
8,0,3973.846057,3962.051185,3954.358878,3920.512725,3948.205032,3956.92298,3957.435801,3957.948621,3958.461442,3952.820416,3969.230672,3968.717852,3973.333236,3970.256313
9,0,3994.871697,3972.820416,3956.41016,3920.512725,3943.076827,3951.794775,3950.256314,3949.743493,3954.871698,3942.564006,3971.794775,3977.4358,3986.153749,3991.794774
10,0,4019.487081,3988.717851,3967.17939,3931.794776,3937.948622,3951.281955,3949.743493,3946.66657,3951.794775,3942.564006,3982.051185,3986.666569,3999.487082,4014.358876
11,0,4047.179388,4007.179389,3982.564005,3948.205032,3949.743493,3950.256314,3947.692211,3947.179391,3952.307596,3947.692211,3997.4358,3998.974261,4012.307594,4040.512722
12,0,4078.974259,4023.589645,3993.333236,3955.897339,3966.66657,3951.794775,3946.15375,3950.256314,3954.871698,3949.743493,4012.307594,4014.871697,4032.307594,4077.948618
13,0,4098.974259,4034.871696,3999.999902,3963.589647,3966.153749,3954.871698,3953.846057,3954.871698,3956.41016,3947.179391,4017.435799,4024.102466,4048.71785,4103.076823
14,0,4103.076823,4035.384517,4003.589646,3976.410159,3953.846057,3952.307596,3953.846057,3955.384519,3954.358878,3940.512724,4012.820415,4023.076825,4050.256311,4103.589643
15,0,4101.025541,4031.281953,4003.589646,3979.999903,3955.384519,3950.769134,3944.615288,3953.333237,3952.820416,3941.538365,4014.871697,4022.564004,4047.692209,4100.51272
16,0,4096.922977,4032.307594,4002.051184,3970.769134,3963.076826,3953.333237,3948.717852,3958.974262,3957.948621,3956.92298,4024.102466,4024.102466,4048.71785,4101.538361
17,0,4079.48708,4022.564004,3993.333236,3959.999903,3940.512724,3950.769134,3950.256314,3959.999903,3958.974262,3955.897339,4016.922979,4014.358876,4039.487081,4088.205028
18,0,4056.922978,3996.410159,3981.538364,3955.384519,3920.512725,3949.743493,3939.999904,3953.333237,3952.307596,3938.461442,4000.512723,4001.025543,4023.076825,4067.692208
19,0,4048.205029,3993.333236,3985.128108,3957.948621,3947.692211,3956.92298,3948.717852,3962.564006,3954.358878,3947.179391,4005.128107,4005.128107,4018.46144,4061.538362
20,0,4041.538363,4003.589646,3990.256313,3956.92298,3974.871698,3959.487083,3962.564006,3973.333236,3961.025544,3962.051185,4006.666569,4007.69221,4016.410158,4058.97426
21,0,4025.128107,3988.205031,3978.974262,3960.512724,3957.948621,3953.333237,3958.974262,3970.769134,3959.999903,3954.358878,3989.230672,3994.871697,4005.128107,4039.487081
22,0,4008.717851,3972.820416,3969.743493,3965.640929,3941.538365,3952.820416,3955.384519,3966.153749,3956.92298,3951.794775,3981.025544,3985.128108,3993.333236,4018.974261
23,0,3994.871697,3972.307595,3972.307595,3952.820416,3947.179391,3954.358878,3958.974262,3963.076826,3957.948621,3959.487083,3983.589646,3980.512723,3990.769133,4008.717851
24,0,3979.999903,3964.615288,3969.743493,3939.487083,3950.769134,3958.974262,3958.461442,3961.538365,3958.974262,3952.307596,3979.999903,3972.820416,3988.205031,3996.922979
25,0,3971.281954,3952.307596,3957.435801,3941.538365,3943.076827,3961.538365,3957.435801,3965.640929,3958.974262,3943.589647,3966.66657,3968.205031,3977.4358,3982.051185
26,0,3972.307595,3956.41016,3956.92298,3946.15375,3934.871699,3957.435801,3957.948621,3971.794775,3959.999903,3955.384519,3961.538365,3969.743493,3970.256313,3976.92298
27,0,3967.17939,3957.948621,3961.025544,3946.66657,3949.743493,3958.461442,3957.948621,3972.307595,3959.487083,3959.487083,3967.692211,3969.230672,3972.820416,3974.358877
28,0,3954.871698,3945.640929,3953.846057,3944.615288,3973.333236,3964.615288,3959.487083,3973.333236,3960.512724,3948.205032,3965.128108,3963.589647,3974.871698,3962.564006
29,0,3954.358878,3940.512724,3952.820416,3944.615288,3970.769134,3966.153749,3959.999903,3973.333236,3963.589647,3948.717852,3955.897339,3958.974262,3970.769134,3955.897339
30,0,3958.974262,3944.102468,3957.948621,3949.743493,3956.92298,3961.025544,3957.948621,3972.307595,3963.076826,3961.538365,3955.384519,3958.974262,3966.66657,3959.999903
31,0,3949.230673,3943.589647,3949.230673,3948.717852,3952.307596,3957.435801,3956.92298,3965.640929,3957.948621,3958.461442,3948.717852,3952.820416,3959.999903,3951.794775
32,0,3939.487083,3939.999904,3942.051186,3939.487083,3956.92298,3959.999903,3957.435801,3957.435801,3954.871698,3945.640929,3939.999904,3929.743494,3955.897339,3939.999904
33,0,3946.66657,3942.051186,3954.358878,3944.615288,3957.435801,3963.076826,3958.974262,3966.153749,3958.461442,3948.717852,3951.281955,3910.256315,3961.025544,3946.15375
34,0,3946.15375,3943.076827,3954.358878,3947.179391,3948.205032,3957.948621,3959.999903,3972.307595,3959.487083,3956.41016,3953.333237,3906.666571,3963.076826,3949.743493
35,0,3938.974263,3941.538365,3942.564006,3942.051186,3947.692211,3956.41016,3957.435801,3965.640929,3959.487083,3952.307596,3945.128109,3908.717853,3958.461442,3941.025545
36,0,3943.589647,3938.974263,3948.717852,3946.15375,3961.025544,3965.128108,3957.948621,3969.230672,3960.512724,3947.179391,3946.15375,3908.717853,3956.41016,3939.487083
37,0,3946.15375,3942.051186,3959.999903,3947.179391,3969.230672,3968.717852,3965.128108,3976.410159,3958.974262,3947.179391,3942.564006,3912.307597,3959.487083,3945.128109
38,0,3947.179391,3955.897339,3957.948621,3948.717852,3971.281954,3966.153749,3967.17939,3973.846057,3961.538365,3957.948621,3944.615288,3922.564007,3966.153749,3952.307596
39,0,3952.820416,3958.461442,3954.358878,3957.948621,3971.794775,3966.66657,3961.538365,3973.333236,3965.640929,3969.743493,3959.999903,3925.64093,3970.256313,3954.871698
40,0,3950.256314,3946.66657,3957.948621,3962.564006,3962.051185,3966.66657,3957.948621,3977.4358,3963.076826,3966.66657,3962.564006,3924.615289,3965.128108,3945.640929
41,0,3940.512724,3939.487083,3957.435801,3955.384519,3953.846057,3964.102467,3958.461442,3973.333236,3957.435801,3955.897339,3952.820416,3924.615289,3954.871698,3939.999904
42,0,3940.512724,3942.564006,3948.205032,3946.15375,3961.025544,3965.640929,3959.999903,3972.820416,3958.974262,3958.461442,3954.358878,3923.076827,3955.384519,3944.102468
43,0,3942.564006,3940.512724,3945.128109,3943.589647,3961.025544,3963.589647,3957.948621,3973.846057,3961.538365,3959.999903,3954.871698,3922.051186,3958.461442,3943.076827
44,0,3937.948622,3933.333237,3952.820416,3952.307596,3951.794775,3958.461442,3955.897339,3968.205031,3959.487083,3947.692211,3946.66657,3922.564007,3955.384519,3938.461442
45,0,3941.538365,3937.948622,3955.384519,3959.487083,3962.051185,3961.025544,3958.974262,3968.717852,3957.948621,3946.66657,3938.461442,3925.64093,3954.871698,3940.512724
46,0,3944.615288,3945.640929,3946.66657,3948.717852,3976.92298,3966.153749,3959.999903,3971.281954,3958.974262,3956.92298,3941.538365,3923.589648,3957.948621,3941.538365
47,0,3931.794776,3935.384519,3932.307596,3938.461442,3964.102467,3964.102467,3954.871698,3963.076826,3958.974262,3956.92298,3941.025545,3913.333238,3955.897339,3930.769135
48,0,3921.025545,3921.538366,3928.205032,3941.025545,3949.743493,3964.102467,3954.871698,3961.025544,3956.92298,3949.743493,3927.179391,3907.692212,3952.307596,3921.538366
49,0,3926.666571,3933.333237,3936.41016,3954.358878,3959.487083,3968.205031,3961.025544,3976.92298,3958.461442,3949.230673,3935.384519,3914.358879,3957.948621,3927.692212
50,0,3927.692212,3939.999904,3933.846058,3958.461442,3962.564006,3969.230672,3958.974262,3975.384518,3959.487083,3943.076827,3943.076827,3913.846058,3953.333237,3930.256314
51,0,3919.487084,3926.666571,3924.615289,3946.15375,3953.846057,3966.66657,3954.358878,3959.487083,3957.948621,3939.999904,3926.15375,3908.205033,3942.051186,3921.538366
52,0,3919.487084,3932.307596,3932.820417,3939.487083,3956.92298,3964.615288,3956.41016,3965.128108,3958.974262,3954.871698,3930.256314,3921.025545,3948.717852,3922.051186
53,0,3926.15375,3945.640929,3943.076827,3950.769134,3964.615288,3964.102467,3958.461442,3970.769134,3959.999903,3952.307596,3948.205032,3929.230673,3960.512724,3929.743494
54,0,3926.15375,3938.461442,3940.512724,3961.538365,3960.512724,3966.153749,3957.948621,3962.051185,3958.461442,3939.999904,3938.974263,3919.999904,3956.92298,3926.15375
55,0,3926.15375,3941.025545,3938.974263,3957.435801,3953.846057,3965.128108,3957.435801,3963.076826,3956.41016,3954.358878,3931.281955,3928.205032,3952.307596,3920.512725
56,0,3935.384519,3962.051185,3944.102468,3963.589647,3967.692211,3965.640929,3961.025544,3973.846057,3960.512724,3964.102467,3946.66657,3921.025545,3959.999903,3925.128109
57,0,3939.999904,3964.102467,3946.66657,3970.769134,3980.512723,3969.230672,3967.692211,3977.4358,3966.153749,3945.128109,3961.025544,3852.820419,3962.564006,3929.743494
58,0,3928.205032,3952.307596,3941.538365,3961.538365,3962.051185,3968.205031,3968.717852,3972.820416,3965.640929,3944.615288,3956.92298,3793.333241,3956.41016,3924.615289
59,0,3921.538366,3955.384519,3941.025545,3950.256314,3954.871698,3968.717852,3969.230672,3971.281954,3967.692211,3964.615288,3943.589647,3803.589651,3955.384519,3922.564007
60,0,3929.743494,3964.615288,3950.256314,3951.794775,3984.615287,3977.948621,3976.410159,3978.461441,3977.4358,3966.153749,3947.179391,3829.230676,3960.512724,3931.794776
61,0,3930.256314,3958.974262,3949.743493,3957.435801,3986.666569,3977.948621,3975.384518,3981.025544,3978.974262,3955.384519,3956.41016,3827.179394,3959.487083,3934.871699
62,0,3927.179391,3956.41016,3946.66657,3958.461442,3959.487083,3969.743493,3964.102467,3973.846057,3971.794775,3957.435801,3941.025545,3830.256317,3957.948621,3927.179391
63,0,3935.89734,3966.153749,3954.871698,3955.897339,3968.717852,3971.794775,3965.640929,3977.948621,3972.307595,3962.564006,3940.512724,3851.281957,3968.205031,3928.205032
64,0,3945.640929,3966.66657,3959.999903,3963.076826,3989.230672,3978.974262,3974.358877,3986.666569,3977.4358,3965.640929,3963.589647,3873.333239,3975.897339,3937.948622
65,0,3950.769134,3966.66657,3960.512724,3977.948621,3980.512723,3976.92298,3973.846057,3981.025544,3975.384518,3972.307595,3961.025544,3889.743495,3974.358877,3937.948622
66,0,3945.640929,3970.256313,3956.41016,3973.846057,3967.692211,3972.820416,3970.256313,3973.333236,3971.281954,3954.358878,3950.769134,3904.615289,3966.66657,3928.205032
67,0,3937.435801,3962.051185,3948.717852,3964.615288,3971.281954,3974.358877,3970.256313,3977.4358,3973.333236,3930.769135,3957.948621,3922.051186,3958.974262,3924.102468
68,0,3938.974263,3954.871698,3948.717852,3970.256313,3977.948621,3975.897339,3970.769134,3984.615287,3975.384518,3948.205032,3951.281955,3935.384519,3956.41016,3925.64093
69,0,3942.051186,3961.538365,3956.92298,3973.333236,3974.871698,3974.358877,3973.333236,3987.17939,3972.820416,3969.743493,3940.512724,3942.564006,3955.384519,3928.205032
70,0,3939.487083,3958.461442,3956.41016,3971.281954,3964.615288,3971.281954,3971.794775,3984.615287,3973.333236,3951.794775,3942.051186,3946.15375,3956.41016,3927.179391
71,0,3938.974263,3955.384519,3952.307596,3973.333236,3959.999903,3972.820416,3966.66657,3984.102467,3977.4358,3937.435801,3943.589647,3948.205032,3965.640929,3927.179391
72,0,3943.589647,3973.846057,3956.41016,3971.281954,3968.205031,3975.384518,3969.743493,3986.153749,3976.410159,3953.333237,3952.307596,3954.871698,3975.384518,3934.358878
73,0,3949.230673,3977.948621,3959.487083,3973.333236,3974.358877,3975.384518,3975.384518,3984.615287,3975.384518,3948.717852,3960.512724,3957.948621,3973.846057,3941.025545
74,0,3954.871698,3965.128108,3956.92298,3977.948621,3968.717852,3974.871698,3974.358877,3985.640928,3981.025544,3919.999904,3957.435801,3957.948621,3973.333236,3941.538365
75,0,3956.41016,3969.230672,3961.025544,3977.4358,3968.717852,3975.897339,3972.820416,3991.794774,3985.640928,3921.025545,3965.128108,3966.66657,3977.4358,3942.051186
76,0,3955.384519,3973.846057,3968.205031,3982.564005,3975.897339,3975.384518,3974.871698,3989.230672,3980.512723,3958.461442,3974.358877,3974.358877,3976.92298,3944.615288
77,0,3958.461442,3963.076826,3966.153749,3984.615287,3973.846057,3973.333236,3972.820416,3975.384518,3971.794775,3976.92298,3964.102467,3971.794775,3971.794775,3944.615288
78,0,3961.538365,3958.974262,3964.615288,3974.871698,3970.769134,3973.333236,3968.205031,3969.743493,3972.307595,3946.15375,3953.846057,3971.794775,3971.281954,3944.102468
79,0,3955.897339,3955.897339,3970.256313,3971.794775,3972.820416,3972.307595,3964.102467,3974.358877,3970.769134,3908.205033,3947.692211,3975.384518,3972.307595,3943.589647
80,0,3950.256314,3946.15375,3970.256313,3976.410159,3971.794775,3970.769134,3957.435801,3971.794775,3961.538365,3914.358879,3939.487083,3971.794775,3971.281954,3940.512724
81,0,3955.384519,3961.025544,3966.153749,3976.410159,3970.256313,3973.846057,3962.051185,3970.769134,3963.589647,3932.307596,3951.794775,3975.384518,3972.307595,3944.615288
82,0,3960.512724,3977.4358,3968.205031,3972.820416,3968.205031,3976.410159,3969.230672,3971.794775,3971.794775,3919.999904,3965.128108,3981.538364,3971.281954,3952.307596
83,0,3955.384519,3965.128108,3970.256313,3978.461441,3965.640929,3971.794775,3959.999903,3968.717852,3968.717852,3893.333238,3948.205032,3974.358877,3968.205031,3952.820416
84,0,3955.384519,3962.564006,3971.281954,3992.820415,3972.820416,3973.846057,3960.512724,3972.820416,3970.769134,3889.743495,3944.615288,3974.358877,3971.281954,3952.307596
85,0,3961.025544,3977.4358,3972.307595,3999.999902,3981.025544,3981.025544,3972.820416,3979.999903,3977.948621,3907.692212,3967.692211,3985.640928,3972.820416,3956.41016
86,0,3961.025544,3978.461441,3973.333236,3995.384518,3975.384518,3978.461441,3965.640929,3972.820416,3971.281954,3926.666571,3971.281954,3986.666569,3969.230672,3959.999903
87,0,3958.974262,3972.820416,3970.769134,3991.281954,3970.256313,3972.307595,3956.41016,3969.230672,3965.128108,3929.230673,3955.897339,3979.999903,3970.256313,3956.92298
88,0,3957.435801,3974.358877,3961.538365,3990.256313,3974.871698,3977.948621,3969.743493,3975.384518,3971.281954,3917.948622,3949.230673,3978.461441,3974.358877,3953.333237
89,0,3958.461442,3974.358877,3962.564006,3998.974261,3974.871698,3979.999903,3973.846057,3974.358877,3971.281954,3910.769135,3951.794775,3976.410159,3974.358877,3955.384519
90,0,3959.487083,3972.307595,3971.794775,4013.333235,3971.281954,3974.871698,3961.025544,3968.205031,3964.615288,3899.487084,3951.794775,3974.871698,3972.820416,3958.461442
91,0,3956.41016,3977.948621,3971.794775,4012.307594,3975.897339,3978.461441,3965.640929,3973.333236,3966.153749,3894.358879,3951.794775,3982.051185,3973.846057,3957.948621
92,0,3956.41016,3983.589646,3971.281954,4002.564005,3985.640928,3981.025544,3974.871698,3985.640928,3978.461441,3907.179392,3957.948621,3990.769133,3971.794775,3957.948621
93,0,3959.487083,3977.948621,3975.897339,4011.281953,3987.69221,3977.948621,3969.230672,3984.102467,3980.512723,3912.820417,3967.17939,3991.281954,3972.820416,3959.999903
94,0,3957.435801,3972.820416,3971.794775,4024.615286,3986.153749,3980.512723,3968.205031,3976.410159,3971.794775,3916.410161,3962.051185,3982.051185,3982.564005,3957.948621
95,0,3955.384519,3979.487082,3966.153749,4019.487081,3985.128108,3984.615287,3977.4358,3984.102467,3977.948621,3908.205033,3949.743493,3975.897339,3984.102467,3956.41016
96,0,3953.333237,3981.538364,3967.692211,4012.820415,3981.025544,3979.999903,3976.92298,3987.69221,3983.076826,3886.153751,3957.948621,3977.948621,3975.897339,3959.487083
97,0,3942.051186,3962.564006,3962.051185,4010.769133,3966.66657,3974.358877,3967.17939,3969.743493,3964.615288,3892.307597,3962.051185,3975.384518,3970.769134,3955.897339
98,0,3935.89734,3956.41016,3954.358878,4014.358876,3962.051185,3976.92298,3968.205031,3963.076826,3957.948621,3926.15375,3945.640929,3970.256313,3973.333236,3950.256314
99,0,3948.717852,3982.564005,3964.102467,4021.538363,3981.538364,3983.076826,3973.846057,3979.999903,3976.92298,3927.179391,3944.102468,3977.948621,3981.538364,3955.897339
100,0,3961.538365,3995.897338,3973.333236,4028.20503,3990.256313,3982.564005,3971.794775,3979.487082,3983.589646,3915.38452,3958.461442,3989.230672,3987.17939,3963.589647
101,0,3958.461442,3978.461441,3967.17939,4030.256312,3974.871698,3978.461441,3968.205031,3971.794775,3977.948621,3908.717853,3963.589647,3986.666569,3974.358877,3959.999903
102,0,3953.333237,3976.92298,3962.051185,4023.589645,3969.230672,3980.512723,3971.281954,3983.589646,3983.076826,3888.717854,3961.538365,3982.051185,3969.230672,3956.41016
103,0,3955.897339,3995.384518,3969.230672,4017.94862,3979.999903,3982.051185,3975.384518,3988.717851,3983.076826,3905.12811,3958.461442,3983.589646,3985.128108,3961.025544
104,0,3956.41016,3992.307595,3971.281954,4024.615286,3977.4358,3975.384518,3972.307595,3971.794775,3969.230672,3921.025545,3955.897339,3983.589646,3983.589646,3961.538365
105,0,3955.897339,3988.205031,3964.615288,4032.820414,3967.17939,3976.410159,3969.230672,3967.17939,3968.717852,3902.564007,3955.897339,3982.564005,3972.820416,3956.92298
106,0,3957.435801,4001.538364,3967.17939,4018.974261,3968.717852,3984.615287,3974.871698,3987.17939,3989.743492,3928.717853,3962.564006,3987.17939,3983.076826,3962.564006
107,0,3956.92298,4003.589646,3974.358877,3986.666569,3974.871698,3984.615287,3981.025544,3992.307595,3996.922979,3964.102467,3967.692211,3990.256313,3991.794774,3973.846057
108,0,3963.076826,3997.94862,3975.384518,3965.128108,3976.410159,3979.487082,3981.538364,3986.153749,3988.717851,3929.743494,3965.640929,3989.743492,3987.69221,3975.384518
109,0,3974.358877,4002.564005,3975.897339,3947.692211,3971.794775,3979.999903,3985.128108,3994.358877,3999.487082,3908.717853,3968.205031,3997.94862,3988.205031,3972.820416
110,0,3978.461441,4010.256312,3977.4358,3930.769135,3974.871698,3983.076826,3986.666569,4001.538364,4009.743492,3941.025545,3974.358877,4005.640928,3991.281954,3975.897339
111,0,3975.384518,4006.153748,3975.897339,3923.589648,3978.974262,3982.051185,3976.410159,3988.205031,3995.897338,3939.999904,3965.640929,3995.897338,3989.743492,3975.384518
112,0,3968.205031,3991.281954,3972.820416,3913.846058,3965.640929,3977.4358,3968.717852,3973.333236,3983.589646,3915.89734,3949.230673,3984.102467,3987.69221,3970.769134
113,0,3968.205031,3993.846056,3974.871698,3897.435802,3961.538365,3977.4358,3973.333236,3982.051185,3989.230672,3929.743494,3956.92298,3991.281954,3985.640928,3973.333236
114,0,3968.717852,4006.153748,3975.384518,3887.179392,3970.256313,3980.512723,3974.871698,3988.205031,3988.205031,3946.15375,3960.512724,3996.410159,3979.999903,3974.871698
115,0,3964.615288,4009.230671,3974.871698,3891.794777,3973.846057,3982.051185,3976.92298,3986.153749,3990.256313,3916.410161,3960.512724,3993.846056,3977.948621,3973.333236
116,0,3963.076826,4010.256312,3971.794775,3892.820418,3974.871698,3987.17939,3987.17939,3992.307595,4001.538364,3907.692212,3977.4358,3996.410159,3984.615287,3972.307595
117,0,3975.897339,4025.640927,3971.794775,3885.12811,3981.538364,3991.794774,3994.871697,3996.410159,4004.102466,3949.743493,3979.487082,3997.4358,3993.333236,3976.92298
118,0,3972.307595,4017.435799,3970.769134,3874.35888,3973.333236,3981.025544,3986.666569,3990.256313,4001.538364,3932.307596,3962.564006,3991.281954,3987.17939,3973.846057
119,0,3955.897339,3998.461441,3962.564006,3877.435803,3956.41016,3975.384518,3973.846057,3986.153749,4005.128107,3900.512725,3957.948621,3988.717851,3975.897339,3963.076826
120,0,3963.076826,4013.846056,3964.102467,3887.692213,3963.076826,3984.102467,3975.897339,3989.743492,4008.717851,3949.743493,3953.846057,3989.230672,3985.640928,3966.153749
121,0,3967.692211,4021.025543,3970.769134,3866.153752,3976.410159,3988.717851,3986.666569,3988.205031,4007.179389,3970.769134,3952.307596,3986.153749,3990.769133,3973.846057
122,0,3962.051185,4011.281953,3973.846057,3870.769136,3982.051185,3988.205031,3990.256313,3991.794774,4010.256312,3932.307596,3967.17939,3990.769133,3983.589646,3973.846057
123,0,3967.17939,4018.974261,3977.4358,3904.615289,3976.410159,3987.17939,3984.102467,3994.871697,4015.384517,3942.564006,3972.820416,3996.922979,3987.69221,3976.410159
124,0,3964.102467,4019.999902,3974.871698,3880.512726,3959.487083,3986.153749,3974.358877,3982.564005,4009.230671,3944.102468,3962.564006,3988.205031,3987.69221,3969.743493
125,0,3949.230673,4007.179389,3968.205031,3839.999906,3952.307596,3982.051185,3971.281954,3973.846057,4000.512723,3916.410161,3958.461442,3983.589646,3973.846057,3955.897339
126,0,3954.871698,4044.615286,3972.820416,3866.666572,3963.589647,3983.589646,3982.051185,3985.640928,4006.153748,3946.66657,3959.999903,3997.4358,3977.948621,3963.076826
127,0,3969.230672,4086.666567,3979.999903,3897.948623,3967.17939,3985.128108,3984.615287,3990.256313,4011.794774,3977.948621,3947.179391,4001.538364,3991.794774,3976.410159
128,0,3972.307595,4054.871696,3986.153749,3870.256316,3963.076826,3983.076826,3976.92298,3984.102467,4007.179389,3948.205032,3948.205032,4000.512723,3987.17939,3976.410159
0,0,3971.794775,4021.538363,3995.384518,3861.538367,3957.948621,3977.948621,3975.897339,3988.205031,4006.666569,3914.871699,3969.743493,4008.717851,3969.230672,3970.769134
1,0,3955.384519,4043.076824,3980.512723,3899.487084,3927.692212,3976.92298,3969.230672,3975.384518,3999.487082,3925.128109,3948.717852,3992.820415,3955.384519,3953.846057
2,0,3957.948621,4103.076823,3974.358877,3922.051186,3943.076827,3990.769133,3980.512723,3976.92298,4006.666569,3948.205032,3951.794775,3992.820415,3975.897339,3963.589647
3,0,3978.461441,4131.794771,3996.410159,3861.025547,3987.69221,3991.281954,3991.281954,4001.025543,4023.076825,3949.230673,3997.94862,4020.512722,3993.333236,3989.743492
4,0,3955.384519,4112.307592,3982.051185,3801.025548,3966.153749,3974.358877,3966.153749,3979.999903,4002.564005,3932.820417,3965.128108,3998.974261,3963.589647,3968.717852
5,0,3940.512724,4129.743489,3956.41016,3882.051187,3950.256314,3980.512723,3963.589647,3965.640929,3991.281954,3949.743493,3924.615289,3975.384518,3954.358878,3952.820416
6,0,3973.333236,4145.128104,3982.051185,3938.974263,3972.307595,3995.384518,3987.69221,3997.4358,4014.871697,3986.153749,3965.128108,4006.153748,3984.615287,3977.4358
7,0,3981.538364,4105.640925,4006.153748,3871.281957,3962.051185,3986.153749,3979.487082,3999.487082,4017.435799,3971.281954,3982.564005,4015.897338,3989.743492,3982.564005
8,0,3967.692211,4121.538361,3994.358877,3864.10247,3971.794775,3984.615287,3977.4358,3993.846056,4012.307594,3961.538365,3963.076826,4004.102466,3986.666569,3982.051185
9,0,3975.897339,4162.05118,3985.128108,3930.769135,3980.512723,3996.410159,3996.922979,4011.794774,4025.128107,3971.794775,3972.307595,4011.794774,3995.384518,3991.794774
10,0,3963.076826,4110.25631,3969.230672,3927.179391,3912.820417,3984.615287,3978.461441,3988.717851,4013.333235,3942.051186,3965.128108,3991.281954,3975.897339,3966.153749
11,0,3944.102468,4078.461439,3952.820416,3890.256315,3911.281956,3978.461441,3961.538365,3964.102467,3994.871697,3939.999904,3948.205032,3971.281954,3967.692211,3951.281955
12,0,3964.102467,4093.333233,3977.4358,3874.35888,3983.076826,3993.333236,3982.564005,3990.256313,4007.69221,3974.871698,3959.999903,3998.461441,4001.025543,3978.974262
13,0,3974.871698,4067.692208,3995.384518,3869.743495,3974.358877,3992.820415,3996.410159,4006.153748,4018.974261,3967.17939,3964.615288,4011.281953,4018.974261,3984.615287
14,0,3960.512724,4059.48708,3976.410159,3901.025546,3944.102468,3989.230672,3994.871697,3998.461441,4017.94862,3958.461442,3964.615288,3998.461441,4009.230671,3969.230672
15,0,3957.435801,4077.435798,3967.17939,3926.15375,3959.999903,3995.384518,3990.256313,3998.974261,4016.410158,3991.794774,3970.769134,3998.974261,4007.179389,3970.769134
16,0,3970.256313,4070.256311,3978.461441,3925.128109,3969.230672,3998.974261,3991.794774,4006.666569,4019.487081,3980.512723,3968.717852,4006.666569,4014.871697,3975.384518
17,0,3974.871698,4056.410157,3984.615287,3938.461442,3968.205031,3997.4358,4003.589646,4015.384517,4030.256312,3958.461442,3963.589647,4007.69221,4021.538363,3976.92298
18,0,3960.512724,4036.922978,3978.461441,3930.256314,3957.948621,3993.846056,3995.897338,4004.102466,4022.051184,3987.69221,3960.512724,3998.461441,4019.487081,3971.794775
19,0,3956.41016,4036.922978,3975.384518,3917.435802,3931.794776,3990.256313,3979.999903,3983.589646,4003.076825,3994.871697,3982.564005,3997.4358,4014.871697,3972.307595
20,0,3976.92298,4069.74349,3988.205031,3953.846057,3938.461442,3990.256313,3986.666569,3991.281954,4007.69221,3989.743492,3999.999902,4014.871697,4022.564004,3989.743492
21,0,3989.743492,4081.538362,4003.076825,3974.871698,3970.769134,3988.717851,3994.358877,4011.281953,4026.666568,4004.102466,3991.281954,4024.102466,4034.871696,3999.487082
22,0,3986.153749,4073.333234,4002.051184,3942.051186,3986.666569,3986.666569,3988.717851,4008.20503,4025.128107,4009.230671,3996.410159,4022.564004,4034.358876,3996.410159
23,0,3982.564005,4063.589644,3990.769133,3943.589647,3969.743493,3988.205031,3981.025544,3988.717851,4007.69221,3983.076826,3996.410159,4019.487081,4016.410158,3995.897338
24,0,3979.999903,4045.640927,3987.69221,3979.487082,3941.025545,3988.717851,3976.410159,3980.512723,4003.589646,3957.948621,3981.538364,4013.846056,4007.179389,3993.846056
25,0,3978.461441,4046.666568,3994.358877,3945.640929,3936.41016,3985.640928,3977.948621,3984.615287,4006.666569,3980.512723,3978.974262,4013.846056,4021.025543,3991.281954
26,0,3981.025544,4058.461439,3999.487082,3903.589648,3954.871698,3985.640928,3986.153749,3986.666569,4003.076825,4015.897338,3981.025544,4019.487081,4030.769132,3999.487082
27,0,3983.076826,4047.179388,3995.897338,3955.384519,3971.794775,3989.230672,3990.256313,3988.205031,4005.640928,4013.333235,3983.076826,4021.025543,4023.076825,4005.128107
28,0,3983.589646,4041.538363,3988.205031,3994.871697,3966.66657,3990.769133,3990.256313,3990.769133,4009.230671,3986.666569,3986.153749,4017.435799,4019.487081,3998.461441
29,0,3976.92298,4046.666568,3982.051185,3959.999903,3958.974262,3990.769133,3988.717851,3989.743492,4004.102466,3981.538364,3977.4358,4009.743492,4022.051184,3990.769133
30,0,3968.205031,4030.769132,3980.512723,3947.692211,3958.974262,3991.281954,3988.205031,3986.666569,4003.076825,3995.384518,3968.717852,4003.076825,4017.94862,3987.17939
31,0,3976.410159,4021.025543,3986.153749,3971.794775,3957.948621,3994.358877,3994.871697,3990.769133,4009.230671,3999.999902,3978.461441,4010.256312,4018.46144,3994.358877
32,0,3990.256313,4034.358876,3990.769133,3974.871698,3969.230672,3992.307595,3998.461441,4001.025543,4007.69221,4002.051184,3989.743492,4022.051184,4026.153748,4004.615287
33,0,3989.743492,4043.589645,3990.256313,3970.769134,3985.128108,3991.794774,3995.897338,4004.615287,4003.589646,4014.871697,3998.461441,4021.538363,4029.743491,4007.179389
34,0,3988.717851,4034.871696,3991.281954,3972.820416,3979.487082,3995.384518,3999.487082,4008.20503,4010.256312,4012.820415,4006.666569,4021.538363,4030.769132,4008.717851
35,0,3988.717851,4022.051184,3989.743492,3975.384518,3962.564006,3997.4358,4003.076825,4013.846056,4014.871697,3984.615287,3989.743492,4020.512722,4021.025543,4002.051184
36,0,3988.205031,4018.974261,3989.230672,3978.974262,3967.17939,3997.4358,3999.999902,4008.717851,4008.717851,3996.410159,3978.974262,4014.358876,4013.333235,3998.461441
37,0,3989.230672,4027.692209,3991.281954,3974.871698,3974.871698,3995.897338,3993.846056,3997.94862,4005.128107,4032.307594,3996.410159,4012.820415,4021.025543,4007.179389
38,0,3988.205031,4033.333235,3988.205031,3978.461441,3971.281954,3990.256313,3988.717851,3994.871697,4006.666569,4016.922979,4002.051184,4015.897338,4022.564004,4010.769133
39,0,3988.717851,4026.666568,3988.205031,3988.717851,3969.743493,3988.205031,3988.717851,3996.922979,4003.076825,3990.769133,3991.794774,4013.846056,4012.307594,4007.179389
40,0,3987.17939,4016.922979,3987.69221,3979.487082,3969.743493,3989.743492,3987.17939,3994.871697,3997.94862,3999.487082,3987.69221,4007.69221,4004.102466,4003.589646
41,0,3976.92298,4005.128107,3978.974262,3967.692211,3970.256313,3988.717851,3984.102467,3992.307595,3996.922979,3998.974261,3980.512723,4003.076825,3996.922979,3994.871697
42,0,3975.384518,3991.794774,3978.974262,3979.999903,3971.281954,3987.17939,3985.640928,3990.769133,3996.410159,3983.589646,3971.794775,4002.564005,3990.256313,3987.69221
43,0,3983.076826,3983.076826,3988.205031,3994.871697,3975.897339,3988.717851,3986.666569,3990.769133,3995.384518,3987.69221,3974.358877,4004.102466,3990.256313,3990.769133
44,0,3977.4358,3976.410159,3988.717851,3986.666569,3975.384518,3989.230672,3983.076826,3989.230672,3991.794774,3995.897338,3973.333236,4002.051184,3989.230672,3991.281954
45,0,3970.769134,3971.794775,3985.640928,3979.999903,3974.358877,3987.17939,3982.564005,3984.615287,3987.69221,3991.794774,3973.846057,4002.564005,3986.153749,3990.256313
46,0,3979.999903,3963.076826,3989.230672,3986.666569,3977.948621,3983.076826,3984.102467,3979.487082,3988.205031,3985.128108,3984.102467,4007.179389,3984.615287,3990.769133
47,0,3987.69221,3949.230673,3991.794774,3988.205031,3982.051185,3984.102467,3984.615287,3979.999903,3989.230672,3989.230672,3985.640928,4006.666569,3983.076826,3989.743492
48,0,3987.69221,3928.717853,3991.281954,3989.230672,3989.743492,3989.230672,3989.743492,3989.230672,3992.307595,4000.512723,3986.666569,4009.743492,3986.153749,3993.846056
49,0,3986.666569,3899.999905,3991.794774,3986.153749,3994.358877,3988.717851,3994.871697,3993.846056,3998.461441,4006.153748,3993.333236,4018.46144,3988.717851,4001.025543
50,0,3985.128108,3876.922982,3989.230672,3977.4358,3994.358877,3989.230672,3991.794774,3990.256313,3996.922979,4007.69221,3990.769133,4014.871697,3978.974262,3997.4358
51,0,3985.128108,3868.205034,3987.17939,3981.025544,3996.410159,3991.794774,3988.205031,3995.897338,3995.384518,4008.717851,3983.589646,4004.102466,3971.794775,3990.769133
52,0,3987.17939,3861.538367,3988.717851,3986.666569,4004.615287,3992.820415,3993.846056,4009.230671,4006.666569,4014.871697,3987.69221,4008.20503,3978.461441,3993.333236
53,0,3988.717851,3854.35888,3990.256313,3978.461441,4009.743492,3994.358877,3998.461441,4014.358876,4011.281953,4029.230671,3993.846056,4013.333235,3983.076826,3995.897338
54,0,3987.69221,3851.281957,3986.666569,3971.281954,4004.102466,3993.846056,3992.820415,4010.256312,3996.922979,4029.230671,3988.717851,4006.666569,3977.948621,3991.281954
55,0,3986.666569,3847.692214,3984.102467,3973.333236,3997.4358,3991.281954,3992.820415,4011.281953,3984.615287,4021.538363,3984.615287,4002.564005,3974.871698,3988.717851
56,0,3991.281954,3846.153752,3989.230672,3974.871698,4005.640928,3993.333236,4003.076825,4014.871697,3990.256313,4027.692209,3993.333236,4006.666569,3976.410159,3991.794774
57,0,3989.743492,3846.666573,3988.205031,3978.461441,4014.358876,3997.4358,4006.153748,4010.256312,3990.256313,4040.512722,3992.820415,4004.102466,3975.897339,3990.769133
58,0,3977.948621,3844.10247,3977.948621,3979.999903,4008.20503,3999.487082,4002.051184,4003.589646,3977.948621,4035.384517,3978.461441,3995.897338,3972.307595,3986.153749
59,0,3976.92298,3844.615291,3980.512723,3974.358877,4003.076825,3996.922979,4001.025543,4008.717851,3972.820416,4032.307594,3978.461441,3994.358877,3971.281954,3986.666569
60,0,3982.564005,3846.666573,3987.69221,3974.358877,4009.230671,3992.307595,4003.589646,4014.871697,3977.948621,4042.564004,3984.615287,3995.384518,3974.871698,3987.69221
61,0,3975.897339,3838.461445,3977.948621,3972.820416,4009.743492,3996.410159,4008.20503,4012.307594,3979.487082,4041.025542,3973.333236,3989.743492,3969.230672,3979.999903
62,0,3968.717852,3830.256317,3969.230672,3965.640929,4002.051184,4000.512723,4008.20503,4010.256312,3977.4358,4033.846055,3968.205031,3984.102467,3957.948621,3970.769134
63,0,3978.461441,3840.512727,3979.999903,3967.692211,4003.589646,3994.358877,4002.051184,4012.820415,3978.974262,4044.102465,3983.076826,3991.281954,3962.564006,3974.871698
64,0,3987.69221,3852.820419,3985.128108,3974.871698,4012.307594,3990.256313,3998.461441,4012.820415,3983.076826,4057.435798,3983.589646,3996.922979,3975.897339,3986.153749
65,0,3986.153749,3846.666573,3976.410159,3974.871698,4010.256312,3994.358877,4002.051184,4012.307594,3980.512723,4052.307593,3972.820416,3991.281954,3973.846057,3986.153749
66,0,3986.666569,3845.640932,3977.948621,3971.794775,4003.589646,3992.820415,4005.640928,4014.358876,3974.358877,4047.179388,3981.538364,3991.794774,3966.66657,3983.076826
67,0,3990.769133,3858.461444,3987.17939,3974.358877,4007.179389,3990.256313,4004.615287,4011.281953,3976.410159,4050.256311,3993.333236,3999.999902,3970.769134,3985.640928
68,0,3991.794774,3865.128111,3992.307595,3984.102467,4013.333235,3995.384518,4004.102466,4012.307594,3984.615287,4054.358875,3989.230672,4004.615287,3975.897339,3991.794774
69,0,3990.256313,3861.538367,3991.794774,3987.17939,4009.743492,3997.4358,4005.128107,4021.538363,3983.589646,4055.897337,3985.640928,4004.102466,3973.846057,3991.794774
70,0,3990.256313,3862.051188,3989.230672,3976.410159,4004.102466,3990.769133,4006.666569,4021.025543,3975.384518,4051.794773,3992.307595,4005.640928,3971.281954,3981.538364
71,0,3988.717851,3862.564008,3989.230672,3976.92298,4005.128107,3990.769133,4005.640928,4009.743492,3976.92298,4048.205029,3991.281954,4005.640928,3971.281954,3976.92298
72,0,3988.717851,3859.999906,3992.307595,3990.769133,4010.769133,3991.794774,4004.102466,4006.153748,3982.051185,4047.179388,3983.589646,4002.564005,3971.794775,3984.102467
73,0,3995.897338,3868.205034,3997.94862,3991.281954,4015.897338,3989.230672,4002.564005,4012.820415,3978.461441,4048.71785,3989.743492,4006.666569,3974.358877,3991.281954
74,0,3996.410159,3875.897341,4001.025543,3986.153749,4019.487081,3994.358877,4004.615287,4019.487081,3977.4358,4050.256311,3997.94862,4011.281953,3976.410159,3990.256313
75,0,3989.230672,3869.743495,3996.922979,3990.256313,4019.487081,4004.102466,4011.794774,4022.564004,3984.102467,4053.846055,3993.333236,4009.743492,3976.92298,3987.17939
76,0,3991.794774,3870.256316,3992.820415,3990.256313,4017.94862,4001.025543,4013.333235,4022.051184,3988.205031,4056.410157,3992.820415,4009.743492,3981.025544,3992.820415
77,0,4003.076825,3881.538367,3994.871697,3990.256313,4018.974261,3993.846056,4005.640928,4019.999902,3986.666569,4058.97426,4002.051184,4013.333235,3987.17939,3999.999902
78,0,4000.512723,3880.512726,3996.410159,3994.871697,4020.512722,3998.974261,4000.512723,4014.358876,3986.666569,4057.435798,4001.025543,4012.820415,3987.69221,3994.871697
79,0,3995.897338,3876.922982,3994.871697,3996.922979,4022.051184,3999.999902,4007.179389,4015.384517,3989.230672,4059.999901,3998.461441,4014.358876,3985.640928,3989.230672
80,0,3999.999902,3887.692213,3996.922979,3998.461441,4022.051184,3992.307595,4009.230671,4019.487081,3988.205031,4066.666567,4005.640928,4018.46144,3989.230672,3996.410159
81,0,3998.461441,3894.358879,3995.384518,3997.94862,4018.974261,3991.281954,3995.897338,4011.281953,3985.640928,4057.435798,4006.666569,4012.307594,3991.281954,3997.94862
82,0,3997.4358,3894.358879,3990.256313,3994.358877,4015.897338,3996.410159,3986.153749,4005.128107,3986.153749,4050.769132,4002.564005,4005.128107,3988.205031,3991.281954
83,0,4002.564005,3894.358879,3990.256313,3994.871697,4019.487081,3995.897338,3994.358877,4012.307594,3985.640928,4059.999901,4003.076825,4004.102466,3987.17939,3991.281954
84,0,4002.564005,3895.38452,3991.794774,4001.538364,4022.051184,3992.307595,4003.589646,4014.871697,3983.589646,4062.051183,4004.615287,4004.615287,3988.205031,3994.358877
85,0,4003.589646,3897.435802,3992.820415,4008.20503,4018.974261,3995.897338,4003.589646,4011.281953,3988.205031,4051.794773,4003.076825,3994.358877,3990.769133,3996.410159
86,0,4006.666569,3897.435802,3991.281954,4007.179389,4016.410158,4003.589646,4007.69221,4011.794774,3991.281954,4045.640927,3997.4358,3967.17939,3990.256313,3993.846056
87,0,3997.4358,3896.410161,3988.717851,3997.94862,4018.46144,4003.589646,4011.794774,4012.307594,3986.153749,4042.051183,3989.743492,3948.205032,3979.487082,3979.999903
88,0,3985.640928,3893.333238,3986.666569,3990.256313,4016.410158,3997.4358,4008.717851,4010.769133,3984.615287,4037.948619,3981.538364,3950.256314,3970.769134,3972.307595
89,0,3990.256313,3892.307597,3986.666569,3993.846056,4015.897338,3996.410159,4009.230671,4014.358876,3990.256313,4040.512722,3984.615287,3955.897339,3978.974262,3981.538364
90,0,4005.128107,3901.025546,3992.307595,4001.538364,4021.025543,4001.025543,4012.820415,4013.846056,3990.769133,4048.71785,3994.871697,3962.051185,3990.256313,3994.358877
91,0,4011.794774,3912.307597,3999.999902,4006.153748,4024.102466,4003.589646,4013.846056,4010.256312,3989.230672,4057.948619,3999.999902,3971.794775,3989.230672,3998.974261
92,0,4007.179389,3912.307597,3996.922979,4006.153748,4023.076825,4007.179389,4011.794774,4007.69221,3988.205031,4049.23067,3999.999902,3974.871698,3986.153749,3996.410159
93,0,4006.666569,3910.256315,3990.256313,4009.230671,4018.974261,4006.666569,4006.153748,3999.487082,3981.538364,4032.820414,3997.94862,3973.333236,3987.69221,3996.922979
94,0,4011.794774,3913.846058,3994.358877,4010.256312,4015.384517,3997.94862,3999.487082,3994.358877,3978.974262,4036.410158,4000.512723,3974.358877,3989.743492,3999.487082
95,0,4007.179389,3912.307597,3994.358877,4005.640928,4016.922979,3993.846056,4002.564005,4000.512723,3986.153749,4043.076824,4001.538364,3976.92298,3988.717851,3998.461441
96,0,4004.615287,3911.794776,3987.69221,4006.666569,4021.025543,4002.051184,4007.179389,4005.128107,3989.743492,4036.410158,4001.538364,3983.076826,3987.69221,3998.974261
97,0,4010.769133,3922.051186,3993.333236,4010.769133,4023.589645,4004.615287,4004.615287,4000.512723,3986.666569,4042.051183,4006.153748,3988.717851,3990.256313,4004.615287
98,0,4010.769133,3928.205032,3998.461441,4016.922979,4021.025543,3997.4358,4003.076825,3999.999902,3987.69221,4048.205029,4005.640928,3988.205031,3991.794774,4006.666569
99,0,4005.640928,3925.128109,3997.4358,4024.615286,4015.897338,3994.358877,4005.128107,4003.589646,3988.205031,4037.435799,3997.4358,3987.17939,3990.256313,4004.102466
100,0,4004.615287,3924.102468,3997.94862,4021.538363,4013.846056,4001.538364,4006.153748,4004.102466,3986.666569,4036.922978,3995.384518,3986.666569,3987.69221,4003.076825
101,0,4004.615287,3924.615289,3994.871697,4014.871697,4011.794774,4004.615287,4006.153748,4005.128107,3986.666569,4042.051183,3998.461441,3980.512723,3985.640928,3995.384518
102,0,4003.589646,3925.128109,3991.794774,4025.640927,4017.435799,4002.051184,4011.794774,4003.589646,3988.717851,4039.487081,3994.358877,3978.974262,3987.69221,3987.69221
103,0,4003.589646,3927.692212,3995.384518,4032.820414,4026.666568,4003.076825,4017.94862,4004.615287,3989.743492,4039.999901,3986.666569,3982.564005,3987.17939,3992.820415
104,0,4003.076825,3926.15375,3994.871697,4022.051184,4019.487081,4000.512723,4010.256312,4005.128107,3983.076826,4039.487081,3984.102467,3983.589646,3977.4358,3995.897338
105,0,4005.128107,3928.717853,3996.410159,4020.512722,4012.820415,3997.4358,4002.051184,4001.025543,3978.461441,4039.487081,3988.205031,3985.128108,3975.897339,3991.281954
106,0,4010.769133,3937.948622,3999.999902,4022.564004,4026.666568,4004.615287,4008.717851,4004.615287,3987.17939,4052.307593,3998.461441,3989.743492,3987.69221,3995.384518
107,0,4008.20503,3942.051186,3995.897338,4018.46144,4036.922978,4010.256312,4015.384517,4010.769133,3992.820415,4050.769132,4002.051184,3990.256313,3991.281954,4003.076825
108,0,4003.589646,3950.256314,3995.897338,4025.640927,4027.692209,4005.640928,4013.333235,4012.820415,3989.230672,4032.307594,3997.94862,3989.743492,3984.615287,4003.076825
109,0,4010.769133,3966.66657,4005.128107,4040.512722,4021.025543,4004.102466,4011.281953,4011.281953,3988.205031,4034.871696,4000.512723,3995.384518,3985.128108,4004.102466
110,0,4015.384517,3975.897339,4006.666569,4035.897337,4024.102466,4006.153748,4007.179389,4008.717851,3990.769133,4049.23067,4005.128107,4001.025543,3988.717851,4006.666569
111,0,4009.230671,3981.538364,4003.589646,4029.230671,4026.153748,4001.538364,4002.564005,4008.717851,3989.743492,4043.076824,4002.051184,4001.025543,3989.743492,4005.128107
112,0,4007.179389,3992.307595,4004.615287,4038.97426,4030.769132,4003.076825,4007.69221,4012.307594,3988.717851,4041.538363,3999.999902,4004.615287,3990.256313,4007.179389
113,0,4001.538364,3999.999902,3998.974261,4034.358876,4033.846055,4011.281953,4014.358876,4014.358876,3989.230672,4048.205029,4003.589646,4003.589646,3988.205031,4006.666569
114,0,3990.256313,4008.717851,3991.281954,4017.94862,4027.179389,4005.640928,4012.820415,4015.897338,3990.769133,4030.769132,3998.461441,3992.820415,3985.128108,3997.94862
115,0,3995.897338,4024.615286,3994.358877,4022.051184,4019.999902,4001.025543,4016.410158,4019.487081,3989.743492,4021.025543,3986.153749,3991.281954,3985.128108,3998.461441
116,0,4008.717851,4038.46144,4003.076825,4033.333235,4025.128107,4009.230671,4025.128107,4024.102466,3989.230672,4044.615286,3989.230672,4002.564005,3988.717851,4006.666569
117,0,4004.102466,4047.179388,4006.153748,4034.871696,4031.794773,4012.307594,4025.128107,4030.256312,3991.281954,4056.410157,4003.076825,4008.717851,3996.410159,4011.794774
118,0,3995.384518,4046.153747,4001.538364,4032.820414,4016.410158,4005.128107,4019.999902,4029.743491,3990.256313,4044.102465,4006.153748,4003.589646,3995.897338,4009.230671
119,0,4000.512723,4045.128106,3999.487082,4035.384517,4010.256312,4002.564005,4021.538363,4023.589645,3988.205031,4040.512722,4006.153748,4003.589646,3989.230672,4003.589646
120,0,4007.179389,4055.384516,4007.179389,4043.076824,4028.71785,4009.230671,4023.589645,4023.589645,3987.69221,4039.487081,4008.717851,4009.230671,3996.410159,4006.666569
121,0,4008.717851,4065.640926,4014.358876,4050.256311,4038.46144,4013.333235,4022.051184,4026.666568,3989.743492,4039.999901,4007.69221,4011.281953,4004.102466,4015.384517
122,0,4003.076825,4061.025542,4009.230671,4043.589645,4023.589645,4010.769133,4018.46144,4021.538363,3989.230672,4042.051183,4001.025543,4004.102466,3993.846056,4010.256312
123,0,3995.384518,4049.23067,4001.538364,4033.333235,4013.846056,4004.615287,4011.794774,4010.769133,3979.487082,4028.71785,3998.461441,3997.94862,3988.717851,3999.999902
124,0,4000.512723,4047.692209,4004.102466,4035.384517,4023.589645,4008.20503,4014.871697,4008.717851,3976.410159,4023.076825,4003.589646,4005.128107,3997.4358,4005.128107
125,0,4007.69221,4052.820414,4007.69221,4044.615286,4031.281953,4015.384517,4019.999902,4014.871697,3988.717851,4029.230671,4004.102466,4010.256312,4001.025543,4009.230671
126,0,4004.102466,4046.153747,4003.589646,4042.051183,4024.615286,4009.230671,4010.256312,4012.820415,3989.743492,4028.20503,4000.512723,4004.102466,4000.512723,4004.615287
127,0,3997.94862,4032.820414,3996.922979,4027.179389,4010.769133,4003.589646,4004.102466,4002.051184,3974.871698,4027.179389,4000.512723,3996.922979,3998.974261,4001.538364
128,0,4002.564005,4040.512722,3999.999902,4029.230671,4012.820415,4010.769133,4014.358876,4008.20503,3978.461441,4030.256312,4004.615287,4000.512723,3996.922979,4002.564005
0,0,4010.256312,4056.922978,4007.69221,4048.205029,4034.358876,4015.384517,4024.615286,4027.179389,3997.4358,4034.358876,4007.179389,4009.230671,4004.102466,4009.230671
1,0,4010.256312,4055.897337,4007.179389,4051.281952,4042.051183,4013.333235,4026.153748,4030.256312,3999.999902,4039.999901,4005.640928,4009.230671,4008.20503,4013.846056
2,0,4005.128107,4043.589645,4004.102466,4037.435799,4028.20503,4015.897338,4029.230671,4027.692209,3995.384518,4031.281953,4005.128107,4004.615287,4001.538364,4006.666569
3,0,4000.512723,4032.307594,4004.102466,4031.281953,4018.974261,4018.974261,4033.333235,4032.307594,3997.4358,4012.820415,4006.666569,4002.564005,3998.461441,3998.974261
4,0,4002.564005,4026.153748,4002.564005,4020.512722,4025.640927,4017.435799,4029.230671,4026.153748,3993.846056,4025.640927,4002.564005,4004.102466,4001.025543,3999.487082
5,0,4010.256312,4030.769132,4006.153748,3994.358877,4028.20503,4014.358876,4021.025543,4018.974261,3989.743492,4052.307593,4001.538364,4010.769133,4002.564005,4005.128107
6,0,4017.435799,4037.435799,4014.358876,3968.717852,4019.487081,4010.256312,4022.564004,4033.333235,3998.974261,4051.281952,4016.922979,4020.512722,4006.153748,4013.333235
7,0,4019.487081,4039.999901,4014.358876,3957.435801,4019.487081,4010.256312,4028.20503,4037.948619,4002.564005,4038.97426,4022.051184,4023.076825,4006.153748,4016.410158
8,0,4017.435799,4041.025542,4011.794774,3954.358878,4022.564004,4015.384517,4022.564004,4022.051184,3994.358877,4036.410158,4008.717851,4019.487081,4004.615287,4013.846056
9,0,4019.999902,4043.589645,4016.410158,3951.281955,4019.999902,4016.410158,4019.999902,4025.128107,3995.897338,4036.410158,4013.333235,4022.564004,4013.333235,4018.974261
10,0,4029.743491,4048.71785,4024.102466,3952.307596,4030.769132,4014.358876,4028.20503,4039.487081,4007.69221,4043.589645,4033.846055,4034.358876,4027.179389,4029.743491
11,0,4033.333235,4048.205029,4026.666568,3950.256314,4042.051183,4011.794774,4027.179389,4035.897337,4005.128107,4053.333234,4037.948619,4039.487081,4024.615286,4030.256312
12,0,4025.128107,4043.589645,4024.102466,3942.564006,4031.281953,4013.333235,4019.999902,4023.589645,3991.281954,4037.435799,4022.564004,4031.794773,4007.69221,4022.564004
13,0,4019.999902,4042.051183,4020.512722,3940.512724,4023.589645,4014.358876,4018.974261,4017.94862,3986.153749,4015.384517,4010.769133,4026.153748,4004.102466,4020.512722
14,0,4018.46144,4041.538363,4016.410158,3942.564006,4035.384517,4013.333235,4021.538363,4021.538363,3994.871697,4023.589645,4011.281953,4029.743491,4011.794774,4021.025543
15,0,4011.794774,4041.538363,4007.179389,3940.512724,4038.46144,4013.333235,4026.666568,4028.71785,4001.538364,4031.794773,4011.281953,4023.589645,4007.179389,4012.820415
16,0,4009.230671,4043.589645,4004.615287,3941.538365,4032.307594,4015.897338,4027.692209,4026.153748,3997.4358,4024.102466,4007.179389,4015.897338,4003.076825,4008.717851
17,0,4012.820415,4045.640927,4011.794774,3943.589647,4030.256312,4014.358876,4021.025543,4018.974261,3995.897338,4032.820414,4011.794774,4018.974261,4015.384517,4016.922979
18,0,4006.666569,4042.564004,4005.640928,3929.743494,4017.435799,4009.743492,4016.410158,4016.922979,3997.4358,4033.333235,4008.20503,4014.358876,4021.538363,4017.94862
19,0,4002.564005,4043.076824,3998.974261,3927.692212,4014.871697,4013.333235,4019.487081,4017.435799,3997.94862,4017.94862,4001.025543,4007.69221,4014.871697,4012.307594
20,0,4013.846056,4044.615286,4009.230671,3947.179391,4031.281953,4015.384517,4019.487081,4019.487081,3999.487082,4027.179389,4014.871697,4017.435799,4012.307594,4015.897338
21,0,4019.999902,4044.102465,4015.384517,3944.102468,4031.281953,4010.769133,4018.46144,4021.538363,4000.512723,4046.666568,4018.46144,4023.076825,4015.384517,4023.076825
22,0,4010.256312,4042.564004,4008.717851,3928.717853,4019.999902,4010.769133,4018.46144,4015.897338,3997.4358,4035.897337,4004.102466,4017.435799,4016.410158,4021.025543
23,0,4010.769133,4045.640927,4010.256312,3940.512724,4025.128107,4013.333235,4016.410158,4014.358876,3996.410159,4026.666568,4013.333235,4023.076825,4013.846056,4020.512722
24,0,4024.102466,4054.358875,4017.435799,3955.897339,4028.20503,4011.794774,4014.358876,4016.922979,3994.358877,4032.820414,4022.564004,4031.281953,4010.769133,4024.102466
25,0,4019.999902,4055.897337,4010.256312,3944.102468,4014.871697,4008.717851,4009.230671,4009.743492,3991.281954,4016.922979,4008.717851,4023.589645,4008.20503,4020.512722
26,0,4007.179389,4052.820414,4001.538364,3932.307596,4015.384517,4007.179389,4003.076825,4003.076825,3990.769133,4000.512723,3994.871697,4012.307594,4008.717851,4009.230671
27,0,4007.69221,4047.179388,4004.615287,3939.999904,4027.179389,4007.179389,4005.128107,4005.640928,3988.205031,4011.794774,3992.307595,4012.307594,4005.640928,4004.102466
28,0,4014.871697,4047.692209,4011.281953,3955.897339,4032.820414,4013.846056,4011.794774,4011.281953,3988.205031,4025.640927,3995.897338,4019.999902,4002.051184,4009.743492
29,0,4015.384517,4055.384516,4010.769133,3958.461442,4033.846055,4018.974261,4014.358876,4011.281953,3994.871697,4017.435799,4002.051184,4014.871697,4006.153748,4012.820415
30,0,4014.358876,4060.512721,4008.20503,3946.15375,4029.743491,4015.384517,4010.256312,4008.20503,3995.897338,4010.769133,4008.717851,4003.076825,4012.820415,4012.307594
31,0,4015.384517,4064.615285,4007.69221,3946.66657,4026.153748,4014.871697,4005.128107,4007.69221,3990.769133,4019.487081,4007.69221,4004.102466,4011.794774,4011.794774
32,0,4014.358876,4074.871695,4006.666569,3957.435801,4029.230671,4018.46144,4009.230671,4011.281953,3993.846056,4012.820415,4001.538364,4013.846056,4011.281953,4012.307594
33,0,4012.820415,4077.435798,4005.640928,3959.999903,4030.256312,4016.922979,4018.46144,4016.410158,3999.999902,4008.717851,4007.179389,4013.333235,4018.46144,4015.384517
34,0,4010.769133,4075.897336,4004.615287,3958.461442,4024.615286,4010.769133,4016.410158,4019.487081,4002.051184,4019.999902,4018.974261,4016.922979,4019.999902,4014.358876
35,0,4012.820415,4088.205028,4004.615287,3958.461442,4019.487081,4006.666569,4010.769133,4021.538363,4004.615287,4016.922979,4009.743492,4013.333235,4019.487081,4012.307594
36,0,4014.871697,4083.076823,4006.666569,3963.589647,4015.384517,4009.230671,4013.333235,4019.487081,4004.102466,4007.69221,3998.974261,3954.358878,4021.538363,4013.846056
37,0,4011.281953,4061.538362,4009.743492,3969.230672,4021.025543,4018.974261,4018.974261,4017.435799,3999.999902,4005.128107,4008.717851,3884.102469,4014.358876,4014.871697
38,0,4016.922979,4079.9999,4014.871697,3969.743493,4033.333235,4021.025543,4021.538363,4023.589645,4003.076825,4006.153748,4021.025543,3881.538367,4019.999902,4022.564004
39,0,4027.692209,4112.307592,4021.538363,3972.307595,4031.794773,4013.333235,4020.512722,4024.615286,4007.69221,4019.487081,4023.076825,3909.743494,4036.410158,4034.358876
40,0,4023.589645,4107.692207,4015.897338,3974.358877,4016.922979,4012.820415,4013.846056,4018.46144,4004.615287,4021.538363,4012.820415,3905.64093,4032.307594,4029.743491
41,0,4016.922979,4098.461438,4007.69221,3964.615288,4017.435799,4019.487081,4013.333235,4019.999902,4005.128107,4003.589646,4019.999902,3901.025546,4017.94862,4022.564004
42,0,4026.153748,4114.871694,4017.435799,3963.076826,4033.333235,4021.538363,4023.589645,4019.999902,4014.358876,4003.589646,4046.153747,3925.128109,4019.487081,4034.358876
43,0,4030.256312,4123.589643,4027.179389,3981.538364,4029.230671,4017.435799,4019.999902,4008.717851,4013.333235,3994.358877,4031.794773,3938.974263,4028.71785,4040.512722
44,0,4026.666568,4121.02554,4024.615286,3990.769133,4023.076825,4014.871697,4006.666569,3997.94862,4005.640928,3983.076826,4006.153748,3939.487083,4035.897337,4034.871696
45,0,4028.20503,4125.640925,4024.102466,3981.025544,4036.410158,4017.94862,4012.820415,3994.871697,4002.564005,4020.512722,4025.640927,3947.692211,4036.922978,4037.435799
46,0,4022.051184,4127.179386,4023.076825,3973.846057,4036.410158,4021.025543,4019.999902,3989.230672,3996.410159,4024.615286,4031.281953,3956.41016,4029.743491,4034.871696
47,0,4015.897338,4120.51272,4012.820415,3981.025544,4015.897338,4016.922979,4010.256312,3987.17939,3990.769133,3970.256313,4010.256312,3963.076826,4029.230671,4024.102466
48,0,4027.179389,4123.589643,4014.358876,3992.820415,4023.076825,4015.384517,4006.666569,3991.794774,3997.4358,3971.794775,4024.102466,3979.487082,4035.897337,4031.794773
49,0,4038.97426,4133.333232,4025.128107,3994.871697,4042.051183,4019.999902,4017.94862,3995.384518,4005.128107,4011.281953,4044.615286,4001.538364,4041.538363,4045.640927
50,0,4035.897337,4130.256309,4023.589645,3988.717851,4024.102466,4019.999902,4019.487081,3996.922979,4004.102466,3995.897338,4027.692209,4013.846056,4045.128106,4045.128106
51,0,4033.333235,4123.589643,4017.435799,3988.205031,4012.820415,4016.410158,4012.307594,4001.538364,4004.615287,3968.717852,4011.281953,4018.974261,4044.102465,4042.051183
52,0,4037.435799,4124.102463,4016.922979,3988.717851,4019.487081,4013.846056,4006.666569,4002.564005,4007.179389,3975.897339,4019.999902,4019.487081,4043.589645,4046.153747
53,0,4039.999901,4125.128104,4018.46144,3986.153749,4013.333235,4011.281953,4004.102466,3994.358877,4002.564005,3981.538364,4020.512722,4021.538363,4046.666568,4050.769132
54,0,4044.102465,4129.743489,4022.564004,3993.846056,4013.846056,4014.871697,4011.794774,3996.410159,4003.589646,3972.307595,4015.384517,4033.846055,4048.205029,4057.948619
55,0,4055.384516,4141.02554,4032.307594,4007.69221,4031.281953,4018.46144,4018.46144,4009.743492,4009.230671,3972.820416,4032.307594,4049.23067,4051.281952,4065.640926
56,0,4062.564003,4147.179386,4037.435799,4010.769133,4027.692209,4014.871697,4018.974261,4010.256312,4009.230671,3987.69221,4049.743491,4058.97426,4058.461439,4067.179388
57,0,4057.948619,4140.512719,4034.358876,4013.846056,4013.333235,4011.794774,4017.435799,4002.051184,4005.128107,3991.794774,4045.640927,4058.97426,4058.461439,4064.615285
58,0,4055.897337,4132.820412,4035.384517,4025.640927,4029.743491,4019.999902,4016.922979,4006.666569,4009.230671,3969.743493,4036.922978,4055.897337,4057.435798,4063.076824
59,0,4051.794773,4121.02554,4034.358876,4024.102466,4033.333235,4022.051184,4013.333235,4008.717851,4013.333235,3950.256314,4031.281953,4056.922978,4059.48708,4061.538362
60,0,4044.615286,4118.974258,4031.794773,4013.846056,4015.384517,4013.846056,4010.256312,4003.076825,4008.717851,3973.846057,4032.307594,4060.512721,4057.948619,4060.512721
61,0,4042.051183,4130.76913,4031.281953,4012.307594,4023.589645,4016.410158,4013.846056,4003.076825,4005.640928,4012.820415,4034.358876,4061.538362,4051.794773,4058.97426
62,0,4031.794773,4125.128104,4022.051184,4003.076825,4034.871696,4025.128107,4014.358876,3998.974261,4005.128107,4004.615287,4027.692209,4049.743491,4042.564004,4045.640927
63,0,4020.512722,4109.743489,4015.897338,4001.025543,4027.179389,4023.589645,4015.384517,3996.922979,4006.153748,3972.820416,4025.640927,4039.999901,4039.999901,4034.871696
64,0,4018.974261,4112.307592,4014.871697,4005.640928,4016.922979,4017.94862,4018.974261,4001.538364,4005.640928,3975.897339,4026.666568,4038.97426,4044.615286,4035.384517
65,0,4010.256312,4108.717848,4010.769133,3994.871697,4010.256312,4019.999902,4022.564004,4006.666569,4004.102466,3987.17939,4012.307594,4035.384517,4043.076824,4031.794773
66,0,4003.589646,4089.74349,4010.256312,3995.384518,4009.743492,4019.999902,4019.999902,4010.256312,4009.230671,3971.281954,4004.102466,4035.384517,4036.410158,4025.640927
67,0,4013.846056,4087.692208,4015.897338,4012.307594,4020.512722,4020.512722,4018.974261,4014.358876,4014.871697,3974.358877,4026.153748,4044.102465,4033.333235,4027.692209
68,0,4014.358876,4090.769131,4014.871697,4011.281953,4022.051184,4023.076825,4026.153748,4019.487081,4014.871697,3992.820415,4029.230671,4045.640927,4033.846055,4024.615286
69,0,4009.230671,4094.358874,4016.922979,3998.461441,4018.46144,4019.999902,4029.230671,4024.102466,4016.410158,3979.999903,4009.230671,4045.128106,4042.564004,4022.051184
70,0,4023.076825,4113.333233,4029.743491,4010.256312,4024.102466,4017.94862,4028.71785,4030.256312,4027.179389,3992.820415,4014.871697,4057.948619,4051.794773,4031.281953
71,0,4028.71785,4121.538361,4032.820414,4024.102466,4022.564004,4022.051184,4028.71785,4031.794773,4032.307594,4030.256312,4040.512722,4066.666567,4046.666568,4036.410158
72,0,4019.487081,4108.205028,4031.281953,4024.102466,4015.897338,4019.999902,4026.153748,4026.153748,4023.076825,3997.4358,4051.281952,4064.102465,4042.051183,4030.256312
73,0,4015.384517,4102.051182,4029.743491,4028.20503,4017.94862,4017.435799,4017.435799,4010.256312,4011.794774,3962.051185,4037.435799,4059.48708,4043.076824,4024.615286
74,0,4019.487081,4120.51272,4029.230671,4031.281953,4022.564004,4022.051184,4015.897338,4003.589646,4013.846056,4001.538364,4016.922979,4055.897337,4045.128106,4027.179389
75,0,4022.564004,4131.794771,4031.794773,4025.128107,4015.897338,4021.025543,4018.974261,4007.69221,4016.410158,4006.153748,4005.128107,4051.794773,4047.692209,4028.71785
76,0,4011.281953,4107.692207,4018.974261,4015.384517,3996.922979,4013.846056,4011.794774,3996.922979,4003.589646,3950.769134,4008.20503,4038.97426,4042.051183,4018.974261
77,0,4001.025543,4090.25631,4006.153748,4035.897337,4001.025543,4018.46144,4009.230671,3992.307595,4000.512723,3962.564006,4014.871697,4034.871696,4038.97426,4015.384517
78,0,4004.615287,4098.974259,4013.846056,4052.307593,4025.640927,4023.076825,4016.922979,4002.051184,4009.743492,3999.999902,4010.769133,4042.564004,4048.71785,4020.512722
79,0,4013.333235,4114.871694,4028.71785,4027.692209,4035.384517,4021.538363,4022.051184,4005.128107,4015.384517,3988.205031,4011.281953,4044.615286,4054.871696,4023.076825
80,0,4020.512722,4121.02554,4029.743491,4033.333235,4028.71785,4022.564004,4023.076825,4008.20503,4019.999902,3977.4358,4025.640927,4049.23067,4049.743491,4026.153748
81,0,4017.435799,4111.794771,4020.512722,4066.666567,4014.358876,4022.051184,4020.512722,4012.820415,4017.435799,3978.974262,4024.615286,4054.871696,4037.435799,4023.076825
82,0,4006.153748,4097.948618,4014.358876,4049.743491,3995.897338,4016.410158,4012.820415,4005.128107,4003.589646,3984.102467,4012.820415,4047.179388,4031.281953,4015.384517
83,0,4008.717851,4106.153746,4021.025543,4019.999902,4003.076825,4019.487081,4014.871697,4007.179389,4010.769133,3998.974261,4025.640927,4045.640927,4034.358876,4020.512722
84,0,4017.435799,4110.76913,4030.256312,4042.051183,4019.999902,4026.153748,4025.128107,4026.153748,4032.307594,4000.512723,4033.333235,4055.384516,4030.256312,4027.179389
85,0,4009.743492,4098.461438,4022.051184,4065.128106,4015.384517,4019.999902,4018.974261,4018.974261,4026.153748,3975.897339,4009.743492,4047.179388,4017.94862,4018.46144
86,0,3998.461441,4103.076823,4011.281953,4056.922978,4011.281953,4015.897338,4009.743492,3999.487082,4010.769133,3963.589647,3994.871697,4035.384517,4018.974261,4009.230671
87,0,4005.640928,4103.589643,4021.538363,4069.23067,4016.410158,4019.487081,4019.487081,4007.179389,4018.46144,3980.512723,4011.794774,4044.102465,4025.128107,4015.897338
88,0,4018.46144,4092.307592,4030.769132,4085.128105,4018.974261,4022.051184,4026.666568,4021.538363,4029.743491,4005.128107,4017.94862,4051.281952,4024.102466,4023.076825
89,0,4013.846056,4093.333233,4018.974261,4058.97426,4012.307594,4019.487081,4012.307594,4011.794774,4021.538363,3998.461441,4011.281953,4044.102465,4020.512722,4015.897338
90,0,4003.589646,4092.820413,4011.281953,4037.435799,4006.153748,4013.333235,4006.153748,4004.102466,4018.46144,3969.743493,4009.743492,4039.487081,4018.46144,4007.69221
91,0,4013.333235,4092.307592,4024.102466,4071.794772,4014.871697,4017.435799,4024.102466,4016.410158,4029.230671,3992.820415,4015.384517,4048.71785,4024.102466,4018.974261
92,0,4020.512722,4089.230669,4030.256312,4091.281951,4015.897338,4026.666568,4027.692209,4012.307594,4024.615286,4012.307594,4026.153748,4053.333234,4020.512722,4024.102466
93,0,4007.69221,4083.589644,4017.435799,4046.666568,3996.410159,4021.538363,4008.20503,3998.461441,4017.94862,3973.333236,4019.487081,4039.999901,4011.794774,4009.230671
94,0,4008.717851,4089.74349,4015.384517,4044.615286,3996.922979,4014.871697,4008.20503,4006.666569,4032.820414,3972.307595,4003.589646,4043.076824,4015.384517,4007.69221
95,0,4021.025543,4095.897336,4022.564004,4094.871695,4011.794774,4022.051184,4025.640927,4016.922979,4047.692209,4011.794774,4001.538364,4057.435798,4023.589645,4016.922979
96,0,4018.974261,4091.794772,4019.999902,4105.640925,4007.69221,4025.640927,4024.615286,4009.230671,4045.128106,4013.846056,4008.20503,4047.692209,4032.307594,4015.897338
97,0,4008.717851,4095.384515,4014.871697,4075.384516,4008.20503,4019.999902,4014.871697,4003.076825,4042.564004,4003.589646,4004.102466,4036.410158,4037.948619,4011.281953
98,0,4005.128107,4081.025541,4015.897338,4050.256311,4007.179389,4023.076825,4016.410158,4003.589646,4037.435799,4007.179389,3999.999902,4041.538363,4028.20503,4006.666569
99,0,4010.256312,4051.281952,4019.999902,4053.333234,3992.820415,4025.128107,4021.025543,4007.69221,4035.897337,4017.435799,4011.794774,4046.666568,4017.435799,4004.102466
100,0,4006.153748,4050.769132,4016.922979,4050.769132,4005.128107,4023.589645,4024.615286,4023.589645,4055.384516,4006.153748,4009.743492,4044.615286,4020.512722,4003.589646
101,0,3991.281954,4053.846055,4006.153748,4007.179389,4011.794774,4021.025543,4023.589645,4026.153748,4060.512721,3972.820416,3998.461441,4035.897337,4021.538363,3998.461441
102,0,3987.17939,4033.333235,4003.589646,3971.281954,3978.461441,4018.974261,4012.820415,4001.538364,4036.410158,3977.4358,4005.128107,4026.153748,4013.846056,3992.820415
103,0,4002.051184,4048.205029,4018.974261,4004.615287,3993.333236,4025.128107,4019.487081,4005.128107,4034.871696,4023.076825,4023.589645,4040.512722,4016.922979,4005.640928
104,0,4009.230671,4074.871695,4020.512722,4031.794773,4019.487081,4025.128107,4031.281953,4024.615286,4049.743491,4030.256312,4012.307594,4050.256311,4025.128107,4015.384517
105,0,4001.025543,4059.48708,4004.615287,3993.333236,3977.948621,4013.333235,4015.384517,4001.025543,4036.410158,4004.615287,3984.102467,4028.20503,4025.640927,4002.051184
106,0,4002.564005,4056.922978,4010.769133,3981.538364,3972.820416,4017.435799,4007.69221,3986.153749,4026.666568,4019.487081,4002.564005,4031.281953,4025.640927,4000.512723
107,0,4019.999902,4081.538362,4033.846055,4024.102466,4027.692209,4032.820414,4029.743491,4018.46144,4049.743491,4044.102465,4048.71785,4063.589644,4030.256312,4024.102466
108,0,4024.102466,4058.461439,4032.820414,4009.230671,4021.025543,4025.640927,4031.794773,4027.179389,4059.48708,4039.487081,4041.025542,4063.076824,4033.846055,4028.20503
109,0,4006.153748,4023.589645,4016.922979,3977.4358,3976.92298,4012.820415,4010.256312,3995.384518,4037.435799,4015.897338,4012.307594,4037.948619,4027.179389,4005.128107
110,0,4008.20503,4035.897337,4021.025543,4027.179389,3986.153749,4015.897338,4010.769133,3992.820415,4027.692209,3993.846056,4022.051184,4040.512722,4020.512722,4003.589646
111,0,4021.538363,4046.153747,4029.743491,4039.487081,4003.589646,4018.974261,4022.051184,4013.846056,4041.025542,4003.076825,4022.051184,4050.769132,4029.230671,4018.974261
112,0,4012.820415,4031.794773,4023.076825,3979.487082,4004.102466,4021.025543,4018.46144,4010.256312,4043.589645,4028.20503,4007.69221,4042.564004,4039.487081,4014.871697
113,0,4007.179389,4053.846055,4018.46144,3986.153749,4011.281953,4026.153748,4019.487081,4009.230671,4039.999901,4027.179389,4015.897338,4041.538363,4042.564004,4011.794774
114,0,4007.179389,4056.922978,4010.769133,4008.717851,3985.640928,4023.076825,4019.999902,4014.358876,4042.051183,3999.999902,4004.102466,4037.435799,4033.333235,4009.230671
115,0,4002.564005,4004.102466,4009.230671,3967.17939,3957.435801,4019.999902,4016.410158,4009.743492,4041.538363,3999.999902,3995.897338,4028.71785,4021.538363,3998.974261
116,0,4006.153748,4011.794774,4023.589645,3984.102467,3987.17939,4021.538363,4023.076825,4009.743492,4037.948619,4035.897337,4023.589645,4038.46144,4026.153748,4004.615287
117,0,4012.820415,4062.051183,4030.256312,4042.564004,4023.076825,4025.128107,4032.307594,4017.435799,4041.538363,4053.333234,4027.692209,4046.153747,4039.999901,4017.94862
118,0,4010.256312,4055.897337,4018.46144,4007.179389,4008.20503,4029.230671,4031.281953,4021.025543,4051.281952,4031.794773,4025.128107,4041.025542,4036.922978,4017.435799
119,0,4013.846056,4043.076824,4017.435799,3974.871698,4001.538364,4032.307594,4033.846055,4021.025543,4053.846055,4014.358876,4038.97426,4045.128106,4033.333235,4016.410158
120,0,4012.820415,4064.102465,4020.512722,4012.820415,4007.69221,4028.20503,4030.256312,4013.333235,4044.615286,4027.179389,4022.564004,4042.564004,4046.153747,4016.410158
121,0,3999.487082,4055.897337,4009.230671,4024.102466,3984.615287,4019.999902,4007.179389,3990.256313,4032.820414,4030.256312,3991.281954,4021.538363,4048.205029,4005.128107
122,0,4003.589646,4029.230671,4010.769133,3999.487082,3987.17939,4023.076825,4001.538364,3987.17939,4031.281953,4014.358876,3996.922979,4018.974261,4043.589645,4002.051184
123,0,4014.358876,4031.281953,4018.46144,3997.94862,4006.153748,4028.71785,4018.974261,4003.589646,4035.897337,4016.410158,4008.20503,4030.769132,4051.794773,4010.769133
124,0,4006.153748,4038.97426,4013.333235,4012.307594,3999.487082,4024.102466,4021.538363,4007.69221,4041.025542,4023.076825,4012.820415,4033.333235,4057.435798,4013.333235
125,0,3997.4358,4041.538363,4008.717851,4003.589646,3992.307595,4021.025543,4010.769133,4003.076825,4042.051183,4016.410158,4021.025543,4031.794773,4054.358875,4012.820415
126,0,4005.640928,4027.179389,4018.46144,4000.512723,3998.461441,4023.076825,4010.769133,3998.974261,4035.897337,4028.20503,4013.846056,4033.846055,4051.281952,4015.384517
127,0,4019.999902,4024.615286,4030.769132,4007.179389,4005.128107,4024.615286,4022.564004,4011.281953,4043.589645,4057.435798,4031.281953,4046.666568,4057.948619,4022.051184
128,0,4015.897338,4029.743491,4027.692209,3982.564005,3988.717851,4021.538363,4022.564004,4015.384517,4047.179388,4045.128106,4046.666568,4042.564004,4054.358875,4021.025543
0,0,4009.230671,4016.410158,4024.615286,3994.358877,3977.4358,4024.615286,4016.922979,4008.20503,4036.410158,4022.051184,4028.71785,4030.769132,4036.922978,4016.922979
1,0,4023.076825,4006.666569,4028.71785,4057.948619,3995.897338,4030.256312,4022.564004,4018.974261,4042.564004,4021.538363,4015.897338,4044.102465,4035.384517,4023.076825
2,0,4017.94862,3991.794774,4019.487081,4035.384517,3981.025544,4023.076825,4021.025543,4020.512722,4044.102465,4009.743492,4019.487081,4042.051183,4051.281952,4019.999902
3,0,3997.4358,3968.205031,4011.281953,3977.4358,3930.256314,4016.410158,4010.256312,4001.025543,4027.692209,4007.69221,4016.922979,4019.999902,4053.333234,4008.717851
4,0,4014.871697,3991.281954,4030.769132,4037.948619,3978.461441,4026.153748,4022.564004,4015.897338,4043.589645,4035.384517,3998.974261,4034.871696,4058.461439,4018.974261
5,0,4037.948619,4018.46144,4049.743491,4040.512722,4048.205029,4033.846055,4035.897337,4043.589645,4066.153747,4028.20503,3998.461441,4054.358875,4073.846054,4033.333235
6,0,4007.69221,3944.102468,4040.512722,3901.025546,3966.66657,4018.46144,4012.820415,4012.820415,4034.871696,3993.333236,4026.153748,4026.153748,4053.846055,4012.307594
7,0,3985.640928,3932.820417,4025.128107,3922.051186,3917.948622,4015.897338,4002.564005,3990.256313,4013.846056,4014.871697,4032.307594,4014.871697,4043.076824,4001.025543
8,0,4021.538363,4052.307593,4020.512722,4063.589644,3994.871697,4037.948619,4030.769132,4032.307594,4049.23067,4060.512721,4009.743492,4045.128106,4082.051182,4029.743491
9,0,4043.076824,3999.487082,4033.846055,4051.794773,3999.999902,4036.410158,4033.333235,4046.666568,4060.512721,4046.666568,3997.4358,4053.333234,4094.358874,4035.384517
10,0,4023.589645,3862.051188,4052.307593,3990.769133,3941.025545,4012.307594,4005.128107,4008.20503,4029.230671,4014.358876,3995.897338,4036.410158,4089.230669,4012.820415
11,0,3999.999902,3958.974262,4033.333235,4001.538364,3933.333237,4012.820415,4002.564005,3994.358877,4021.025543,3990.256313,3999.999902,4025.640927,4099.487079,4005.128107
12,0,3995.897338,4088.717849,4002.564005,3966.153749,3950.769134,4034.358876,4015.384517,4006.666569,4030.769132,3999.999902,3996.922979,4018.974261,4117.435797,4008.20503
13,0,4019.999902,3979.487082,4034.871696,3931.281955,3962.564006,4026.666568,4014.871697,4008.717851,4029.743491,4025.128107,3953.333237,4028.71785,4161.53836,4010.769133
14,0,4021.025543,3872.307598,4064.102465,3976.410159,3938.461442,4002.564005,4001.025543,4001.025543,4023.076825,3973.333236,4024.615286,4047.692209,4142.051181,4008.717851
15,0,3996.922979,3961.538365,4029.743491,4008.20503,3899.487084,4009.743492,4001.025543,3998.974261,4019.487081,3947.692211,4153.846052,4042.564004,4108.205028,4005.128107
16,0,4007.69221,4041.538363,4013.333235,4008.717851,3914.871699,4029.743491,4017.94862,4010.769133,4025.128107,4010.769133,4035.897337,4030.256312,4216.410153,4011.794774
17,0,4022.051184,4029.230671,4037.435799,3971.281954,3904.102469,4025.640927,4018.974261,4015.897338,4033.333235,3975.384518,3864.61529,4029.743491,4317.948612,4007.69221
18,0,4018.974261,4054.871696,4059.48708,3939.487083,3891.281956,4027.179389,4025.128107,4031.281953,4047.692209,3929.743494,3950.769134,4046.666568,4313.333228,4009.230671
19,0,4034.871696,4094.871695,4061.538362,3999.999902,3963.076826,4034.871696,4040.512722,4051.794773,4053.333234,4021.538363,4074.358875,4070.256311,4331.281945,4036.410158
20,0,4022.051184,4057.435798,4028.20503,4006.666569,3943.076827,4018.974261,4011.281953,4013.333235,4018.46144,4028.71785,4047.179388,4046.153747,4345.640919,4023.076825
21,0,3988.205031,4033.846055,4010.256312,3924.102468,3852.307598,4004.102466,3979.999903,3972.820416,3996.922979,3958.461442,3995.897338,4013.846056,4332.820407,3983.589646
22,0,4013.333235,4086.153746,4045.128106,3953.333237,3911.281956,4019.487081,4008.717851,4006.153748,4026.666568,4011.794774,3968.717852,4036.922978,4405.640918,4001.025543
23,0,4048.71785,4152.307591,4059.48708,4055.384516,4009.230671,4039.487081,4040.512722,4046.666568,4051.281952,4076.922977,3955.897339,4061.538362,4498.461428,4036.410158
24,0,4009.230671,4165.640924,4010.256312,4013.846056,3924.615289,4025.128107,4006.153748,4011.794774,4026.666568,4018.974261,3971.281954,4023.076825,4487.692198,4008.717851
25,0,3986.666569,4117.435797,4003.076825,3971.794775,3866.666572,4012.307594,3983.589646,3987.17939,4013.333235,3973.846057,4013.846056,4006.666569,4474.871685,3992.307595
26,0,4033.846055,4111.281951,4048.205029,4050.769132,3975.384518,4032.820414,4021.025543,4033.846055,4045.128106,4019.487081,4040.512722,4052.307593,4523.076812,4035.897337
27,0,4052.820414,4133.333232,4057.435798,4077.435798,3998.461441,4036.922978,4038.97426,4060.512721,4062.051183,4038.46144,3987.69221,4067.692208,4545.640914,4044.615286
28,0,4016.410158,4104.615284,4031.281953,4015.897338,3913.846058,4016.922979,4008.20503,4025.128107,4038.97426,4006.666569,3957.948621,4035.384517,4510.2563,4004.615287
29,0,4012.307594,4122.051181,4030.769132,4015.384517,3958.461442,4019.999902,4000.512723,4010.769133,4032.307594,4015.897338,4014.871697,4021.538363,4509.230659,4008.20503
30,0,4028.20503,4152.820411,4043.589645,4046.666568,4003.076825,4031.281953,4013.333235,4022.051184,4037.435799,4049.743491,4042.051183,4034.358876,4502.051172,4030.256312
31,0,3985.640928,4036.922978,4011.794774,3997.94862,3857.948624,4022.051184,3985.640928,3981.025544,4002.051184,3978.461441,3975.384518,4010.256312,4416.410148,3982.564005
32,0,3981.025544,4033.333235,4009.230671,3971.794775,3861.538367,4029.230671,3991.794774,3980.512723,4002.564005,3945.128109,3954.871698,4001.538364,4430.256302,3969.743493
33,0,4023.076825,4167.692206,4042.051183,4009.743492,3990.256313,4036.922978,4024.615286,4027.692209,4038.97426,4001.025543,3966.153749,4023.589645,4509.230659,4015.384517
34,0,4010.769133,4154.358873,4032.820414,4015.897338,3953.333237,4024.102466,4013.846056,4018.974261,4028.71785,4001.538364,3927.179391,4022.051184,4462.051173,4011.281953
35,0,4007.179389,4078.974259,4023.589645,4018.46144,3937.948622,4028.71785,4008.717851,4015.897338,4024.102466,4010.769133,3966.153749,4027.179389,4405.128097,4000.512723
36,0,4032.820414,4063.076824,4047.179388,4039.999901,3995.897338,4035.384517,4021.025543,4030.256312,4037.948619,4041.538363,4048.71785,4038.97426,4421.025533,4018.974261
37,0,4018.46144,4074.358875,4046.666568,4014.358876,3965.640929,4030.769132,4014.358876,4009.230671,4022.564004,4037.948619,4020.512722,4023.589645,4417.94861,4012.307594
38,0,3991.794774,4127.179386,4016.922979,3971.281954,3938.461442,4031.794773,4007.179389,3998.974261,4013.333235,4033.846055,3946.66657,4007.179389,4409.743482,3993.846056
39,0,3994.871697,4179.999898,4009.743492,4005.128107,3978.461441,4036.410158,4010.256312,4014.871697,4024.615286,4034.871696,3959.487083,4012.307594,4413.333225,3998.974261
40,0,3999.487082,4131.794771,4012.820415,4055.897337,3956.41016,4034.871696,4004.615287,4002.564005,4017.94862,4018.974261,4002.564005,4009.230671,4375.384508,3999.999902
41,0,4012.820415,4096.410156,4023.076825,4050.769132,3944.102468,4034.358876,4009.230671,4000.512723,4022.564004,4031.794773,4006.666569,4015.384517,4358.974252,4008.20503
42,0,4036.410158,4146.666565,4044.615286,4050.769132,4013.846056,4037.948619,4024.615286,4032.307594,4044.615286,4075.897336,4018.974261,4042.051183,4387.17938,4033.846055
43,0,4045.640927,4199.999897,4048.205029,4085.128105,4064.102465,4041.538363,4032.307594,4052.820414,4052.307593,4070.256311,4024.615286,4053.333234,4392.307585,4047.179388
44,0,4024.102466,4173.846052,4026.153748,4072.307593,4007.179389,4036.410158,4019.999902,4028.20503,4034.871696,4047.179388,4019.487081,4026.153748,4355.897329,4027.692209
45,0,4001.025543,4092.820413,4019.487081,4032.307594,3931.281955,4032.820414,4001.538364,3992.820415,4013.846056,4042.564004,3993.846056,3995.897338,4328.205022,4003.076825
46,0,4015.897338,4116.410156,4033.333235,4048.71785,3980.512723,4041.538363,4013.333235,4009.230671,4024.102466,4049.743491,3989.743492,4013.333235,4331.794766,4015.897338
47,0,4030.256312,4191.281949,4023.589645,4058.97426,4048.205029,4042.051183,4026.666568,4031.794773,4035.897337,4053.333234,4005.128107,4026.153748,4329.230663,4027.692209
48,0,4016.922979,4187.692205,4010.769133,4039.487081,4028.20503,4034.358876,4021.025543,4022.564004,4030.769132,4056.922978,3991.281954,4008.717851,4313.333228,4015.897338
49,0,4010.769133,4149.230668,4022.051184,4057.435798,4016.922979,4039.487081,4023.076825,4019.999902,4030.769132,4056.922978,3992.820415,4007.179389,4300.512715,4013.333235
50,0,4020.512722,4149.230668,4027.692209,4075.384516,4041.538363,4046.153747,4033.846055,4027.692209,4038.46144,4045.640927,4013.333235,4023.076825,4290.769126,4025.128107
51,0,4014.358876,4154.871693,4019.487081,4042.564004,4032.307594,4039.999901,4028.20503,4021.025543,4037.435799,4047.692209,4007.69221,4020.512722,4269.230665,4021.025543
52,0,4006.153748,4143.076822,4020.512722,4027.179389,4013.846056,4038.46144,4020.512722,4016.410158,4035.897337,4056.922978,4001.025543,4012.820415,4244.10246,4013.333235
53,0,4009.743492,4141.53836,4022.564004,4063.076824,4027.179389,4041.538363,4021.538363,4018.974261,4034.358876,4052.307593,4008.717851,4014.871697,4214.358871,4016.922979
54,0,4018.46144,4135.897335,4021.025543,4077.435798,4044.615286,4039.999901,4021.538363,4017.435799,4035.384517,4050.769132,4014.358876,4018.974261,4183.076821,4024.615286
55,0,4024.615286,4125.128104,4026.666568,4058.461439,4049.743491,4038.46144,4022.564004,4019.999902,4042.564004,4046.666568,4021.538363,4024.102466,4161.53836,4029.230671
56,0,4011.794774,4109.743489,4026.153748,4055.384516,4035.384517,4034.358876,4015.897338,4011.794774,4035.384517,4026.153748,4026.153748,4021.025543,4137.948617,4022.051184
57,0,4001.538364,4113.333233,4013.846056,4061.538362,4032.307594,4031.281953,4012.820415,4005.640928,4025.640927,4016.922979,4017.94862,4015.897338,4115.384515,4017.435799
58,0,4011.794774,4134.358873,4014.871697,4057.435798,4045.128106,4036.922978,4022.564004,4019.487081,4040.512722,4035.897337,4020.512722,4019.999902,4098.461438,4022.564004
59,0,4020.512722,4131.28195,4023.076825,4061.538362,4052.307593,4040.512722,4030.256312,4031.281953,4056.922978,4047.692209,4029.230671,4024.615286,4082.564003,4027.179389
60,0,4016.922979,4112.820412,4022.051184,4059.999901,4053.333234,4040.512722,4031.794773,4032.307594,4048.71785,4037.948619,4034.358876,4022.051184,4070.769131,4028.71785
61,0,4021.538363,4103.076823,4024.102466,4052.820414,4056.410157,4042.051183,4032.820414,4034.871696,4043.589645,4037.435799,4037.948619,4024.615286,4063.076824,4030.256312
62,0,4029.230671,4099.487079,4031.281953,4066.153747,4058.97426,4039.487081,4030.769132,4036.922978,4052.820414,4033.846055,4037.948619,4035.384517,4049.743491,4030.256312
63,0,4020.512722,4089.74349,4027.692209,4074.358875,4044.102465,4035.384517,4028.71785,4032.820414,4051.281952,4028.71785,4054.871696,4015.897338,4029.230671,4025.640927
64,0,4021.538363,4092.307592,4027.179389,4060.512721,4031.281953,4036.922978,4037.435799,4039.487081,4052.307593,4042.051183,4076.410157,3969.743493,4016.922979,4029.743491
65,0,4032.307594,4094.871695,4035.384517,4056.410157,4053.333234,4038.46144,4045.640927,4052.820414,4068.717849,4049.23067,4056.410157,3944.615288,4018.974261,4036.922978
66,0,4031.794773,4079.48708,4038.46144,4064.615285,4081.025541,4038.46144,4044.615286,4051.794773,4063.076824,4042.051183,4030.256312,3948.717852,4021.538363,4035.384517
67,0,4030.256312,4078.974259,4041.025542,4068.717849,4073.333234,4043.076824,4046.153747,4048.71785,4054.358875,4051.281952,4056.922978,3961.538365,4018.974261,4036.922978
68,0,4035.897337,4088.717849,4045.128106,4067.692208,4061.025542,4047.179388,4049.743491,4056.410157,4073.846054,4041.025542,4077.435798,3974.871698,4018.974261,4046.666568
69,0,4033.333235,4082.051182,4037.435799,4066.666567,4063.076824,4044.102465,4043.589645,4051.281952,4072.307593,4022.051184,4054.871696,3985.128108,4010.256312,4043.589645
70,0,4026.666568,4077.435798,4028.71785,4063.076824,4052.820414,4037.435799,4032.307594,4035.897337,4048.205029,4055.897337,4059.48708,3998.461441,4003.076825,4036.922978
71,0,4029.230671,4084.615285,4033.333235,4058.461439,4046.666568,4037.435799,4034.871696,4041.025542,4057.948619,4075.897336,4082.051182,4021.538363,4013.846056,4045.640927
72,0,4026.153748,4081.025541,4035.384517,4059.48708,4056.410157,4043.589645,4042.051183,4048.71785,4073.333234,4050.256311,4062.051183,4031.281953,4014.871697,4046.153747
73,0,4025.128107,4075.897336,4032.820414,4070.769131,4063.076824,4045.128106,4038.46144,4046.666568,4063.589644,4053.333234,4053.846055,4032.820414,4005.640928,4039.999901
74,0,4037.948619,4090.769131,4042.051183,4065.128106,4067.692208,4043.589645,4039.999901,4056.410157,4068.205029,4078.461439,4085.640926,4047.692209,4013.846056,4052.820414
75,0,4042.051183,4094.871695,4048.71785,4053.333234,4071.281952,4044.102465,4047.179388,4065.128106,4078.461439,4070.256311,4090.25631,4052.307593,4021.025543,4064.615285
76,0,4032.307594,4071.281952,4044.102465,4082.051182,4057.435798,4043.589645,4042.051183,4053.333234,4068.205029,4050.769132,4069.74349,4043.076824,4007.179389,4052.820414
77,0,4033.846055,4066.666567,4040.512722,4093.846054,4048.71785,4041.538363,4033.846055,4045.640927,4057.948619,4059.48708,4071.281952,4043.589645,4009.743492,4049.743491
78,0,4041.538363,4090.25631,4041.538363,4069.74349,4056.410157,4041.025542,4032.307594,4048.71785,4057.435798,4070.769131,4073.333234,4046.153747,4021.538363,4059.48708
79,0,4039.999901,4086.153746,4044.102465,4067.692208,4058.461439,4043.076824,4034.871696,4051.281952,4060.512721,4050.769132,4065.640926,4040.512722,4012.307594,4055.384516
80,0,4035.897337,4050.256311,4050.769132,4066.153747,4050.256311,4046.666568,4039.999901,4050.256311,4064.102465,4030.769132,4054.358875,4034.871696,4005.128107,4047.179388
81,0,4029.743491,4037.435799,4045.128106,4047.692209,4038.46144,4046.153747,4038.46144,4045.128106,4062.051183,4049.743491,4055.384516,4032.820414,3996.410159,4042.051183
82,0,4031.281953,4074.871695,4035.897337,4064.102465,4050.256311,4042.564004,4032.820414,4044.102465,4059.999901,4068.717849,4084.102464,4039.999901,3994.358877,4047.179388
83,0,4042.051183,4079.48708,4046.153747,4065.640926,4061.025542,4038.97426,4030.256312,4042.051183,4057.435798,4052.820414,4087.692208,4046.666568,4007.179389,4053.333234
84,0,4039.999901,4029.743491,4054.358875,4026.666568,4045.640927,4038.97426,4031.281953,4039.487081,4055.897337,4047.179388,4053.333234,4038.46144,4011.794774,4048.71785
85,0,4030.769132,4016.922979,4046.666568,4056.922978,4035.897337,4042.051183,4027.692209,4036.922978,4057.435798,4050.769132,4045.640927,4029.230671,4003.589646,4045.640927
86,0,4038.46144,4081.025541,4043.589645,4102.051182,4058.97426,4049.23067,4031.794773,4041.538363,4064.102465,4057.435798,4069.74349,4037.435799,4008.717851,4057.435798
87,0,4047.692209,4122.051181,4044.615286,4065.640926,4082.051182,4052.307593,4041.538363,4053.846055,4068.717849,4084.615285,4081.538362,4045.640927,4026.666568,4066.666567
88,0,4036.922978,4083.076823,4038.97426,4042.051183,4059.48708,4042.564004,4032.307594,4049.743491,4059.999901,4081.538362,4073.333234,4036.922978,4025.128107,4056.410157
89,0,4030.769132,4067.692208,4036.922978,4067.179388,4043.076824,4039.487081,4028.71785,4043.589645,4054.358875,4053.846055,4076.410157,4039.487081,4013.333235,4053.846055
90,0,4038.97426,4067.692208,4046.153747,4070.769131,4065.128106,4052.820414,4045.640927,4058.461439,4066.153747,4055.384516,4068.717849,4043.589645,4018.974261,4060.512721
91,0,4036.410158,4017.94862,4049.23067,4052.307593,4056.922978,4050.769132,4041.538363,4056.922978,4067.179388,4051.281952,4054.871696,4034.358876,4030.769132,4051.794773
92,0,4033.333235,4026.153748,4043.076824,4054.871696,4034.358876,4042.564004,4026.153748,4039.999901,4056.922978,4047.179388,4074.871695,4029.743491,4035.897337,4048.205029
93,0,4045.128106,4092.307592,4039.487081,4078.461439,4057.948619,4050.256311,4041.025542,4054.871696,4066.666567,4070.769131,4102.564002,4011.794774,4036.922978,4063.589644
94,0,4045.640927,4053.333234,4045.128106,4082.051182,4065.640926,4050.256311,4048.205029,4062.564003,4072.307593,4071.794772,4063.076824,3955.384519,4038.97426,4061.538362
95,0,4032.307594,3980.512723,4047.692209,4045.128106,4049.23067,4043.589645,4036.922978,4045.128106,4060.512721,4046.666568,4010.769133,3918.461443,4047.179388,4043.076824
96,0,4027.179389,4005.128107,4033.333235,4035.384517,4042.564004,4051.281952,4041.538363,4043.076824,4056.922978,4046.666568,4028.20503,3927.179391,4052.307593,4042.051183
97,0,4020.512722,4003.076825,4023.076825,4043.076824,4006.153748,4047.179388,4033.333235,4033.333235,4046.153747,4031.794773,4044.102465,3922.564007,4037.435799,4035.384517
98,0,4025.128107,3975.384518,4033.333235,4069.23067,4013.846056,4040.512722,4025.640927,4027.692209,4043.589645,4024.102466,4046.666568,3924.102468,4041.538363,4034.358876
99,0,4049.23067,4017.435799,4056.922978,4083.076823,4096.410156,4058.97426,4050.769132,4057.948619,4066.153747,4063.076824,4071.281952,3956.41016,4081.538362,4059.48708
100,0,4051.281952,4018.974261,4066.666567,4035.384517,4103.076823,4062.564003,4056.922978,4066.666567,4071.281952,4066.666567,4083.076823,3966.153749,4090.769131,4065.640926
101,0,4036.922978,3932.307596,4052.820414,4039.487081,4029.230671,4036.410158,4019.487081,4031.281953,4046.153747,4035.384517,4052.820414,3942.564006,4068.717849,4039.999901
102,0,4031.794773,3928.717853,4032.820414,4099.487079,3995.384518,4033.846055,4009.743492,4014.358876,4035.897337,4039.999901,4018.974261,3927.692212,4072.820413,4026.666568
103,0,4029.230671,3992.820415,4033.333235,4069.23067,4006.666569,4050.769132,4037.435799,4033.846055,4049.743491,4037.435799,4034.871696,3942.564006,4086.153746,4038.97426
104,0,4049.743491,3993.846056,4057.435798,4031.794773,4057.435798,4049.743491,4049.743491,4063.076824,4067.179388,4035.897337,4072.307593,3972.307595,4089.74349,4062.564003
105,0,4067.179388,3974.871698,4062.564003,4086.666567,4084.102464,4037.948619,4036.410158,4064.615285,4066.666567,4071.281952,4068.717849,3976.92298,4094.871695,4066.153747
106,0,4037.435799,3968.717852,4047.179388,4063.589644,4029.230671,4037.948619,4028.20503,4037.948619,4049.743491,4074.358875,4049.23067,3953.846057,4085.640926,4045.128106
107,0,4028.71785,3963.076826,4048.71785,4022.051184,4019.999902,4049.23067,4042.564004,4041.538363,4053.846055,4045.640927,4080.512721,3956.92298,4072.307593,4047.179388
108,0,4056.410157,3961.538365,4062.051183,4053.846055,4052.307593,4051.281952,4052.307593,4064.102465,4069.74349,4047.692209,4092.307592,3975.384518,4069.74349,4061.025542
109,0,4049.743491,3998.974261,4062.051183,4060.512721,4057.948619,4051.794773,4050.256311,4064.615285,4068.717849,4053.333234,4046.153747,3969.743493,4071.794772,4051.281952
110,0,4037.948619,4001.025543,4051.281952,4066.666567,4065.640926,4052.307593,4046.666568,4062.564003,4064.102465,4036.922978,4030.769132,3963.589647,4074.358875,4046.153747
111,0,4043.076824,3929.230673,4040.512722,4080.512721,4027.692209,4045.128106,4038.46144,4055.897337,4057.948619,4031.281953,4042.564004,3962.051185,4067.692208,4044.615286
112,0,4032.820414,3943.589647,4036.922978,4065.128106,3986.153749,4045.128106,4036.410158,4046.666568,4052.820414,4039.487081,4043.076824,3959.999903,4058.461439,4035.897337
113,0,4033.333235,4033.333235,4051.794773,4047.179388,4039.999901,4051.281952,4045.128106,4054.871696,4058.461439,4043.589645,4049.23067,3971.281954,4065.128106,4045.640927
114,0,4047.179388,4060.512721,4059.48708,4044.102465,4094.871695,4056.922978,4053.333234,4070.769131,4067.179388,4063.589644,4058.461439,3983.589646,4083.589644,4062.564003
115,0,4039.999901,4011.281953,4042.564004,4051.281952,4055.384516,4056.922978,4045.640927,4061.538362,4062.564003,4074.358875,4056.410157,3974.358877,4075.897336,4052.307593
116,0,4034.871696,3984.102467,4039.999901,4098.461438,4020.512722,4048.71785,4031.281953,4042.051183,4054.358875,4044.102465,4059.999901,3967.692211,4049.23067,4041.025542
117,0,4044.615286,3994.358877,4057.435798,4081.538362,4033.333235,4049.23067,4031.794773,4041.538363,4054.871696,4029.230671,4052.307593,3976.410159,4049.23067,4048.205029
118,0,4047.179388,4036.410158,4061.025542,3998.974261,4058.97426,4059.999901,4044.615286,4056.410157,4061.538362,4061.025542,4046.666568,3989.743492,4063.076824,4059.48708
119,0,4048.71785,4086.153746,4054.871696,4037.435799,4077.435798,4055.897337,4048.205029,4064.615285,4067.692208,4083.076823,4073.333234,3994.871697,4062.564003,4064.615285
120,0,4038.46144,4006.666569,4043.589645,4083.076823,4027.692209,4036.922978,4028.20503,4048.205029,4059.999901,4051.794773,4071.794772,3976.410159,4039.999901,4045.640927
121,0,4029.230671,3946.66657,4033.333235,4029.743491,3998.461441,4038.97426,4023.076825,4042.051183,4056.410157,4032.307594,4046.666568,3970.769134,4029.230671,4031.794773
122,0,4043.589645,4054.871696,4044.102465,4057.435798,4052.307593,4055.897337,4042.564004,4056.410157,4063.076824,4061.025542,4047.692209,3989.743492,4050.769132,4051.281952
123,0,4050.256311,4109.743489,4058.97426,4126.666566,4080.512721,4059.999901,4051.794773,4060.512721,4062.051183,4069.74349,4062.051183,3996.922979,4061.538362,4062.564003
124,0,4037.948619,4032.307594,4052.820414,4059.48708,4062.564003,4056.410157,4049.743491,4062.051183,4062.051183,4044.615286,4074.358875,3993.333236,4038.46144,4049.743491
125,0,4021.025543,3971.281954,4036.922978,4022.564004,4037.948619,4048.205029,4039.487081,4057.435798,4055.384516,4019.487081,4055.384516,3985.640928,4008.717851,4029.230671
126,0,4018.46144,3986.666569,4033.846055,4078.974259,4016.410158,4047.692209,4032.820414,4047.179388,4046.666568,4029.743491,4024.102466,3977.948621,4020.512722,4024.615286
127,0,4044.615286,4036.922978,4050.256311,4056.922978,4037.435799,4057.435798,4049.23067,4057.948619,4059.999901,4070.256311,4041.538363,3997.4358,4058.97426,4050.256311
128,0,4058.97426,4068.205029,4066.666567,4006.153748,4068.717849,4057.948619,4057.948619,4067.692208,4068.205029,4066.153747,4071.794772,4015.384517,4054.871696,4065.640926
0,0,4038.97426,4037.435799,4056.922978,4046.153747,4049.23067,4048.205029,4037.948619,4052.820414,4050.769132,4025.128107,4058.97426,3999.487082,4027.692209,4047.179388
1,0,4034.358876,4026.666568,4044.102465,4105.640925,4037.435799,4048.71785,4032.307594,4055.384516,4052.820414,4030.256312,4047.692209,3995.384518,4042.564004,4044.615286
2,0,4053.333234,4077.435798,4050.256311,4098.461438,4059.48708,4055.384516,4053.333234,4080.512721,4075.384516,4064.615285,4067.692208,4016.922979,4065.128106,4066.153747
3,0,4049.743491,4059.48708,4048.205029,4052.820414,4052.820414,4051.281952,4054.358875,4070.256311,4063.589644,4052.820414,4067.692208,4012.307594,4043.589645,4059.48708
4,0,4035.384517,4027.179389,4038.46144,4031.281953,4037.948619,4047.692209,4037.435799,4042.051183,4042.051183,4042.051183,4049.743491,3993.333236,4024.615286,4039.999901
5,0,4038.97426,4056.922978,4041.538363,4072.820413,4049.743491,4051.794773,4038.46144,4047.692209,4053.846055,4065.128106,4050.256311,4001.538364,4037.948619,4043.589645
6,0,4032.307594,4045.128106,4034.871696,4078.461439,4038.46144,4048.71785,4039.487081,4051.281952,4059.48708,4052.820414,4043.076824,4002.051184,4043.589645,4043.076824
7,0,4028.20503,4041.025542,4026.153748,4032.307594,4038.97426,4051.281952,4036.922978,4047.692209,4049.23067,4037.435799,4037.435799,3996.922979,4043.076824,4043.076824
8,0,4045.640927,4081.025541,4039.487081,4037.948619,4063.589644,4061.025542,4045.640927,4063.589644,4059.48708,4054.871696,4066.153747,4016.922979,4047.179388,4060.512721
9,0,4048.205029,4056.410157,4049.23067,4071.281952,4056.922978,4055.897337,4048.71785,4067.692208,4067.179388,4049.743491,4078.974259,4025.640927,4039.487081,4062.564003
10,0,4035.384517,4017.94862,4041.538363,4094.871695,4050.256311,4048.71785,4039.487081,4052.820414,4052.307593,4029.230671,4043.076824,4009.230671,4033.846055,4048.71785
11,0,4034.871696,4053.333234,4029.743491,4076.922977,4049.23067,4052.307593,4036.922978,4051.794773,4049.23067,4041.025542,4032.820414,4006.666569,4035.897337,4049.23067
12,0,4039.487081,4062.051183,4038.46144,4029.743491,4041.538363,4051.281952,4042.051183,4057.948619,4062.564003,4057.435798,4060.512721,4024.615286,4028.20503,4056.410157
13,0,4039.999901,4011.794774,4059.999901,4021.538363,4036.922978,4051.281952,4039.999901,4051.281952,4059.48708,4049.743491,4065.640926,4027.692209,4015.897338,4052.820414
14,0,4055.897337,4043.589645,4065.128106,4056.410157,4061.025542,4064.102465,4050.769132,4063.076824,4058.97426,4061.025542,4075.897336,4034.358876,4025.640927,4063.589644
15,0,4064.615285,4094.358874,4055.384516,4075.897336,4082.051182,4063.076824,4061.538362,4078.461439,4070.256311,4078.461439,4090.25631,4047.692209,4041.025542,4076.922977
16,0,4044.102465,4033.846055,4051.281952,4076.922977,4046.153747,4044.102465,4043.589645,4053.333234,4060.512721,4052.307593,4062.051183,4034.871696,4030.256312,4058.461439
17,0,4034.358876,4007.179389,4050.769132,4089.74349,4021.025543,4040.512722,4031.794773,4037.435799,4047.692209,4023.589645,4039.487081,4024.102466,4015.897338,4046.666568
18,0,4051.794773,4056.410157,4055.384516,4059.999901,4048.205029,4052.307593,4048.205029,4061.538362,4055.384516,4042.051183,4062.051183,4043.589645,4021.538363,4066.153747
19,0,4066.153747,4063.076824,4074.358875,4016.922979,4073.333234,4056.922978,4059.48708,4074.358875,4062.564003,4069.74349,4084.102464,4061.025542,4036.410158,4079.48708
20,0,4063.076824,4063.076824,4071.281952,4044.615286,4063.589644,4055.897337,4052.307593,4060.512721,4059.48708,4061.025542,4075.897336,4051.281952,4042.564004,4071.794772
21,0,4051.794773,4065.640926,4054.871696,4076.922977,4052.307593,4052.307593,4042.051183,4050.769132,4055.897337,4030.769132,4055.384516,4037.948619,4030.769132,4061.025542
22,0,4038.46144,4011.281953,4050.256311,4069.23067,4047.179388,4045.128106,4028.71785,4041.025542,4044.615286,4018.974261,4042.051183,4030.256312,4016.922979,4049.743491
23,0,4041.025542,3996.410159,4048.205029,4072.307593,4045.640927,4045.128106,4026.666568,4038.46144,4040.512722,4026.153748,4054.358875,4032.307594,4016.410158,4050.256311
24,0,4064.615285,4062.564003,4059.999901,4099.487079,4078.461439,4061.538362,4048.205029,4067.692208,4064.615285,4037.435799,4079.9999,4056.922978,4025.640927,4072.820413
25,0,4061.025542,4081.538362,4065.128106,4066.666567,4076.410157,4066.153747,4056.922978,4079.9999,4075.897336,4061.025542,4079.48708,4064.615285,4029.743491,4076.922977
26,0,4038.97426,4057.948619,4048.71785,4023.076825,4051.281952,4051.794773,4043.589645,4062.564003,4058.461439,4078.461439,4055.897337,4042.051183,4030.256312,4059.999901
27,0,4049.23067,4040.512722,4045.640927,4071.281952,4060.512721,4050.769132,4041.538363,4064.615285,4056.410157,4069.23067,4065.128106,4043.076824,4028.71785,4063.589644
28,0,4066.666567,4035.384517,4060.512721,4110.25631,4064.615285,4060.512721,4047.179388,4078.461439,4071.794772,4062.051183,4093.333233,4063.076824,4027.179389,4079.48708
29,0,4059.48708,4064.102465,4067.179388,4069.23067,4063.076824,4057.435798,4046.666568,4076.410157,4072.307593,4072.820413,4090.25631,4065.640926,4037.435799,4081.025541
30,0,4057.435798,4078.461439,4066.666567,4062.051183,4073.846054,4051.794773,4047.692209,4069.23067,4065.640926,4075.897336,4079.9999,4064.102465,4046.666568,4079.48708
31,0,4058.461439,4059.48708,4059.999901,4097.435797,4064.102465,4055.897337,4044.102465,4063.589644,4066.666567,4065.640926,4076.410157,4064.615285,4035.897337,4078.461439
32,0,4044.102465,4031.794773,4048.71785,4077.435798,4034.871696,4053.846055,4033.333235,4047.179388,4057.948619,4049.23067,4058.461439,4048.71785,4019.999902,4064.615285
33,0,4046.666568,4026.153748,4053.333234,4069.74349,4049.23067,4049.743491,4033.846055,4043.076824,4050.256311,4039.999901,4061.025542,4044.615286,4022.564004,4061.538362
34,0,4059.999901,4065.128106,4056.410157,4102.564002,4073.333234,4055.384516,4046.153747,4061.025542,4062.051183,4056.922978,4082.051182,4057.435798,4031.794773,4073.846054
35,0,4059.48708,4108.205028,4053.333234,4096.410156,4073.846054,4063.076824,4055.897337,4074.871695,4072.820413,4079.9999,4078.461439,4061.538362,4036.922978,4079.48708
36,0,4066.153747,4087.179387,4064.102465,4079.48708,4086.153746,4065.128106,4061.025542,4078.461439,4072.307593,4079.9999,4081.025541,4069.23067,4040.512722,4084.102464
37,0,4065.640926,4048.205029,4063.076824,4075.897336,4069.74349,4057.435798,4050.256311,4070.256311,4063.589644,4065.128106,4087.179387,4072.307593,4029.743491,4082.051182
38,0,4050.769132,4055.897337,4051.281952,4082.051182,4042.564004,4051.281952,4037.435799,4061.538362,4057.948619,4058.461439,4064.102465,4062.051183,4015.384517,4070.256311
39,0,4059.999901,4074.871695,4062.564003,4102.051182,4068.205029,4057.948619,4048.71785,4074.871695,4072.820413,4069.74349,4069.23067,4074.871695,4022.051184,4078.461439
40,0,4082.564003,4082.564003,4079.48708,4101.538361,4099.487079,4065.128106,4065.640926,4096.410156,4089.230669,4081.538362,4099.9999,4098.461438,4032.307594,4096.410156
41,0,4081.538362,4099.9999,4073.846054,4081.538362,4090.25631,4063.589644,4064.102465,4091.281951,4080.512721,4090.25631,4093.333233,4094.871695,4026.153748,4091.794772
42,0,4070.769131,4101.538361,4062.564003,4090.25631,4075.384516,4061.538362,4060.512721,4079.48708,4071.794772,4099.487079,4078.974259,4089.230669,4021.538363,4082.051182
43,0,4058.461439,4059.48708,4054.871696,4085.128105,4056.922978,4059.999901,4058.97426,4078.461439,4076.922977,4075.897336,4077.435798,4087.179387,4017.435799,4073.846054
44,0,4044.102465,4038.97426,4046.666568,4070.256311,4042.564004,4056.410157,4053.333234,4076.922977,4075.897336,4049.743491,4065.128106,4076.922977,4006.666569,4061.025542
45,0,4054.358875,4077.948618,4056.922978,4099.487079,4071.281952,4059.999901,4055.897337,4085.640926,4078.461439,4071.794772,4071.794772,4091.281951,4009.230671,4069.23067
46,0,4071.281952,4105.128105,4066.666567,4113.333233,4097.435797,4067.179388,4064.102465,4092.307592,4082.564003,4095.384515,4084.102464,4108.205028,4021.025543,4085.640926
47,0,4059.48708,4067.179388,4053.333234,4078.974259,4077.435798,4063.076824,4058.461439,4077.948618,4074.871695,4063.076824,4062.051183,4087.692208,4014.358876,4072.820413
48,0,4047.179388,4032.307594,4043.589645,4058.97426,4055.897337,4059.999901,4054.871696,4071.281952,4071.281952,4038.46144,4052.307593,4071.794772,4000.512723,4056.922978
49,0,4052.820414,4050.769132,4045.128106,4067.179388,4059.999901,4060.512721,4059.999901,4076.410157,4069.23067,4071.794772,4070.256311,4083.076823,4004.102466,4064.615285
50,0,4060.512721,4061.025542,4048.71785,4088.717849,4078.461439,4060.512721,4058.461439,4074.871695,4065.128106,4095.897336,4077.948618,4092.820413,4014.871697,4076.922977
51,0,4054.871696,4047.179388,4046.153747,4092.307592,4080.512721,4057.435798,4055.384516,4072.820413,4069.23067,4070.256311,4071.281952,4089.230669,4010.769133,4073.333234
52,0,4050.256311,4053.846055,4038.97426,4078.974259,4071.794772,4057.435798,4054.871696,4076.922977,4072.307593,4050.256311,4067.692208,4083.589644,4002.051184,4063.076824
53,0,4054.871696,4071.281952,4038.97426,4073.846054,4065.640926,4061.538362,4051.794773,4075.897336,4067.692208,4074.871695,4064.102465,4081.025541,4005.640928,4062.564003
54,0,4056.410157,4033.846055,4047.692209,4065.128106,4048.71785,4059.999901,4045.640927,4067.179388,4064.102465,4077.435798,4056.922978,4076.410157,4001.025543,4061.538362
55,0,4056.410157,4003.589646,4050.769132,4070.769131,4052.307593,4056.922978,4048.205029,4066.666567,4069.23067,4038.46144,4054.871696,4077.435798,3995.384518,4062.051183
56,0,4057.435798,4046.153747,4043.589645,4087.692208,4074.358875,4059.999901,4049.743491,4074.358875,4071.281952,4039.999901,4066.666567,4085.640926,3999.999902,4069.23067
57,0,4065.128106,4076.922977,4048.71785,4087.179387,4077.948618,4062.051183,4049.743491,4079.9999,4071.794772,4091.281951,4090.25631,4093.846054,4007.179389,4076.410157
58,0,4069.23067,4059.999901,4057.948619,4084.615285,4063.589644,4059.999901,4055.897337,4078.461439,4074.871695,4109.743489,4087.692208,4091.281951,4013.846056,4076.922977
59,0,4057.948619,4029.743491,4055.384516,4093.333233,4041.025542,4054.871696,4051.281952,4065.640926,4069.74349,4062.051183,4054.871696,4079.9999,4009.230671,4067.692208
60,0,4052.307593,4029.230671,4046.666568,4086.153746,4040.512722,4052.307593,4036.922978,4054.871696,4059.999901,4032.820414,4046.666568,4075.897336,3992.820415,4058.97426
61,0,4059.999901,4042.564004,4051.794773,4052.820414,4070.256311,4054.358875,4034.871696,4053.333234,4054.358875,4055.384516,4057.948619,4076.922977,3991.281954,4057.948619
62,0,4069.23067,4065.640926,4062.051183,4063.589644,4098.974259,4065.640926,4050.256311,4064.615285,4061.538362,4063.589644,4063.589644,4084.102464,4010.256312,4068.205029
63,0,4077.435798,4084.102464,4062.564003,4102.564002,4096.410156,4069.74349,4058.97426,4079.48708,4075.897336,4056.922978,4078.974259,4097.948618,4018.974261,4082.051182
64,0,4076.410157,4055.384516,4059.999901,4104.615284,4069.23067,4058.461439,4049.23067,4073.846054,4072.820413,4069.74349,4087.692208,4095.897336,4007.69221,4078.461439
65,0,4058.461439,4020.512722,4054.871696,4093.333233,4044.615286,4057.435798,4042.051183,4055.897337,4058.461439,4074.358875,4062.051183,4077.435798,3997.94862,4061.025542
66,0,4052.820414,4032.820414,4048.205029,4088.717849,4057.435798,4063.589644,4047.692209,4062.051183,4063.076824,4065.640926,4047.179388,4074.871695,3995.897338,4056.922978
67,0,4061.025542,4064.102465,4040.512722,4057.435798,4084.615285,4061.025542,4051.794773,4077.948618,4075.384516,4066.153747,4066.153747,4081.538362,3994.358877,4062.564003
68,0,4056.410157,4070.769131,4038.97426,4048.71785,4086.666567,4059.999901,4049.23067,4069.23067,4066.666567,4043.076824,4068.205029,4073.846054,3999.999902,4059.48708
69,0,4045.640927,4041.025542,4043.076824,4086.153746,4067.179388,4061.538362,4044.615286,4053.846055,4054.358875,4021.538363,4036.410158,4066.153747,3999.999902,4052.307593
70,0,4049.743491,4021.538363,4044.102465,4074.871695,4052.307593,4057.435798,4046.666568,4063.076824,4064.102465,4054.871696,4041.538363,4076.922977,3991.281954,4055.384516
71,0,4067.179388,4051.281952,4049.743491,4060.512721,4067.692208,4056.922978,4051.281952,4080.512721,4078.461439,4088.205028,4080.512721,4090.25631,3999.487082,4069.74349
72,0,4075.384516,4071.281952,4055.384516,4104.615284,4095.897336,4062.051183,4050.769132,4075.897336,4072.820413,4078.974259,4081.025541,4090.25631,4016.410158,4077.948618
73,0,4066.666567,4038.46144,4050.256311,4107.179387,4083.076823,4059.48708,4047.692209,4062.051183,4066.153747,4064.615285,4065.640926,4079.9999,4010.769133,4068.717849
74,0,4053.846055,4026.153748,4041.025542,4059.999901,4053.333234,4054.358875,4042.051183,4059.999901,4069.23067,4047.692209,4074.358875,4072.307593,3995.384518,4058.461439
75,0,4055.384516,4051.281952,4048.205029,4068.205029,4068.205029,4061.538362,4045.128106,4069.23067,4071.281952,4033.846055,4067.179388,4079.9999,4005.640928,4063.076824
76,0,4062.564003,4048.205029,4056.922978,4094.871695,4080.512721,4066.666567,4055.897337,4069.74349,4065.128106,4066.153747,4050.769132,4083.589644,4018.974261,4067.692208
77,0,4062.564003,4040.512722,4051.281952,4082.051182,4062.051183,4063.076824,4058.461439,4068.717849,4071.794772,4075.897336,4063.589644,4079.9999,4019.999902,4067.692208
78,0,4056.922978,4043.589645,4044.615286,4075.897336,4059.999901,4062.051183,4051.794773,4072.820413,4078.974259,4024.615286,4061.538362,4082.051182,4017.435799,4066.153747
79,0,4057.435798,4037.948619,4050.256311,4096.410156,4083.076823,4070.256311,4058.97426,4079.48708,4075.897336,4018.46144,4059.48708,4090.769131,4018.46144,4068.205029
80,0,4060.512721,4039.487081,4058.97426,4098.974259,4086.153746,4068.717849,4064.615285,4080.512721,4072.307593,4078.974259,4075.897336,4090.769131,4023.589645,4074.358875
81,0,4059.999901,4037.948619,4057.948619,4073.846054,4061.025542,4056.410157,4050.769132,4066.666567,4065.640926,4094.358874,4064.102465,4082.564003,4022.564004,4072.820413
82,0,4062.051183,4035.384517,4053.333234,4069.23067,4058.97426,4061.025542,4052.307593,4064.615285,4070.769131,4054.871696,4050.769132,4083.589644,4021.538363,4072.307593
83,0,4062.564003,4047.692209,4050.769132,4093.333233,4079.48708,4071.281952,4063.589644,4074.358875,4076.922977,4047.179388,4060.512721,4085.128105,4022.564004,4074.358875
84,0,4066.153747,4053.846055,4055.384516,4092.820413,4092.820413,4071.281952,4062.564003,4075.384516,4069.74349,4053.333234,4059.48708,4085.640926,4023.076825,4075.384516
85,0,4074.358875,4041.538363,4060.512721,4082.564003,4091.794772,4067.692208,4056.922978,4071.281952,4068.205029,4041.025542,4057.948619,4090.769131,4020.512722,4075.897336
86,0,4073.846054,4039.999901,4057.435798,4094.871695,4082.051182,4068.205029,4056.922978,4067.179388,4071.794772,4043.076824,4065.128106,4087.179387,4018.974261,4073.846054
87,0,4067.692208,4036.922978,4057.948619,4083.076823,4075.897336,4069.23067,4063.076824,4069.23067,4070.769131,4058.97426,4060.512721,4085.128105,4019.999902,4067.179388
88,0,4060.512721,4008.717851,4058.97426,4066.153747,4070.769131,4069.23067,4056.922978,4067.179388,4062.564003,4055.384516,4046.666568,4084.615285,4016.922979,4058.97426
89,0,4057.948619,4008.717851,4049.23067,4101.538361,4069.23067,4067.692208,4044.615286,4058.97426,4060.512721,4050.769132,4045.640927,4076.922977,4015.384517,4057.948619
90,0,4061.025542,4046.666568,4045.640927,4109.743489,4071.794772,4066.153747,4049.743491,4060.512721,4066.666567,4063.589644,4063.076824,4076.922977,4020.512722,4064.102465
91,0,4063.076824,4043.589645,4054.871696,4086.153746,4074.871695,4067.692208,4057.948619,4071.794772,4072.820413,4065.640926,4073.333234,4084.615285,4021.538363,4066.666567
92,0,4069.74349,4005.128107,4064.102465,4097.435797,4083.589644,4067.692208,4053.333234,4074.358875,4071.794772,4068.205029,4058.461439,4088.205028,4021.538363,4063.589644
93,0,4073.846054,4007.69221,4063.076824,4092.820413,4086.153746,4062.051183,4050.256311,4072.307593,4070.256311,4079.48708,4055.384516,4089.230669,4022.564004,4063.589644
94,0,4061.538362,4021.538363,4060.512721,4067.179388,4073.333234,4059.48708,4052.307593,4073.333234,4069.74349,4058.461439,4064.102465,4086.153746,4014.358876,4062.051183
95,0,4059.48708,4007.69221,4062.051183,4090.769131,4066.666567,4064.615285,4053.846055,4071.794772,4065.128106,4038.46144,4055.384516,4083.076823,4012.307594,4060.512721
96,0,4074.871695,4012.307594,4064.102465,4118.461438,4075.384516,4068.205029,4059.48708,4072.820413,4065.640926,4064.615285,4053.846055,4088.717849,4024.615286,4066.153747
97,0,4069.23067,4021.538363,4056.410157,4090.25631,4066.153747,4067.179388,4060.512721,4075.384516,4069.23067,4071.794772,4059.48708,4086.153746,4018.974261,4060.512721
98,0,4055.384516,4014.871697,4047.692209,4061.538362,4056.410157,4066.666567,4059.48708,4074.871695,4069.74349,4046.153747,4050.256311,4073.333234,4007.179389,4049.743491
99,0,4062.564003,4007.69221,4060.512721,4073.846054,4069.23067,4066.666567,4062.564003,4078.461439,4073.846054,4045.128106,4053.846055,4078.461439,4012.820415,4054.871696
100,0,4072.820413,4001.025543,4072.307593,4106.153746,4074.358875,4067.179388,4057.948619,4076.922977,4069.74349,4068.205029,4066.666567,4088.205028,4017.94862,4065.128106
101,0,4076.410157,4012.820415,4068.205029,4115.897335,4074.871695,4065.640926,4052.820414,4069.74349,4064.615285,4079.48708,4072.307593,4089.74349,4018.46144,4070.769131
102,0,4081.538362,4029.743491,4069.23067,4096.922977,4079.48708,4062.564003,4054.358875,4070.769131,4069.23067,4069.74349,4070.256311,4092.820413,4027.179389,4076.410157
103,0,4078.974259,4018.46144,4076.922977,4095.897336,4075.897336,4061.538362,4047.179388,4063.589644,4062.051183,4061.025542,4058.97426,4091.794772,4029.743491,4076.410157
104,0,4080.512721,4020.512722,4077.948618,4110.76913,4083.589644,4063.589644,4045.128106,4062.564003,4058.97426,4070.256311,4063.589644,4093.333233,4027.692209,4076.410157
105,0,4081.025541,4034.871696,4072.307593,4097.948618,4081.538362,4064.615285,4053.846055,4071.794772,4069.74349,4070.769131,4072.820413,4094.871695,4029.230671,4074.871695
106,0,4065.128106,4006.153748,4063.076824,4063.076824,4050.769132,4063.589644,4051.281952,4065.640926,4064.615285,4052.820414,4056.922978,4083.076823,4022.051184,4063.076824
107,0,4058.461439,3982.051185,4056.922978,4077.948618,4054.358875,4065.128106,4047.179388,4058.97426,4057.435798,4053.333234,4053.333234,4075.384516,4015.384517,4055.384516
108,0,4068.205029,3994.871697,4057.948619,4120.51272,4091.794772,4068.717849,4056.410157,4076.410157,4072.307593,4068.205029,4069.23067,4086.666567,4014.871697,4059.999901
109,0,4069.74349,4000.512723,4062.051183,4109.743489,4093.846054,4074.871695,4068.205029,4094.358874,4081.025541,4063.589644,4061.538362,4093.846054,4017.435799,4065.128106
110,0,4068.205029,4010.769133,4061.538362,4081.025541,4078.974259,4072.820413,4069.23067,4087.179387,4072.307593,4077.435798,4054.871696,4085.640926,4027.179389,4068.205029
111,0,4070.769131,3998.461441,4064.615285,4092.307592,4077.948618,4065.640926,4061.538362,4076.922977,4073.846054,4089.230669,4068.205029,4086.153746,4030.769132,4067.692208
112,0,4070.256311,3974.871698,4069.23067,4099.487079,4082.051182,4069.74349,4060.512721,4081.025541,4077.435798,4058.97426,4068.717849,4094.358874,4020.512722,4065.128106
113,0,4063.589644,3986.153749,4064.102465,4077.435798,4071.794772,4071.794772,4057.948619,4075.384516,4068.205029,4052.307593,4054.871696,4084.615285,4017.435799,4059.48708
114,0,4065.640926,3998.974261,4061.025542,4077.948618,4055.897337,4060.512721,4049.23067,4065.128106,4065.640926,4081.025541,4058.461439,4077.435798,4025.128107,4058.97426
115,0,4079.9999,3999.487082,4072.307593,4106.153746,4072.820413,4061.025542,4051.281952,4073.846054,4075.384516,4077.948618,4076.410157,4095.384515,4027.692209,4069.23067
116,0,4095.897336,4022.051184,4081.538362,4118.461438,4108.717848,4074.358875,4061.538362,4082.051182,4077.435798,4073.846054,4081.538362,4106.666566,4033.846055,4078.974259
117,0,4092.307592,4018.46144,4076.410157,4095.897336,4095.897336,4072.820413,4054.871696,4067.692208,4067.692208,4082.564003,4072.820413,4095.384515,4037.435799,4076.922977
118,0,4079.48708,3985.640928,4074.358875,4071.281952,4069.23067,4063.076824,4043.076824,4062.051183,4065.640926,4063.076824,4073.333234,4090.769131,4026.666568,4073.333234
119,0,4081.538362,3996.410159,4075.384516,4083.076823,4072.307593,4063.589644,4047.692209,4069.74349,4066.666567,4052.820414,4072.820413,4094.871695,4022.564004,4072.820413
120,0,4089.230669,4019.999902,4072.307593,4112.820412,4075.384516,4065.640926,4051.794773,4062.564003,4058.461439,4076.922977,4068.717849,4093.846054,4033.846055,4071.794772
121,0,4096.410156,4015.897338,4084.102464,4126.666566,4091.281951,4070.256311,4059.48708,4070.769131,4067.179388,4091.281951,4089.230669,4104.615284,4039.487081,4082.564003
122,0,4096.410156,4011.794774,4094.358874,4107.179387,4105.640925,4074.358875,4069.74349,4090.25631,4082.051182,4086.666567,4102.564002,4113.846053,4034.358876,4087.179387
123,0,4089.230669,4013.846056,4082.051182,4087.692208,4087.692208,4073.333234,4067.179388,4083.076823,4073.333234,4078.974259,4079.48708,4099.9999,4033.846055,4075.897336
124,0,4092.820413,4024.615286,4074.358875,4103.076823,4083.589644,4073.333234,4064.102465,4072.820413,4065.640926,4072.820413,4072.820413,4091.281951,4036.410158,4076.410157
125,0,4095.897336,4026.153748,4078.461439,4117.435797,4099.487079,4071.794772,4065.640926,4080.512721,4076.922977,4070.769131,4086.153746,4095.897336,4030.769132,4081.538362
126,0,4079.48708,4009.743492,4065.640926,4091.794772,4083.076823,4067.692208,4058.461439,4077.435798,4074.358875,4065.640926,4065.640926,4085.640926,4019.999902,4068.717849
127,0,4069.74349,4005.128107,4059.48708,4079.9999,4073.333234,4069.23067,4052.307593,4066.153747,4061.025542,4062.051183,4042.051183,4072.820413,4017.435799,4061.025542
128,0,4078.974259,4017.435799,4071.794772,4102.564002,4098.461438,4071.281952,4060.512721,4073.333234,4064.615285,4069.23067,4053.333234,4075.384516,4021.025543,4066.666567
0,0,4069.74349,4013.846056,4059.999901,4087.179387,4093.333233,4070.769131,4062.051183,4078.461439,4069.74349,4068.717849,4057.435798,4068.205029,4015.384517,4057.435798
1,0,4054.871696,4000.512723,4042.051183,4057.948619,4076.410157,4073.846054,4050.256311,4064.102465,4063.076824,4057.948619,4045.128106,4055.384516,4011.794774,4048.71785
2,0,4069.23067,4003.076825,4054.871696,4085.128105,4085.640926,4073.333234,4049.23067,4057.435798,4062.564003,4062.564003,4052.820414,4068.205029,4020.512722,4061.538362
3,0,4082.564003,4021.025543,4066.666567,4096.922977,4087.692208,4070.256311,4065.640926,4072.307593,4073.846054,4078.974259,4068.205029,4079.9999,4027.692209,4070.256311
4,0,4066.666567,4031.794773,4049.743491,4070.256311,4070.769131,4067.179388,4065.128106,4078.461439,4075.897336,4070.256311,4056.922978,4061.538362,4018.46144,4055.384516
5,0,4048.71785,4012.820415,4037.948619,4073.333234,4063.076824,4063.589644,4044.102465,4062.051183,4061.538362,4042.564004,4044.102465,4045.128106,4004.615287,4042.051183
6,0,4054.358875,3978.974262,4052.820414,4074.358875,4073.333234,4063.589644,4044.615286,4061.538362,4058.461439,4043.589645,4054.358875,4058.461439,4007.69221,4051.794773
7,0,4072.820413,3993.333236,4064.615285,4071.281952,4092.820413,4073.333234,4062.564003,4080.512721,4074.358875,4070.769131,4067.179388,4074.871695,4022.564004,4065.128106
8,0,4075.897336,4042.051183,4054.358875,4096.922977,4105.640925,4080.512721,4065.640926,4085.640926,4082.564003,4068.717849,4058.97426,4069.23067,4022.564004,4061.538362
9,0,4063.589644,4046.666568,4045.128106,4089.230669,4094.871695,4073.846054,4058.461439,4076.922977,4073.333234,4042.051183,4035.897337,4058.461439,4009.230671,4050.256311
10,0,4045.640927,4004.102466,4042.564004,4058.97426,4064.102465,4066.666567,4047.179388,4058.97426,4057.435798,4018.46144,4016.410158,4044.102465,3995.897338,4038.46144
11,0,4036.922978,3991.794774,4034.358876,4072.820413,4056.922978,4068.717849,4043.076824,4044.615286,4051.281952,4012.820415,4016.922979,4032.820414,3989.230672,4027.692209
12,0,4048.205029,4014.871697,4035.897337,4090.769131,4092.820413,4076.410157,4057.435798,4061.025542,4062.051183,4037.948619,4034.358876,4046.666568,3997.94862,4035.897337
13,0,4060.512721,4013.333235,4052.820414,4070.769131,4109.230669,4076.410157,4065.640926,4079.48708,4072.307593,4062.564003,4047.179388,4055.897337,4009.743492,4053.333234
14,0,4059.999901,4006.666569,4063.076824,4061.025542,4081.025541,4071.794772,4050.256311,4067.692208,4067.179388,4059.48708,4055.897337,4029.230671,4009.743492,4058.97426
15,0,4066.666567,4029.743491,4062.564003,4080.512721,4072.307593,4070.256311,4047.692209,4064.102465,4068.205029,4050.256311,4067.179388,4014.358876,4011.281953,4060.512721
16,0,4077.435798,4039.999901,4062.051183,4106.666566,4092.820413,4071.281952,4062.051183,4079.48708,4075.897336,4057.435798,4067.179388,4026.153748,4018.46144,4066.666567
17,0,4070.256311,4017.435799,4058.97426,4115.384515,4088.717849,4071.794772,4061.538362,4073.846054,4068.717849,4057.948619,4054.871696,4019.487081,4017.94862,4064.615285
18,0,4059.48708,4011.794774,4056.410157,4095.897336,4074.871695,4070.256311,4047.692209,4056.922978,4057.948619,4037.948619,4046.153747,4007.69221,4010.769133,4056.410157
19,0,4067.179388,4019.487081,4064.615285,4089.230669,4083.589644,4069.23067,4050.256311,4065.640926,4064.102465,4036.410158,4055.897337,4021.538363,4009.743492,4059.999901
20,0,4086.666567,4024.615286,4079.9999,4108.205028,4106.666566,4073.333234,4068.717849,4085.128105,4079.48708,4064.615285,4079.48708,4039.999901,4022.051184,4077.948618
21,0,4084.615285,4030.256312,4072.307593,4106.666566,4091.281951,4072.307593,4065.128106,4078.974259,4075.897336,4075.384516,4073.333234,4030.256312,4023.076825,4077.435798
22,0,4059.999901,4020.512722,4052.307593,4094.358874,4058.461439,4069.23067,4047.692209,4059.999901,4063.589644,4049.23067,4048.71785,4012.820415,4002.564005,4056.410157
23,0,4063.076824,4013.333235,4062.564003,4103.589643,4084.615285,4074.358875,4054.358875,4066.666567,4067.179388,4045.128106,4059.48708,4025.640927,4005.128107,4061.025542
24,0,4081.538362,4025.640927,4074.358875,4105.128105,4112.820412,4077.435798,4066.153747,4082.051182,4078.461439,4065.640926,4073.333234,4040.512722,4026.153748,4078.461439
25,0,4076.922977,4035.897337,4063.076824,4092.820413,4092.820413,4071.281952,4059.48708,4079.9999,4078.461439,4060.512721,4065.640926,4034.871696,4025.640927,4076.410157
26,0,4075.897336,4030.256312,4067.179388,4111.794771,4083.076823,4069.23067,4054.871696,4073.333234,4073.846054,4054.358875,4069.23067,4035.384517,4019.999902,4072.307593
27,0,4091.281951,4037.948619,4082.564003,4133.333232,4101.025541,4072.820413,4062.051183,4077.948618,4076.410157,4069.74349,4083.076823,4051.794773,4024.615286,4078.974259
28,0,4090.769131,4037.435799,4079.9999,4119.487079,4096.410156,4071.794772,4063.076824,4078.461439,4076.922977,4073.333234,4078.974259,4054.871696,4022.564004,4078.461439
29,0,4079.48708,4017.435799,4073.846054,4111.281951,4086.153746,4070.256311,4057.948619,4070.769131,4070.256311,4061.025542,4068.205029,4045.640927,4021.538363,4073.333234
30,0,4074.358875,4019.999902,4070.256311,4110.76913,4084.615285,4070.769131,4053.846055,4064.102465,4061.025542,4061.025542,4067.692208,4041.025542,4018.974261,4068.717849
31,0,4070.769131,4028.20503,4062.051183,4107.692207,4075.897336,4070.769131,4051.794773,4063.589644,4062.051183,4058.97426,4065.640926,4043.076824,4012.307594,4065.128106
