title:A                                                                               , recorded:01.07.20 14.07.03, sampling:128, subject:A                                                                               , labels:COUNTER INTERPOLATED AF3 F7 F3 FC5 T7 P7 O1 O2 P8 T8 FC6 F4 F8 AF4, chan:37, units:emotiv,,,,,,,,,
30,0,4261.538357,4214.871692,4224.615281,4228.205025,4220.512717,4218.974256,4227.692204,4235.384512,4248.717845,4216.922974,4238.974255,4233.33323,4248.717845,4235.384512
31,0,4264.61528,4234.358871,4229.743486,4237.435794,4212.307589,4216.922974,4233.84605,4236.410153,4266.666562,4214.871692,4232.307589,4233.33323,4242.563999,4238.461435
32,0,4264.10246,4222.563999,4227.692204,4233.84605,4205.128102,4212.82041,4233.84605,4234.358871,4258.461434,4216.410153,4229.743486,4226.666563,4238.461435,4233.84605
33,0,4263.589639,4214.871692,4219.999897,4231.794768,4212.307589,4216.922974,4229.743486,4234.358871,4242.051178,4215.897333,4222.051179,4221.025538,4233.84605,4225.640922
34,0,4252.307588,4210.256307,4210.256307,4228.205025,4233.33323,4211.794769,4219.999897,4232.307589,4221.025538,4207.179384,4210.256307,4211.794769,4223.07682,4214.871692
35,0,4248.205024,4205.640923,4211.281948,4227.179384,4236.410153,4210.256307,4217.435794,4229.230666,4207.692205,4203.589641,4213.846051,4209.743487,4219.999897,4215.384512
36,0,4271.281947,4225.640922,4224.615281,4234.871691,4219.999897,4217.435794,4225.128102,4229.743486,4221.025538,4199.487077,4228.205025,4222.563999,4232.820409,4224.615281
37,0,4287.692203,4240.512717,4228.717845,4242.051178,4215.897333,4215.384512,4222.051179,4228.717845,4243.58964,4192.30759,4232.820409,4231.281948,4246.153742,4225.128102
38,0,4280.512716,4234.871691,4224.102461,4242.563999,4218.461435,4211.281948,4217.948615,4230.256307,4254.35887,4215.384512,4232.307589,4229.743486,4245.128101,4223.07682
39,0,4278.461434,4228.717845,4224.102461,4236.922973,4216.922974,4221.025538,4228.205025,4234.871691,4268.205024,4242.563999,4230.769127,4229.743486,4243.076819,4232.820409
40,0,4284.102459,4222.051179,4217.948615,4225.128102,4223.07682,4223.07682,4226.666563,4230.769127,4259.487075,4217.948615,4219.487076,4225.640922,4237.948614,4229.743486
41,0,4286.666562,4212.82041,4213.846051,4224.615281,4231.281948,4211.281948,4212.82041,4225.128102,4234.871691,4202.564,4213.846051,4217.948615,4229.743486,4220.512717
42,0,4292.307587,4226.666563,4224.615281,4237.948614,4232.307589,4209.230666,4215.384512,4228.205025,4247.179383,4220.512717,4224.615281,4224.615281,4237.435794,4225.640922
43,0,4294.87169,4239.487076,4227.179384,4240.512717,4228.205025,4218.974256,4229.743486,4233.33323,4267.692203,4207.179384,4232.307589,4231.794768,4239.999896,4226.666563
44,0,4296.922972,4225.640922,4221.538358,4229.743486,4222.051179,4224.615281,4233.33323,4241.025537,4272.820408,4204.615282,4227.692204,4228.205025,4233.84605,4223.07682
45,0,4305.64092,4211.794769,4226.666563,4229.743486,4211.794769,4219.487076,4231.281948,4247.692204,4282.051177,4237.435794,4221.538358,4232.307589,4238.461435,4233.33323
46,0,4311.281946,4208.717846,4227.692204,4235.897332,4209.230666,4218.461435,4235.897332,4244.615281,4280.512716,4226.153743,4217.435794,4236.410153,4245.128101,4232.820409
47,0,4307.179382,4218.461435,4214.871692,4231.281948,4222.563999,4213.33323,4227.179384,4228.717845,4247.179383,4176.410154,4213.846051,4219.487076,4230.256307,4215.384512
48,0,4310.256305,4217.435794,4214.358871,4224.615281,4216.922974,4213.33323,4216.410153,4224.102461,4233.33323,4189.743487,4217.948615,4214.358871,4226.153743,4212.82041
49,0,4319.999894,4196.410154,4222.563999,4226.153743,4191.794769,4225.640922,4230.769127,4238.974255,4254.35887,4229.743486,4229.743486,4232.307589,4248.205024,4222.563999
50,0,4321.025535,4197.435795,4219.999897,4229.743486,4208.205025,4236.922973,4241.538358,4243.58964,4258.974255,4220.512717,4222.563999,4225.640922,4245.640922,4217.435794
51,0,4332.820407,4235.384512,4220.512717,4236.922973,4242.563999,4224.615281,4230.256307,4233.33323,4257.435793,4211.281948,4210.769128,4212.82041,4229.743486,4215.384512
52,0,4344.615278,4241.025537,4225.640922,4239.487076,4222.563999,4212.307589,4224.102461,4232.307589,4276.922972,4219.487076,4221.025538,4226.666563,4235.897332,4219.999897
53,0,4330.256304,4209.743487,4223.58964,4229.743486,4194.358872,4221.025538,4227.692204,4233.84605,4273.333229,4217.435794,4228.205025,4231.794768,4238.974255,4213.33323
54,0,4330.769125,4230.256307,4223.07682,4236.922973,4214.871692,4232.820409,4233.33323,4231.794768,4257.948614,4215.384512,4215.897333,4219.999897,4229.743486,4212.307589
55,0,4352.820406,4255.384511,4228.717845,4248.205024,4228.205025,4226.666563,4234.871691,4241.538358,4287.179382,4225.640922,4229.743486,4230.256307,4245.640922,4229.230666
56,0,4347.179381,4223.58964,4223.07682,4236.922973,4216.922974,4217.948615,4222.563999,4242.563999,4313.846048,4220.512717,4247.179383,4233.84605,4258.461434,4229.743486
57,0,4335.384509,4218.974256,4216.922974,4233.84605,4211.794769,4225.128102,4221.538358,4232.307589,4288.205023,4212.307589,4225.640922,4214.871692,4231.794768,4208.717846
58,0,4352.307586,4251.794768,4232.307589,4248.205024,4216.410153,4235.384512,4242.563999,4244.615281,4293.333228,4229.230666,4219.999897,4223.07682,4232.820409,4208.205025
59,0,4355.897329,4243.58964,4235.384512,4241.538358,4231.794768,4228.205025,4242.563999,4250.769127,4312.820407,4231.281948,4231.281948,4233.33323,4247.179383,4219.487076
60,0,4336.41015,4214.871692,4217.435794,4228.717845,4236.410153,4212.82041,4222.051179,4232.307589,4284.102459,4216.410153,4227.692204,4216.410153,4237.435794,4216.410153
61,0,4341.025535,4228.205025,4222.051179,4245.128101,4215.384512,4215.384512,4221.025538,4234.871691,4279.999895,4219.999897,4232.820409,4216.922974,4241.025537,4216.922974
62,0,4349.743483,4244.615281,4232.307589,4249.230665,4210.256307,4224.102461,4232.820409,4250.256306,4300.512715,4226.666563,4230.256307,4225.640922,4235.384512,4210.769128
63,0,4330.769125,4224.615281,4210.769128,4228.205025,4231.794768,4216.410153,4229.743486,4237.948614,4261.025537,4216.922974,4205.640923,4204.615282,4210.256307,4188.205026
64,0,4316.410151,4196.922974,4197.948615,4220.512717,4228.717845,4210.769128,4229.743486,4232.307589,4222.563999,4213.846051,4210.256307,4196.922974,4219.487076,4187.179385
65,0,4331.794766,4201.025538,4213.33323,4232.307589,4200.512718,4220.512717,4238.461435,4252.307588,4249.743486,4215.897333,4233.33323,4210.769128,4234.358871,4198.974256
66,0,4347.692201,4232.820409,4221.538358,4243.58964,4193.846051,4219.487076,4236.410153,4250.256306,4253.333229,4208.717846,4218.974256,4209.230666,4212.307589,4194.871692
67,0,4343.589637,4234.871691,4217.435794,4239.487076,4212.307589,4215.897333,4228.717845,4234.358871,4224.615281,4204.615282,4197.948615,4209.743487,4205.128102,4187.692205
68,0,4340.512714,4213.846051,4215.897333,4228.717845,4227.692204,4218.461435,4230.769127,4239.487076,4223.07682,4209.743487,4199.999897,4193.333231,4217.435794,4188.717846
69,0,4342.051176,4207.692205,4215.897333,4227.692204,4228.717845,4217.435794,4229.230666,4241.025537,4223.07682,4204.102461,4210.256307,4140.512719,4214.358871,4189.743487
70,0,4340.512714,4217.948615,4217.435794,4234.871691,4221.538358,4206.666564,4216.410153,4228.205025,4202.564,4190.769128,4221.538358,4116.410156,4218.974256,4197.435795
71,0,4343.589637,4228.205025,4222.563999,4238.461435,4210.256307,4209.230666,4216.410153,4228.717845,4197.948615,4197.435795,4219.487076,4129.743489,4219.999897,4202.564
72,0,4347.692201,4221.538358,4221.538358,4237.435794,4213.846051,4218.974256,4226.666563,4235.384512,4201.025538,4218.461435,4209.743487,4127.692207,4210.256307,4196.922974
73,0,4350.769124,4216.410153,4223.58964,4237.948614,4227.692204,4224.102461,4232.307589,4233.33323,4209.230666,4214.871692,4214.871692,4126.666566,4216.922974,4201.538359
74,0,4344.615278,4215.384512,4223.58964,4230.769127,4225.640922,4217.435794,4230.769127,4229.743486,4212.82041,4195.384513,4218.974256,4138.974258,4221.025538,4202.564
75,0,4333.333227,4206.153743,4217.948615,4229.743486,4213.846051,4214.358871,4227.692204,4230.256307,4190.256308,4196.410154,4200.512718,4136.410155,4201.538359,4190.769128
76,0,4338.461432,4205.128102,4218.461435,4238.974255,4207.692205,4216.410153,4226.153743,4230.769127,4176.410154,4201.538359,4199.487077,4143.589642,4200.512718,4193.333231
77,0,4353.333227,4221.538358,4225.640922,4240.512717,4202.564,4217.948615,4230.256307,4234.871691,4211.794769,4206.153743,4227.179384,4174.871693,4227.179384,4204.615282
78,0,4346.66656,4223.07682,4223.58964,4235.384512,4205.640923,4218.461435,4234.358871,4238.461435,4241.538358,4210.769128,4232.307589,4192.30759,4224.615281,4200.512718
79,0,4325.128099,4205.640923,4210.769128,4238.461435,4224.615281,4207.179384,4221.538358,4228.205025,4208.717846,4199.999897,4207.179384,4184.615282,4199.999897,4182.564
80,0,4324.102458,4210.256307,4212.82041,4244.10246,4229.743486,4206.666564,4213.846051,4218.974256,4187.179385,4203.589641,4204.615282,4187.692205,4206.153743,4179.487077
81,0,4333.333227,4217.435794,4223.58964,4233.33323,4217.948615,4227.179384,4230.256307,4229.743486,4222.051179,4224.615281,4225.128102,4211.794769,4225.640922,4196.410154
82,0,4339.999894,4210.769128,4226.666563,4225.640922,4214.358871,4232.820409,4239.999896,4238.974255,4247.179383,4216.410153,4224.102461,4222.563999,4221.025538,4203.589641
83,0,4339.999894,4214.358871,4225.640922,4237.948614,4211.794769,4215.384512,4228.717845,4231.794768,4234.871691,4197.948615,4215.897333,4214.358871,4213.846051,4190.769128
84,0,4327.179381,4220.512717,4223.07682,4244.10246,4210.256307,4213.846051,4220.512717,4226.153743,4226.153743,4201.025538,4216.922974,4210.256307,4215.384512,4180.512718
85,0,4322.051176,4206.666564,4221.025538,4231.794768,4215.384512,4221.025538,4224.615281,4232.307589,4218.974256,4195.384513,4212.82041,4215.897333,4211.794769,4186.153744
86,0,4329.230663,4187.692205,4218.974256,4219.999897,4217.435794,4215.384512,4221.538358,4235.897332,4204.102461,4179.487077,4205.128102,4216.922974,4206.666564,4189.230667
87,0,4333.333227,4209.743487,4222.563999,4235.897332,4215.384512,4207.692205,4213.33323,4230.769127,4204.615282,4193.846051,4211.794769,4215.384512,4208.717846,4185.640923
88,0,4339.487073,4234.871691,4232.307589,4252.307588,4217.435794,4216.922974,4216.922974,4230.769127,4237.435794,4228.205025,4231.281948,4223.58964,4224.102461,4192.30759
89,0,4344.615278,4218.974256,4235.897332,4239.487076,4214.871692,4227.179384,4228.717845,4240.512717,4257.948614,4230.769127,4236.922973,4233.33323,4232.820409,4201.025538
90,0,4336.922971,4201.538359,4225.128102,4226.666563,4209.743487,4226.666563,4227.179384,4241.538358,4247.179383,4205.128102,4219.487076,4232.307589,4221.538358,4201.025538
91,0,4331.281945,4216.922974,4218.461435,4240.512717,4213.846051,4213.33323,4216.922974,4233.33323,4236.922973,4197.948615,4214.358871,4228.717845,4221.025538,4196.922974
92,0,4335.384509,4227.179384,4221.538358,4248.205024,4219.487076,4208.717846,4212.82041,4229.230666,4242.563999,4203.07682,4225.640922,4227.692204,4228.717845,4192.82041
93,0,4331.281945,4206.666564,4216.410153,4229.743486,4217.435794,4221.025538,4214.358871,4228.717845,4224.615281,4197.948615,4216.922974,4220.512717,4211.794769,4186.153744
94,0,4325.128099,4192.82041,4213.33323,4224.102461,4207.179384,4229.230666,4220.512717,4229.743486,4209.743487,4200.512718,4213.846051,4217.948615,4207.179384,4184.615282
95,0,4328.717843,4207.692205,4215.384512,4241.538358,4211.281948,4216.410153,4218.461435,4228.717845,4215.384512,4195.897333,4224.102461,4219.487076,4218.461435,4186.666564
96,0,4335.384509,4222.563999,4212.82041,4247.179383,4210.769128,4215.384512,4212.307589,4227.692204,4210.256307,4186.153744,4214.871692,4217.435794,4203.07682,4184.102462
97,0,4335.89733,4212.307589,4210.769128,4232.820409,4202.051179,4228.717845,4216.922974,4233.33323,4207.692205,4202.564,4207.179384,4219.487076,4201.538359,4185.640923
98,0,4330.256304,4200.512718,4210.256307,4226.153743,4209.230666,4219.487076,4213.33323,4226.666563,4195.897333,4193.333231,4206.153743,4210.256307,4217.435794,4183.076821
99,0,4326.15374,4198.974256,4210.769128,4232.307589,4209.743487,4208.205025,4208.205025,4220.512717,4183.076821,4184.102462,4201.538359,4205.128102,4207.179384,4181.025539
100,0,4332.307586,4204.615282,4219.487076,4241.538358,4201.025538,4219.999897,4221.538358,4234.871691,4217.435794,4222.563999,4211.794769,4225.640922,4203.589641,4191.794769
101,0,4337.948612,4218.461435,4224.615281,4248.205024,4206.153743,4227.179384,4230.769127,4242.563999,4250.256306,4224.615281,4220.512717,4237.948614,4214.871692,4199.487077
102,0,4332.307586,4212.307589,4215.897333,4237.435794,4216.922974,4211.281948,4222.563999,4228.205025,4225.640922,4191.794769,4217.435794,4228.717845,4213.33323,4197.948615
103,0,4324.615279,4199.487077,4215.897333,4229.743486,4224.102461,4212.82041,4217.435794,4217.435794,4211.794769,4194.358872,4223.58964,4224.615281,4212.307589,4197.435795
104,0,4331.281945,4215.384512,4223.07682,4248.205024,4226.153743,4225.128102,4215.384512,4219.999897,4229.230666,4201.538359,4228.205025,4223.58964,4223.58964,4200.512718
105,0,4337.948612,4225.128102,4222.563999,4257.435793,4207.692205,4225.640922,4217.948615,4227.179384,4233.33323,4188.205026,4214.871692,4221.538358,4218.461435,4198.974256
106,0,4326.666561,4208.717846,4221.538358,4243.076819,4198.461436,4217.435794,4227.179384,4235.384512,4235.897332,4201.025538,4216.922974,4229.230666,4216.922974,4199.487077
107,0,4324.615279,4216.410153,4222.051179,4247.179383,4216.922974,4217.948615,4222.563999,4233.84605,4257.435793,4218.974256,4231.281948,4234.358871,4231.281948,4201.538359
108,0,4334.871689,4219.999897,4219.999897,4248.717845,4222.051179,4222.051179,4213.846051,4226.666563,4259.487075,4214.358871,4226.666563,4228.717845,4228.717845,4200.512718
109,0,4324.102458,4190.256308,4216.410153,4232.307589,4217.435794,4216.410153,4213.33323,4221.538358,4240.512717,4202.051179,4215.897333,4225.128102,4216.410153,4199.487077
110,0,4309.743484,4195.897333,4215.384512,4239.999896,4210.769128,4205.640923,4207.179384,4216.922974,4219.999897,4192.82041,4224.102461,4225.640922,4218.461435,4196.410154
111,0,4327.692202,4227.179384,4227.179384,4260.512716,4202.564,4213.846051,4211.794769,4223.58964,4239.999896,4215.384512,4242.051178,4239.487076,4234.358871,4202.564
112,0,4347.692201,4219.999897,4236.922973,4252.307588,4210.256307,4231.794768,4225.640922,4231.794768,4272.820408,4236.410153,4234.358871,4250.256306,4236.922973,4209.743487
113,0,4333.846048,4202.564,4227.692204,4241.538358,4221.025538,4232.820409,4226.666563,4233.33323,4267.179383,4215.897333,4213.846051,4240.512717,4224.102461,4206.153743
114,0,4322.051176,4216.410153,4221.025538,4256.922973,4216.922974,4221.025538,4222.051179,4232.307589,4262.563998,4203.589641,4218.974256,4235.897332,4226.153743,4198.461436
115,0,4333.846048,4222.051179,4231.281948,4266.153742,4212.82041,4218.974256,4216.410153,4227.692204,4280.512716,4225.640922,4237.948614,4243.076819,4240.512717,4202.564
116,0,4336.41015,4196.922974,4232.820409,4249.230665,4215.897333,4224.615281,4214.871692,4226.666563,4279.999895,4236.410153,4245.640922,4247.179383,4246.666563,4211.281948
117,0,4331.281945,4191.794769,4228.717845,4238.974255,4214.871692,4224.615281,4220.512717,4231.281948,4261.538357,4217.435794,4234.871691,4245.128101,4228.205025,4207.179384
118,0,4338.461432,4215.384512,4232.820409,4252.820409,4205.640923,4225.640922,4220.512717,4231.281948,4259.999896,4205.640923,4223.58964,4244.615281,4217.948615,4201.025538
119,0,4343.589637,4217.435794,4229.230666,4262.051178,4199.487077,4231.281948,4216.922974,4230.256307,4260.512716,4206.666564,4221.025538,4245.640922,4230.769127,4203.07682
120,0,4335.89733,4200.512718,4222.051179,4253.333229,4205.640923,4225.640922,4212.82041,4229.230666,4253.333229,4203.07682,4216.922974,4244.615281,4232.307589,4202.564
121,0,4335.89733,4198.974256,4224.102461,4248.205024,4210.256307,4211.794769,4203.589641,4220.512717,4246.666563,4200.512718,4217.948615,4239.487076,4225.128102,4200.512718
122,0,4339.999894,4199.999897,4226.153743,4251.281947,4203.07682,4225.128102,4207.692205,4217.435794,4243.58964,4207.179384,4225.640922,4238.974255,4229.743486,4201.538359
123,0,4343.076817,4200.512718,4226.666563,4258.461434,4201.538359,4236.410153,4224.615281,4229.230666,4255.384511,4227.179384,4229.743486,4248.717845,4235.897332,4205.640923
124,0,4343.589637,4206.666564,4232.307589,4264.61528,4202.564,4224.102461,4221.025538,4234.871691,4277.948613,4230.769127,4227.692204,4252.820409,4227.179384,4208.205025
125,0,4337.948612,4210.769128,4230.769127,4263.076819,4199.999897,4221.025538,4211.794769,4228.717845,4278.461434,4219.999897,4232.307589,4247.692204,4216.410153,4208.205025
126,0,4327.179381,4203.07682,4219.999897,4253.333229,4209.743487,4231.281948,4214.358871,4221.025538,4257.948614,4218.974256,4235.384512,4237.435794,4202.051179,4194.358872
127,0,4315.89733,4183.076821,4216.410153,4242.563999,4222.051179,4224.102461,4210.769128,4219.487076,4221.025538,4208.205025,4230.256307,4227.692204,4177.435795,4179.999898
128,0,4324.615279,4191.281949,4227.692204,4252.820409,4212.307589,4228.205025,4214.871692,4228.205025,4224.102461,4200.512718,4249.230665,4239.999896,4186.666564,4191.281949
0,0,4344.102458,4227.179384,4237.435794,4271.281947,4197.435795,4241.025537,4226.153743,4235.384512,4278.461434,4212.82041,4277.435793,4258.461434,4223.07682,4208.205025
1,0,4339.999894,4217.948615,4228.205025,4266.153742,4202.051179,4236.922973,4225.128102,4233.33323,4296.410151,4215.897333,4267.692203,4249.743486,4222.051179,4201.025538
2,0,4318.461433,4182.564,4216.410153,4251.794768,4205.128102,4229.743486,4218.461435,4229.743486,4263.076819,4223.58964,4245.128101,4236.922973,4196.410154,4187.692205
3,0,4312.307587,4190.256308,4215.384512,4253.84605,4200.512718,4227.692204,4212.307589,4220.512717,4244.615281,4236.410153,4239.487076,4235.384512,4196.922974,4185.128103
4,0,4313.846048,4205.640923,4215.384512,4258.974255,4211.281948,4222.051179,4205.128102,4212.82041,4233.33323,4208.205025,4238.974255,4233.33323,4204.615282,4185.128103
5,0,4312.307587,4202.564,4214.871692,4262.051178,4213.846051,4225.640922,4208.205025,4213.846051,4215.897333,4182.05118,4239.999896,4230.256307,4199.487077,4182.564
6,0,4320.512715,4203.07682,4216.922974,4263.076819,4203.07682,4237.948614,4217.435794,4216.922974,4227.179384,4216.410153,4246.666563,4233.33323,4198.974256,4184.102462
7,0,4329.230663,4203.589641,4218.461435,4261.538357,4209.743487,4237.948614,4218.974256,4220.512717,4250.256306,4230.256307,4249.743486,4241.538358,4204.615282,4189.230667
8,0,4325.128099,4202.051179,4218.461435,4265.128101,4223.58964,4228.717845,4215.897333,4225.640922,4249.743486,4202.051179,4247.692204,4244.10246,4204.102461,4186.666564
9,0,4325.128099,4206.153743,4222.563999,4269.743485,4222.051179,4229.230666,4223.58964,4231.281948,4251.281947,4208.205025,4247.179383,4244.615281,4202.051179,4190.256308
10,0,4332.820407,4210.256307,4229.743486,4267.179383,4209.230666,4237.948614,4232.820409,4235.897332,4277.435793,4225.128102,4252.307588,4247.179383,4212.307589,4202.051179
11,0,4328.717843,4202.564,4224.102461,4260.512716,4200.512718,4234.358871,4231.281948,4233.84605,4278.974254,4223.07682,4247.179383,4242.563999,4209.230666,4193.333231
12,0,4322.051176,4197.435795,4216.410153,4257.948614,4206.666564,4235.897332,4233.33323,4229.230666,4246.666563,4217.435794,4226.666563,4233.33323,4182.564,4177.948616
13,0,4339.999894,4213.33323,4224.102461,4267.179383,4226.153743,4244.10246,4249.743486,4241.538358,4248.205024,4210.769128,4232.307589,4243.076819,4187.179385,4193.846051
14,0,4351.281945,4222.051179,4229.230666,4270.769126,4227.692204,4240.512717,4251.281947,4250.256306,4289.230664,4196.922974,4257.435793,4255.384511,4216.410153,4212.307589
15,0,4328.205022,4198.974256,4213.33323,4261.025537,4206.666564,4229.230666,4233.84605,4238.974255,4274.87169,4197.435795,4245.640922,4239.999896,4203.07682,4194.871692
16,0,4319.487074,4192.82041,4211.281948,4258.974255,4200.512718,4238.461435,4234.358871,4237.948614,4247.179383,4224.615281,4225.128102,4228.717845,4183.589641,4185.640923
17,0,4338.974253,4207.692205,4224.102461,4266.153742,4213.33323,4234.358871,4233.33323,4239.999896,4268.205024,4234.358871,4239.999896,4240.512717,4204.102461,4202.564
18,0,4341.538355,4204.615282,4225.640922,4267.692203,4227.692204,4227.692204,4220.512717,4230.256307,4289.230664,4224.615281,4258.461434,4249.230665,4211.794769,4206.153743
19,0,4334.358868,4206.666564,4225.640922,4264.61528,4229.230666,4247.179383,4228.205025,4233.84605,4290.769126,4232.307589,4247.179383,4247.179383,4196.922974,4198.974256
20,0,4339.487073,4219.999897,4229.230666,4266.153742,4219.487076,4249.230665,4234.871691,4235.897332,4288.717844,4236.922973,4231.794768,4244.10246,4202.051179,4206.153743
21,0,4341.538355,4217.435794,4228.717845,4271.794767,4211.794769,4226.153743,4217.435794,4219.999897,4281.025536,4217.948615,4243.58964,4248.205024,4221.025538,4216.410153
22,0,4330.256304,4203.07682,4225.640922,4267.692203,4215.897333,4228.205025,4212.307589,4219.487076,4275.897331,4213.33323,4254.35887,4247.179383,4211.794769,4207.692205
23,0,4318.461433,4195.384513,4217.435794,4256.410152,4217.435794,4241.538358,4219.999897,4226.153743,4250.256306,4214.358871,4233.33323,4232.307589,4183.589641,4189.743487
24,0,4316.410151,4194.871692,4209.230666,4260.512716,4221.025538,4233.84605,4213.846051,4210.769128,4208.717846,4201.538359,4219.487076,4223.07682,4179.999898,4188.205026
25,0,4328.717843,4198.461436,4218.461435,4266.666562,4231.794768,4230.256307,4212.82041,4210.769128,4222.051179,4207.179384,4238.974255,4240.512717,4200.512718,4202.051179
26,0,4333.846048,4203.07682,4227.692204,4260.512716,4218.461435,4230.256307,4218.974256,4228.717845,4259.487075,4213.846051,4249.743486,4252.307588,4205.128102,4206.153743
27,0,4323.589638,4203.589641,4217.948615,4264.61528,4199.487077,4229.743486,4217.948615,4224.102461,4248.717845,4199.487077,4241.025537,4236.410153,4200.512718,4199.487077
28,0,4323.589638,4196.410154,4215.384512,4270.256306,4210.256307,4235.384512,4223.07682,4220.512717,4238.974255,4212.307589,4243.076819,4234.358871,4203.589641,4200.512718
29,0,4324.102458,4179.999898,4218.974256,4253.84605,4220.512717,4224.102461,4223.07682,4226.666563,4256.922973,4243.076819,4246.666563,4243.076819,4204.615282,4202.051179
30,0,4321.538356,4181.025539,4213.846051,4248.205024,4215.897333,4205.128102,4208.205025,4220.512717,4246.153742,4231.794768,4242.563999,4237.948614,4206.666564,4202.051179
31,0,4351.281945,4215.897333,4221.025538,4270.256306,4217.948615,4226.666563,4213.846051,4222.563999,4247.179383,4206.153743,4246.666563,4242.051178,4215.384512,4219.487076
32,0,4387.6922,4231.281948,4236.922973,4276.410152,4217.435794,4246.666563,4233.84605,4237.435794,4287.179382,4214.358871,4252.820409,4258.974255,4217.948615,4237.435794
33,0,4381.025534,4212.82041,4236.410153,4268.717844,4211.281948,4231.794768,4229.743486,4234.358871,4294.358869,4222.563999,4235.897332,4255.384511,4198.461436,4231.281948
34,0,4369.743483,4220.512717,4225.640922,4274.87169,4219.999897,4216.410153,4215.897333,4219.487076,4269.230665,4211.281948,4222.563999,4244.10246,4197.435795,4227.692204
35,0,4378.461431,4231.281948,4225.640922,4275.897331,4219.487076,4224.615281,4213.33323,4219.487076,4281.538357,4202.051179,4242.051178,4248.205024,4225.128102,4236.922973
36,0,4372.820406,4206.666564,4226.153743,4262.563998,4211.281948,4226.153743,4214.358871,4225.640922,4292.820408,4209.230666,4253.333229,4249.743486,4225.640922,4229.743486
37,0,4357.435791,4198.461436,4221.538358,4260.512716,4226.153743,4222.051179,4215.897333,4226.666563,4272.307588,4221.025538,4236.410153,4245.640922,4204.615282,4212.82041
38,0,4354.871688,4221.538358,4220.512717,4271.281947,4225.640922,4217.948615,4215.384512,4223.07682,4261.025537,4219.487076,4235.897332,4249.743486,4205.128102,4211.794769
39,0,4358.974252,4225.640922,4229.743486,4279.999895,4201.025538,4222.563999,4217.435794,4227.179384,4285.640921,4214.358871,4264.10246,4263.589639,4228.205025,4225.640922
40,0,4359.487073,4218.974256,4237.948614,4277.435793,4209.743487,4233.33323,4226.153743,4239.487076,4315.89733,4225.128102,4267.692203,4266.153742,4235.897332,4232.307589
41,0,4351.794765,4217.948615,4231.281948,4266.666562,4241.025537,4226.153743,4218.974256,4226.666563,4296.922972,4224.102461,4232.820409,4253.333229,4209.743487,4219.487076
42,0,4335.384509,4210.256307,4222.563999,4259.487075,4235.897332,4211.794769,4199.487077,4203.589641,4240.512717,4197.948615,4220.512717,4243.076819,4188.717846,4204.615282
43,0,4331.281945,4217.435794,4223.58964,4270.256306,4209.230666,4217.948615,4208.717846,4213.846051,4233.84605,4201.025538,4248.717845,4248.717845,4211.281948,4209.743487
44,0,4342.051176,4230.256307,4226.666563,4278.974254,4204.615282,4234.358871,4232.307589,4236.922973,4272.307588,4218.974256,4251.794768,4252.307588,4227.179384,4221.025538
45,0,4331.794766,4209.743487,4218.974256,4261.025537,4210.769128,4235.897332,4229.743486,4232.307589,4251.281947,4190.256308,4219.999897,4237.948614,4196.410154,4204.102461
46,0,4307.179382,4181.025539,4210.256307,4244.10246,4214.871692,4228.205025,4217.435794,4217.435794,4196.922974,4176.410154,4210.769128,4225.640922,4174.871693,4181.025539
47,0,4305.1281,4194.358872,4210.769128,4257.435793,4216.410153,4219.487076,4213.846051,4216.922974,4193.846051,4210.256307,4229.743486,4230.256307,4188.205026,4188.717846
48,0,4315.89733,4222.051179,4212.307589,4272.307588,4212.307589,4214.871692,4206.666564,4213.846051,4207.692205,4212.307589,4233.84605,4235.384512,4196.410154,4206.153743
49,0,4311.794766,4210.256307,4210.256307,4261.025537,4214.358871,4217.435794,4203.07682,4207.692205,4190.769128,4189.743487,4228.717845,4226.153743,4199.487077,4198.974256
50,0,4317.435792,4192.82041,4222.051179,4257.948614,4218.461435,4229.230666,4212.82041,4214.358871,4204.102461,4199.999897,4243.076819,4228.717845,4212.82041,4197.948615
51,0,4342.051176,4211.281948,4233.33323,4268.205024,4213.846051,4232.820409,4216.410153,4220.512717,4235.897332,4206.153743,4251.794768,4245.640922,4213.33323,4214.358871
52,0,4335.89733,4222.563999,4222.563999,4256.922973,4204.615282,4232.307589,4212.82041,4215.897333,4224.102461,4190.256308,4237.435794,4241.538358,4200.512718,4211.794769
53,0,4309.743484,4208.205025,4216.410153,4247.692204,4201.025538,4230.256307,4216.922974,4214.871692,4198.974256,4194.871692,4227.692204,4227.692204,4201.538359,4198.461436
54,0,4306.153741,4199.487077,4222.051179,4263.076819,4203.07682,4225.640922,4217.948615,4214.871692,4204.615282,4210.256307,4228.717845,4229.230666,4206.666564,4199.487077
55,0,4314.871689,4206.666564,4219.487076,4267.692203,4208.205025,4220.512717,4208.205025,4204.615282,4203.07682,4199.487077,4231.281948,4233.84605,4208.717846,4200.512718
56,0,4313.333228,4212.82041,4214.358871,4252.307588,4221.025538,4226.153743,4203.589641,4201.025538,4194.871692,4185.128103,4239.999896,4231.794768,4214.871692,4198.461436
57,0,4312.307587,4208.717846,4216.922974,4251.794768,4226.153743,4225.128102,4204.615282,4207.179384,4201.538359,4200.512718,4247.179383,4234.871691,4215.897333,4205.640923
58,0,4330.769125,4211.794769,4226.153743,4269.230665,4210.256307,4219.487076,4208.717846,4214.871692,4223.58964,4223.07682,4247.179383,4250.769127,4218.461435,4218.974256
59,0,4346.66656,4222.051179,4234.871691,4272.820408,4201.538359,4226.666563,4217.948615,4225.640922,4258.974255,4218.461435,4255.897332,4264.10246,4235.384512,4223.58964
60,0,4338.461432,4223.07682,4230.769127,4263.589639,4216.410153,4232.820409,4216.410153,4229.743486,4271.281947,4198.461436,4251.794768,4257.948614,4226.153743,4216.410153
61,0,4325.128099,4218.461435,4221.025538,4263.076819,4216.410153,4223.07682,4208.205025,4218.974256,4243.58964,4199.999897,4236.410153,4243.58964,4203.589641,4214.358871
62,0,4324.102458,4210.256307,4224.102461,4264.61528,4199.487077,4217.435794,4212.82041,4212.307589,4221.025538,4202.564,4232.820409,4247.179383,4204.102461,4215.384512
63,0,4318.974253,4199.487077,4223.58964,4258.461434,4203.589641,4222.563999,4219.487076,4215.897333,4215.384512,4199.999897,4232.307589,4251.794768,4204.615282,4207.179384
64,0,4320.512715,4205.128102,4216.410153,4258.461434,4221.538358,4230.769127,4217.435794,4219.487076,4227.692204,4209.743487,4243.58964,4245.128101,4217.948615,4209.230666
65,0,4329.743484,4220.512717,4216.922974,4265.640921,4221.025538,4236.410153,4220.512717,4221.025538,4261.025537,4218.461435,4267.179383,4245.128101,4242.563999,4222.563999
66,0,4316.922971,4213.33323,4214.358871,4265.128101,4213.33323,4223.58964,4212.307589,4215.897333,4262.563998,4223.58964,4262.563998,4242.051178,4238.461435,4215.897333
67,0,4312.820407,4211.794769,4213.33323,4264.10246,4217.435794,4216.922974,4202.564,4212.82041,4240.512717,4233.84605,4242.051178,4237.435794,4225.128102,4210.769128
68,0,4331.794766,4212.307589,4222.563999,4262.051178,4222.563999,4230.256307,4221.538358,4224.102461,4253.333229,4234.358871,4245.128101,4247.692204,4232.307589,4229.230666
69,0,4329.743484,4197.435795,4223.07682,4252.820409,4228.717845,4232.820409,4226.153743,4223.07682,4268.205024,4206.666564,4255.897332,4248.717845,4236.410153,4233.33323
70,0,4317.948612,4203.589641,4209.743487,4255.384511,4229.743486,4215.897333,4201.538359,4204.615282,4236.410153,4187.692205,4250.256306,4231.794768,4227.692204,4216.410153
71,0,4329.230663,4217.435794,4210.256307,4267.179383,4215.897333,4222.051179,4206.666564,4210.769128,4226.153743,4211.794769,4243.076819,4234.871691,4227.179384,4218.974256
72,0,4348.717842,4224.102461,4227.179384,4271.281947,4217.435794,4224.615281,4222.051179,4229.230666,4264.61528,4236.410153,4251.794768,4258.461434,4233.33323,4238.974255
73,0,4358.461432,4231.281948,4236.410153,4265.128101,4235.897332,4214.358871,4207.692205,4220.512717,4301.025536,4239.487076,4267.179383,4265.128101,4247.179383,4249.743486
74,0,4353.333227,4222.051179,4227.179384,4253.333229,4231.794768,4221.538358,4206.153743,4210.769128,4296.922972,4233.84605,4267.179383,4255.384511,4251.794768,4245.640922
75,0,4337.435791,4199.999897,4210.256307,4247.179383,4215.897333,4225.128102,4216.410153,4215.384512,4252.307588,4199.487077,4244.615281,4238.974255,4223.58964,4226.666563
76,0,4328.717843,4195.384513,4201.538359,4247.692204,4212.82041,4206.666564,4210.256307,4213.33323,4210.769128,4178.974257,4233.84605,4226.666563,4202.051179,4211.281948
77,0,4344.615278,4208.205025,4212.82041,4252.820409,4205.128102,4211.794769,4222.563999,4222.563999,4245.128101,4232.820409,4260.512716,4240.512717,4232.307589,4232.307589
78,0,4362.563996,4217.948615,4225.128102,4252.820409,4202.051179,4229.230666,4247.692204,4242.051178,4302.051177,4262.051178,4271.794767,4256.410152,4249.743486,4253.84605
79,0,4351.281945,4216.922974,4213.33323,4247.179383,4223.07682,4211.281948,4233.33323,4225.640922,4272.307588,4207.179384,4244.615281,4237.948614,4215.384512,4228.717845
80,0,4344.102458,4215.897333,4207.692205,4252.307588,4224.102461,4198.974256,4211.281948,4204.102461,4227.179384,4183.589641,4242.051178,4229.230666,4209.230666,4213.846051
81,0,4371.281944,4226.666563,4225.640922,4261.025537,4212.82041,4226.153743,4223.07682,4222.051179,4264.10246,4217.948615,4267.179383,4253.333229,4240.512717,4243.076819
82,0,4385.128098,4235.384512,4231.281948,4253.84605,4226.153743,4238.974255,4229.230666,4232.307589,4303.076818,4223.07682,4262.051178,4258.461434,4240.512717,4255.384511
83,0,4371.281944,4235.897332,4224.102461,4254.35887,4230.769127,4213.846051,4209.230666,4212.82041,4292.820408,4212.307589,4258.974255,4246.666563,4232.820409,4243.076819
84,0,4375.897329,4235.384512,4230.256307,4268.717844,4218.461435,4206.666564,4203.589641,4208.717846,4304.102459,4228.717845,4279.487075,4258.461434,4249.230665,4245.640922
85,0,4393.333226,4239.487076,4238.974255,4262.051178,4225.640922,4225.640922,4219.487076,4222.051179,4329.743484,4247.692204,4275.897331,4268.717844,4255.897332,4251.794768
86,0,4390.256303,4246.153742,4235.384512,4249.743486,4237.435794,4228.205025,4222.051179,4219.999897,4321.538356,4236.410153,4251.794768,4253.84605,4241.538358,4246.666563
87,0,4378.974252,4236.410153,4228.205025,4252.307588,4229.230666,4211.281948,4212.307589,4211.794769,4298.461433,4219.487076,4251.281947,4245.640922,4234.871691,4239.999896
88,0,4376.410149,4225.128102,4225.128102,4256.922973,4218.461435,4214.358871,4214.871692,4213.846051,4299.999895,4227.179384,4262.051178,4252.307588,4241.538358,4234.358871
89,0,4378.461431,4232.820409,4221.025538,4257.435793,4216.922974,4218.461435,4216.922974,4213.846051,4292.307587,4223.58964,4253.333229,4244.10246,4238.974255,4229.230666
90,0,4381.538354,4227.692204,4222.563999,4252.820409,4221.025538,4212.307589,4209.743487,4213.33323,4281.025536,4220.512717,4251.281947,4238.461435,4238.461435,4232.307589
91,0,4377.948611,4208.205025,4224.102461,4242.051178,4229.230666,4215.897333,4210.256307,4217.948615,4279.999895,4232.820409,4254.871691,4241.538358,4242.563999,4232.307589
92,0,4380.512713,4226.666563,4224.102461,4250.256306,4223.07682,4225.128102,4218.461435,4217.435794,4268.717844,4213.33323,4240.512717,4237.948614,4236.922973,4230.256307
93,0,4388.205021,4245.640922,4227.179384,4263.076819,4206.666564,4214.358871,4214.871692,4213.33323,4259.999896,4194.871692,4236.922973,4235.897332,4231.281948,4232.307589
94,0,4371.794765,4208.717846,4226.153743,4244.10246,4205.640923,4209.230666,4215.897333,4218.461435,4268.205024,4228.717845,4246.666563,4238.974255,4226.666563,4224.615281
95,0,4363.589637,4188.205026,4223.07682,4230.256307,4217.435794,4219.999897,4225.128102,4222.563999,4271.794767,4243.076819,4252.820409,4241.025537,4233.84605,4224.102461
96,0,4392.820405,4226.153743,4230.769127,4252.820409,4218.974256,4218.974256,4222.051179,4217.948615,4275.384511,4214.358871,4253.84605,4245.128101,4251.794768,4246.153742
97,0,4408.20502,4240.512717,4236.922973,4259.999896,4217.948615,4210.256307,4212.82041,4215.384512,4283.076818,4205.640923,4252.307588,4247.179383,4248.205024,4254.35887
98,0,4397.94861,4217.948615,4232.307589,4244.615281,4219.487076,4210.769128,4212.82041,4217.948615,4286.153741,4222.051179,4245.640922,4242.563999,4233.84605,4248.205024
99,0,4404.102456,4210.769128,4231.794768,4242.051178,4209.230666,4212.82041,4220.512717,4221.538358,4293.333228,4240.512717,4248.717845,4246.666563,4248.717845,4262.051178
100,0,4404.615277,4212.307589,4229.743486,4243.076819,4199.999897,4215.897333,4218.974256,4214.358871,4282.051177,4226.666563,4242.563999,4244.615281,4246.666563,4263.589639
101,0,4387.6922,4213.846051,4216.410153,4239.999896,4213.33323,4213.846051,4206.153743,4195.384513,4227.179384,4178.461436,4221.025538,4224.615281,4206.666564,4236.410153
102,0,4390.769123,4213.846051,4217.948615,4243.58964,4220.512717,4207.692205,4205.640923,4199.999897,4211.794769,4183.076821,4234.871691,4226.666563,4215.897333,4237.435794
103,0,4403.589636,4204.102461,4231.281948,4245.128101,4205.640923,4211.281948,4221.538358,4228.205025,4272.820408,4229.743486,4267.179383,4246.666563,4259.487075,4262.563998
104,0,4410.256302,4207.179384,4235.384512,4244.615281,4195.897333,4217.435794,4228.205025,4238.461435,4318.461433,4244.10246,4262.051178,4255.897332,4257.435793,4263.076819
105,0,4412.307584,4217.435794,4230.769127,4239.999896,4203.589641,4219.487076,4223.07682,4232.307589,4311.281946,4247.179383,4235.897332,4247.692204,4227.179384,4247.692204
106,0,4402.563995,4210.769128,4224.615281,4231.794768,4212.82041,4213.846051,4216.922974,4227.179384,4285.640921,4246.153742,4240.512717,4234.871691,4226.153743,4245.640922
107,0,4392.307585,4204.102461,4217.948615,4235.384512,4207.179384,4212.307589,4215.384512,4221.025538,4272.820408,4222.051179,4253.84605,4230.256307,4238.461435,4248.205024
108,0,4393.846046,4207.692205,4215.384512,4237.435794,4201.538359,4212.82041,4217.948615,4215.384512,4251.794768,4206.666564,4233.84605,4229.230666,4224.102461,4239.487076
109,0,4389.230662,4198.461436,4216.922974,4226.153743,4204.102461,4214.358871,4221.538358,4218.461435,4237.948614,4216.410153,4228.717845,4224.615281,4220.512717,4234.358871
110,0,4375.384508,4189.743487,4214.358871,4222.563999,4201.025538,4211.794769,4224.102461,4224.102461,4235.897332,4225.640922,4237.948614,4216.410153,4228.717845,4235.384512
111,0,4368.717842,4186.666564,4211.794769,4222.051179,4201.538359,4216.410153,4233.84605,4229.743486,4215.897333,4219.487076,4216.922974,4211.794769,4212.307589,4231.281948
112,0,4377.948611,4191.794769,4217.948615,4224.102461,4202.564,4220.512717,4242.563999,4235.897332,4211.794769,4217.948615,4217.435794,4218.974256,4213.33323,4237.948614
113,0,4382.563995,4207.692205,4218.461435,4234.358871,4199.487077,4213.33323,4233.84605,4225.640922,4242.051178,4217.948615,4246.153742,4224.615281,4234.871691,4246.666563
114,0,4364.102457,4199.999897,4206.666564,4227.692204,4207.179384,4208.717846,4222.051179,4212.82041,4229.743486,4205.128102,4229.230666,4212.82041,4218.461435,4234.871691
115,0,4350.769124,4183.589641,4204.615282,4211.281948,4224.615281,4215.384512,4226.153743,4223.07682,4189.743487,4207.692205,4202.564,4205.640923,4201.025538,4225.640922
116,0,4368.717842,4202.564,4220.512717,4221.538358,4223.07682,4221.025538,4234.871691,4237.435794,4216.922974,4224.615281,4234.358871,4221.025538,4231.794768,4240.512717
117,0,4386.666559,4229.743486,4232.307589,4239.999896,4204.102461,4217.435794,4234.871691,4238.461435,4273.333229,4230.769127,4256.922973,4230.256307,4247.692204,4252.307588
118,0,4376.410149,4215.384512,4223.07682,4233.84605,4198.461436,4210.769128,4223.07682,4226.666563,4261.538357,4235.897332,4231.794768,4216.410153,4229.743486,4244.615281
119,0,4372.307585,4200.512718,4213.846051,4228.205025,4217.948615,4208.717846,4213.33323,4214.358871,4224.102461,4242.051178,4223.58964,4202.051179,4226.666563,4242.051178
120,0,4383.076816,4216.922974,4221.025538,4230.256307,4231.794768,4219.999897,4223.07682,4218.461435,4236.922973,4236.410153,4237.948614,4193.846051,4234.871691,4247.179383
121,0,4378.461431,4222.563999,4225.128102,4230.769127,4217.948615,4221.538358,4233.84605,4235.384512,4256.922973,4229.230666,4237.948614,4177.435795,4233.33323,4238.974255
122,0,4371.281944,4212.82041,4218.974256,4233.33323,4210.769128,4210.256307,4226.666563,4235.384512,4235.897332,4219.487076,4227.179384,4162.564001,4225.128102,4230.256307
123,0,4378.974252,4214.871692,4223.58964,4232.820409,4214.871692,4210.769128,4226.666563,4227.692204,4222.563999,4219.999897,4230.256307,4171.79477,4225.128102,4243.076819
124,0,4384.102457,4223.58964,4232.820409,4229.230666,4214.358871,4222.051179,4236.410153,4232.820409,4247.692204,4243.58964,4235.384512,4186.153744,4232.307589,4254.35887
125,0,4379.487072,4223.58964,4225.640922,4230.769127,4226.153743,4211.794769,4227.692204,4229.230666,4250.769127,4237.948614,4232.820409,4180.512718,4233.33323,4244.10246
126,0,4373.846047,4218.461435,4222.563999,4233.33323,4224.615281,4207.179384,4224.615281,4226.666563,4239.999896,4223.07682,4238.461435,4178.974257,4240.512717,4244.615281
127,0,4372.307585,4221.025538,4228.717845,4235.384512,4202.051179,4214.871692,4235.897332,4233.33323,4253.84605,4238.974255,4244.10246,4192.30759,4251.281947,4255.384511
128,0,4373.333226,4234.358871,4225.640922,4242.051178,4199.999897,4207.179384,4225.640922,4225.128102,4247.179383,4225.640922,4229.743486,4190.769128,4237.435794,4244.10246
0,0,4372.820406,4236.410153,4219.487076,4233.84605,4217.948615,4201.025538,4210.769128,4214.358871,4216.922974,4197.948615,4221.538358,4181.538359,4226.153743,4238.461435
1,0,4363.589637,4217.948615,4220.512717,4216.410153,4224.102461,4213.33323,4222.563999,4217.948615,4221.538358,4213.846051,4233.33323,4192.82041,4237.948614,4245.128101
2,0,4355.384509,4213.33323,4218.461435,4218.974256,4223.58964,4218.974256,4234.871691,4224.615281,4226.153743,4233.84605,4223.07682,4184.615282,4226.153743,4237.435794
3,0,4357.948611,4229.743486,4219.487076,4234.871691,4219.999897,4214.871692,4228.205025,4224.102461,4206.153743,4227.692204,4208.717846,4130.76913,4212.307589,4234.358871
4,0,4359.999893,4238.974255,4224.615281,4242.051178,4206.666564,4208.717846,4220.512717,4222.051179,4205.640923,4218.461435,4232.820409,4090.769131,4243.58964,4250.256306
5,0,4351.281945,4230.769127,4222.051179,4235.897332,4208.205025,4209.743487,4225.128102,4222.051179,4215.384512,4217.435794,4242.051178,4090.769131,4254.35887,4248.205024
6,0,4338.461432,4218.461435,4213.846051,4217.948615,4227.692204,4218.974256,4233.84605,4225.640922,4194.358872,4222.563999,4213.33323,4093.846054,4224.102461,4228.205025
7,0,4337.435791,4214.871692,4217.435794,4214.358871,4219.999897,4216.410153,4231.794768,4226.666563,4184.615282,4231.281948,4219.487076,4103.589643,4234.358871,4239.487076
8,0,4337.435791,4225.128102,4220.512717,4231.281948,4198.461436,4202.564,4217.435794,4216.410153,4194.358872,4219.487076,4243.58964,4118.461438,4251.794768,4250.769127
9,0,4326.666561,4230.256307,4215.384512,4236.922973,4206.153743,4205.128102,4216.922974,4215.384512,4182.564,4213.846051,4230.769127,4120.51272,4230.769127,4236.922973
10,0,4330.769125,4234.871691,4221.538358,4229.743486,4223.07682,4220.512717,4233.84605,4230.769127,4195.897333,4239.487076,4223.07682,4134.871694,4239.487076,4239.999896
11,0,4348.205022,4254.35887,4232.820409,4234.358871,4228.205025,4219.999897,4238.461435,4235.897332,4242.563999,4244.615281,4238.974255,4157.948616,4265.128101,4253.84605
12,0,4331.794766,4243.58964,4222.563999,4235.897332,4231.794768,4210.256307,4228.717845,4224.615281,4237.435794,4214.871692,4230.769127,4155.897334,4234.871691,4238.461435
13,0,4304.102459,4211.794769,4210.256307,4229.230666,4220.512717,4207.692205,4227.692204,4224.102461,4192.82041,4212.307589,4213.33323,4159.487078,4210.256307,4223.07682
14,0,4315.89733,4225.640922,4218.974256,4231.281948,4218.461435,4215.384512,4233.84605,4232.820409,4200.512718,4234.358871,4218.974256,4186.153744,4235.384512,4239.487076
15,0,4342.051176,4258.461434,4229.743486,4235.897332,4233.84605,4218.461435,4236.410153,4234.358871,4244.615281,4231.794768,4232.820409,4205.640923,4249.743486,4254.35887
16,0,4346.66656,4257.435793,4235.384512,4237.435794,4225.640922,4223.07682,4242.563999,4244.10246,4290.769126,4238.461435,4248.717845,4223.58964,4252.820409,4261.025537
17,0,4335.89733,4244.10246,4236.410153,4236.922973,4214.871692,4224.615281,4246.666563,4250.256306,4306.666561,4259.487075,4250.769127,4236.410153,4256.922973,4265.128101
18,0,4316.410151,4241.025537,4229.743486,4234.358871,4236.922973,4219.999897,4238.974255,4235.897332,4275.384511,4247.179383,4229.230666,4226.153743,4238.974255,4254.35887
19,0,4309.743484,4238.974255,4223.07682,4231.281948,4237.948614,4211.281948,4228.717845,4224.102461,4242.563999,4222.051179,4219.999897,4218.974256,4225.128102,4245.640922
20,0,4316.410151,4238.461435,4227.692204,4229.230666,4217.435794,4212.307589,4232.307589,4232.820409,4261.025537,4231.281948,4238.974255,4232.820409,4243.58964,4252.820409
21,0,4303.076818,4229.230666,4225.640922,4221.538358,4219.999897,4210.769128,4234.358871,4236.410153,4274.35887,4245.128101,4241.538358,4231.794768,4249.230665,4251.794768
22,0,4288.205023,4222.051179,4219.487076,4217.435794,4222.563999,4209.743487,4228.717845,4229.230666,4245.640922,4232.307589,4229.743486,4217.948615,4231.281948,4243.076819
23,0,4298.461433,4232.820409,4227.692204,4228.717845,4211.794769,4219.487076,4236.410153,4233.33323,4238.974255,4229.230666,4229.743486,4226.153743,4230.256307,4249.230665
24,0,4291.281946,4232.820409,4223.58964,4233.33323,4215.897333,4215.897333,4236.410153,4233.33323,4232.307589,4229.230666,4217.435794,4223.58964,4226.666563,4245.640922
25,0,4278.461434,4221.025538,4211.794769,4226.666563,4223.07682,4210.256307,4227.692204,4231.281948,4212.82041,4229.230666,4215.897333,4214.871692,4229.743486,4240.512717
26,0,4290.769126,4224.615281,4220.512717,4225.640922,4215.384512,4216.410153,4233.84605,4236.922973,4229.743486,4237.948614,4241.025537,4230.769127,4249.743486,4253.84605
27,0,4298.974254,4245.128101,4233.33323,4232.820409,4216.922974,4215.897333,4241.025537,4234.871691,4253.333229,4239.487076,4237.948614,4241.025537,4246.153742,4255.897332
28,0,4293.846049,4253.84605,4226.666563,4233.33323,4232.307589,4208.717846,4235.384512,4230.769127,4238.974255,4229.743486,4210.256307,4230.256307,4230.769127,4246.153742
29,0,4291.281946,4242.563999,4219.999897,4231.794768,4232.820409,4215.897333,4235.897332,4233.33323,4231.794768,4221.025538,4221.025538,4225.640922,4242.051178,4246.666563
30,0,4284.102459,4232.820409,4222.051179,4231.794768,4226.153743,4221.538358,4247.692204,4236.922973,4253.333229,4236.410153,4239.487076,4230.256307,4248.717845,4250.769127
31,0,4279.999895,4234.871691,4225.128102,4227.179384,4221.025538,4213.846051,4250.256306,4241.025537,4259.999896,4249.230665,4229.743486,4229.743486,4241.025537,4251.794768
32,0,4285.640921,4239.999896,4227.179384,4226.666563,4218.461435,4204.102461,4239.999896,4238.974255,4242.051178,4232.307589,4225.128102,4233.33323,4239.487076,4255.384511
33,0,4281.538357,4234.871691,4223.58964,4228.717845,4222.563999,4206.153743,4231.281948,4229.743486,4230.769127,4212.82041,4230.256307,4232.820409,4234.358871,4250.256306
34,0,4275.897331,4231.281948,4221.538358,4227.692204,4225.128102,4212.82041,4233.33323,4230.769127,4243.58964,4233.33323,4235.897332,4233.84605,4235.384512,4247.179383
35,0,4272.820408,4232.307589,4221.538358,4223.58964,4216.410153,4209.230666,4232.307589,4233.33323,4245.640922,4247.179383,4227.692204,4231.281948,4236.922973,4247.179383
36,0,4261.538357,4232.307589,4213.846051,4218.461435,4214.871692,4203.589641,4222.563999,4223.07682,4204.615282,4222.051179,4213.846051,4221.538358,4222.563999,4235.897332
37,0,4265.128101,4234.358871,4219.487076,4220.512717,4228.205025,4216.922974,4231.794768,4228.717845,4211.794769,4231.794768,4221.025538,4231.794768,4223.58964,4239.487076
38,0,4276.410152,4231.281948,4230.256307,4224.102461,4237.435794,4217.948615,4243.076819,4237.435794,4251.794768,4263.076819,4226.666563,4247.179383,4231.794768,4251.281947
39,0,4277.948613,4238.461435,4229.743486,4229.230666,4232.820409,4208.717846,4236.922973,4234.871691,4258.461434,4258.974255,4230.256307,4247.179383,4242.051178,4252.307588
40,0,4277.948613,4248.717845,4227.692204,4234.358871,4227.179384,4211.794769,4232.307589,4239.487076,4264.10246,4237.435794,4239.999896,4245.128101,4251.281947,4250.769127
41,0,4264.61528,4226.666563,4224.102461,4224.102461,4230.256307,4211.794769,4235.384512,4238.974255,4254.871691,4230.256307,4224.102461,4237.435794,4227.692204,4237.948614
42,0,4254.35887,4213.33323,4222.051179,4215.384512,4233.84605,4204.102461,4233.84605,4229.230666,4221.538358,4244.10246,4208.717846,4233.33323,4213.33323,4230.769127
43,0,4273.846049,4245.128101,4230.769127,4227.692204,4228.717845,4208.717846,4232.820409,4228.205025,4231.281948,4254.35887,4225.128102,4247.179383,4237.948614,4249.230665
44,0,4284.61528,4259.487075,4232.307589,4233.84605,4216.410153,4209.743487,4232.820409,4224.102461,4246.666563,4237.948614,4222.563999,4250.256306,4231.281948,4254.871691
45,0,4277.948613,4245.640922,4222.563999,4231.281948,4208.205025,4197.435795,4226.666563,4211.794769,4215.897333,4210.769128,4209.743487,4238.461435,4207.179384,4242.563999
46,0,4285.640921,4252.820409,4224.102461,4235.897332,4218.461435,4202.564,4229.743486,4222.051179,4210.256307,4212.307589,4218.461435,4244.10246,4222.563999,4251.794768
47,0,4287.692203,4259.487075,4228.717845,4233.33323,4235.897332,4217.435794,4238.974255,4234.871691,4226.666563,4225.128102,4212.307589,4250.256306,4230.769127,4258.974255
48,0,4274.35887,4251.281947,4222.051179,4225.640922,4232.307589,4217.435794,4235.384512,4223.07682,4216.410153,4210.769128,4204.615282,4245.128101,4214.871692,4248.205024
49,0,4269.230665,4246.153742,4218.461435,4228.717845,4218.974256,4205.640923,4222.563999,4211.281948,4204.615282,4208.717846,4211.281948,4242.051178,4215.384512,4243.076819
50,0,4260.512716,4235.384512,4217.435794,4223.07682,4221.538358,4207.179384,4220.512717,4218.461435,4204.102461,4229.743486,4203.589641,4236.922973,4217.948615,4238.974255
51,0,4244.10246,4229.230666,4213.33323,4214.358871,4230.769127,4209.230666,4226.666563,4222.563999,4187.179385,4231.281948,4195.897333,4230.256307,4204.102461,4229.230666
52,0,4243.58964,4234.871691,4214.358871,4218.461435,4236.922973,4208.717846,4228.717845,4216.410153,4171.281949,4222.563999,4200.512718,4230.256307,4193.846051,4227.179384
53,0,4247.179383,4234.871691,4217.948615,4218.461435,4230.256307,4212.82041,4232.820409,4224.102461,4177.435795,4234.358871,4199.999897,4233.33323,4199.487077,4235.384512
54,0,4236.922973,4228.717845,4214.358871,4215.897333,4208.205025,4209.743487,4233.84605,4232.820409,4185.640923,4234.871691,4201.025538,4232.307589,4206.153743,4233.33323
55,0,4229.230666,4226.153743,4208.717846,4222.563999,4205.128102,4197.948615,4223.07682,4222.563999,4164.615283,4203.07682,4205.128102,4227.179384,4197.435795,4219.487076
56,0,4229.743486,4223.07682,4208.717846,4222.563999,4219.487076,4201.025538,4217.435794,4212.82041,4144.102463,4206.666564,4199.999897,4228.205025,4187.179385,4215.384512
57,0,4225.640922,4223.07682,4207.692205,4215.384512,4213.846051,4210.769128,4227.179384,4220.512717,4152.307591,4242.563999,4200.512718,4232.820409,4196.922974,4226.153743
58,0,4219.487076,4228.717845,4205.128102,4217.948615,4213.846051,4210.769128,4232.820409,4229.230666,4157.435796,4233.33323,4204.102461,4223.07682,4203.589641,4225.128102
59,0,4227.179384,4232.307589,4209.743487,4218.461435,4228.205025,4211.281948,4231.794768,4230.256307,4147.179386,4202.051179,4201.025538,4219.999897,4200.512718,4220.512717
60,0,4234.358871,4228.717845,4210.769128,4214.358871,4221.538358,4213.33323,4230.769127,4225.640922,4153.846052,4218.974256,4198.974256,4229.743486,4201.025538,4228.205025
61,0,4228.717845,4228.205025,4207.179384,4225.640922,4215.897333,4202.564,4219.487076,4214.871692,4162.05118,4232.307589,4210.769128,4223.07682,4205.128102,4230.769127
62,0,4229.743486,4239.487076,4210.769128,4234.358871,4225.128102,4202.051179,4219.487076,4212.82041,4164.615283,4200.512718,4225.640922,4220.512717,4212.307589,4230.256307
63,0,4234.358871,4233.84605,4213.846051,4217.948615,4220.512717,4213.33323,4231.794768,4217.948615,4160.512719,4194.358872,4208.717846,4230.256307,4205.640923,4231.794768
64,0,4229.230666,4214.871692,4207.692205,4207.179384,4211.794769,4206.153743,4223.58964,4215.897333,4142.564001,4228.717845,4187.179385,4229.230666,4191.281949,4227.692204
65,0,4226.153743,4223.58964,4209.743487,4219.999897,4216.410153,4197.948615,4211.794769,4212.82041,4149.230668,4238.974255,4204.615282,4232.307589,4195.897333,4229.230666
66,0,4233.84605,4242.563999,4222.563999,4232.820409,4215.897333,4203.589641,4221.538358,4217.948615,4175.897334,4212.82041,4223.58964,4248.717845,4206.153743,4235.897332
67,0,4241.025537,4243.58964,4223.58964,4228.717845,4213.33323,4212.307589,4225.128102,4221.025538,4179.999898,4194.871692,4209.743487,4248.205024,4201.025538,4234.358871
68,0,4228.717845,4222.563999,4216.922974,4212.82041,4216.922974,4210.769128,4218.461435,4219.487076,4171.281949,4216.922974,4200.512718,4242.051178,4198.974256,4231.281948
69,0,4215.384512,4207.692205,4215.384512,4207.692205,4214.358871,4210.769128,4217.435794,4210.769128,4163.076821,4234.871691,4203.589641,4245.640922,4200.512718,4231.281948
70,0,4235.897332,4230.256307,4217.948615,4223.58964,4216.922974,4208.205025,4215.897333,4199.999897,4147.179386,4214.358871,4201.025538,4244.10246,4196.410154,4237.435794
71,0,4262.563998,4266.666562,4222.563999,4238.974255,4222.051179,4205.640923,4213.846051,4205.128102,4171.281949,4209.743487,4208.205025,4244.615281,4202.051179,4245.128101
72,0,4256.922973,4267.179383,4222.563999,4234.871691,4217.435794,4205.640923,4220.512717,4216.922974,4210.769128,4224.615281,4214.871692,4247.179383,4201.538359,4240.512717
73,0,4246.666563,4249.743486,4221.538358,4228.717845,4209.230666,4210.769128,4227.692204,4218.974256,4198.974256,4215.897333,4198.461436,4246.666563,4182.05118,4236.410153
74,0,4253.84605,4251.281947,4225.640922,4229.230666,4208.717846,4214.871692,4223.07682,4216.922974,4181.025539,4218.461435,4191.794769,4248.717845,4183.076821,4246.666563
75,0,4252.307588,4252.307588,4228.205025,4226.666563,4221.025538,4213.846051,4217.435794,4217.948615,4212.82041,4240.512717,4216.410153,4254.35887,4213.33323,4255.384511
76,0,4239.487076,4247.692204,4214.871692,4222.563999,4231.794768,4212.307589,4219.999897,4219.487076,4226.666563,4230.769127,4223.58964,4247.179383,4212.82041,4245.128101
77,0,4235.384512,4250.256306,4204.102461,4223.07682,4229.743486,4212.307589,4218.974256,4217.435794,4188.205026,4211.281948,4194.871692,4231.794768,4174.871693,4232.820409
78,0,4226.153743,4242.563999,4205.640923,4221.025538,4216.922974,4205.640923,4211.281948,4207.179384,4159.487078,4219.487076,4185.640923,4228.205025,4168.205026,4230.769127
79,0,4213.846051,4227.692204,4205.128102,4215.384512,4212.307589,4195.384513,4205.640923,4198.461436,4154.871693,4218.974256,4206.666564,4232.820409,4196.922974,4231.794768
80,0,4220.512717,4230.769127,4205.128102,4219.487076,4214.871692,4202.051179,4214.871692,4209.230666,4152.307591,4207.692205,4207.692205,4233.84605,4197.948615,4232.307589
81,0,4230.769127,4249.743486,4212.307589,4226.153743,4213.33323,4216.410153,4226.666563,4220.512717,4157.435796,4213.33323,4194.871692,4233.33323,4184.102462,4235.384512
82,0,4221.538358,4251.281947,4215.384512,4224.615281,4218.461435,4215.384512,4220.512717,4214.871692,4169.743488,4220.512717,4201.538359,4233.84605,4192.30759,4237.948614
83,0,4212.307589,4240.512717,4209.230666,4223.07682,4225.128102,4205.640923,4210.769128,4209.230666,4162.564001,4212.82041,4203.07682,4233.33323,4193.846051,4233.33323
84,0,4214.871692,4240.512717,4204.102461,4225.128102,4224.615281,4209.230666,4222.563999,4217.435794,4154.871693,4215.384512,4190.769128,4230.769127,4181.538359,4228.717845
85,0,4214.871692,4252.820409,4207.692205,4230.256307,4222.051179,4205.128102,4229.743486,4219.999897,4163.076821,4219.999897,4196.410154,4229.743486,4186.666564,4230.769127
86,0,4215.384512,4259.999896,4214.871692,4233.84605,4219.999897,4198.461436,4218.974256,4216.410153,4173.846052,4212.307589,4211.794769,4237.435794,4200.512718,4240.512717
87,0,4218.461435,4253.333229,4220.512717,4231.794768,4214.358871,4204.102461,4223.07682,4222.051179,4185.640923,4217.948615,4212.307589,4247.179383,4203.07682,4248.717845
88,0,4214.871692,4247.179383,4219.487076,4229.743486,4218.974256,4209.743487,4229.743486,4225.128102,4191.794769,4226.153743,4201.538359,4243.58964,4199.487077,4239.999896
89,0,4214.358871,4252.820409,4216.922974,4228.717845,4231.281948,4205.640923,4217.948615,4217.948615,4184.102462,4222.563999,4197.435795,4239.999896,4196.410154,4230.256307
90,0,4213.33323,4247.179383,4216.922974,4219.999897,4227.692204,4209.743487,4214.871692,4212.307589,4175.897334,4216.922974,4199.487077,4242.051178,4192.30759,4234.358871
91,0,4205.128102,4236.410153,4214.871692,4211.281948,4213.846051,4206.153743,4215.897333,4206.666564,4159.999898,4205.640923,4200.512718,4238.461435,4189.743487,4237.948614
92,0,4199.999897,4245.640922,4211.794769,4222.563999,4210.769128,4189.743487,4205.128102,4196.922974,4141.53836,4190.256308,4198.461436,4232.307589,4187.692205,4228.717845
93,0,4202.051179,4250.256306,4213.33323,4230.256307,4223.58964,4192.30759,4207.179384,4206.153743,4152.307591,4212.82041,4203.589641,4232.820409,4195.897333,4227.692204
94,0,4205.640923,4242.051178,4216.922974,4219.999897,4235.384512,4212.307589,4223.07682,4218.461435,4177.948616,4237.948614,4205.640923,4243.58964,4203.589641,4238.974255
95,0,4196.410154,4239.487076,4210.256307,4210.256307,4235.384512,4213.846051,4221.025538,4206.666564,4159.999898,4211.281948,4192.82041,4227.692204,4188.205026,4236.410153
96,0,4183.589641,4234.358871,4202.051179,4214.358871,4216.410153,4201.025538,4211.794769,4197.948615,4115.384515,4192.82041,4184.615282,4170.256308,4167.692206,4226.153743
97,0,4190.769128,4233.84605,4209.230666,4227.179384,4211.794769,4197.435795,4214.358871,4205.128102,4108.205028,4217.435794,4197.948615,4136.410155,4182.564,4237.435794
98,0,4206.666564,4257.435793,4219.487076,4233.33323,4232.820409,4204.615282,4213.33323,4203.07682,4133.846053,4222.563999,4209.230666,4150.256309,4206.666564,4252.820409
99,0,4201.538359,4260.512716,4212.82041,4222.563999,4238.461435,4206.666564,4205.640923,4195.384513,4135.897335,4199.999897,4194.871692,4155.897334,4195.384513,4247.692204
100,0,4185.128103,4227.179384,4197.948615,4207.692205,4229.230666,4198.974256,4201.025538,4197.948615,4111.794771,4196.922974,4190.256308,4145.128104,4177.948616,4239.999896
101,0,4181.538359,4237.435794,4203.07682,4220.512717,4228.205025,4196.410154,4201.025538,4199.999897,4107.179387,4209.743487,4208.205025,4148.205027,4193.333231,4242.563999
102,0,4189.230667,4275.897331,4215.384512,4238.974255,4233.33323,4207.692205,4213.33323,4201.538359,4128.717848,4221.538358,4210.256307,4157.948616,4207.692205,4251.281947
103,0,4187.692205,4258.461434,4210.256307,4225.128102,4233.84605,4207.692205,4217.435794,4205.640923,4142.051181,4222.563999,4195.384513,4155.384514,4194.358872,4247.179383
104,0,4178.461436,4230.769127,4203.07682,4212.307589,4229.743486,4191.794769,4204.102461,4203.07682,4130.256309,4204.615282,4199.999897,4150.769129,4188.717846,4231.281948
105,0,4179.999898,4244.10246,4210.769128,4221.025538,4222.051179,4200.512718,4203.589641,4199.999897,4125.640925,4204.102461,4211.281948,4160.512719,4198.461436,4236.922973
106,0,4180.512718,4243.58964,4211.794769,4219.487076,4228.205025,4216.922974,4218.974256,4202.051179,4124.615284,4230.769127,4193.333231,4168.205026,4192.30759,4247.692204
107,0,4171.281949,4234.358871,4201.025538,4213.33323,4235.384512,4210.256307,4216.410153,4203.07682,4118.461438,4231.281948,4181.538359,4156.922975,4182.564,4233.33323
108,0,4163.589642,4243.076819,4196.410154,4219.999897,4221.538358,4196.410154,4199.487077,4195.897333,4101.025541,4197.948615,4192.82041,4148.205027,4180.512718,4221.025538
109,0,4162.564001,4236.410153,4199.999897,4219.999897,4214.871692,4209.230666,4203.589641,4198.461436,4090.769131,4191.281949,4200.512718,4162.05118,4185.128103,4234.871691
110,0,4172.30759,4235.897332,4207.692205,4217.948615,4232.307589,4214.871692,4215.384512,4211.794769,4110.76913,4223.58964,4203.07682,4177.948616,4202.051179,4247.692204
111,0,4184.102462,4259.999896,4217.435794,4230.256307,4241.025537,4206.666564,4217.435794,4217.948615,4154.358873,4236.410153,4211.281948,4184.102462,4214.871692,4248.205024
112,0,4183.076821,4261.025537,4220.512717,4230.256307,4228.717845,4210.769128,4223.07682,4218.974256,4184.615282,4215.384512,4216.922974,4194.871692,4208.205025,4250.256306
113,0,4166.153744,4238.974255,4208.717846,4214.871692,4234.871691,4207.179384,4217.948615,4205.640923,4165.640924,4202.051179,4202.564,4194.871692,4196.922974,4244.615281
114,0,4159.487078,4243.076819,4198.461436,4217.435794,4254.35887,4191.281949,4199.487077,4186.666564,4126.153745,4222.563999,4190.256308,4184.615282,4197.948615,4239.487076
115,0,4175.897334,4261.538357,4212.307589,4232.307589,4243.076819,4208.717846,4211.281948,4202.564,4147.179386,4249.230665,4206.153743,4199.999897,4208.205025,4252.820409
116,0,4189.743487,4263.076819,4233.33323,4232.307589,4226.153743,4236.410153,4243.076819,4235.384512,4216.922974,4243.58964,4227.692204,4233.33323,4222.563999,4268.205024
117,0,4187.179385,4260.512716,4231.281948,4228.205025,4235.384512,4220.512717,4235.897332,4227.179384,4238.974255,4217.948615,4226.153743,4242.051178,4230.769127,4266.666562
118,0,4182.05118,4265.640921,4216.922974,4233.33323,4234.358871,4197.948615,4208.205025,4197.435795,4198.974256,4210.769128,4211.281948,4229.743486,4223.07682,4262.051178
119,0,4178.461436,4257.948614,4215.897333,4231.281948,4220.512717,4205.640923,4210.256307,4197.948615,4176.410154,4220.512717,4202.564,4232.307589,4210.769128,4262.563998
120,0,4158.461437,4230.769127,4219.487076,4216.410153,4225.128102,4214.358871,4227.179384,4214.358871,4182.564,4216.922974,4196.922974,4243.58964,4192.30759,4246.666563
121,0,4146.153745,4225.640922,4215.897333,4210.769128,4234.871691,4211.794769,4228.717845,4219.999897,4180.512718,4206.153743,4203.07682,4249.230665,4189.743487,4234.871691
122,0,4154.358873,4236.410153,4206.666564,4216.922974,4232.820409,4212.307589,4219.999897,4213.33323,4173.846052,4217.435794,4209.743487,4248.205024,4206.153743,4248.717845
123,0,4149.230668,4221.025538,4200.512718,4214.871692,4229.230666,4202.051179,4213.846051,4203.07682,4170.256308,4239.999896,4208.205025,4245.128101,4219.487076,4260.512716
124,0,4134.358873,4198.974256,4201.538359,4202.564,4227.179384,4201.538359,4217.948615,4201.025538,4172.820411,4234.358871,4222.051179,4247.692204,4238.461435,4262.563998
125,0,4133.846053,4196.922974,4204.615282,4198.461436,4219.487076,4212.82041,4223.07682,4208.205025,4175.384513,4214.871692,4234.871691,4254.871691,4253.84605,4267.692203
126,0,4139.487078,4200.512718,4205.128102,4202.051179,4209.743487,4210.769128,4222.051179,4212.82041,4177.948616,4216.922974,4221.538358,4261.538357,4241.025537,4268.717844
127,0,4135.384514,4197.435795,4200.512718,4202.051179,4214.358871,4193.846051,4213.846051,4207.179384,4170.256308,4225.128102,4211.794769,4261.025537,4225.640922,4262.051178
128,0,4134.358873,4199.487077,4202.564,4200.512718,4230.769127,4198.974256,4213.33323,4203.07682,4175.384513,4221.025538,4230.256307,4261.025537,4243.076819,4269.743485
0,0,4140.512719,4212.307589,4209.230666,4202.051179,4234.871691,4214.358871,4225.640922,4206.153743,4196.922974,4225.128102,4235.384512,4264.61528,4251.794768,4282.051177
1,0,4141.02554,4222.563999,4210.769128,4202.051179,4229.230666,4212.82041,4228.717845,4211.281948,4208.717846,4242.563999,4215.897333,4265.128101,4235.897332,4279.487075
2,0,4142.051181,4215.384512,4211.281948,4198.974256,4228.717845,4201.538359,4216.410153,4214.871692,4204.102461,4245.640922,4212.82041,4269.743485,4233.33323,4272.820408
3,0,4153.333232,4213.846051,4217.948615,4202.051179,4228.205025,4199.999897,4212.82041,4217.948615,4212.307589,4235.897332,4235.897332,4277.948613,4253.333229,4279.999895
4,0,4161.025539,4227.179384,4217.948615,4203.07682,4227.179384,4207.179384,4226.666563,4221.538358,4241.025537,4229.743486,4254.35887,4283.589639,4270.769126,4294.87169
5,0,4156.410155,4230.256307,4211.281948,4199.999897,4230.769127,4209.743487,4231.794768,4222.563999,4249.230665,4232.820409,4235.897332,4277.948613,4254.35887,4287.179382
6,0,4153.846052,4214.358871,4208.205025,4194.871692,4235.384512,4203.07682,4219.999897,4218.461435,4226.153743,4237.435794,4213.846051,4266.153742,4233.33323,4266.666562
7,0,4149.743488,4202.051179,4205.128102,4187.692205,4224.102461,4201.538359,4215.384512,4213.33323,4204.102461,4233.84605,4221.025538,4262.563998,4241.538358,4265.128101
8,0,4146.666565,4209.743487,4206.153743,4192.30759,4208.205025,4202.051179,4225.640922,4214.358871,4198.461436,4232.820409,4221.025538,4264.61528,4242.563999,4273.333229
9,0,4150.769129,4216.922974,4209.743487,4198.974256,4224.102461,4199.999897,4230.256307,4215.897333,4206.666564,4244.10246,4216.922974,4265.640921,4235.384512,4278.974254
10,0,4144.615283,4203.589641,4203.07682,4190.256308,4235.897332,4194.871692,4217.948615,4199.999897,4208.205025,4233.84605,4230.769127,4262.563998,4244.10246,4287.179382
11,0,4126.153745,4184.102462,4191.794769,4181.025539,4209.743487,4186.153744,4206.666564,4176.922975,4157.435796,4193.333231,4218.461435,4249.743486,4231.794768,4283.076818
12,0,4129.230668,4189.743487,4196.922974,4188.205026,4201.538359,4196.922974,4217.948615,4188.205026,4123.076822,4201.025538,4198.461436,4248.205024,4214.358871,4284.102459
13,0,4152.820411,4213.846051,4213.33323,4197.948615,4225.128102,4215.897333,4235.384512,4217.948615,4181.025539,4246.153742,4222.051179,4267.179383,4240.512717,4314.871689
14,0,4161.025539,4221.025538,4219.999897,4203.589641,4222.563999,4211.281948,4237.948614,4223.58964,4238.974255,4246.153742,4232.820409,4274.35887,4257.435793,4334.871689
15,0,4154.358873,4213.33323,4213.33323,4202.564,4207.692205,4191.281949,4230.769127,4216.410153,4227.179384,4225.640922,4217.435794,4264.61528,4241.538358,4323.076817
16,0,4148.205027,4207.179384,4205.128102,4190.256308,4221.538358,4192.30759,4219.999897,4211.281948,4208.205025,4224.102461,4221.025538,4262.051178,4234.358871,4322.051176
17,0,4163.076821,4214.358871,4207.179384,4194.358872,4224.615281,4201.538359,4211.794769,4207.692205,4217.435794,4234.358871,4229.743486,4265.640921,4245.640922,4356.41015
18,0,4171.79477,4211.281948,4211.794769,4203.589641,4208.717846,4202.564,4216.410153,4210.769128,4237.435794,4241.025537,4218.461435,4268.717844,4241.025537,4371.794765
19,0,4151.28195,4196.410154,4202.564,4188.717846,4213.846051,4199.487077,4221.025538,4208.205025,4218.461435,4229.230666,4200.512718,4263.076819,4206.666564,4337.948612
20,0,4149.743488,4207.179384,4196.922974,4185.128103,4224.102461,4197.435795,4213.33323,4198.461436,4190.769128,4216.922974,4208.205025,4255.384511,4206.666564,4344.615278
21,0,4176.410154,4228.205025,4203.589641,4204.615282,4216.922974,4200.512718,4213.846051,4207.179384,4233.33323,4241.025537,4240.512717,4265.128101,4262.563998,4425.128097
22,0,4171.281949,4219.487076,4202.051179,4206.666564,4221.025538,4206.666564,4223.07682,4221.025538,4294.358869,4261.538357,4243.076819,4266.666562,4282.563998,4471.794762
23,0,4147.692206,4198.974256,4191.281949,4188.717846,4234.871691,4202.051179,4223.07682,4212.307589,4276.922972,4246.666563,4208.205025,4249.230665,4239.999896,4477.435788
24,0,4161.53836,4202.564,4188.205026,4183.076821,4229.230666,4187.692205,4212.307589,4200.512718,4250.256306,4226.153743,4210.769128,4245.128101,4232.820409,4535.897325
25,0,4180.512718,4215.897333,4191.281949,4196.410154,4217.948615,4187.179385,4205.128102,4196.410154,4278.974254,4217.948615,4241.025537,4252.307588,4258.974255,4611.281939
26,0,4182.05118,4214.871692,4196.410154,4199.999897,4218.461435,4206.153743,4212.82041,4199.487077,4309.743484,4232.820409,4231.281948,4253.84605,4255.897332,4643.07681
27,0,4198.461436,4212.82041,4200.512718,4188.717846,4227.179384,4216.410153,4221.538358,4208.205025,4329.743484,4258.461434,4209.743487,4263.076819,4251.281947,4698.974244
28,0,4216.922974,4215.897333,4201.538359,4191.281949,4226.153743,4204.102461,4217.435794,4211.794769,4363.589637,4254.35887,4221.025538,4276.922972,4261.025537,4786.153729
29,0,4216.410153,4220.512717,4201.538359,4205.128102,4212.82041,4198.974256,4213.846051,4210.256307,4397.43579,4233.33323,4236.410153,4279.999895,4266.666562,4829.230651
30,0,4218.974256,4219.487076,4198.974256,4201.538359,4217.948615,4197.948615,4215.897333,4206.153743,4404.102456,4230.256307,4222.563999,4273.846049,4263.076819,4837.9486
31,0,4234.358871,4211.794769,4194.871692,4188.205026,4239.487076,4193.846051,4214.358871,4205.640923,4401.538354,4233.84605,4209.743487,4266.666562,4258.461434,4826.153728
32,0,4247.179383,4198.974256,4195.897333,4186.666564,4232.820409,4192.82041,4214.358871,4211.281948,4402.563995,4234.358871,4220.512717,4265.640921,4264.10246,4750.769115
33,0,4275.897331,4198.974256,4201.025538,4195.897333,4207.692205,4199.999897,4222.051179,4211.281948,4394.358867,4229.230666,4229.230666,4264.61528,4278.461434,4671.281937
34,0,4311.794766,4214.871692,4197.948615,4198.974256,4212.307589,4195.897333,4219.487076,4198.461436,4367.17938,4223.58964,4216.922974,4250.256306,4274.87169,4647.179374
35,0,4336.41015,4219.999897,4197.948615,4193.846051,4219.999897,4190.256308,4219.487076,4196.410154,4356.41015,4242.051178,4202.051179,4247.692204,4256.410152,4629.743477
36,0,4375.897329,4216.410153,4205.128102,4196.410154,4213.33323,4193.333231,4230.769127,4209.230666,4388.717841,4262.051178,4223.58964,4261.025537,4279.999895,4618.974246
37,0,4416.410148,4213.846051,4207.179384,4201.538359,4222.051179,4195.384513,4224.615281,4199.999897,4414.871687,4227.692204,4247.179383,4269.230665,4306.666561,4638.461425
38,0,4466.666557,4210.256307,4206.153743,4196.922974,4232.820409,4192.30759,4204.615282,4183.076821,4398.461431,4201.025538,4224.102461,4274.35887,4284.102459,4639.999887
39,0,4558.461427,4217.948615,4213.846051,4196.410154,4220.512717,4205.640923,4214.358871,4195.897333,4428.71784,4247.692204,4209.230666,4279.999895,4278.974254,4619.999887
40,0,4623.589631,4220.512717,4205.640923,4194.358872,4209.230666,4207.179384,4224.102461,4206.153743,4485.128095,4264.61528,4232.307589,4269.743485,4305.64092,4609.230657
41,0,4676.922963,4197.435795,4182.564,4183.076821,4227.692204,4180.512718,4194.871692,4183.589641,4459.48707,4224.615281,4233.33323,4248.205024,4303.589638,4588.205016
42,0,4786.66655,4193.846051,4190.769128,4189.743487,4244.615281,4178.461436,4185.640923,4174.871693,4437.435789,4222.051179,4208.717846,4252.307588,4289.230664,4564.615273
43,0,4833.846036,4223.07682,4206.153743,4203.07682,4230.769127,4211.281948,4214.358871,4198.461436,4494.358864,4251.794768,4209.743487,4262.563998,4305.1281,4556.410145
44,0,4791.794755,4233.84605,4193.333231,4196.922974,4221.538358,4225.640922,4226.153743,4206.666564,4533.846043,4260.512716,4225.128102,4252.820409,4327.692202,4567.692196
45,0,4826.153728,4228.717845,4190.769128,4198.461436,4229.230666,4211.281948,4211.794769,4191.281949,4533.846043,4239.999896,4233.33323,4250.769127,4334.358868,4594.871683
46,0,4920.5127,4232.307589,4214.871692,4207.179384,4221.025538,4215.897333,4211.281948,4190.769128,4581.53835,4234.871691,4239.487076,4273.333229,4336.41015,4630.256297
47,0,4911.281931,4212.307589,4203.589641,4191.794769,4221.025538,4199.999897,4201.025538,4184.615282,4583.589632,4245.128101,4219.999897,4261.025537,4314.871689,4643.07681
48,0,4852.820394,4191.281949,4171.281949,4181.538359,4247.179383,4173.333231,4181.538359,4169.743488,4499.487069,4232.307589,4194.871692,4225.128102,4282.563998,4637.948605
49,0,4890.769111,4227.692204,4184.102462,4195.897333,4242.051178,4206.153743,4205.128102,4191.281949,4513.846043,4218.974256,4220.512717,4242.563999,4295.38451,4663.076809
50,0,4965.640904,4253.333229,4202.564,4197.435795,4206.153743,4245.128101,4230.769127,4215.384512,4620.512708,4242.563999,4253.333229,4265.640921,4338.461432,4683.076809
51,0,4996.410134,4230.256307,4186.666564,4184.615282,4203.589641,4223.07682,4215.897333,4199.487077,4628.717836,4257.948614,4242.051178,4245.128101,4348.205022,4650.769117
52,0,5037.435774,4224.102461,4175.897334,4191.794769,4235.384512,4212.82041,4201.025538,4185.128103,4587.179375,4233.33323,4228.717845,4237.948614,4325.128099,4637.435784
53,0,5108.205003,4228.717845,4187.179385,4197.435795,4244.615281,4220.512717,4195.897333,4183.589641,4594.871683,4215.897333,4227.692204,4251.794768,4308.717843,4676.410142
54,0,5143.589618,4211.794769,4186.666564,4186.153744,4223.07682,4207.692205,4186.666564,4170.256308,4589.230657,4213.846051,4215.384512,4238.974255,4308.717843,4667.692194
55,0,5194.871668,4224.102461,4182.05118,4191.281949,4215.897333,4227.179384,4202.051179,4180.512718,4594.871683,4220.512717,4225.128102,4223.07682,4330.256304,4619.999887
56,0,5296.922947,4248.717845,4186.666564,4199.999897,4246.666563,4273.333229,4225.128102,4210.769128,4681.025527,4241.025537,4251.281947,4233.84605,4349.230663,4647.179374
57,0,5351.794741,4226.666563,4181.538359,4188.205026,4255.384511,4263.589639,4211.794769,4202.051179,4727.179372,4253.84605,4243.076819,4232.307589,4338.461432,4692.820398
58,0,5375.384484,4206.666564,4173.846052,4182.05118,4223.58964,4236.922973,4190.769128,4180.512718,4688.717834,4236.922973,4222.051179,4215.897333,4317.948612,4677.435783
59,0,5428.717816,4214.871692,4169.743488,4187.692205,4219.487076,4247.179383,4193.333231,4185.128103,4669.743476,4208.205025,4230.256307,4212.82041,4316.922971,4651.281938
60,0,5481.538327,4220.512717,4168.717847,4185.640923,4228.717845,4269.230665,4210.769128,4202.051179,4706.153731,4218.974256,4241.025537,4215.384512,4328.205022,4641.025528
61,0,5515.897301,4226.666563,4175.897334,4193.846051,4212.82041,4280.512716,4225.640922,4221.538358,4750.769115,4253.333229,4233.84605,4217.435794,4332.307586,4625.128092
62,0,5549.230634,4236.922973,4182.564,4203.07682,4217.435794,4272.307588,4219.999897,4224.615281,4779.487063,4248.205024,4235.384512,4230.769127,4330.769125,4640.512707
63,0,5574.358838,4227.179384,4166.153744,4178.974257,4254.871691,4243.076819,4197.948615,4191.281949,4749.230653,4205.128102,4232.820409,4218.461435,4319.487074,4659.487066
64,0,5592.820376,4218.974256,4158.461437,4167.692206,4240.512717,4243.58964,4205.128102,4183.076821,4720.512705,4213.33323,4224.615281,4199.999897,4314.358869,4648.717835
65,0,5604.102427,4225.640922,4181.025539,4186.153744,4197.948615,4275.384511,4233.84605,4214.358871,4763.589627,4256.922973,4230.769127,4216.922974,4326.15374,4649.230656
66,0,5605.640889,4232.820409,4189.230667,4193.333231,4211.281948,4281.025536,4236.922973,4219.487076,4803.589626,4256.922973,4246.153742,4233.84605,4338.974253,4657.435784
67,0,5598.974222,4232.307589,4176.410154,4181.025539,4238.461435,4262.051178,4216.922974,4194.871692,4790.256293,4230.769127,4244.615281,4219.487076,4334.358868,4662.563989
68,0,5612.820376,4228.717845,4174.358872,4172.30759,4238.974255,4257.948614,4206.666564,4193.846051,4779.487063,4235.897332,4236.410153,4219.487076,4321.025535,4688.205014
69,0,5637.43576,4235.384512,4178.461436,4175.897334,4244.615281,4275.384511,4209.230666,4211.281948,4798.461421,4249.743486,4232.820409,4233.33323,4322.563997,4695.897321
70,0,5623.589606,4247.692204,4180.512718,4184.615282,4251.281947,4282.051177,4212.307589,4216.410153,4800.512703,4239.999896,4229.743486,4219.487076,4326.15374,4672.820399
71,0,5598.461402,4255.897332,4191.281949,4190.256308,4231.794768,4285.640921,4221.025538,4219.487076,4816.410139,4235.384512,4248.717845,4212.82041,4333.846048,4677.948604
72,0,5596.92294,4242.563999,4183.076821,4176.922975,4221.538358,4279.999895,4220.512717,4220.512717,4819.999882,4244.615281,4257.948614,4224.615281,4334.871689,4679.487065
73,0,5606.66653,4235.897332,4167.692206,4170.769129,4238.974255,4282.563998,4218.974256,4218.461435,4784.615268,4253.333229,4228.717845,4218.461435,4316.410151,4653.84604
74,0,5598.974222,4253.84605,4172.30759,4178.461436,4250.769127,4284.102459,4223.07682,4218.974256,4765.640909,4242.051178,4218.461435,4206.153743,4312.307587,4639.999887
75,0,5601.025504,4250.256306,4176.410154,4173.846052,4243.58964,4274.87169,4217.948615,4223.58964,4773.846037,4237.948614,4241.538358,4212.307589,4328.717843,4624.615272
76,0,5607.692171,4241.025537,4173.333231,4173.846052,4230.769127,4277.948613,4215.897333,4231.794768,4776.41014,4259.487075,4244.615281,4216.410153,4329.743484,4596.922965
77,0,5582.051146,4246.153742,4174.358872,4183.076821,4229.743486,4284.102459,4217.435794,4227.692204,4759.487063,4244.10246,4227.692204,4209.743487,4317.948612,4590.769119
78,0,5553.846018,4229.743486,4176.922975,4174.358872,4231.281948,4275.897331,4217.435794,4222.051179,4743.076807,4218.974256,4234.871691,4211.794769,4326.15374,4590.769119
79,0,5543.076788,4216.410153,4176.410154,4166.153744,4233.84605,4273.333229,4226.153743,4225.640922,4740.512705,4255.897332,4247.179383,4215.897333,4330.256304,4582.563991
80,0,5558.461403,4251.281947,4191.794769,4184.615282,4237.948614,4277.435793,4236.410153,4228.717845,4763.589627,4285.640921,4247.692204,4228.717845,4331.281945,4603.589631
81,0,5592.307556,4273.846049,4202.051179,4192.82041,4236.410153,4261.538357,4223.07682,4218.461435,4761.025525,4230.256307,4238.974255,4236.410153,4330.256304,4609.230657
82,0,5599.487043,4256.410152,4191.281949,4181.538359,4233.84605,4252.820409,4209.230666,4209.743487,4702.563988,4188.205026,4221.538358,4217.948615,4309.743484,4569.743478
83,0,5560.512685,4258.461434,4187.179385,4181.538359,4232.820409,4266.666562,4222.051179,4223.58964,4689.743475,4230.769127,4230.769127,4216.922974,4321.025535,4559.999888
84,0,5518.461404,4263.076819,4195.384513,4185.128103,4228.717845,4259.999896,4227.179384,4229.230666,4737.435782,4255.897332,4259.487075,4235.384512,4357.948611,4584.615273
85,0,5493.84602,4258.461434,4195.897333,4187.692205,4206.153743,4234.358871,4211.281948,4212.307589,4717.948603,4219.999897,4246.153742,4229.230666,4333.333227,4567.179375
86,0,5436.922944,4243.076819,4182.564,4178.974257,4217.948615,4231.794768,4202.564,4199.487077,4614.871682,4208.717846,4202.051179,4202.051179,4278.974254,4502.051172
87,0,5402.05115,4212.307589,4183.076821,4162.564001,4254.871691,4244.10246,4209.743487,4206.153743,4566.666555,4235.384512,4212.307589,4203.589641,4297.948613,4489.74348
88,0,5406.666534,4213.33323,4187.179385,4172.820411,4243.076819,4242.051178,4212.307589,4207.179384,4592.820401,4226.666563,4247.179383,4214.871692,4327.692202,4506.153736
89,0,5370.256279,4237.435794,4178.461436,4187.692205,4220.512717,4224.102461,4201.025538,4194.358872,4557.948606,4203.589641,4227.179384,4201.538359,4296.922972,4481.538352
90,0,5346.666536,4231.794768,4183.589641,4176.410154,4215.897333,4235.384512,4209.743487,4209.230666,4524.102453,4227.692204,4213.33323,4204.102461,4296.922972,4478.461429
91,0,5364.615253,4229.230666,4193.846051,4167.179385,4212.82041,4254.871691,4232.307589,4235.897332,4566.666555,4257.435793,4237.435794,4222.051179,4332.820407,4496.410146
92,0,5341.538331,4246.153742,4185.640923,4183.076821,4221.025538,4235.897332,4221.025538,4222.051179,4560.512709,4220.512717,4230.769127,4208.717846,4312.307587,4461.538352
93,0,5315.384485,4228.205025,4174.358872,4186.153744,4229.230666,4214.358871,4196.922974,4197.948615,4481.025531,4176.410154,4211.794769,4189.743487,4279.999895,4437.435789
94,0,5340.51269,4206.153743,4186.153744,4172.820411,4217.435794,4243.58964,4217.435794,4216.922974,4485.640916,4204.615282,4231.794768,4209.743487,4304.102459,4459.999891
95,0,5311.281921,4229.230666,4199.487077,4177.435795,4218.461435,4275.897331,4253.333229,4244.615281,4537.435786,4246.153742,4235.384512,4220.512717,4319.487074,4435.897327
96,0,5246.153718,4244.10246,4196.922974,4190.769128,4226.666563,4263.076819,4242.563999,4233.33323,4514.871684,4222.563999,4214.358871,4208.717846,4296.922972,4404.615277
97,0,5241.025513,4233.33323,4189.230667,4193.333231,4206.666564,4250.256306,4215.384512,4213.33323,4478.461429,4202.051179,4229.743486,4213.846051,4290.769126,4414.358866
98,0,5211.794744,4230.256307,4183.589641,4186.153744,4209.230666,4259.999896,4214.358871,4213.33323,4459.48707,4224.102461,4236.922973,4209.743487,4298.461433,4397.94861
99,0,5162.563976,4240.512717,4191.281949,4185.128103,4231.794768,4266.666562,4222.051179,4221.538358,4439.487071,4230.769127,4217.435794,4198.461436,4307.179382,4389.230662
100,0,5173.333207,4249.230665,4197.435795,4190.256308,4235.897332,4259.999896,4214.358871,4218.974256,4433.846045,4213.33323,4219.999897,4200.512718,4306.666561,4388.717841
101,0,5182.563976,4248.717845,4197.435795,4195.897333,4226.153743,4261.538357,4213.33323,4217.948615,4431.794763,4216.410153,4232.307589,4210.256307,4289.743485,4359.999893
102,0,5148.205002,4247.179383,4202.051179,4197.948615,4221.025538,4265.640921,4222.051179,4228.205025,4433.333225,4237.435794,4230.769127,4214.871692,4287.692203,4351.281945
103,0,5128.205003,4246.153742,4207.179384,4196.410154,4220.512717,4268.717844,4222.563999,4235.384512,4449.743481,4243.58964,4236.922973,4216.410153,4312.307587,4362.563996
104,0,5116.922952,4245.128101,4204.615282,4194.871692,4217.948615,4273.846049,4227.692204,4232.820409,4443.589635,4230.769127,4237.435794,4218.974256,4311.794766,4348.717842
105,0,5079.999876,4229.743486,4190.769128,4188.717846,4237.948614,4257.435793,4217.948615,4214.358871,4378.974252,4210.769128,4203.589641,4202.051179,4268.205024,4312.307587
106,0,5039.487056,4215.897333,4184.615282,4187.692205,4254.871691,4239.487076,4203.07682,4205.128102,4326.15374,4209.230666,4204.615282,4185.128103,4266.666562,4296.922972
107,0,5014.358852,4235.897332,4201.538359,4195.897333,4227.179384,4264.10246,4223.07682,4227.692204,4349.230663,4226.666563,4243.076819,4203.07682,4303.589638,4301.538356
108,0,5017.435775,4258.974255,4211.281948,4199.999897,4206.666564,4275.897331,4242.563999,4242.051178,4368.205021,4232.307589,4235.897332,4217.435794,4293.846049,4301.538356
109,0,5009.230647,4250.256306,4197.948615,4195.897333,4230.769127,4256.410152,4229.230666,4227.179384,4346.66656,4233.33323,4212.82041,4202.051179,4277.435793,4301.538356
110,0,4971.28193,4237.435794,4190.256308,4193.333231,4232.307589,4255.384511,4228.205025,4223.58964,4339.487073,4234.358871,4233.33323,4202.564,4306.153741,4301.025536
111,0,4953.846033,4250.256306,4196.410154,4202.051179,4224.102461,4267.179383,4234.358871,4230.769127,4337.435791,4217.948615,4234.871691,4210.256307,4299.487074,4279.487075
112,0,4947.179366,4250.256306,4196.410154,4203.07682,4250.256306,4254.871691,4219.487076,4219.999897,4299.999895,4210.769128,4205.640923,4198.974256,4257.948614,4256.410152
113,0,4909.74347,4234.871691,4190.256308,4193.333231,4239.999896,4251.281947,4218.974256,4214.358871,4271.794767,4219.487076,4210.769128,4195.897333,4266.666562,4250.769127
114,0,4874.358855,4235.384512,4183.589641,4186.153744,4213.33323,4263.076819,4232.820409,4219.999897,4257.435793,4214.358871,4221.538358,4192.82041,4279.487075,4227.179384
115,0,4855.897317,4238.461435,4183.076821,4189.230667,4234.358871,4260.512716,4229.743486,4219.999897,4231.281948,4224.102461,4207.692205,4179.487077,4257.435793,4201.025538
116,0,4833.846036,4253.84605,4186.666564,4199.487077,4247.692204,4254.35887,4223.58964,4217.435794,4228.205025,4257.948614,4211.794769,4179.487077,4270.256306,4219.487076
117,0,4816.922959,4263.589639,4184.102462,4199.999897,4244.10246,4252.307588,4219.487076,4212.307589,4231.794768,4246.153742,4227.179384,4184.615282,4297.948613,4243.076819
118,0,4809.230652,4252.307588,4190.769128,4192.30759,4255.897332,4257.948614,4221.538358,4213.846051,4233.33323,4212.307589,4236.410153,4195.384513,4292.820408,4254.35887
119,0,4798.461421,4245.128101,4200.512718,4194.358872,4251.281947,4256.922973,4227.692204,4224.615281,4242.051178,4219.487076,4229.230666,4205.128102,4273.333229,4244.10246
120,0,4771.794755,4238.974255,4192.82041,4202.051179,4228.717845,4244.10246,4223.58964,4221.538358,4218.974256,4232.307589,4212.307589,4194.358872,4260.512716,4231.281948
121,0,4756.922961,4229.743486,4191.794769,4198.461436,4222.051179,4239.487076,4218.974256,4211.794769,4192.82041,4231.281948,4223.07682,4196.410154,4271.281947,4261.538357
122,0,4770.256294,4235.384512,4196.410154,4189.230667,4229.230666,4246.666563,4223.07682,4215.384512,4208.205025,4234.358871,4233.84605,4202.564,4276.922972,4273.846049
123,0,4769.743473,4241.538358,4186.153744,4187.692205,4237.948614,4237.948614,4218.974256,4215.897333,4195.384513,4228.205025,4210.256307,4184.615282,4253.333229,4236.922973
124,0,4754.871679,4235.384512,4191.794769,4194.358872,4234.358871,4230.769127,4215.897333,4213.846051,4177.948616,4214.358871,4216.410153,4193.846051,4254.871691,4243.58964
125,0,4757.435781,4245.640922,4210.769128,4202.051179,4233.33323,4228.205025,4215.384512,4216.410153,4201.538359,4211.794769,4241.025537,4222.051179,4277.948613,4285.640921
126,0,4739.999884,4252.820409,4205.128102,4198.974256,4246.666563,4229.743486,4212.82041,4215.384512,4205.640923,4228.717845,4221.538358,4206.666564,4261.025537,4270.769126
127,0,4712.820398,4243.076819,4196.922974,4193.333231,4234.871691,4241.538358,4228.717845,4225.128102,4191.794769,4249.743486,4212.307589,4190.256308,4250.256306,4253.84605
128,0,4718.461423,4245.640922,4203.07682,4193.846051,4214.358871,4249.230665,4248.717845,4239.999896,4215.897333,4240.512717,4239.487076,4208.205025,4278.974254,4278.461434
0,0,4704.61527,4257.948614,4198.461436,4197.948615,4232.307589,4234.871691,4241.538358,4234.358871,4208.717846,4213.846051,4232.307589,4205.128102,4271.794767,4271.281947
1,0,4674.871681,4245.128101,4201.025538,4196.410154,4238.461435,4231.794768,4235.897332,4229.743486,4180.512718,4215.897333,4216.410153,4195.384513,4252.307588,4254.35887
2,0,4678.974245,4224.615281,4214.871692,4189.230667,4226.666563,4233.84605,4236.922973,4230.769127,4180.512718,4224.615281,4226.666563,4210.769128,4262.051178,4265.640921
3,0,4686.666552,4249.743486,4218.461435,4198.461436,4231.794768,4229.230666,4229.743486,4223.07682,4186.153744,4221.538358,4226.666563,4221.538358,4264.61528,4272.820408
4,0,4668.205014,4275.384511,4208.205025,4205.640923,4237.948614,4227.692204,4223.07682,4215.384512,4174.871693,4213.846051,4215.897333,4211.794769,4255.384511,4254.35887
5,0,4644.102451,4245.640922,4202.051179,4192.82041,4235.384512,4230.256307,4218.461435,4215.384512,4163.589642,4204.102461,4226.666563,4207.692205,4264.10246,4248.205024
6,0,4615.384503,4219.487076,4207.692205,4184.615282,4230.256307,4235.897332,4219.999897,4216.922974,4156.410155,4215.384512,4232.307589,4212.82041,4267.179383,4262.563998
7,0,4601.538349,4244.10246,4215.384512,4195.384513,4231.794768,4241.025537,4227.692204,4220.512717,4153.846052,4239.999896,4217.948615,4215.897333,4250.256306,4269.230665
8,0,4618.974246,4253.333229,4216.922974,4201.025538,4237.948614,4236.922973,4222.563999,4220.512717,4167.179385,4238.974255,4222.563999,4224.615281,4251.794768,4269.743485
9,0,4623.589631,4229.743486,4215.897333,4191.794769,4222.051179,4232.820409,4215.384512,4218.974256,4176.922975,4223.07682,4239.487076,4235.897332,4268.717844,4281.538357
10,0,4605.640913,4233.84605,4218.461435,4185.128103,4210.769128,4234.871691,4219.999897,4219.487076,4169.743488,4208.717846,4231.794768,4234.871691,4266.153742,4295.38451
11,0,4602.56399,4255.384511,4219.487076,4188.205026,4240.512717,4226.666563,4216.922974,4211.281948,4155.897334,4204.102461,4217.435794,4226.666563,4255.897332,4289.230664
12,0,4614.358862,4263.589639,4223.07682,4199.999897,4247.692204,4228.205025,4213.33323,4210.256307,4169.230667,4228.205025,4226.666563,4234.358871,4266.666562,4283.589639
13,0,4615.384503,4256.410152,4231.281948,4201.025538,4213.33323,4239.999896,4224.615281,4230.256307,4203.589641,4249.743486,4243.076819,4249.743486,4278.461434,4292.820408
14,0,4609.230657,4251.281947,4234.871691,4191.794769,4218.461435,4243.076819,4227.179384,4234.358871,4210.256307,4236.410153,4232.820409,4241.025537,4264.61528,4296.410151
15,0,4590.769119,4247.692204,4224.615281,4189.230667,4250.256306,4234.358871,4212.82041,4210.769128,4172.820411,4215.897333,4214.871692,4212.82041,4246.153742,4292.307587
16,0,4571.79476,4243.076819,4216.410153,4191.281949,4236.410153,4242.563999,4211.281948,4203.589641,4142.564001,4204.615282,4221.538358,4199.999897,4243.58964,4305.1281
17,0,4584.615273,4248.205024,4227.179384,4192.30759,4212.82041,4258.974255,4223.58964,4222.563999,4167.179385,4209.743487,4236.922973,4215.897333,4251.281947,4352.307586
18,0,4583.076811,4247.179383,4231.281948,4190.256308,4217.948615,4261.025537,4223.07682,4225.128102,4199.487077,4231.794768,4223.58964,4221.538358,4248.717845,4397.94861
19,0,4548.205017,4247.692204,4223.07682,4191.794769,4221.538358,4255.897332,4219.999897,4215.384512,4194.871692,4237.435794,4212.307589,4211.281948,4243.58964,4426.153738
20,0,4530.76912,4253.333229,4227.692204,4190.256308,4224.615281,4253.84605,4221.025538,4217.948615,4202.051179,4219.487076,4226.666563,4217.948615,4237.948614,4465.640916
21,0,4514.871684,4242.051178,4231.281948,4182.564,4228.205025,4249.230665,4215.384512,4221.025538,4211.794769,4214.358871,4228.205025,4228.717845,4231.281948,4505.128095
22,0,4488.717839,4230.256307,4228.205025,4182.05118,4222.051179,4256.922973,4219.487076,4221.025538,4200.512718,4221.538358,4221.025538,4229.743486,4236.410153,4513.333223
23,0,4485.640916,4234.871691,4231.794768,4184.615282,4217.435794,4270.769126,4234.358871,4228.205025,4208.717846,4221.025538,4225.128102,4230.769127,4241.025537,4513.846043
24,0,4476.410147,4237.435794,4226.153743,4185.640923,4214.871692,4256.922973,4228.205025,4229.743486,4216.410153,4204.615282,4219.487076,4225.128102,4225.640922,4532.820402
25,0,4447.692199,4228.205025,4217.948615,4183.589641,4210.256307,4249.230665,4218.461435,4227.692204,4198.461436,4214.871692,4216.410153,4220.512717,4222.051179,4551.79476
26,0,4445.128096,4232.820409,4232.820409,4185.640923,4215.384512,4267.692203,4227.692204,4233.33323,4213.846051,4246.666563,4229.230666,4231.281948,4239.487076,4558.974247
27,0,4442.051173,4242.051178,4242.051178,4191.794769,4227.179384,4271.794767,4234.358871,4231.794768,4237.948614,4225.128102,4227.692204,4239.487076,4232.820409,4551.79476
28,0,4404.615277,4235.897332,4224.102461,4191.794769,4231.794768,4251.794768,4224.615281,4220.512717,4196.922974,4185.128103,4211.794769,4227.692204,4214.871692,4524.615274
29,0,4392.820405,4238.974255,4220.512717,4191.281949,4227.692204,4250.769127,4218.974256,4220.512717,4166.666565,4206.666564,4223.07682,4225.640922,4227.692204,4505.128095
30,0,4416.410148,4246.153742,4240.512717,4197.948615,4216.922974,4265.128101,4231.794768,4240.512717,4210.256307,4246.666563,4245.128101,4248.205024,4245.640922,4519.487069
31,0,4402.563995,4239.999896,4245.640922,4200.512718,4218.461435,4268.717844,4243.58964,4250.256306,4247.179383,4240.512717,4241.538358,4260.512716,4240.512717,4533.333222
32,0,4368.205021,4236.410153,4233.84605,4196.410154,4233.84605,4259.487075,4230.769127,4235.384512,4219.999897,4218.974256,4226.666563,4249.743486,4223.07682,4508.205018
33,0,4375.897329,4247.692204,4233.84605,4202.051179,4230.769127,4254.35887,4217.948615,4224.102461,4191.794769,4214.871692,4228.717845,4244.10246,4222.051179,4486.666557
34,0,4384.615277,4252.307588,4241.025537,4202.051179,4218.974256,4254.871691,4220.512717,4230.256307,4198.461436,4221.538358,4237.435794,4255.384511,4232.307589,4504.102454
35,0,4342.051176,4239.999896,4237.435794,4197.435795,4222.563999,4253.333229,4221.025538,4231.794768,4196.410154,4221.025538,4225.640922,4257.435793,4218.461435,4501.025531
36,0,4311.281946,4248.717845,4236.922973,4210.769128,4216.922974,4246.153742,4218.974256,4226.153743,4164.615283,4207.179384,4214.358871,4243.076819,4202.051179,4471.281942
37,0,4314.358869,4256.922973,4239.999896,4212.82041,4204.615282,4248.205024,4223.07682,4222.051179,4149.230668,4204.615282,4218.461435,4234.871691,4214.871692,4472.820403
38,0,4298.974254,4241.025537,4237.948614,4197.435795,4223.07682,4251.281947,4223.58964,4215.384512,4138.461437,4210.256307,4215.384512,4234.358871,4219.999897,4467.692198
39,0,4278.974254,4236.410153,4246.666563,4206.153743,4245.128101,4258.974255,4228.717845,4224.615281,4140.512719,4214.871692,4224.102461,4247.179383,4214.871692,4449.23066
40,0,4275.897331,4256.410152,4254.871691,4229.230666,4229.743486,4263.589639,4234.358871,4234.358871,4167.692206,4223.07682,4248.205024,4259.999896,4232.307589,4455.897327
41,0,4264.61528,4266.666562,4244.615281,4224.615281,4211.281948,4258.461434,4229.230666,4220.512717,4165.128103,4218.974256,4239.487076,4249.743486,4229.743486,4446.666558
42,0,4236.922973,4239.487076,4236.410153,4207.179384,4222.051179,4252.307588,4226.153743,4216.922974,4129.230668,4212.82041,4224.615281,4237.948614,4214.871692,4419.487071
43,0,4221.025538,4233.84605,4249.743486,4212.82041,4230.256307,4258.461434,4231.794768,4232.307589,4134.871694,4223.58964,4245.640922,4248.717845,4237.435794,4421.025533
44,0,4218.974256,4256.922973,4253.333229,4221.025538,4231.281948,4262.051178,4232.820409,4232.820409,4156.922975,4233.84605,4251.794768,4255.897332,4250.256306,4409.230661
45,0,4204.615282,4253.84605,4236.922973,4213.33323,4232.820409,4254.871691,4226.153743,4225.640922,4130.76913,4235.384512,4226.666563,4238.974255,4222.563999,4369.743483
46,0,4180.512718,4235.897332,4226.666563,4210.256307,4222.051179,4254.871691,4220.512717,4226.153743,4093.846054,4228.717845,4220.512717,4227.692204,4207.692205,4359.487073
47,0,4174.358872,4240.512717,4228.205025,4211.281948,4212.82041,4255.897332,4221.025538,4222.563999,4080.512721,4206.153743,4237.435794,4231.794768,4226.153743,4363.589637
48,0,4171.79477,4244.615281,4234.871691,4207.692205,4217.948615,4251.794768,4221.025538,4222.563999,4072.307593,4192.30759,4236.922973,4232.820409,4231.794768,4351.281945
49,0,4145.128104,4223.58964,4237.948614,4208.717846,4218.974256,4242.563999,4219.487076,4228.205025,4051.281952,4215.384512,4217.435794,4232.307589,4212.82041,4348.717842
50,0,4141.02554,4232.307589,4235.384512,4215.897333,4211.794769,4243.076819,4223.07682,4229.743486,4043.589645,4237.948614,4216.922974,4232.820409,4212.307589,4350.256304
51,0,4158.461437,4251.281947,4235.384512,4213.33323,4215.384512,4249.743486,4231.794768,4228.717845,4065.128106,4224.615281,4243.58964,4236.922973,4236.922973,4343.076817
52,0,4142.051181,4246.666563,4236.922973,4214.871692,4226.666563,4255.384511,4233.33323,4224.615281,4073.846054,4205.640923,4243.076819,4236.410153,4231.794768,4325.64092
53,0,4114.871694,4252.820409,4235.384512,4223.07682,4234.358871,4252.820409,4223.58964,4216.410153,4044.102465,4215.897333,4213.33323,4226.666563,4208.717846,4308.717843
54,0,4126.666566,4265.128101,4242.563999,4220.512717,4236.922973,4254.35887,4218.974256,4219.487076,4041.025542,4235.384512,4215.897333,4227.179384,4221.025538,4310.769125
55,0,4149.743488,4263.589639,4258.461434,4223.07682,4230.256307,4253.333229,4230.769127,4231.794768,4082.564003,4236.922973,4246.153742,4245.128101,4242.051178,4323.076817
56,0,4126.153745,4252.307588,4256.410152,4229.230666,4226.153743,4246.153742,4232.307589,4229.230666,4101.538361,4229.743486,4255.897332,4251.794768,4236.410153,4316.410151
57,0,4092.307592,4246.153742,4246.666563,4219.487076,4230.769127,4241.538358,4218.461435,4216.410153,4068.717849,4222.563999,4238.974255,4243.076819,4224.615281,4298.974254
58,0,4105.128105,4249.230665,4256.922973,4218.461435,4224.615281,4247.692204,4222.563999,4217.435794,4049.743491,4214.871692,4223.07682,4244.615281,4219.487076,4296.410151
59,0,4115.897335,4250.769127,4255.384511,4230.256307,4215.384512,4247.692204,4232.307589,4220.512717,4047.179388,4214.358871,4215.384512,4237.435794,4204.615282,4281.538357
60,0,4077.948618,4238.974255,4234.358871,4222.563999,4224.615281,4244.615281,4228.205025,4215.384512,4028.20503,4223.07682,4219.487076,4219.999897,4192.82041,4261.025537
61,0,4058.461439,4235.384512,4235.384512,4207.179384,4236.410153,4249.743486,4228.205025,4223.07682,4019.487081,4226.153743,4232.307589,4225.640922,4201.538359,4269.230665
62,0,4078.461439,4259.487075,4254.871691,4218.461435,4227.179384,4251.794768,4235.897332,4231.794768,4031.281953,4220.512717,4232.820409,4237.435794,4209.230666,4272.307588
63,0,4066.153747,4266.153742,4251.794768,4229.230666,4214.358871,4245.640922,4231.794768,4219.487076,4022.564004,4216.922974,4222.563999,4230.256307,4198.461436,4259.487075
64,0,4044.615286,4247.179383,4242.051178,4223.07682,4222.051179,4242.563999,4227.692204,4213.33323,4009.743492,4217.435794,4226.666563,4227.179384,4196.410154,4258.974255
65,0,4048.71785,4242.051178,4246.153742,4217.435794,4224.615281,4243.076819,4225.640922,4218.974256,4015.897338,4212.307589,4238.461435,4235.384512,4208.717846,4257.948614
66,0,4044.615286,4244.615281,4244.10246,4216.922974,4217.435794,4238.974255,4217.435794,4217.435794,4003.589646,4213.33323,4232.307589,4230.769127,4204.102461,4244.10246
67,0,4031.281953,4246.153742,4236.922973,4223.58964,4234.358871,4246.666563,4218.974256,4216.922974,3995.384518,4229.743486,4219.999897,4218.974256,4195.384513,4242.051178
68,0,4019.487081,4251.794768,4238.461435,4230.256307,4253.84605,4247.179383,4223.58964,4219.487076,4000.512723,4232.307589,4213.846051,4213.846051,4198.461436,4236.410153
69,0,4004.615287,4240.512717,4235.897332,4222.563999,4230.256307,4234.871691,4220.512717,4217.435794,3993.846056,4221.025538,4222.051179,4216.922974,4201.538359,4224.615281
70,0,3997.94862,4223.58964,4229.230666,4211.794769,4203.07682,4232.820409,4221.538358,4219.999897,3977.4358,4213.33323,4231.794768,4220.512717,4199.487077,4223.58964
71,0,3998.974261,4233.33323,4229.230666,4213.33323,4218.461435,4253.333229,4235.897332,4229.230666,3971.281954,4213.846051,4222.051179,4217.435794,4198.974256,4219.999897
72,0,3994.871697,4246.153742,4231.794768,4216.410153,4237.435794,4262.563998,4246.666563,4235.897332,3975.384518,4225.640922,4209.743487,4216.922974,4199.999897,4214.871692
73,0,3994.871697,4238.461435,4233.33323,4219.999897,4229.230666,4252.307588,4237.948614,4234.358871,3986.666569,4226.153743,4215.384512,4215.897333,4198.974256,4213.846051
74,0,3996.922979,4226.153743,4228.717845,4219.487076,4221.025538,4240.512717,4219.487076,4223.58964,3978.461441,4200.512718,4230.256307,4207.692205,4203.07682,4206.666564
75,0,3990.769133,4217.948615,4220.512717,4209.230666,4224.615281,4241.025537,4209.743487,4210.256307,3949.743493,4202.564,4220.512717,4202.051179,4198.974256,4199.999897
76,0,3985.128108,4216.410153,4222.563999,4206.153743,4227.179384,4244.10246,4211.281948,4205.640923,3927.692212,4233.84605,4195.897333,4195.384513,4182.564,4193.333231
77,0,3985.128108,4222.051179,4230.256307,4214.358871,4218.974256,4243.076819,4217.435794,4213.846051,3929.230673,4233.33323,4204.615282,4191.794769,4185.128103,4190.256308
78,0,3997.4358,4228.717845,4231.794768,4216.922974,4210.256307,4241.538358,4223.58964,4223.58964,3948.717852,4212.82041,4231.794768,4197.948615,4207.179384,4209.743487
79,0,4010.256312,4235.384512,4230.769127,4218.461435,4214.871692,4239.487076,4217.435794,4219.487076,3959.487083,4198.974256,4224.615281,4195.384513,4201.025538,4218.974256
80,0,4007.179389,4228.205025,4229.743486,4219.487076,4221.025538,4239.999896,4209.743487,4212.82041,3948.717852,4206.153743,4208.205025,4181.025539,4179.999898,4199.487077
81,0,4009.230671,4211.794769,4230.769127,4211.794769,4226.153743,4248.717845,4220.512717,4214.871692,3947.179391,4227.692204,4215.384512,4183.589641,4181.025539,4195.897333
82,0,4033.846055,4233.33323,4237.948614,4214.358871,4230.256307,4259.487075,4231.794768,4219.999897,3972.307595,4228.717845,4217.948615,4197.948615,4192.82041,4215.384512
83,0,4049.743491,4256.922973,4246.153742,4227.179384,4232.820409,4256.922973,4230.769127,4227.179384,4005.640928,4211.281948,4227.692204,4202.564,4210.256307,4226.666563
84,0,4043.076824,4234.358871,4245.640922,4224.102461,4232.820409,4253.333229,4231.281948,4230.256307,4018.974261,4209.230666,4236.410153,4203.589641,4217.435794,4228.717845
85,0,4038.97426,4229.743486,4243.58964,4215.384512,4223.58964,4254.871691,4233.33323,4223.58964,4015.897338,4226.153743,4227.692204,4202.051179,4207.692205,4230.256307
86,0,4036.922978,4248.205024,4242.051178,4219.487076,4217.948615,4249.743486,4224.102461,4213.33323,4012.820415,4226.153743,4216.922974,4191.794769,4194.871692,4225.640922
87,0,4038.46144,4238.461435,4242.563999,4221.025538,4222.563999,4239.487076,4215.384512,4209.743487,4000.512723,4219.487076,4219.999897,4189.230667,4196.922974,4233.33323
88,0,4060.512721,4241.025537,4251.794768,4222.051179,4229.743486,4246.666563,4216.410153,4212.82041,4022.051184,4221.025538,4239.999896,4203.589641,4223.58964,4267.179383
89,0,4076.410157,4253.333229,4251.794768,4224.102461,4226.153743,4247.179383,4217.435794,4216.410153,4062.564003,4215.897333,4246.153742,4207.179384,4229.230666,4290.769126
90,0,4076.410157,4241.025537,4243.076819,4223.07682,4216.410153,4228.717845,4209.230666,4208.717846,4043.589645,4204.615282,4217.948615,4198.974256,4199.999897,4294.358869
91,0,4109.230669,4248.717845,4256.410152,4224.615281,4211.794769,4226.666563,4206.666564,4207.179384,4033.333235,4211.281948,4216.410153,4215.897333,4219.999897,4334.871689
92,0,4169.743488,4284.61528,4283.589639,4233.84605,4215.384512,4248.205024,4217.435794,4217.948615,4121.02554,4218.974256,4258.974255,4248.717845,4275.897331,4398.461431
93,0,4199.999897,4294.358869,4292.307587,4243.58964,4220.512717,4244.10246,4217.948615,4208.205025,4183.076821,4195.897333,4272.307588,4259.487075,4278.461434,4416.922969
94,0,4198.974256,4282.563998,4289.230664,4247.179383,4216.410153,4233.84605,4216.410153,4199.999897,4184.615282,4197.948615,4258.461434,4262.563998,4264.61528,4409.230661
95,0,4192.82041,4282.563998,4287.179382,4245.128101,4214.358871,4239.487076,4227.692204,4217.435794,4214.871692,4235.384512,4262.563998,4267.692203,4285.1281,4408.20502
96,0,4173.846052,4283.076818,4275.384511,4239.487076,4215.897333,4237.948614,4229.230666,4224.102461,4219.999897,4230.256307,4255.897332,4250.256306,4277.948613,4382.563995
97,0,4150.256309,4273.333229,4262.563998,4231.794768,4215.897333,4229.230666,4223.07682,4213.846051,4170.769129,4207.692205,4243.076819,4227.179384,4249.743486,4343.589637
98,0,4135.384514,4265.128101,4263.589639,4229.230666,4221.025538,4229.743486,4224.615281,4213.33323,4152.820411,4221.025538,4249.743486,4228.717845,4255.384511,4320.512715
99,0,4123.076822,4272.820408,4267.179383,4238.461435,4216.922974,4226.666563,4222.051179,4213.846051,4153.846052,4237.435794,4246.153742,4233.33323,4257.948614,4295.38451
100,0,4102.051182,4275.897331,4260.512716,4243.58964,4212.307589,4218.461435,4215.897333,4204.615282,4118.461438,4217.435794,4224.615281,4220.512717,4233.84605,4259.999896
101,0,4070.256311,4247.692204,4247.692204,4224.615281,4227.692204,4216.410153,4215.384512,4202.051179,4061.025542,4188.717846,4210.256307,4201.538359,4207.179384,4220.512717
102,0,4053.333234,4227.692204,4241.025537,4212.307589,4232.307589,4210.256307,4211.281948,4206.666564,4013.846056,4189.230667,4212.82041,4194.871692,4199.487077,4195.384513
103,0,4065.128106,4238.461435,4247.692204,4226.666563,4211.281948,4212.82041,4215.384512,4215.897333,4014.358876,4207.692205,4226.666563,4206.153743,4210.769128,4197.435795
104,0,4076.922977,4261.538357,4256.410152,4243.076819,4207.179384,4216.922974,4227.179384,4221.025538,4032.307594,4208.205025,4227.179384,4213.846051,4220.512717,4200.512718
105,0,4072.820413,4269.743485,4252.820409,4238.461435,4225.128102,4214.358871,4224.102461,4217.435794,4027.179389,4193.846051,4215.384512,4203.589641,4212.82041,4188.205026
106,0,4073.846054,4260.512716,4248.205024,4228.205025,4232.820409,4210.256307,4219.999897,4217.435794,4022.564004,4201.538359,4219.487076,4201.538359,4203.07682,4177.948616
107,0,4078.461439,4254.871691,4251.794768,4230.769127,4231.794768,4214.871692,4222.563999,4220.512717,4030.256312,4213.846051,4222.051179,4208.717846,4201.538359,4175.384513
108,0,4069.74349,4252.307588,4244.615281,4228.717845,4236.410153,4208.717846,4215.384512,4212.82041,4005.128107,4209.743487,4201.538359,4196.922974,4188.717846,4163.076821
109,0,4064.615285,4251.794768,4234.871691,4224.102461,4231.281948,4202.564,4210.256307,4207.692205,3990.769133,4208.205025,4205.640923,4187.179385,4191.281949,4157.435796
110,0,4066.153747,4244.615281,4237.948614,4224.615281,4221.025538,4208.205025,4223.58964,4216.922974,4007.69221,4205.640923,4229.230666,4198.974256,4209.230666,4160.512719
111,0,4062.564003,4236.922973,4243.58964,4225.128102,4222.563999,4216.922974,4235.897332,4229.230666,4004.615287,4198.974256,4219.487076,4203.07682,4200.512718,4156.410155
112,0,4059.999901,4246.666563,4246.153742,4226.666563,4224.615281,4213.33323,4232.820409,4233.33323,4005.128107,4201.025538,4212.82041,4201.538359,4193.333231,4157.435796
113,0,4052.307593,4247.692204,4245.128101,4227.692204,4219.487076,4209.230666,4231.794768,4230.256307,4019.487081,4205.640923,4217.435794,4202.051179,4200.512718,4157.948616
114,0,4037.435799,4234.358871,4234.871691,4221.025538,4226.666563,4209.743487,4234.871691,4221.025538,3995.384518,4199.999897,4202.051179,4193.846051,4187.179385,4143.589642
115,0,4026.153748,4234.358871,4227.692204,4213.33323,4233.84605,4207.179384,4227.179384,4210.769128,3961.538365,4188.205026,4196.410154,4188.205026,4173.846052,4132.307591
116,0,4021.025543,4236.922973,4229.743486,4215.384512,4207.692205,4199.999897,4218.974256,4210.769128,3953.846057,4187.692205,4206.153743,4193.846051,4184.102462,4136.410155
117,0,4019.487081,4229.230666,4234.358871,4221.538358,4193.846051,4204.615282,4223.58964,4218.974256,3952.820416,4204.615282,4199.487077,4198.461436,4185.128103,4133.846053
118,0,4024.615286,4241.538358,4234.871691,4227.179384,4223.07682,4212.307589,4221.025538,4216.922974,3955.897339,4207.692205,4199.999897,4201.025538,4178.974257,4127.179386
119,0,4015.897338,4250.769127,4231.794768,4227.692204,4233.84605,4202.564,4208.717846,4211.281948,3968.717852,4187.692205,4222.051179,4202.051179,4187.692205,4123.589643
120,0,3999.999902,4236.410153,4234.871691,4229.230666,4220.512717,4200.512718,4216.410153,4221.538358,3979.999903,4196.922974,4223.07682,4203.589641,4190.256308,4119.487079
121,0,4007.69221,4244.615281,4247.692204,4235.897332,4228.717845,4217.948615,4235.384512,4235.897332,4003.589646,4233.33323,4211.794769,4215.897333,4185.640923,4130.256309
122,0,4008.717851,4256.922973,4247.692204,4226.153743,4232.820409,4224.102461,4238.974255,4235.384512,4024.102466,4231.794768,4211.794769,4219.999897,4189.230667,4137.948617
123,0,3977.4358,4234.358871,4229.230666,4213.33323,4218.461435,4204.615282,4225.640922,4224.615281,3990.256313,4196.922974,4206.666564,4202.564,4184.102462,4118.974258
124,0,3948.717852,4220.512717,4219.999897,4217.948615,4224.102461,4199.999897,4217.435794,4214.871692,3945.640929,4182.564,4199.487077,4192.30759,4169.743488,4101.025541
125,0,3943.076827,4228.717845,4223.07682,4220.512717,4225.128102,4208.205025,4220.512717,4213.33323,3930.769135,4190.769128,4198.461436,4199.487077,4165.128103,4105.128105
126,0,3942.564006,4226.666563,4226.153743,4215.897333,4205.128102,4208.205025,4220.512717,4214.358871,3928.205032,4200.512718,4197.435795,4201.025538,4168.205026,4108.717848
127,0,3943.076827,4231.281948,4232.307589,4221.025538,4209.743487,4206.153743,4217.948615,4213.846051,3933.333237,4213.846051,4198.974256,4198.461436,4175.384513,4106.153746
128,0,3939.999904,4237.948614,4235.384512,4224.615281,4228.717845,4210.769128,4216.922974,4215.384512,3957.435801,4213.846051,4214.358871,4208.205025,4193.846051,4108.717848
0,0,3930.256314,4226.153743,4229.743486,4222.563999,4216.410153,4209.230666,4217.435794,4218.461435,3966.153749,4198.461436,4227.179384,4214.358871,4201.025538,4111.281951
1,0,3920.512725,4217.435794,4227.692204,4229.230666,4200.512718,4207.179384,4216.922974,4214.358871,3956.92298,4202.051179,4214.358871,4210.769128,4188.205026,4109.230669
2,0,3916.410161,4227.692204,4231.281948,4234.871691,4213.846051,4206.666564,4214.871692,4205.128102,3942.564006,4202.051179,4197.435795,4206.153743,4182.05118,4107.692207
3,0,3914.358879,4233.33323,4229.230666,4234.871691,4219.487076,4204.102461,4212.82041,4197.435795,3929.230673,4187.692205,4198.461436,4204.615282,4178.461436,4110.76913
4,0,3896.410161,4217.435794,4224.102461,4232.307589,4211.281948,4201.538359,4213.33323,4197.435795,3918.461443,4190.256308,4203.07682,4199.487077,4162.05118,4101.025541
5,0,3881.538367,4205.640923,4228.205025,4231.794768,4219.487076,4208.717846,4218.461435,4210.256307,3919.487084,4204.102461,4198.974256,4198.974256,4164.102462,4095.384515
6,0,3899.999905,4225.640922,4232.307589,4236.410153,4234.358871,4213.846051,4220.512717,4221.025538,3939.487083,4204.615282,4198.461436,4209.743487,4188.205026,4116.410156
7,0,3919.999904,4252.820409,4233.33323,4247.179383,4234.871691,4208.205025,4217.435794,4213.33323,3961.025544,4193.846051,4208.205025,4212.82041,4188.717846,4129.743489
8,0,3908.717853,4246.153742,4230.769127,4247.179383,4224.102461,4202.051179,4214.358871,4206.153743,3962.051185,4192.82041,4218.974256,4210.769128,4187.179385,4123.076822
9,0,3894.8717,4234.871691,4231.794768,4242.051178,4222.051179,4205.128102,4218.461435,4213.33323,3963.076826,4193.333231,4223.07682,4214.358871,4204.615282,4126.153745
10,0,3886.153751,4239.487076,4233.33323,4243.58964,4230.769127,4211.281948,4219.487076,4217.948615,3973.846057,4199.999897,4212.82041,4212.82041,4196.922974,4125.128104
11,0,3865.128111,4231.794768,4225.640922,4243.076819,4229.230666,4208.717846,4214.871692,4212.82041,3960.512724,4213.846051,4205.128102,4202.051179,4177.948616,4107.179387
12,0,3857.948624,4225.640922,4224.102461,4241.538358,4209.743487,4210.256307,4215.897333,4213.846051,3946.66657,4199.999897,4218.974256,4199.487077,4197.435795,4106.666566
13,0,3859.487085,4234.358871,4229.743486,4248.205024,4211.281948,4210.256307,4219.999897,4217.948615,3954.871698,4185.640923,4221.538358,4205.640923,4204.102461,4109.230669
14,0,3846.153752,4231.794768,4226.666563,4248.205024,4232.307589,4209.230666,4218.461435,4216.410153,3942.051186,4197.435795,4189.230667,4198.461436,4169.743488,4090.25631
15,0,3837.435804,4222.051179,4219.999897,4240.512717,4230.769127,4206.666564,4211.794769,4214.871692,3916.410161,4201.025538,4183.076821,4192.30759,4168.717847,4081.538362
16,0,3850.769137,4235.384512,4232.820409,4248.205024,4217.948615,4206.153743,4214.358871,4219.999897,3942.051186,4190.256308,4216.922974,4209.743487,4197.948615,4099.487079
17,0,3853.333239,4239.999896,4242.563999,4255.384511,4214.871692,4203.589641,4222.051179,4227.692204,3973.333236,4203.07682,4218.461435,4220.512717,4195.384513,4104.102464
18,0,3832.820419,4224.615281,4228.205025,4244.615281,4218.974256,4208.205025,4224.615281,4230.769127,3953.333237,4205.640923,4194.871692,4205.128102,4177.948616,4084.615285
19,0,3825.640932,4221.025538,4222.563999,4235.384512,4221.025538,4212.82041,4228.205025,4230.769127,3931.281955,4187.179385,4197.435795,4203.589641,4180.512718,4083.076823
20,0,3835.897342,4231.281948,4234.358871,4244.10246,4215.897333,4209.230666,4230.256307,4227.179384,3943.076827,4192.30759,4203.07682,4216.410153,4181.025539,4091.794772
21,0,3842.564009,4232.307589,4237.435794,4252.820409,4217.435794,4201.025538,4227.179384,4222.051179,3958.461442,4203.07682,4204.615282,4216.922974,4183.076821,4091.281951
22,0,3847.179393,4232.820409,4237.435794,4254.871691,4218.974256,4199.487077,4225.128102,4227.692204,3977.948621,4203.07682,4219.999897,4223.58964,4198.461436,4100.51272
23,0,3850.769137,4239.999896,4243.58964,4255.384511,4217.948615,4204.615282,4225.128102,4232.820409,3990.769133,4202.564,4214.871692,4230.256307,4197.948615,4107.179387
24,0,3845.128111,4239.487076,4242.563999,4256.410152,4225.128102,4204.615282,4216.410153,4222.563999,3973.333236,4198.974256,4193.333231,4216.922974,4183.076821,4088.717849
25,0,3843.076829,4234.358871,4239.999896,4256.922973,4228.205025,4204.102461,4214.358871,4219.487076,3978.974262,4208.205025,4213.33323,4219.487076,4193.846051,4089.230669
26,0,3847.179393,4227.179384,4246.153742,4254.35887,4218.974256,4209.230666,4225.640922,4231.281948,4022.051184,4215.897333,4245.640922,4238.974255,4214.871692,4111.281951
27,0,3839.487086,4228.205025,4242.051178,4256.410152,4223.58964,4209.230666,4225.640922,4232.307589,4023.589645,4207.179384,4219.999897,4226.153743,4196.410154,4095.897336
28,0,3829.230676,4237.948614,4230.769127,4264.10246,4234.871691,4203.07682,4215.897333,4227.179384,3991.281954,4203.589641,4190.769128,4208.205025,4176.410154,4073.846054
29,0,3835.897342,4231.794768,4239.487076,4264.61528,4232.820409,4205.640923,4216.922974,4231.794768,4007.69221,4215.897333,4220.512717,4224.615281,4204.615282,4092.820413
30,0,3848.717855,4231.281948,4255.384511,4267.692203,4233.84605,4212.82041,4224.102461,4231.281948,4046.153747,4229.230666,4243.076819,4241.025537,4225.128102,4111.281951
31,0,3857.435803,4257.948614,4259.487075,4278.461434,4231.794768,4219.999897,4230.769127,4233.84605,4066.153747,4237.948614,4226.666563,4241.025537,4215.384512,4106.666566
32,0,3859.999906,4266.153742,4258.974255,4279.487075,4222.051179,4220.512717,4238.974255,4248.205024,4083.076823,4230.769127,4227.179384,4242.563999,4216.922974,4101.538361
33,0,3849.230675,4235.897332,4255.384511,4266.666562,4231.794768,4217.948615,4237.948614,4247.179383,4087.179387,4215.897333,4239.487076,4236.922973,4220.512717,4094.871695
34,0,3832.307599,4222.051179,4241.538358,4262.563998,4243.076819,4208.717846,4225.640922,4228.717845,4045.128106,4211.281948,4217.435794,4218.461435,4203.589641,4080.512721
35,0,3830.256317,4235.897332,4234.871691,4266.666562,4231.794768,4210.769128,4226.153743,4227.692204,4014.871697,4208.717846,4197.435795,4213.33323,4194.871692,4078.461439
36,0,3828.717855,4234.358871,4239.999896,4264.61528,4228.205025,4216.410153,4234.358871,4236.410153,4019.487081,4195.384513,4204.102461,4221.538358,4194.358872,4081.538362
37,0,3810.256317,4216.410153,4231.794768,4259.487075,4229.743486,4205.128102,4223.07682,4222.563999,3990.769133,4171.79477,4205.128102,4214.358871,4179.999898,4070.769131
38,0,3804.615292,4210.256307,4228.205025,4259.999896,4219.999897,4195.897333,4209.230666,4212.82041,3952.820416,4181.025539,4199.487077,4208.205025,4176.410154,4066.666567
39,0,3818.974266,4217.435794,4245.128101,4267.179383,4219.487076,4211.794769,4223.07682,4230.769127,3993.333236,4223.07682,4213.846051,4218.461435,4194.871692,4079.9999
40,0,3818.461445,4217.948615,4249.230665,4263.076819,4224.102461,4216.922974,4233.84605,4238.461435,4031.794773,4213.33323,4234.358871,4223.07682,4205.128102,4081.025541
41,0,3801.538369,4211.794769,4233.84605,4251.794768,4219.999897,4208.205025,4221.025538,4221.025538,3986.153749,4170.769129,4218.974256,4205.128102,4184.615282,4063.076824
42,0,3796.410164,4216.410153,4226.666563,4255.384511,4217.435794,4212.82041,4213.846051,4210.769128,3936.922981,4183.076821,4187.179385,4183.589641,4161.025539,4055.384516
43,0,3804.102471,4213.846051,4234.871691,4265.128101,4218.461435,4221.025538,4230.769127,4224.102461,3953.846057,4221.538358,4191.794769,4184.615282,4171.79477,4068.205029
44,0,3805.128112,4208.717846,4239.999896,4259.487075,4226.153743,4210.769128,4236.410153,4234.871691,3979.999903,4197.435795,4217.948615,4191.794769,4191.794769,4078.461439
45,0,3792.3076,4208.717846,4233.84605,4247.179383,4236.410153,4199.999897,4219.487076,4227.692204,3974.871698,4162.05118,4225.640922,4183.589641,4187.179385,4070.769131
46,0,3779.487087,4201.538359,4225.640922,4248.717845,4226.666563,4209.230666,4218.461435,4216.410153,3960.512724,4191.281949,4207.179384,4171.281949,4176.410154,4059.48708
47,0,3790.256318,4213.846051,4230.769127,4258.461434,4215.384512,4219.999897,4233.33323,4217.948615,3966.153749,4231.794768,4199.999897,4171.79477,4188.717846,4068.205029
48,0,3802.051189,4235.384512,4236.410153,4263.076819,4224.615281,4218.974256,4229.743486,4221.025538,3986.666569,4220.512717,4213.33323,4171.79477,4200.512718,4077.948618
49,0,3789.230677,4222.563999,4228.717845,4258.974255,4230.769127,4209.743487,4212.307589,4214.871692,3974.871698,4192.82041,4219.999897,4160.512719,4184.615282,4063.589644
50,0,3783.589651,4215.384512,4227.692204,4262.051178,4225.128102,4212.82041,4214.358871,4212.307589,3962.564006,4199.487077,4220.512717,4159.999898,4178.461436,4059.48708
51,0,3790.256318,4230.769127,4230.769127,4266.153742,4227.179384,4215.897333,4225.128102,4216.410153,3985.128108,4213.33323,4227.692204,4167.692206,4194.358872,4076.410157
52,0,3783.076831,4220.512717,4227.692204,4255.897332,4239.487076,4216.410153,4221.025538,4222.051179,4004.102466,4222.051179,4231.281948,4166.153744,4203.589641,4076.410157
53,0,3785.128113,4214.871692,4233.84605,4253.333229,4242.051178,4215.897333,4219.999897,4227.692204,4013.333235,4232.820409,4235.384512,4174.358872,4206.153743,4075.384516
54,0,3794.871702,4230.256307,4241.025537,4259.999896,4239.487076,4217.435794,4221.538358,4224.615281,4024.615286,4218.461435,4236.922973,4181.538359,4203.07682,4081.025541
55,0,3779.999908,4221.025538,4231.281948,4253.333229,4230.256307,4212.82041,4217.435794,4219.999897,4003.076825,4203.589641,4222.051179,4164.615283,4192.82041,4067.692208
56,0,3770.769139,4208.205025,4221.538358,4247.692204,4215.384512,4210.769128,4222.051179,4229.230666,3987.17939,4221.538358,4217.435794,4158.461437,4197.435795,4061.538362
57,0,3778.974267,4217.435794,4225.128102,4253.333229,4222.563999,4216.922974,4232.820409,4237.435794,4004.102466,4237.948614,4231.794768,4169.230667,4202.564,4071.794772
58,0,3774.871703,4222.051179,4224.615281,4254.871691,4245.128101,4222.051179,4233.33323,4235.897332,4009.230671,4222.563999,4229.230666,4162.564001,4189.743487,4066.666567
59,0,3763.076831,4217.435794,4218.461435,4248.205024,4242.563999,4211.281948,4229.230666,4238.974255,4000.512723,4208.205025,4224.102461,4150.769129,4192.82041,4054.871696
60,0,3756.410165,4204.102461,4216.922974,4241.025537,4221.025538,4204.102461,4234.871691,4243.58964,4002.564005,4211.794769,4231.794768,4156.410155,4206.153743,4059.999901
61,0,3753.333242,4195.897333,4216.922974,4237.435794,4227.692204,4213.846051,4234.871691,4232.307589,3989.230672,4215.384512,4220.512717,4159.999898,4189.743487,4061.025542
62,0,3766.153754,4216.922974,4225.640922,4245.640922,4243.076819,4215.384512,4224.615281,4217.948615,3985.128108,4217.948615,4211.794769,4164.615283,4177.948616,4058.461439
63,0,3782.05119,4234.358871,4239.487076,4258.461434,4234.871691,4206.666564,4218.974256,4215.384512,4015.897338,4215.384512,4236.922973,4179.487077,4205.640923,4068.717849
64,0,3790.256318,4232.820409,4243.58964,4260.512716,4229.230666,4206.153743,4221.025538,4216.410153,4031.281953,4210.256307,4251.281947,4188.205026,4224.615281,4078.461439
65,0,3799.999907,4230.769127,4241.538358,4251.281947,4234.358871,4211.794769,4221.025538,4216.410153,4023.589645,4212.82041,4227.179384,4185.640923,4206.666564,4075.897336
66,0,3794.358882,4219.487076,4239.999896,4242.563999,4237.948614,4208.205025,4212.82041,4213.846051,4012.820415,4218.974256,4211.794769,4181.025539,4190.769128,4065.640926
67,0,3792.82042,4215.897333,4240.512717,4248.717845,4238.974255,4212.307589,4218.974256,4218.461435,4018.46144,4218.974256,4230.256307,4184.102462,4196.410154,4065.640926
68,0,3817.435804,4243.58964,4243.076819,4260.512716,4241.025537,4213.33323,4228.717845,4227.179384,4045.128106,4220.512717,4236.410153,4191.794769,4205.640923,4078.974259
69,0,3824.102471,4256.410152,4238.974255,4257.435793,4233.33323,4203.589641,4217.948615,4221.538358,4057.948619,4221.025538,4219.487076,4186.153744,4198.461436,4077.435798
70,0,3797.948625,4227.692204,4226.153743,4244.615281,4223.58964,4200.512718,4205.128102,4212.307589,4021.538363,4205.640923,4210.769128,4171.79477,4180.512718,4055.384516
71,0,3789.230677,4217.435794,4218.974256,4242.563999,4226.666563,4212.82041,4215.897333,4214.871692,3986.153749,4195.384513,4204.615282,4164.615283,4167.692206,4041.538363
72,0,3798.461446,4232.820409,4220.512717,4248.205024,4235.384512,4215.384512,4226.666563,4217.435794,3983.589646,4198.974256,4195.897333,4166.153744,4169.743488,4044.102465
73,0,3801.025548,4234.871691,4224.102461,4251.794768,4240.512717,4212.82041,4222.051179,4215.384512,3996.922979,4201.025538,4204.615282,4172.30759,4179.999898,4051.794773
74,0,3804.102471,4230.769127,4228.205025,4256.922973,4238.461435,4211.281948,4217.435794,4216.410153,4014.871697,4203.589641,4219.487076,4184.102462,4185.640923,4055.897337
75,0,3804.102471,4232.307589,4227.692204,4255.384511,4233.33323,4210.256307,4219.487076,4218.461435,4031.281953,4212.82041,4214.871692,4184.615282,4186.153744,4051.794773
76,0,3810.769138,4237.948614,4226.153743,4252.307588,4231.281948,4208.205025,4225.128102,4226.153743,4046.153747,4225.128102,4221.538358,4185.640923,4199.487077,4056.922978
77,0,3829.743496,4249.230665,4235.384512,4262.051178,4241.538358,4208.205025,4224.615281,4233.33323,4071.794772,4235.384512,4237.435794,4197.948615,4213.33323,4073.846054
78,0,3839.487086,4255.897332,4245.128101,4266.666562,4251.281947,4210.769128,4222.051179,4230.769127,4087.179387,4233.84605,4230.256307,4173.846052,4208.717846,4077.948618
79,0,3831.281958,4245.128101,4239.487076,4253.84605,4242.051178,4218.461435,4232.820409,4230.256307,4075.384516,4216.922974,4221.025538,4114.871694,4203.589641,4067.179388
80,0,3820.512727,4235.384512,4230.256307,4251.281947,4231.281948,4220.512717,4239.487076,4231.794768,4052.307593,4213.846051,4218.461435,4089.230669,4200.512718,4056.922978
81,0,3817.435804,4236.410153,4225.640922,4256.922973,4233.84605,4209.230666,4226.666563,4221.025538,4030.769132,4222.563999,4211.794769,4099.9999,4193.846051,4050.256311
