title:P                                                                               , recorded:02.07.20 10.57.19, sampling:128, subject:N                                                                               , labels:COUNTER INTERPOLATED AF3 F7 F3 FC5 T7 P7 O1 O2 P8 T8 FC6 F4 F8 AF4, chan:37, units:emotiv,,,,,,,,,
24,0,4220.512717,4224.615281,4224.102461,4225.128102,4197.435795,4208.205025,4217.948615,4184.615282,4213.846051,4210.256307,4208.717846,4217.435794,4201.538359,4224.102461
25,0,4219.487076,4219.999897,4222.563999,4219.999897,4199.487077,4207.179384,4218.974256,4189.230667,4211.794769,4206.153743,4208.717846,4214.871692,4199.487077,4217.948615
26,0,4216.922974,4220.512717,4226.666563,4227.692204,4215.897333,4210.769128,4228.205025,4198.461436,4214.358871,4208.205025,4214.871692,4222.051179,4201.538359,4218.974256
27,0,4209.743487,4216.410153,4225.128102,4225.128102,4214.358871,4208.717846,4230.769127,4197.435795,4213.33323,4214.358871,4213.846051,4221.538358,4197.948615,4218.461435
28,0,4207.692205,4202.564,4215.897333,4211.281948,4196.922974,4200.512718,4224.102461,4188.205026,4201.025538,4205.128102,4202.564,4212.82041,4189.230667,4210.256307
29,0,4215.897333,4200.512718,4216.922974,4213.846051,4194.358872,4203.07682,4223.07682,4188.717846,4200.512718,4193.846051,4205.128102,4215.384512,4192.30759,4212.82041
30,0,4224.615281,4218.461435,4229.743486,4230.769127,4214.871692,4212.82041,4234.871691,4199.999897,4218.974256,4207.179384,4221.538358,4227.179384,4204.102461,4224.615281
31,0,4225.640922,4230.256307,4238.974255,4244.615281,4216.410153,4213.846051,4241.025537,4208.717846,4229.743486,4225.640922,4228.205025,4236.410153,4209.230666,4227.692204
32,0,4225.640922,4228.205025,4239.999896,4239.999896,4196.410154,4208.717846,4232.820409,4208.717846,4227.179384,4223.07682,4224.615281,4237.948614,4208.205025,4225.128102
33,0,4224.102461,4222.563999,4236.410153,4226.666563,4189.230667,4205.640923,4223.58964,4202.051179,4222.563999,4213.846051,4223.58964,4233.33323,4210.256307,4223.07682
34,0,4214.358871,4216.922974,4230.256307,4224.615281,4201.025538,4207.692205,4227.179384,4198.461436,4220.512717,4211.794769,4222.563999,4226.153743,4205.640923,4218.974256
35,0,4201.538359,4209.230666,4218.974256,4221.025538,4206.153743,4209.230666,4226.153743,4194.871692,4212.307589,4202.564,4212.82041,4215.897333,4191.281949,4207.179384
36,0,4203.07682,4212.307589,4213.846051,4217.435794,4209.230666,4207.179384,4221.538358,4194.358872,4208.717846,4207.692205,4210.769128,4215.384512,4196.922974,4208.205025
37,0,4215.897333,4221.538358,4219.487076,4225.640922,4219.999897,4210.256307,4226.153743,4201.025538,4218.461435,4229.743486,4220.512717,4227.692204,4214.358871,4223.07682
38,0,4216.922974,4221.025538,4228.717845,4234.358871,4231.281948,4216.410153,4232.307589,4205.640923,4230.256307,4232.820409,4230.256307,4234.358871,4217.948615,4230.256307
39,0,4207.179384,4212.82041,4227.179384,4225.128102,4214.358871,4210.769128,4232.820409,4201.025538,4225.128102,4217.948615,4224.615281,4226.666563,4208.717846,4222.563999
40,0,4205.128102,4210.256307,4216.410153,4214.358871,4186.666564,4207.692205,4232.820409,4195.897333,4213.846051,4214.871692,4212.82041,4219.487076,4199.999897,4215.384512
41,0,4208.717846,4215.897333,4213.846051,4216.922974,4190.769128,4211.794769,4230.256307,4200.512718,4215.384512,4223.58964,4213.846051,4218.461435,4200.512718,4217.948615
42,0,4206.666564,4219.999897,4218.461435,4218.461435,4214.358871,4209.743487,4224.102461,4202.051179,4218.461435,4224.102461,4218.461435,4218.974256,4208.717846,4219.999897
43,0,4205.128102,4220.512717,4217.435794,4218.974256,4225.640922,4204.615282,4222.051179,4196.410154,4215.384512,4220.512717,4217.948615,4221.538358,4212.307589,4218.974256
44,0,4210.256307,4224.102461,4214.871692,4227.692204,4233.84605,4208.717846,4226.666563,4199.487077,4221.538358,4226.153743,4222.563999,4225.640922,4211.281948,4219.999897
45,0,4211.794769,4223.58964,4212.82041,4230.256307,4230.769127,4211.794769,4227.179384,4203.07682,4227.692204,4233.84605,4226.153743,4224.102461,4211.281948,4221.538358
46,0,4211.794769,4221.025538,4209.743487,4224.615281,4213.33323,4209.743487,4225.640922,4201.025538,4224.615281,4236.410153,4222.563999,4224.102461,4210.256307,4224.615281
47,0,4213.33323,4224.102461,4214.358871,4230.256307,4215.897333,4212.307589,4226.153743,4199.999897,4222.563999,4230.769127,4219.487076,4224.615281,4210.256307,4224.615281
48,0,4210.256307,4221.025538,4212.82041,4229.743486,4236.410153,4210.256307,4223.07682,4199.487077,4216.922974,4218.974256,4212.82041,4215.384512,4206.153743,4215.384512
49,0,4204.102461,4209.230666,4202.051179,4213.846051,4215.384512,4203.589641,4218.461435,4194.871692,4207.692205,4212.307589,4206.666564,4210.769128,4197.948615,4208.717846
50,0,4204.102461,4205.128102,4202.051179,4210.256307,4183.076821,4198.974256,4217.948615,4193.333231,4209.230666,4219.999897,4208.717846,4215.384512,4201.538359,4210.769128
51,0,4205.128102,4211.281948,4206.153743,4218.461435,4211.281948,4199.999897,4224.102461,4198.461436,4217.435794,4230.256307,4212.307589,4215.384512,4208.205025,4213.846051
52,0,4204.615282,4211.281948,4201.025538,4216.922974,4244.10246,4204.615282,4228.205025,4202.051179,4216.410153,4227.179384,4214.358871,4212.82041,4204.102461,4215.384512
53,0,4208.205025,4213.33323,4203.07682,4219.999897,4229.743486,4212.307589,4226.153743,4204.102461,4217.435794,4231.281948,4221.025538,4221.025538,4205.128102,4222.051179
54,0,4212.82041,4221.538358,4208.717846,4234.871691,4224.102461,4212.307589,4223.07682,4203.589641,4224.102461,4248.205024,4224.615281,4224.615281,4211.281948,4223.07682
55,0,4212.307589,4223.07682,4203.07682,4237.948614,4244.615281,4209.743487,4225.640922,4202.564,4227.179384,4245.128101,4221.538358,4218.974256,4205.640923,4216.410153
56,0,4202.051179,4209.743487,4189.743487,4219.487076,4237.435794,4214.871692,4226.666563,4201.025538,4222.051179,4221.538358,4212.307589,4212.307589,4191.794769,4208.717846
57,0,4192.82041,4206.153743,4182.564,4211.794769,4233.84605,4218.461435,4224.102461,4199.999897,4217.435794,4219.487076,4206.666564,4209.230666,4181.538359,4204.615282
58,0,4191.794769,4208.205025,4181.538359,4216.922974,4239.487076,4212.307589,4223.58964,4202.051179,4218.974256,4229.743486,4209.230666,4208.717846,4177.435795,4204.102461
59,0,4196.410154,4203.07682,4179.487077,4214.871692,4200.512718,4205.128102,4223.07682,4199.487077,4217.948615,4225.128102,4210.256307,4210.256307,4185.128103,4205.640923
60,0,4204.102461,4206.666564,4181.025539,4216.922974,4183.076821,4210.769128,4225.128102,4196.922974,4215.384512,4227.692204,4214.358871,4211.794769,4192.82041,4209.230666
61,0,4209.230666,4217.948615,4184.615282,4222.051179,4230.256307,4219.999897,4226.666563,4199.999897,4218.461435,4239.487076,4220.512717,4213.846051,4193.333231,4210.769128
62,0,4209.743487,4219.487076,4185.128103,4219.999897,4253.84605,4212.82041,4218.974256,4198.974256,4218.974256,4238.974255,4222.051179,4217.435794,4193.846051,4210.256307
63,0,4211.794769,4219.999897,4190.256308,4226.666563,4231.281948,4207.179384,4219.487076,4199.999897,4221.538358,4244.10246,4226.666563,4226.153743,4201.025538,4216.922974
64,0,4209.743487,4223.58964,4194.358872,4231.794768,4234.871691,4213.33323,4229.230666,4204.615282,4227.692204,4248.205024,4228.205025,4229.230666,4200.512718,4220.512717
65,0,4197.948615,4219.999897,4187.179385,4218.461435,4248.205024,4212.307589,4227.179384,4198.461436,4222.563999,4228.717845,4214.871692,4219.487076,4188.205026,4212.307589
66,0,4191.794769,4211.794769,4177.435795,4210.769128,4222.563999,4204.102461,4219.487076,4190.769128,4214.871692,4216.410153,4205.640923,4210.769128,4176.922975,4204.102461
67,0,4193.333231,4206.666564,4176.410154,4214.871692,4210.256307,4206.666564,4221.538358,4191.794769,4220.512717,4228.205025,4206.666564,4208.205025,4174.358872,4204.615282
68,0,4198.974256,4211.794769,4177.435795,4217.435794,4226.153743,4216.922974,4228.205025,4197.435795,4227.692204,4236.922973,4207.179384,4211.794769,4178.461436,4208.717846
69,0,4206.666564,4223.58964,4179.487077,4219.999897,4229.743486,4216.922974,4223.58964,4195.897333,4218.974256,4228.205025,4208.205025,4217.435794,4179.487077,4209.743487
70,0,4205.128102,4219.999897,4178.974257,4216.922974,4227.692204,4211.794769,4215.897333,4191.281949,4207.179384,4218.974256,4209.230666,4215.897333,4173.846052,4203.589641
71,0,4196.922974,4204.615282,4174.358872,4214.871692,4233.84605,4208.717846,4219.487076,4193.333231,4211.281948,4218.461435,4204.615282,4213.33323,4170.769129,4197.948615
72,0,4200.512718,4203.07682,4175.897334,4224.615281,4231.281948,4211.794769,4229.230666,4202.051179,4219.999897,4221.538358,4204.102461,4219.487076,4172.30759,4202.564
73,0,4209.230666,4212.307589,4180.512718,4225.640922,4222.563999,4212.82041,4225.640922,4203.589641,4218.974256,4228.717845,4212.82041,4225.128102,4175.897334,4207.179384
74,0,4210.769128,4216.410153,4185.128103,4222.051179,4233.84605,4214.871692,4225.128102,4205.128102,4224.615281,4242.563999,4220.512717,4228.205025,4182.05118,4207.179384
75,0,4204.102461,4207.179384,4179.999898,4221.538358,4235.384512,4221.538358,4237.435794,4210.256307,4227.692204,4243.076819,4212.82041,4226.153743,4176.922975,4203.07682
76,0,4204.102461,4207.692205,4174.871693,4224.102461,4233.33323,4225.640922,4243.076819,4211.794769,4223.07682,4238.461435,4209.230666,4223.07682,4176.922975,4204.615282
77,0,4215.384512,4226.666563,4186.666564,4232.307589,4252.307588,4225.128102,4238.974255,4215.897333,4235.897332,4249.230665,4225.640922,4236.410153,4200.512718,4216.922974
78,0,4217.435794,4231.281948,4199.487077,4236.410153,4247.179383,4225.128102,4237.948614,4222.563999,4252.820409,4260.512716,4237.948614,4249.230665,4215.384512,4224.102461
79,0,4197.948615,4210.769128,4189.743487,4223.58964,4224.615281,4224.102461,4237.435794,4221.025538,4235.384512,4249.230665,4226.666563,4233.33323,4196.922974,4212.82041
80,0,4191.794769,4205.128102,4182.05118,4219.999897,4238.974255,4217.948615,4232.307589,4223.07682,4214.358871,4241.025537,4218.461435,4217.948615,4190.256308,4201.538359
81,0,4211.281948,4219.487076,4193.846051,4231.281948,4249.230665,4214.871692,4227.692204,4237.948614,4226.153743,4248.717845,4227.692204,4228.205025,4210.769128,4206.153743
82,0,4212.82041,4213.846051,4197.948615,4220.512717,4216.922974,4216.922974,4226.666563,4241.538358,4228.717845,4241.025537,4225.640922,4231.281948,4215.384512,4209.230666
83,0,4199.487077,4202.564,4195.897333,4205.640923,4209.743487,4217.435794,4227.179384,4235.384512,4213.33323,4227.179384,4216.410153,4221.025538,4204.615282,4205.640923
84,0,4203.589641,4212.82041,4211.794769,4213.33323,4236.922973,4219.999897,4230.769127,4241.538358,4217.435794,4234.358871,4221.025538,4222.563999,4209.743487,4208.717846
85,0,4209.743487,4216.922974,4226.153743,4222.563999,4219.487076,4219.487076,4232.307589,4240.512717,4225.640922,4241.538358,4219.999897,4225.128102,4217.948615,4211.281948
86,0,4204.102461,4205.640923,4224.615281,4214.871692,4177.948616,4208.205025,4222.051179,4229.743486,4214.358871,4219.487076,4208.717846,4221.538358,4210.256307,4209.230666
87,0,4205.128102,4208.717846,4227.692204,4210.769128,4186.153744,4204.102461,4212.82041,4230.256307,4210.769128,4206.153743,4210.256307,4221.538358,4207.692205,4212.82041
88,0,4211.281948,4216.922974,4238.974255,4218.461435,4221.025538,4212.82041,4218.461435,4237.435794,4218.974256,4219.487076,4213.846051,4222.051179,4214.358871,4219.999897
89,0,4209.230666,4215.384512,4242.051178,4221.538358,4228.205025,4221.538358,4228.205025,4238.461435,4217.948615,4219.487076,4203.07682,4219.487076,4214.871692,4217.948615
90,0,4208.717846,4213.33323,4236.410153,4215.384512,4216.922974,4215.384512,4222.051179,4237.948614,4215.384512,4201.538359,4200.512718,4218.974256,4212.307589,4213.33323
91,0,4213.33323,4215.897333,4240.512717,4212.307589,4225.640922,4208.205025,4213.846051,4239.487076,4227.179384,4208.205025,4213.33323,4224.102461,4222.051179,4218.974256
92,0,4212.307589,4211.794769,4248.717845,4216.410153,4224.102461,4213.846051,4219.487076,4239.999896,4230.256307,4225.128102,4215.897333,4226.153743,4222.563999,4224.615281
93,0,4204.615282,4203.589641,4245.128101,4216.410153,4198.974256,4221.025538,4227.692204,4240.512717,4218.461435,4214.358871,4209.230666,4224.615281,4205.128102,4216.410153
94,0,4200.512718,4199.999897,4237.435794,4212.307589,4183.589641,4213.846051,4221.538358,4234.871691,4210.256307,4195.897333,4206.153743,4218.974256,4198.461436,4206.666564
95,0,4201.025538,4204.615282,4236.922973,4212.307589,4173.333231,4206.666564,4209.743487,4227.179384,4212.82041,4196.410154,4207.179384,4214.358871,4205.640923,4212.307589
96,0,4195.897333,4198.461436,4231.281948,4208.717846,4172.820411,4208.205025,4204.102461,4224.102461,4213.33323,4193.846051,4199.999897,4213.846051,4198.974256,4214.871692
97,0,4192.30759,4188.205026,4223.58964,4204.615282,4201.025538,4207.179384,4205.128102,4217.435794,4208.717846,4184.615282,4191.281949,4214.358871,4187.692205,4206.666564
98,0,4198.974256,4196.922974,4232.820409,4203.589641,4219.999897,4199.999897,4206.666564,4209.230666,4210.769128,4190.256308,4197.435795,4217.435794,4194.358872,4205.640923
99,0,4205.640923,4209.743487,4244.10246,4205.640923,4203.07682,4198.461436,4208.717846,4207.692205,4218.974256,4201.025538,4208.205025,4223.58964,4204.102461,4211.281948
100,0,4206.666564,4208.205025,4243.076819,4211.794769,4193.333231,4210.256307,4216.410153,4212.82041,4228.205025,4210.769128,4213.846051,4229.230666,4211.281948,4216.922974
101,0,4209.230666,4206.153743,4243.076819,4218.974256,4197.435795,4220.512717,4227.179384,4215.897333,4228.205025,4222.563999,4216.410153,4230.256307,4218.461435,4223.07682
102,0,4214.358871,4210.256307,4246.666563,4220.512717,4191.794769,4214.871692,4226.666563,4213.846051,4221.538358,4222.563999,4214.871692,4228.717845,4217.435794,4224.102461
103,0,4209.743487,4206.153743,4241.538358,4213.846051,4192.82041,4207.179384,4214.871692,4209.230666,4219.999897,4208.717846,4210.256307,4226.666563,4210.256307,4217.948615
104,0,4196.922974,4195.384513,4229.743486,4206.666564,4191.794769,4210.256307,4211.794769,4206.666564,4215.384512,4201.025538,4205.640923,4221.538358,4206.153743,4210.256307
105,0,4195.384513,4195.384513,4231.794768,4204.102461,4181.025539,4215.384512,4214.358871,4212.307589,4212.82041,4205.640923,4205.640923,4220.512717,4204.615282,4211.281948
106,0,4209.230666,4207.179384,4242.051178,4216.410153,4191.794769,4217.948615,4215.384512,4221.025538,4226.153743,4216.922974,4213.33323,4227.692204,4210.769128,4221.538358
107,0,4208.205025,4206.153743,4233.33323,4218.974256,4205.128102,4216.922974,4215.897333,4218.974256,4233.84605,4221.025538,4213.846051,4225.640922,4212.307589,4218.974256
108,0,4192.82041,4191.281949,4214.871692,4202.051179,4198.974256,4213.33323,4216.922974,4212.307589,4224.615281,4213.33323,4205.640923,4210.769128,4201.538359,4204.615282
109,0,4186.666564,4186.666564,4208.717846,4195.897333,4193.846051,4209.743487,4215.897333,4209.743487,4213.33323,4204.102461,4202.564,4204.615282,4195.897333,4202.051179
110,0,4190.256308,4191.281949,4210.769128,4206.666564,4201.538359,4209.743487,4215.897333,4212.82041,4213.846051,4201.025538,4205.128102,4208.717846,4198.461436,4208.717846
111,0,4196.410154,4196.410154,4209.230666,4209.230666,4202.564,4210.256307,4218.974256,4217.948615,4217.435794,4198.974256,4203.589641,4208.205025,4199.487077,4209.230666
112,0,4203.07682,4204.102461,4211.281948,4207.692205,4203.07682,4211.794769,4221.025538,4223.58964,4217.435794,4197.948615,4199.999897,4208.717846,4197.948615,4209.743487
113,0,4199.487077,4202.051179,4211.794769,4209.230666,4197.948615,4215.897333,4218.461435,4224.615281,4215.384512,4199.487077,4194.358872,4210.769128,4192.82041,4207.692205
114,0,4195.384513,4194.871692,4209.230666,4208.717846,4178.461436,4217.435794,4213.846051,4221.538358,4222.563999,4207.179384,4191.281949,4209.743487,4196.410154,4206.153743
115,0,4205.128102,4201.025538,4214.358871,4214.358871,4182.05118,4214.871692,4213.846051,4219.487076,4229.743486,4213.846051,4202.051179,4215.384512,4208.717846,4210.769128
116,0,4210.769128,4209.230666,4219.487076,4226.153743,4212.82041,4214.358871,4215.897333,4219.999897,4219.999897,4207.179384,4211.281948,4221.025538,4209.743487,4213.33323
117,0,4204.615282,4205.128102,4212.82041,4221.025538,4211.281948,4211.281948,4212.82041,4215.897333,4213.846051,4203.589641,4206.666564,4218.461435,4206.153743,4211.794769
118,0,4206.666564,4201.025538,4209.230666,4210.769128,4187.179385,4206.666564,4210.769128,4215.384512,4223.58964,4211.281948,4204.615282,4217.435794,4214.871692,4213.33323
119,0,4209.743487,4202.051179,4213.846051,4210.769128,4194.871692,4209.743487,4216.922974,4222.563999,4228.717845,4207.692205,4208.205025,4215.897333,4213.846051,4212.82041
120,0,4197.948615,4199.487077,4208.717846,4208.205025,4211.281948,4211.794769,4221.025538,4227.179384,4224.615281,4195.384513,4202.564,4209.743487,4199.487077,4206.153743
121,0,4190.256308,4196.922974,4200.512718,4204.102461,4196.410154,4206.666564,4214.358871,4226.153743,4224.615281,4195.384513,4200.512718,4208.717846,4201.025538,4206.153743
122,0,4197.435795,4196.922974,4202.051179,4207.179384,4188.717846,4205.640923,4211.281948,4225.128102,4224.102461,4204.615282,4206.666564,4211.281948,4207.692205,4211.281948
123,0,4198.461436,4192.30759,4196.410154,4203.589641,4201.025538,4208.205025,4213.846051,4219.999897,4211.794769,4197.948615,4205.640923,4207.179384,4199.487077,4207.179384
124,0,4192.82041,4188.205026,4190.256308,4189.743487,4192.30759,4200.512718,4206.153743,4209.743487,4201.538359,4186.153744,4202.564,4204.102461,4197.948615,4200.512718
125,0,4199.487077,4194.358872,4198.461436,4194.871692,4175.897334,4193.333231,4201.025538,4210.256307,4211.281948,4200.512718,4211.281948,4207.692205,4211.794769,4207.179384
126,0,4207.692205,4203.07682,4208.205025,4211.794769,4187.179385,4204.615282,4214.358871,4220.512717,4227.179384,4217.948615,4219.487076,4209.743487,4216.922974,4216.922974
127,0,4211.794769,4213.33323,4216.922974,4221.025538,4218.974256,4222.051179,4229.743486,4230.256307,4236.922973,4220.512717,4222.051179,4217.435794,4219.487076,4221.025538
128,0,4212.82041,4221.538358,4222.051179,4219.487076,4222.563999,4216.922974,4223.07682,4232.307589,4234.871691,4219.999897,4224.615281,4225.128102,4227.179384,4225.640922
0,0,4210.769128,4218.461435,4216.410153,4216.922974,4188.717846,4203.589641,4212.307589,4225.640922,4226.153743,4218.461435,4226.666563,4218.461435,4225.128102,4225.128102
1,0,4206.153743,4209.230666,4207.179384,4215.897333,4176.922975,4204.102461,4212.307589,4216.922974,4221.025538,4207.692205,4220.512717,4208.205025,4215.384512,4215.384512
2,0,4203.07682,4211.794769,4206.666564,4214.358871,4215.384512,4210.769128,4216.922974,4217.435794,4223.07682,4205.128102,4211.281948,4208.717846,4213.33323,4208.205025
3,0,4198.974256,4217.435794,4205.640923,4213.846051,4231.794768,4211.281948,4218.974256,4223.58964,4225.128102,4213.846051,4211.794769,4208.717846,4210.769128,4206.153743
4,0,4199.999897,4213.33323,4201.538359,4217.948615,4205.128102,4210.769128,4219.999897,4224.615281,4222.563999,4212.82041,4219.487076,4211.794769,4208.205025,4207.179384
5,0,4207.179384,4212.82041,4203.589641,4215.384512,4204.102461,4213.33323,4218.974256,4222.051179,4220.512717,4206.153743,4221.538358,4222.051179,4208.205025,4207.692205
6,0,4212.82041,4223.58964,4208.205025,4213.846051,4231.794768,4214.358871,4213.33323,4224.102461,4225.128102,4208.205025,4219.999897,4226.666563,4208.717846,4212.307589
7,0,4220.512717,4230.256307,4214.358871,4224.102461,4227.692204,4211.281948,4213.33323,4226.666563,4227.692204,4214.871692,4222.563999,4229.230666,4210.256307,4222.563999
8,0,4226.666563,4230.256307,4219.487076,4232.820409,4204.615282,4211.281948,4222.563999,4225.128102,4224.615281,4214.358871,4222.563999,4233.33323,4209.743487,4228.205025
9,0,4226.153743,4227.179384,4217.948615,4227.179384,4208.205025,4211.281948,4222.051179,4224.102461,4226.153743,4208.717846,4216.410153,4231.281948,4206.666564,4225.128102
10,0,4217.948615,4222.051179,4208.717846,4216.410153,4224.102461,4208.205025,4212.82041,4220.512717,4225.128102,4208.205025,4209.743487,4224.102461,4200.512718,4217.948615
11,0,4212.82041,4223.58964,4204.615282,4215.897333,4220.512717,4210.256307,4214.871692,4216.922974,4220.512717,4211.794769,4210.769128,4218.461435,4197.435795,4212.82041
12,0,4211.794769,4223.58964,4199.487077,4217.435794,4206.153743,4209.743487,4219.487076,4214.358871,4219.487076,4207.692205,4209.230666,4212.82041,4198.461436,4211.794769
13,0,4206.666564,4211.281948,4186.153744,4205.640923,4209.743487,4206.666564,4212.307589,4209.743487,4217.948615,4204.615282,4200.512718,4205.640923,4194.871692,4209.230666
14,0,4199.487077,4208.205025,4182.05118,4195.384513,4222.563999,4209.230666,4209.230666,4207.179384,4214.871692,4209.743487,4198.974256,4202.051179,4192.82041,4201.025538
15,0,4204.615282,4222.563999,4195.384513,4214.358871,4224.102461,4213.846051,4216.922974,4217.435794,4223.58964,4212.82041,4207.692205,4210.769128,4200.512718,4202.051179
16,0,4216.410153,4230.256307,4206.153743,4233.33323,4232.820409,4211.794769,4218.461435,4224.102461,4229.743486,4213.846051,4217.435794,4222.563999,4207.692205,4216.410153
17,0,4217.948615,4225.640922,4203.07682,4224.102461,4241.025537,4212.307589,4214.871692,4213.33323,4221.538358,4219.999897,4224.615281,4222.563999,4208.717846,4224.615281
18,0,4202.564,4209.230666,4187.179385,4203.589641,4218.461435,4209.230666,4208.205025,4203.07682,4210.769128,4209.230666,4215.384512,4208.205025,4192.30759,4208.205025
19,0,4191.281949,4199.999897,4181.538359,4198.974256,4213.846051,4207.692205,4205.640923,4212.307589,4216.922974,4197.435795,4204.102461,4203.07682,4176.410154,4196.410154
20,0,4204.102461,4217.435794,4198.461436,4219.487076,4244.10246,4223.58964,4220.512717,4228.205025,4237.435794,4217.948615,4216.922974,4218.974256,4192.30759,4210.256307
21,0,4218.974256,4233.84605,4207.692205,4239.487076,4249.230665,4231.794768,4228.717845,4229.743486,4245.128101,4237.435794,4233.84605,4230.769127,4213.846051,4223.07682
22,0,4212.82041,4227.692204,4196.922974,4231.794768,4239.487076,4214.358871,4213.33323,4218.974256,4233.33323,4226.153743,4230.256307,4223.07682,4208.205025,4214.871692
23,0,4208.205025,4221.025538,4191.281949,4218.974256,4248.205024,4205.128102,4207.179384,4213.846051,4221.538358,4218.461435,4221.025538,4215.897333,4196.922974,4208.717846
24,0,4207.179384,4213.846051,4185.640923,4212.307589,4225.640922,4207.179384,4212.307589,4210.769128,4209.743487,4218.974256,4213.846051,4215.384512,4192.82041,4208.205025
25,0,4199.487077,4206.666564,4176.410154,4207.692205,4207.179384,4205.128102,4208.717846,4209.743487,4206.666564,4214.871692,4209.230666,4209.230666,4190.769128,4203.07682
26,0,4202.051179,4213.846051,4177.948616,4212.307589,4233.84605,4211.794769,4212.307589,4218.974256,4223.58964,4214.871692,4217.948615,4210.256307,4196.410154,4204.102461
27,0,4210.256307,4222.563999,4179.999898,4221.538358,4230.256307,4224.615281,4222.051179,4226.153743,4231.794768,4219.487076,4224.102461,4217.948615,4198.974256,4207.692205
28,0,4211.281948,4223.58964,4182.564,4223.07682,4219.487076,4226.153743,4221.025538,4227.692204,4230.256307,4231.794768,4222.563999,4223.07682,4197.948615,4212.307589
29,0,4216.410153,4228.717845,4192.30759,4220.512717,4258.974255,4227.179384,4225.640922,4235.897332,4242.051178,4251.794768,4226.666563,4227.692204,4207.179384,4219.487076
30,0,4216.410153,4227.692204,4188.205026,4218.974256,4278.461434,4230.769127,4231.281948,4238.974255,4245.640922,4255.384511,4226.153743,4222.051179,4210.256307,4216.410153
31,0,4209.230666,4219.999897,4174.871693,4219.487076,4243.58964,4224.615281,4223.58964,4226.666563,4232.820409,4245.128101,4222.051179,4216.410153,4206.153743,4208.205025
32,0,4216.922974,4227.692204,4183.076821,4228.717845,4231.794768,4220.512717,4219.999897,4222.563999,4236.410153,4246.153742,4232.307589,4227.179384,4210.256307,4217.435794
33,0,4224.102461,4233.33323,4193.846051,4234.358871,4248.717845,4223.07682,4221.025538,4228.205025,4242.051178,4246.153742,4240.512717,4234.358871,4214.871692,4226.666563
34,0,4212.307589,4217.948615,4182.05118,4226.153743,4243.076819,4221.025538,4215.897333,4227.179384,4231.794768,4241.538358,4229.230666,4223.58964,4207.179384,4215.897333
35,0,4205.640923,4209.743487,4171.79477,4216.410153,4234.358871,4218.461435,4216.922974,4226.666563,4228.717845,4248.205024,4218.974256,4215.897333,4195.897333,4207.179384
36,0,4214.871692,4224.102461,4179.999898,4218.974256,4248.717845,4221.025538,4224.615281,4230.256307,4233.84605,4251.281947,4225.640922,4223.58964,4197.948615,4212.307589
37,0,4215.897333,4224.615281,4181.025539,4218.974256,4248.205024,4215.384512,4219.999897,4225.640922,4222.051179,4238.461435,4224.102461,4223.07682,4198.974256,4212.307589
38,0,4210.769128,4211.794769,4176.410154,4214.871692,4223.58964,4211.794769,4220.512717,4228.717845,4219.487076,4237.435794,4219.487076,4218.461435,4194.358872,4208.205025
39,0,4210.769128,4213.846051,4177.948616,4216.922974,4228.717845,4219.487076,4224.615281,4236.922973,4237.948614,4245.128101,4224.102461,4221.538358,4196.922974,4210.769128
40,0,4209.230666,4220.512717,4176.922975,4215.897333,4264.61528,4224.102461,4216.922974,4229.743486,4237.948614,4238.461435,4223.07682,4218.461435,4202.051179,4208.717846
41,0,4203.07682,4211.794769,4169.743488,4209.230666,4255.384511,4218.461435,4212.307589,4221.025538,4220.512717,4221.025538,4214.358871,4209.230666,4195.384513,4196.922974
42,0,4198.461436,4205.128102,4168.717847,4212.307589,4210.256307,4215.384512,4217.948615,4225.128102,4220.512717,4206.666564,4215.384512,4206.666564,4192.30759,4190.769128
43,0,4197.435795,4211.281948,4173.333231,4216.410153,4211.281948,4217.948615,4214.358871,4227.692204,4234.871691,4210.769128,4223.07682,4213.846051,4203.07682,4195.897333
44,0,4201.538359,4215.384512,4183.076821,4219.487076,4242.051178,4216.410153,4205.640923,4221.538358,4235.897332,4226.666563,4225.128102,4221.538358,4210.256307,4204.615282
45,0,4209.230666,4218.974256,4197.435795,4229.230666,4247.179383,4218.974256,4211.794769,4228.717845,4231.281948,4231.281948,4225.640922,4224.615281,4214.358871,4211.794769
46,0,4208.205025,4217.435794,4204.615282,4223.07682,4231.794768,4222.051179,4222.051179,4238.974255,4233.84605,4223.07682,4225.128102,4222.051179,4220.512717,4210.256307
47,0,4204.102461,4214.358871,4213.33323,4214.358871,4216.922974,4222.563999,4225.640922,4238.974255,4237.948614,4219.999897,4224.615281,4227.692204,4225.640922,4210.256307
48,0,4211.281948,4223.58964,4231.794768,4229.230666,4216.410153,4226.666563,4229.743486,4244.615281,4241.538358,4221.538358,4231.281948,4241.025537,4229.230666,4222.563999
49,0,4222.563999,4233.33323,4244.10246,4236.922973,4230.769127,4230.256307,4229.230666,4256.410152,4243.076819,4226.666563,4239.999896,4243.58964,4233.33323,4232.820409
50,0,4223.07682,4227.692204,4240.512717,4224.102461,4226.666563,4225.128102,4223.58964,4257.948614,4246.153742,4228.717845,4243.58964,4238.974255,4237.948614,4232.820409
51,0,4220.512717,4224.102461,4243.58964,4229.743486,4206.153743,4222.051179,4223.58964,4254.35887,4254.35887,4221.025538,4241.025537,4241.538358,4241.025537,4236.922973
52,0,4222.563999,4225.128102,4251.281947,4236.410153,4211.794769,4232.307589,4228.205025,4256.410152,4256.410152,4216.922974,4236.410153,4241.025537,4236.922973,4239.487076
53,0,4220.512717,4221.025538,4250.256306,4220.512717,4223.07682,4236.922973,4226.153743,4258.974255,4250.256306,4218.461435,4235.897332,4236.922973,4228.717845,4232.307589
54,0,4212.82041,4216.922974,4248.717845,4211.281948,4207.179384,4224.102461,4217.948615,4254.871691,4241.538358,4210.769128,4236.410153,4236.410153,4224.615281,4225.640922
55,0,4210.256307,4213.33323,4249.743486,4214.871692,4198.461436,4214.358871,4216.410153,4248.717845,4234.871691,4206.153743,4232.307589,4233.84605,4224.615281,4226.666563
56,0,4210.256307,4206.153743,4244.10246,4209.743487,4194.358872,4209.743487,4206.666564,4239.487076,4229.743486,4205.640923,4222.563999,4228.205025,4218.461435,4224.102461
57,0,4217.435794,4215.384512,4247.692204,4219.487076,4190.769128,4207.692205,4198.974256,4237.948614,4235.384512,4210.769128,4225.640922,4234.358871,4223.07682,4227.179384
58,0,4224.102461,4226.666563,4258.974255,4238.461435,4205.128102,4213.33323,4210.256307,4246.153742,4240.512717,4214.871692,4239.999896,4244.615281,4236.922973,4234.358871
59,0,4216.922974,4216.410153,4253.333229,4227.179384,4214.871692,4220.512717,4222.051179,4250.769127,4231.794768,4204.615282,4235.384512,4235.897332,4233.33323,4229.230666
60,0,4207.179384,4202.564,4238.461435,4205.128102,4205.128102,4221.538358,4216.410153,4244.615281,4224.102461,4193.846051,4216.922974,4222.563999,4217.435794,4222.563999
61,0,4208.205025,4202.564,4237.948614,4207.692205,4195.384513,4216.410153,4203.589641,4239.999896,4227.179384,4198.974256,4217.435794,4224.615281,4216.922974,4226.153743
62,0,4210.769128,4204.615282,4245.128101,4214.871692,4195.897333,4210.769128,4201.025538,4242.051178,4229.743486,4205.640923,4229.743486,4233.33323,4226.666563,4228.205025
63,0,4213.33323,4205.128102,4247.179383,4212.82041,4187.692205,4212.307589,4205.128102,4246.153742,4226.153743,4204.615282,4228.205025,4234.358871,4226.666563,4228.717845
64,0,4214.871692,4206.666564,4244.10246,4211.794769,4180.512718,4215.897333,4206.153743,4245.128101,4225.640922,4202.564,4222.051179,4229.230666,4221.025538,4229.743486
65,0,4208.717846,4200.512718,4244.10246,4213.33323,4190.769128,4210.769128,4204.615282,4243.58964,4226.666563,4206.666564,4228.717845,4232.820409,4221.025538,4225.640922
66,0,4211.281948,4196.922974,4252.820409,4216.922974,4225.128102,4213.846051,4210.256307,4249.230665,4230.256307,4219.999897,4244.10246,4244.10246,4232.307589,4227.179384
67,0,4217.435794,4207.179384,4255.384511,4216.922974,4225.640922,4224.102461,4216.410153,4249.743486,4230.256307,4222.051179,4245.128101,4241.025537,4238.974255,4230.769127
68,0,4213.846051,4216.410153,4247.179383,4212.82041,4155.384514,4222.051179,4210.769128,4242.563999,4227.179384,4210.769128,4230.769127,4227.179384,4228.205025,4223.07682
69,0,4208.205025,4209.230666,4241.025537,4213.846051,4141.53836,4214.871692,4207.179384,4241.025537,4229.230666,4213.846051,4223.58964,4222.563999,4218.974256,4217.948615
70,0,4205.128102,4196.922974,4235.384512,4211.281948,4195.897333,4216.922974,4210.256307,4241.025537,4229.743486,4216.410153,4227.179384,4222.051179,4221.538358,4221.025538
71,0,4203.07682,4196.922974,4231.281948,4202.051179,4188.717846,4215.897333,4208.205025,4238.461435,4226.666563,4202.051179,4227.179384,4216.922974,4223.07682,4219.487076
72,0,4208.205025,4209.743487,4238.461435,4208.205025,4167.692206,4221.025538,4212.307589,4243.076819,4228.717845,4207.692205,4227.179384,4220.512717,4222.051179,4220.512717
73,0,4209.743487,4208.205025,4242.051178,4216.922974,4216.922974,4226.666563,4217.435794,4247.692204,4228.205025,4225.128102,4225.128102,4225.640922,4214.871692,4222.563999
74,0,4205.640923,4202.051179,4237.435794,4209.743487,4249.743486,4218.461435,4212.82041,4241.538358,4221.538358,4211.281948,4222.563999,4225.640922,4211.281948,4221.538358
75,0,4209.230666,4212.82041,4238.461435,4207.692205,4219.999897,4214.871692,4211.794769,4241.025537,4223.58964,4197.948615,4227.179384,4230.769127,4216.922974,4223.07682
76,0,4215.384512,4224.102461,4244.10246,4225.128102,4203.589641,4226.153743,4223.58964,4251.794768,4234.358871,4217.435794,4232.307589,4238.974255,4224.615281,4225.128102
77,0,4213.846051,4219.999897,4243.58964,4230.256307,4207.692205,4227.179384,4226.666563,4252.820409,4240.512717,4232.820409,4234.358871,4242.051178,4226.666563,4225.640922
78,0,4214.358871,4217.948615,4241.025537,4223.07682,4206.666564,4222.051179,4220.512717,4244.615281,4242.051178,4225.640922,4233.33323,4239.999896,4223.07682,4224.615281
79,0,4213.846051,4221.025538,4237.948614,4221.025538,4185.128103,4221.538358,4214.358871,4239.999896,4231.281948,4208.717846,4224.102461,4231.794768,4212.82041,4216.410153
80,0,4209.230666,4215.897333,4233.33323,4222.051179,4163.589642,4217.435794,4211.794769,4238.974255,4221.538358,4194.358872,4218.974256,4223.07682,4206.666564,4212.82041
81,0,4208.205025,4215.384512,4233.84605,4222.563999,4183.589641,4216.922974,4214.358871,4241.538358,4228.205025,4202.564,4224.615281,4224.102461,4214.871692,4223.58964
82,0,4209.743487,4219.487076,4235.384512,4224.615281,4212.82041,4224.102461,4219.999897,4246.666563,4231.794768,4219.999897,4225.640922,4226.666563,4218.461435,4227.692204
83,0,4209.743487,4219.999897,4231.794768,4222.563999,4204.102461,4225.640922,4216.410153,4247.179383,4224.615281,4214.871692,4223.07682,4224.615281,4214.358871,4221.538358
84,0,4207.692205,4214.871692,4226.153743,4215.384512,4179.487077,4220.512717,4211.281948,4242.051178,4217.948615,4199.487077,4222.563999,4223.07682,4212.307589,4221.025538
85,0,4208.205025,4209.743487,4225.640922,4211.794769,4185.128103,4214.871692,4209.743487,4237.435794,4219.999897,4197.948615,4217.435794,4221.538358,4211.794769,4223.07682
86,0,4207.692205,4209.743487,4227.179384,4215.384512,4201.025538,4207.692205,4206.666564,4233.84605,4224.102461,4202.564,4212.307589,4219.487076,4216.922974,4221.025538
87,0,4209.743487,4215.897333,4230.769127,4223.58964,4192.30759,4212.82041,4210.256307,4239.487076,4228.717845,4212.82041,4218.461435,4223.07682,4225.640922,4223.58964
88,0,4210.256307,4217.435794,4229.230666,4220.512717,4183.076821,4219.487076,4213.33323,4243.58964,4233.33323,4218.461435,4225.640922,4226.153743,4223.58964,4224.102461
89,0,4209.743487,4217.948615,4227.179384,4221.538358,4193.333231,4219.999897,4213.33323,4243.076819,4241.538358,4225.128102,4231.794768,4232.820409,4224.102461,4225.640922
90,0,4214.358871,4218.974256,4233.33323,4230.256307,4190.256308,4221.538358,4215.897333,4242.051178,4238.974255,4230.256307,4231.281948,4235.897332,4229.230666,4232.307589
91,0,4221.538358,4220.512717,4241.025537,4229.743486,4191.794769,4223.07682,4221.025538,4241.025537,4226.666563,4229.743486,4225.640922,4230.256307,4227.179384,4235.384512
92,0,4226.153743,4227.692204,4241.025537,4227.692204,4213.33323,4223.07682,4223.07682,4244.615281,4228.205025,4227.179384,4225.128102,4228.717845,4226.153743,4235.384512
93,0,4227.179384,4235.384512,4243.076819,4236.410153,4227.692204,4226.153743,4228.205025,4254.35887,4238.461435,4230.256307,4232.820409,4241.538358,4233.84605,4241.538358
94,0,4224.615281,4226.666563,4238.974255,4233.84605,4203.589641,4225.640922,4227.692204,4250.256306,4232.307589,4229.230666,4232.307589,4241.025537,4230.769127,4238.974255
95,0,4214.871692,4210.256307,4221.025538,4217.435794,4171.79477,4216.922974,4216.410153,4240.512717,4225.128102,4226.153743,4220.512717,4222.051179,4219.999897,4224.102461
96,0,4212.307589,4213.33323,4216.410153,4214.871692,4197.435795,4218.461435,4216.922974,4249.230665,4237.435794,4232.307589,4224.102461,4225.128102,4228.717845,4226.666563
97,0,4215.897333,4221.538358,4225.128102,4222.051179,4234.358871,4230.769127,4222.051179,4255.384511,4244.615281,4235.384512,4235.384512,4236.922973,4234.871691,4236.410153
98,0,4209.743487,4208.717846,4217.948615,4218.461435,4202.051179,4231.281948,4214.358871,4243.076819,4228.717845,4227.179384,4219.999897,4221.025538,4216.922974,4224.102461
99,0,4205.640923,4203.589641,4209.743487,4211.281948,4172.30759,4221.025538,4206.666564,4235.897332,4218.461435,4225.128102,4206.153743,4207.692205,4206.666564,4215.384512
100,0,4210.769128,4214.358871,4217.435794,4214.871692,4199.999897,4217.948615,4208.717846,4239.999896,4224.102461,4228.717845,4219.487076,4222.051179,4214.871692,4227.692204
101,0,4210.256307,4209.743487,4218.974256,4221.025538,4203.589641,4221.538358,4208.205025,4238.461435,4226.153743,4220.512717,4223.58964,4228.205025,4216.410153,4225.128102
102,0,4204.615282,4198.461436,4209.743487,4215.897333,4185.128103,4223.58964,4209.230666,4236.410153,4226.666563,4216.922974,4210.769128,4217.435794,4205.128102,4208.717846
103,0,4206.153743,4207.179384,4207.179384,4212.82041,4206.153743,4229.743486,4221.025538,4247.692204,4236.410153,4230.769127,4214.871692,4219.999897,4205.128102,4210.256307
104,0,4209.230666,4216.410153,4211.794769,4219.999897,4228.717845,4233.84605,4227.179384,4256.410152,4243.58964,4231.794768,4228.205025,4228.717845,4216.922974,4222.051179
105,0,4209.230666,4213.33323,4213.846051,4224.615281,4225.128102,4228.717845,4220.512717,4253.84605,4245.128101,4224.615281,4230.769127,4229.230666,4219.999897,4221.538358
106,0,4211.281948,4216.410153,4212.82041,4223.07682,4216.922974,4230.769127,4222.051179,4253.333229,4244.10246,4230.256307,4227.179384,4228.717845,4211.281948,4214.358871
107,0,4205.640923,4215.384512,4208.205025,4222.051179,4201.538359,4238.461435,4229.743486,4253.333229,4235.897332,4224.102461,4213.33323,4222.563999,4201.538359,4206.666564
108,0,4202.051179,4209.743487,4209.230666,4225.128102,4202.564,4241.538358,4234.871691,4253.333229,4237.948614,4222.051179,4209.743487,4223.07682,4207.692205,4210.769128
109,0,4208.205025,4211.281948,4211.281948,4221.025538,4225.128102,4238.974255,4235.897332,4256.922973,4243.076819,4232.307589,4220.512717,4229.230666,4211.281948,4221.538358
110,0,4212.307589,4215.384512,4208.717846,4219.487076,4240.512717,4232.307589,4229.743486,4259.999896,4238.461435,4229.230666,4226.153743,4229.230666,4206.666564,4223.58964
111,0,4210.769128,4218.974256,4209.230666,4227.179384,4231.794768,4229.230666,4222.563999,4255.897332,4241.538358,4226.153743,4228.717845,4230.256307,4211.281948,4225.640922
112,0,4212.307589,4223.58964,4216.410153,4228.205025,4212.82041,4237.435794,4227.179384,4256.410152,4252.307588,4242.563999,4235.384512,4238.974255,4219.999897,4236.922973
113,0,4213.33323,4215.897333,4212.307589,4218.974256,4206.666564,4233.33323,4223.07682,4255.897332,4243.58964,4245.640922,4232.820409,4235.897332,4215.384512,4235.384512
114,0,4209.743487,4205.128102,4201.538359,4217.435794,4220.512717,4222.051179,4209.230666,4250.256306,4232.820409,4235.897332,4227.179384,4224.615281,4206.153743,4220.512717
115,0,4212.307589,4210.256307,4204.615282,4221.538358,4239.999896,4232.307589,4217.948615,4254.871691,4245.128101,4247.179383,4232.820409,4228.717845,4207.179384,4221.025538
116,0,4219.487076,4219.487076,4210.256307,4226.666563,4234.358871,4242.563999,4234.358871,4263.076819,4253.84605,4257.435793,4234.358871,4235.384512,4211.794769,4226.666563
117,0,4219.487076,4213.33323,4205.128102,4230.256307,4208.205025,4229.743486,4229.743486,4258.461434,4244.10246,4244.10246,4227.179384,4229.230666,4209.743487,4216.922974
118,0,4207.692205,4202.051179,4196.410154,4217.948615,4203.07682,4217.435794,4217.948615,4251.281947,4232.820409,4230.256307,4221.538358,4223.58964,4198.974256,4205.128102
119,0,4205.640923,4206.153743,4197.435795,4207.692205,4217.948615,4221.538358,4218.461435,4250.256306,4232.307589,4235.897332,4219.487076,4223.58964,4194.871692,4208.205025
120,0,4218.461435,4217.948615,4202.564,4215.384512,4219.999897,4225.128102,4222.563999,4249.230665,4233.84605,4239.487076,4223.07682,4229.230666,4205.128102,4219.487076
121,0,4228.205025,4219.999897,4205.640923,4221.025538,4223.07682,4222.563999,4217.948615,4248.717845,4232.307589,4232.307589,4231.794768,4238.974255,4210.769128,4226.666563
122,0,4226.153743,4217.435794,4206.153743,4218.974256,4234.871691,4217.948615,4211.281948,4253.333229,4232.307589,4234.871691,4232.820409,4239.999896,4205.640923,4229.230666
123,0,4228.717845,4221.025538,4206.153743,4226.153743,4229.230666,4213.33323,4212.82041,4255.384511,4236.410153,4246.666563,4229.230666,4233.84605,4206.666564,4233.33323
124,0,4234.871691,4221.025538,4204.615282,4231.281948,4219.999897,4215.897333,4217.435794,4249.743486,4232.820409,4236.410153,4229.230666,4233.33323,4207.692205,4237.435794
125,0,4238.461435,4218.974256,4199.487077,4225.640922,4219.999897,4224.102461,4217.948615,4243.58964,4221.025538,4214.358871,4224.615281,4231.794768,4198.461436,4238.461435
126,0,4250.256306,4230.769127,4199.487077,4227.179384,4216.922974,4219.487076,4210.769128,4236.922973,4211.281948,4213.846051,4221.025538,4229.230666,4197.948615,4245.128101
127,0,4264.10246,4245.128101,4208.205025,4240.512717,4226.666563,4212.307589,4208.205025,4237.435794,4215.384512,4228.205025,4234.358871,4237.948614,4216.922974,4256.922973
128,0,4264.10246,4242.051178,4209.743487,4245.128101,4229.230666,4215.384512,4210.256307,4237.948614,4222.051179,4229.743486,4241.025537,4244.10246,4226.153743,4261.538357
0,0,4258.974255,4234.358871,4200.512718,4232.307589,4213.846051,4214.871692,4207.692205,4230.769127,4219.487076,4219.999897,4229.230666,4235.384512,4213.846051,4259.999896
1,0,4257.948614,4233.33323,4195.384513,4221.025538,4210.769128,4206.153743,4203.07682,4228.717845,4212.307589,4208.717846,4222.563999,4230.769127,4210.256307,4256.922973
2,0,4257.435793,4232.307589,4199.999897,4221.025538,4220.512717,4206.666564,4204.615282,4236.410153,4213.846051,4201.025538,4225.640922,4235.384512,4223.07682,4255.384511
3,0,4255.897332,4230.256307,4202.564,4223.58964,4214.358871,4208.717846,4205.128102,4241.025537,4214.358871,4201.025538,4225.128102,4238.461435,4226.153743,4255.897332
4,0,4256.922973,4232.307589,4209.230666,4223.58964,4211.281948,4206.666564,4205.640923,4241.025537,4210.769128,4203.589641,4228.205025,4239.999896,4225.128102,4259.487075
5,0,4254.35887,4227.692204,4219.487076,4221.538358,4217.948615,4208.205025,4207.692205,4239.999896,4211.794769,4203.589641,4230.256307,4236.922973,4229.230666,4257.948614
6,0,4251.281947,4221.538358,4223.07682,4219.487076,4212.307589,4210.256307,4204.615282,4238.974255,4218.974256,4206.153743,4225.128102,4232.307589,4228.205025,4254.35887
7,0,4253.84605,4225.128102,4228.205025,4220.512717,4194.871692,4210.769128,4204.102461,4239.487076,4218.461435,4207.692205,4225.128102,4235.384512,4228.717845,4256.410152
8,0,4251.794768,4224.615281,4237.948614,4215.897333,4182.05118,4216.410153,4210.256307,4239.487076,4209.743487,4200.512718,4224.102461,4235.384512,4232.820409,4256.922973
9,0,4244.615281,4221.025538,4239.999896,4211.794769,4190.769128,4217.435794,4208.717846,4237.435794,4210.256307,4194.358872,4217.948615,4227.179384,4227.179384,4249.743486
10,0,4242.051178,4224.102461,4239.999896,4220.512717,4212.307589,4215.897333,4204.102461,4238.461435,4217.435794,4192.82041,4218.461435,4227.692204,4224.615281,4249.230665
11,0,4235.384512,4216.922974,4242.051178,4218.974256,4208.717846,4217.948615,4204.102461,4236.410153,4211.794769,4185.640923,4215.897333,4229.230666,4226.153743,4245.128101
12,0,4222.051179,4197.948615,4237.948614,4202.564,4182.05118,4206.153743,4195.897333,4231.281948,4199.999897,4176.922975,4202.564,4221.025538,4215.384512,4226.666563
13,0,4224.615281,4205.640923,4243.58964,4208.717846,4191.281949,4195.384513,4193.333231,4234.358871,4212.307589,4186.153744,4203.589641,4223.07682,4213.846051,4226.666563
14,0,4229.743486,4221.538358,4252.307588,4223.07682,4217.435794,4207.692205,4207.179384,4240.512717,4226.666563,4199.999897,4212.307589,4229.743486,4225.640922,4237.948614
15,0,4219.487076,4211.281948,4244.615281,4211.281948,4200.512718,4219.999897,4212.307589,4241.025537,4218.461435,4197.435795,4208.717846,4223.58964,4223.58964,4227.179384
16,0,4215.384512,4203.07682,4239.999896,4201.025538,4188.717846,4212.82041,4204.102461,4236.410153,4212.307589,4189.743487,4203.07682,4218.974256,4215.897333,4217.948615
17,0,4226.666563,4215.384512,4251.794768,4211.794769,4201.025538,4211.794769,4207.179384,4237.948614,4220.512717,4196.922974,4209.230666,4225.640922,4223.58964,4229.743486
18,0,4223.58964,4211.281948,4250.256306,4207.692205,4182.05118,4211.794769,4208.205025,4236.410153,4215.897333,4197.435795,4211.281948,4223.07682,4223.07682,4228.717845
19,0,4210.769128,4201.538359,4241.538358,4202.051179,4181.538359,4206.666564,4199.999897,4229.743486,4206.666564,4185.128103,4208.205025,4218.974256,4212.307589,4217.948615
20,0,4212.307589,4211.794769,4248.717845,4212.307589,4224.102461,4213.846051,4201.538359,4233.33323,4212.307589,4185.128103,4209.230666,4224.102461,4214.871692,4222.051179
21,0,4218.974256,4215.897333,4250.769127,4211.794769,4225.128102,4217.435794,4208.205025,4237.435794,4216.922974,4199.487077,4210.256307,4224.102461,4217.948615,4223.58964
22,0,4211.794769,4202.051179,4239.487076,4199.487077,4187.179385,4206.666564,4203.589641,4227.179384,4209.230666,4195.384513,4205.640923,4214.871692,4211.794769,4213.33323
23,0,4206.666564,4201.025538,4242.563999,4205.128102,4184.615282,4205.640923,4205.128102,4226.666563,4212.82041,4181.538359,4208.205025,4216.922974,4214.358871,4212.82041
24,0,4217.948615,4213.33323,4259.999896,4223.58964,4206.666564,4215.897333,4217.948615,4243.58964,4231.281948,4198.974256,4222.563999,4233.33323,4227.179384,4224.615281
25,0,4226.153743,4219.487076,4266.666562,4229.230666,4213.33323,4218.461435,4222.051179,4250.256306,4241.025537,4229.230666,4233.33323,4240.512717,4235.897332,4231.281948
26,0,4215.384512,4212.307589,4256.922973,4218.974256,4193.846051,4213.33323,4215.897333,4241.025537,4229.743486,4223.58964,4229.743486,4232.307589,4231.794768,4227.692204
27,0,4210.256307,4204.615282,4254.871691,4213.33323,4191.281949,4214.871692,4216.922974,4237.948614,4218.974256,4202.051179,4222.051179,4228.205025,4224.102461,4220.512717
28,0,4219.487076,4216.410153,4264.61528,4221.025538,4224.102461,4227.692204,4230.256307,4248.205024,4229.743486,4208.717846,4224.102461,4237.435794,4223.58964,4221.538358
29,0,4218.461435,4223.07682,4264.10246,4221.538358,4225.128102,4239.999896,4239.999896,4257.948614,4244.10246,4223.58964,4230.769127,4241.025537,4229.743486,4229.230666
30,0,4205.640923,4207.179384,4252.307588,4217.435794,4211.794769,4241.538358,4242.563999,4259.487075,4243.58964,4218.974256,4225.128102,4232.820409,4226.153743,4226.666563
31,0,4197.948615,4193.846051,4241.538358,4213.33323,4226.666563,4238.461435,4237.435794,4254.871691,4233.33323,4195.384513,4212.307589,4222.563999,4212.82041,4211.794769
32,0,4198.461436,4197.435795,4234.358871,4203.589641,4219.999897,4228.717845,4222.051179,4244.615281,4223.07682,4175.384513,4204.615282,4209.230666,4205.640923,4205.128102
33,0,4197.948615,4201.025538,4228.717845,4200.512718,4187.179385,4215.897333,4212.307589,4234.871691,4219.999897,4184.102462,4203.07682,4203.589641,4205.640923,4208.205025
34,0,4195.897333,4195.384513,4231.281948,4211.281948,4193.333231,4218.974256,4219.487076,4237.435794,4223.07682,4207.179384,4203.07682,4215.897333,4208.717846,4209.743487
35,0,4194.871692,4190.769128,4233.33323,4206.153743,4213.846051,4222.563999,4226.153743,4243.58964,4224.615281,4209.743487,4205.128102,4223.58964,4209.230666,4207.179384
36,0,4194.358872,4194.358872,4229.743486,4201.025538,4213.846051,4216.922974,4224.615281,4243.076819,4225.640922,4197.435795,4208.717846,4218.461435,4212.307589,4206.666564
37,0,4193.333231,4196.410154,4225.640922,4207.692205,4219.487076,4216.922974,4223.07682,4238.974255,4224.102461,4191.281949,4207.179384,4214.871692,4209.743487,4206.153743
38,0,4194.358872,4189.743487,4224.615281,4205.128102,4218.461435,4222.563999,4226.153743,4241.025537,4222.051179,4193.333231,4205.640923,4213.33323,4202.564,4206.153743
39,0,4194.358872,4188.717846,4221.025538,4193.846051,4194.871692,4219.999897,4223.58964,4241.025537,4219.487076,4188.717846,4205.128102,4206.666564,4198.974256,4206.666564
40,0,4192.82041,4198.974256,4221.538358,4197.948615,4205.128102,4218.974256,4220.512717,4239.999896,4222.051179,4179.999898,4203.07682,4209.230666,4199.999897,4208.717846
41,0,4201.538359,4207.179384,4236.922973,4218.974256,4235.897332,4229.743486,4227.179384,4248.717845,4234.871691,4194.358872,4210.256307,4224.615281,4208.717846,4217.435794
42,0,4209.230666,4212.307589,4246.666563,4227.692204,4212.307589,4233.84605,4234.358871,4255.897332,4242.563999,4214.871692,4219.999897,4231.281948,4216.410153,4222.051179
43,0,4203.07682,4209.743487,4237.435794,4217.435794,4185.640923,4232.820409,4236.410153,4248.717845,4233.33323,4209.230666,4214.358871,4223.07682,4209.230666,4213.33323
44,0,4203.07682,4208.205025,4234.358871,4213.33323,4229.743486,4236.922973,4239.487076,4246.153742,4228.205025,4203.589641,4208.717846,4221.025538,4205.640923,4211.281948
45,0,4211.281948,4211.281948,4238.974255,4219.487076,4266.153742,4235.384512,4235.897332,4251.281947,4237.435794,4215.384512,4218.461435,4228.205025,4220.512717,4221.538358
46,0,4209.743487,4207.179384,4236.410153,4223.58964,4233.84605,4225.640922,4222.563999,4249.230665,4239.999896,4217.948615,4224.615281,4226.153743,4226.666563,4225.128102
47,0,4206.153743,4206.666564,4233.33323,4219.487076,4210.256307,4222.563999,4222.051179,4247.179383,4233.33323,4210.769128,4222.051179,4223.07682,4216.410153,4219.999897
48,0,4203.589641,4204.102461,4228.205025,4208.717846,4218.974256,4225.640922,4232.307589,4246.153742,4223.07682,4201.538359,4219.487076,4222.563999,4208.717846,4212.82041
49,0,4198.974256,4198.974256,4222.563999,4206.666564,4213.846051,4225.640922,4232.820409,4244.10246,4224.102461,4195.384513,4219.999897,4222.051179,4209.743487,4206.153743
50,0,4197.948615,4199.487077,4223.07682,4212.307589,4201.025538,4219.487076,4223.07682,4242.563999,4236.410153,4204.615282,4217.948615,4220.512717,4209.230666,4205.128102
51,0,4195.384513,4194.871692,4216.410153,4199.999897,4198.974256,4210.769128,4214.358871,4235.897332,4228.205025,4207.692205,4209.743487,4213.846051,4201.025538,4205.128102
52,0,4193.846051,4187.179385,4209.230666,4194.358872,4206.666564,4212.307589,4217.435794,4231.794768,4208.717846,4198.461436,4203.07682,4207.179384,4195.897333,4204.102461
53,0,4200.512718,4196.922974,4215.897333,4215.384512,4223.58964,4226.153743,4228.717845,4241.025537,4217.435794,4203.07682,4207.692205,4213.846051,4207.179384,4210.256307
54,0,4201.025538,4200.512718,4214.358871,4210.256307,4233.33323,4224.102461,4222.051179,4241.538358,4226.666563,4202.564,4210.769128,4215.384512,4208.205025,4209.743487
55,0,4192.82041,4186.153744,4202.564,4187.692205,4222.051179,4208.717846,4207.692205,4233.33323,4214.358871,4189.743487,4207.179384,4204.615282,4194.871692,4197.948615
56,0,4190.769128,4187.692205,4204.102461,4193.846051,4210.769128,4209.743487,4212.82041,4237.435794,4210.769128,4193.846051,4206.153743,4205.128102,4195.897333,4194.871692
57,0,4198.974256,4206.153743,4218.974256,4212.82041,4214.871692,4224.102461,4229.230666,4245.128101,4226.666563,4214.358871,4209.230666,4221.538358,4206.153743,4206.153743
58,0,4202.564,4209.743487,4220.512717,4213.33323,4206.666564,4219.487076,4226.666563,4240.512717,4230.769127,4218.461435,4211.794769,4222.563999,4201.025538,4207.179384
59,0,4196.922974,4198.974256,4204.102461,4200.512718,4195.897333,4209.230666,4216.410153,4230.256307,4216.922974,4201.025538,4205.640923,4207.179384,4189.230667,4193.846051
60,0,4190.769128,4189.230667,4195.384513,4191.281949,4209.230666,4217.948615,4220.512717,4227.692204,4212.307589,4192.82041,4197.948615,4202.051179,4185.128103,4186.666564
61,0,4195.897333,4195.897333,4207.692205,4194.871692,4233.33323,4223.07682,4225.640922,4235.897332,4224.102461,4211.281948,4205.128102,4209.743487,4191.281949,4194.871692
62,0,4200.512718,4205.128102,4214.871692,4199.999897,4231.281948,4212.82041,4216.922974,4238.461435,4229.743486,4225.128102,4214.358871,4211.794769,4199.487077,4200.512718
63,0,4193.333231,4199.999897,4202.564,4190.769128,4206.666564,4205.128102,4209.230666,4228.205025,4218.974256,4210.769128,4205.128102,4202.564,4195.384513,4197.435795
64,0,4186.153744,4189.743487,4191.281949,4181.025539,4198.461436,4202.051179,4208.205025,4219.999897,4208.205025,4190.256308,4195.384513,4195.897333,4179.487077,4192.30759
65,0,4190.256308,4190.769128,4189.743487,4183.076821,4215.897333,4204.615282,4207.692205,4223.07682,4208.205025,4183.076821,4202.051179,4197.435795,4172.30759,4192.30759
66,0,4191.794769,4195.384513,4190.769128,4190.256308,4220.512717,4216.410153,4209.230666,4228.717845,4213.846051,4193.333231,4206.153743,4202.051179,4175.897334,4195.384513
67,0,4180.512718,4181.538359,4185.640923,4186.666564,4208.205025,4211.281948,4207.179384,4224.102461,4209.230666,4198.461436,4193.846051,4192.82041,4170.769129,4182.564
68,0,4181.538359,4176.922975,4186.153744,4187.692205,4220.512717,4197.435795,4202.564,4223.58964,4209.743487,4201.025538,4197.948615,4190.769128,4175.384513,4175.897334
69,0,4200.512718,4200.512718,4199.487077,4210.256307,4238.461435,4206.666564,4211.281948,4234.871691,4221.025538,4219.999897,4219.487076,4209.743487,4195.384513,4193.846051
70,0,4211.281948,4218.974256,4209.743487,4222.051179,4233.84605,4224.102461,4225.640922,4241.538358,4222.051179,4233.84605,4222.563999,4218.461435,4202.051179,4211.281948
71,0,4208.717846,4213.846051,4208.205025,4206.153743,4226.153743,4222.563999,4222.051179,4235.384512,4212.307589,4216.922974,4214.871692,4208.205025,4191.281949,4206.666564
72,0,4205.640923,4210.769128,4203.07682,4202.051179,4229.230666,4214.358871,4215.384512,4231.794768,4213.33323,4204.102461,4213.33323,4204.615282,4185.640923,4195.384513
73,0,4200.512718,4208.717846,4197.948615,4211.281948,4221.025538,4209.743487,4218.974256,4237.948614,4221.538358,4214.871692,4215.384512,4212.82041,4188.717846,4195.384513
74,0,4194.358872,4198.461436,4193.333231,4205.640923,4207.692205,4211.281948,4221.538358,4238.974255,4226.666563,4223.07682,4218.461435,4214.358871,4188.717846,4195.384513
75,0,4191.794769,4197.435795,4190.256308,4198.461436,4220.512717,4215.384512,4218.974256,4231.281948,4224.615281,4216.410153,4215.897333,4210.256307,4182.564,4193.333231
76,0,4195.897333,4206.666564,4192.82041,4207.179384,4243.58964,4218.461435,4217.435794,4231.794768,4222.051179,4218.461435,4216.410153,4214.358871,4187.179385,4196.922974
77,0,4197.948615,4207.692205,4193.333231,4211.281948,4239.999896,4217.435794,4217.435794,4243.076819,4229.743486,4234.358871,4223.58964,4214.871692,4192.82041,4197.435795
78,0,4196.922974,4207.692205,4192.30759,4213.33323,4224.615281,4212.307589,4216.410153,4244.10246,4232.820409,4230.769127,4221.538358,4211.794769,4189.230667,4194.358872
79,0,4197.435795,4213.33323,4197.948615,4221.025538,4236.410153,4214.358871,4219.999897,4237.948614,4225.640922,4214.871692,4217.435794,4219.999897,4191.281949,4199.487077
80,0,4197.435795,4210.256307,4199.487077,4214.358871,4245.128101,4218.461435,4222.563999,4242.051178,4223.58964,4212.82041,4220.512717,4226.153743,4193.333231,4203.589641
81,0,4195.384513,4196.922974,4187.692205,4198.974256,4222.563999,4209.230666,4217.435794,4239.999896,4214.358871,4205.640923,4215.384512,4212.307589,4179.487077,4193.333231
82,0,4195.384513,4197.948615,4179.487077,4202.564,4208.717846,4198.974256,4212.82041,4229.230666,4202.051179,4192.82041,4207.179384,4201.025538,4170.769129,4184.102462
83,0,4199.487077,4209.743487,4185.640923,4213.846051,4214.871692,4208.205025,4217.948615,4233.84605,4213.846051,4204.102461,4209.743487,4208.205025,4179.999898,4187.179385
84,0,4196.922974,4212.307589,4188.205026,4208.717846,4225.128102,4217.948615,4226.153743,4243.076819,4225.640922,4216.922974,4213.846051,4215.897333,4183.076821,4188.205026
85,0,4195.897333,4208.717846,4184.102462,4206.666564,4237.948614,4214.358871,4226.153743,4242.051178,4218.461435,4208.717846,4218.461435,4220.512717,4181.538359,4184.615282
86,0,4196.922974,4207.179384,4181.538359,4213.33323,4244.615281,4212.307589,4222.051179,4237.435794,4216.410153,4206.666564,4215.384512,4219.487076,4186.153744,4183.076821
87,0,4193.846051,4205.128102,4181.025539,4209.743487,4239.487076,4213.846051,4220.512717,4235.897332,4222.563999,4211.794769,4207.692205,4213.33323,4188.205026,4184.102462
88,0,4194.358872,4202.564,4185.128103,4200.512718,4237.948614,4213.846051,4222.051179,4238.974255,4227.179384,4212.307589,4216.922974,4215.384512,4190.769128,4188.717846
89,0,4203.589641,4209.230666,4193.846051,4209.743487,4242.051178,4220.512717,4228.205025,4246.153742,4237.435794,4221.025538,4229.230666,4223.07682,4204.102461,4199.999897
90,0,4209.743487,4221.025538,4202.051179,4225.640922,4236.410153,4224.615281,4232.307589,4246.666563,4241.025537,4228.205025,4228.205025,4224.102461,4215.384512,4209.230666
91,0,4208.717846,4221.538358,4205.128102,4218.974256,4222.051179,4213.33323,4227.692204,4240.512717,4225.128102,4216.922974,4223.58964,4219.487076,4213.846051,4209.743487
92,0,4207.179384,4212.82041,4207.692205,4203.07682,4197.435795,4207.179384,4227.179384,4237.948614,4214.871692,4202.564,4217.435794,4214.358871,4211.794769,4207.179384
93,0,4207.692205,4213.33323,4219.999897,4209.743487,4194.358872,4218.974256,4237.948614,4240.512717,4226.153743,4208.205025,4215.897333,4216.410153,4218.461435,4207.692205
94,0,4208.717846,4216.410153,4229.743486,4214.358871,4217.435794,4216.922974,4237.948614,4240.512717,4228.717845,4211.281948,4216.922974,4217.435794,4218.461435,4205.640923
95,0,4213.33323,4215.384512,4232.820409,4206.666564,4229.743486,4205.640923,4234.871691,4241.538358,4221.025538,4201.538359,4219.487076,4218.974256,4215.897333,4209.230666
96,0,4216.410153,4217.435794,4241.538358,4213.33323,4222.051179,4208.205025,4237.435794,4241.025537,4222.563999,4198.461436,4225.128102,4227.179384,4222.051179,4219.487076
97,0,4212.82041,4214.358871,4247.692204,4216.922974,4209.230666,4213.33323,4233.84605,4237.435794,4221.538358,4201.025538,4222.051179,4225.640922,4222.051179,4219.999897
98,0,4209.230666,4206.153743,4241.538358,4204.102461,4204.102461,4208.205025,4225.128102,4237.948614,4213.33323,4195.897333,4209.230666,4213.33323,4213.33323,4213.33323
99,0,4210.769128,4207.179384,4238.974255,4204.102461,4201.025538,4207.179384,4223.58964,4238.974255,4213.33323,4184.102462,4207.179384,4211.281948,4212.82041,4212.82041
100,0,4209.743487,4209.230666,4244.615281,4211.794769,4200.512718,4209.230666,4222.563999,4235.897332,4218.461435,4182.05118,4212.307589,4216.922974,4217.948615,4216.410153
101,0,4206.666564,4206.153743,4243.076819,4205.640923,4200.512718,4206.153743,4218.461435,4232.820409,4212.307589,4187.179385,4208.717846,4216.922974,4216.922974,4217.948615
102,0,4216.922974,4213.33323,4248.205024,4212.82041,4211.281948,4213.846051,4229.230666,4241.025537,4220.512717,4206.666564,4219.487076,4221.538358,4224.102461,4223.58964
103,0,4225.128102,4224.102461,4258.461434,4225.640922,4214.358871,4224.615281,4237.435794,4248.717845,4238.461435,4221.538358,4235.897332,4230.256307,4235.897332,4229.230666
104,0,4213.846051,4215.897333,4250.256306,4212.82041,4206.153743,4217.948615,4227.692204,4241.538358,4236.410153,4209.743487,4229.743486,4225.640922,4227.692204,4222.563999
105,0,4202.051179,4204.102461,4234.358871,4201.538359,4209.230666,4209.230666,4220.512717,4238.461435,4224.615281,4195.897333,4216.922974,4216.410153,4216.410153,4212.82041
106,0,4205.640923,4206.153743,4235.384512,4209.230666,4196.410154,4207.692205,4218.974256,4241.538358,4219.999897,4195.384513,4216.410153,4215.897333,4218.461435,4212.82041
107,0,4209.743487,4208.717846,4243.58964,4207.692205,4177.435795,4202.051179,4207.692205,4234.871691,4217.435794,4193.333231,4220.512717,4221.025538,4222.563999,4218.461435
108,0,4209.743487,4208.717846,4247.179383,4197.435795,4201.025538,4201.025538,4204.615282,4230.769127,4217.435794,4191.794769,4226.153743,4227.179384,4229.743486,4224.102461
109,0,4210.769128,4206.666564,4249.743486,4196.922974,4221.538358,4210.256307,4219.999897,4241.025537,4223.07682,4200.512718,4231.794768,4229.743486,4236.410153,4224.615281
110,0,4211.281948,4206.666564,4250.256306,4207.692205,4186.666564,4211.281948,4223.58964,4244.10246,4227.179384,4211.281948,4228.205025,4227.692204,4230.769127,4222.563999
111,0,4210.769128,4209.230666,4246.153742,4208.717846,4165.128103,4202.051179,4210.769128,4234.871691,4223.58964,4210.256307,4221.538358,4225.128102,4221.538358,4220.512717
112,0,4208.205025,4210.256307,4243.58964,4202.564,4187.692205,4199.487077,4209.230666,4232.307589,4216.410153,4205.128102,4218.461435,4223.07682,4218.974256,4221.025538
113,0,4205.640923,4207.179384,4242.563999,4203.589641,4191.794769,4197.435795,4212.82041,4232.307589,4206.153743,4194.871692,4211.794769,4213.33323,4212.82041,4214.871692
114,0,4209.230666,4210.769128,4242.051178,4208.205025,4188.717846,4196.922974,4207.692205,4229.230666,4206.153743,4178.974257,4211.281948,4210.769128,4209.743487,4209.230666
115,0,4214.358871,4215.897333,4241.538358,4203.589641,4203.07682,4198.974256,4201.025538,4226.666563,4211.794769,4177.435795,4219.999897,4215.897333,4214.358871,4217.435794
116,0,4211.281948,4210.769128,4241.538358,4198.974256,4198.974256,4198.461436,4204.615282,4226.666563,4214.358871,4194.871692,4222.051179,4213.33323,4213.846051,4224.615281
117,0,4209.230666,4207.692205,4243.076819,4204.615282,4173.846052,4201.025538,4210.256307,4227.179384,4213.846051,4204.615282,4219.999897,4210.769128,4211.794769,4222.563999
118,0,4210.769128,4207.692205,4238.461435,4206.666564,4179.999898,4203.07682,4207.179384,4223.07682,4209.230666,4196.922974,4220.512717,4211.281948,4211.281948,4221.025538
119,0,4208.717846,4209.743487,4226.666563,4201.538359,4197.948615,4200.512718,4203.07682,4219.999897,4207.692205,4194.358872,4218.461435,4208.205025,4209.230666,4217.435794
120,0,4203.589641,4212.82041,4222.563999,4204.102461,4192.82041,4199.999897,4204.102461,4223.58964,4211.794769,4198.461436,4216.410153,4206.153743,4207.692205,4210.769128
121,0,4204.615282,4218.974256,4229.230666,4211.794769,4197.435795,4210.769128,4209.743487,4230.256307,4213.846051,4197.948615,4218.974256,4208.205025,4209.743487,4210.769128
122,0,4203.589641,4215.384512,4225.128102,4207.692205,4203.589641,4209.743487,4209.230666,4226.666563,4204.615282,4188.205026,4211.281948,4204.615282,4205.640923,4208.205025
123,0,4202.051179,4212.82041,4218.974256,4204.615282,4199.487077,4201.538359,4205.640923,4223.07682,4207.179384,4187.179385,4208.205025,4205.128102,4206.153743,4207.179384
124,0,4208.205025,4218.461435,4228.205025,4211.794769,4199.487077,4204.102461,4209.743487,4232.820409,4216.922974,4203.07682,4217.948615,4212.307589,4212.82041,4215.897333
125,0,4211.794769,4221.025538,4237.948614,4214.358871,4201.025538,4209.743487,4218.461435,4239.999896,4214.871692,4212.307589,4224.615281,4216.410153,4214.358871,4223.58964
126,0,4209.230666,4219.487076,4241.025537,4207.179384,4192.82041,4208.205025,4219.999897,4237.435794,4219.487076,4210.256307,4226.153743,4221.538358,4216.410153,4227.692204
127,0,4216.922974,4221.025538,4244.615281,4209.230666,4199.999897,4209.230666,4222.563999,4242.051178,4239.487076,4223.07682,4230.256307,4228.205025,4227.692204,4232.307589
128,0,4225.128102,4223.07682,4243.076819,4215.897333,4217.435794,4215.384512,4226.666563,4248.717845,4245.128101,4231.794768,4231.794768,4229.230666,4231.281948,4229.743486
0,0,4223.07682,4219.487076,4237.435794,4214.358871,4205.128102,4214.871692,4219.487076,4242.051178,4228.717845,4217.948615,4228.205025,4225.640922,4222.563999,4226.153743
1,0,4221.538358,4219.999897,4237.435794,4212.307589,4192.82041,4207.692205,4212.307589,4235.384512,4221.025538,4212.82041,4228.717845,4224.102461,4223.58964,4231.794768
2,0,4223.58964,4231.281948,4240.512717,4216.922974,4204.615282,4211.281948,4223.07682,4242.563999,4232.820409,4219.487076,4233.84605,4228.717845,4231.794768,4238.461435
3,0,4222.563999,4237.948614,4235.897332,4222.051179,4217.435794,4215.897333,4228.205025,4244.10246,4233.84605,4210.256307,4231.281948,4230.769127,4228.717845,4234.871691
4,0,4225.128102,4241.025537,4234.871691,4226.666563,4228.205025,4215.384512,4222.563999,4241.538358,4224.615281,4212.307589,4228.717845,4227.692204,4226.666563,4232.307589
5,0,4229.743486,4244.10246,4241.538358,4228.205025,4234.358871,4222.563999,4225.640922,4245.128101,4228.205025,4230.769127,4235.384512,4227.179384,4234.871691,4236.410153
6,0,4228.717845,4243.076819,4245.128101,4228.205025,4224.615281,4225.640922,4230.256307,4246.153742,4236.922973,4230.256307,4242.051178,4232.820409,4238.974255,4241.025537
7,0,4226.666563,4238.974255,4241.025537,4227.179384,4213.33323,4218.974256,4223.58964,4244.10246,4236.410153,4219.999897,4238.461435,4231.794768,4233.33323,4237.435794
8,0,4226.153743,4231.794768,4238.974255,4224.615281,4216.922974,4219.487076,4222.051179,4247.179383,4235.897332,4216.922974,4236.410153,4225.128102,4231.281948,4229.743486
9,0,4227.179384,4224.102461,4245.640922,4223.07682,4228.205025,4222.051179,4227.179384,4250.256306,4240.512717,4210.769128,4242.051178,4228.205025,4236.410153,4229.743486
10,0,4221.025538,4211.794769,4237.435794,4215.384512,4214.871692,4211.281948,4222.051179,4242.563999,4235.897332,4196.410154,4236.410153,4226.666563,4231.281948,4226.153743
11,0,4209.743487,4203.589641,4217.948615,4209.743487,4194.871692,4208.717846,4217.435794,4239.487076,4222.563999,4188.205026,4225.640922,4217.948615,4217.948615,4215.897333
12,0,4208.717846,4207.179384,4217.948615,4215.384512,4213.33323,4219.487076,4224.615281,4241.538358,4215.384512,4191.794769,4231.281948,4216.922974,4219.999897,4213.846051
13,0,4216.410153,4215.897333,4228.717845,4219.487076,4237.948614,4221.025538,4228.717845,4242.051178,4222.563999,4201.025538,4234.871691,4221.025538,4228.717845,4221.538358
14,0,4216.922974,4213.33323,4223.07682,4207.692205,4226.666563,4208.717846,4219.487076,4240.512717,4229.743486,4202.051179,4223.07682,4214.871692,4222.051179,4220.512717
15,0,4218.461435,4209.230666,4219.487076,4205.640923,4221.025538,4208.717846,4218.974256,4241.025537,4230.256307,4205.128102,4228.205025,4216.410153,4219.999897,4218.974256
16,0,4221.538358,4212.82041,4223.58964,4216.410153,4230.769127,4221.538358,4228.717845,4242.563999,4231.794768,4208.717846,4242.051178,4225.640922,4230.256307,4224.615281
17,0,4214.871692,4214.358871,4218.461435,4214.358871,4223.07682,4221.025538,4228.717845,4242.051178,4232.307589,4205.640923,4233.84605,4221.538358,4228.717845,4222.051179
18,0,4214.358871,4214.358871,4215.897333,4209.743487,4216.410153,4214.358871,4223.07682,4245.128101,4230.256307,4214.871692,4231.281948,4220.512717,4221.025538,4219.487076
19,0,4221.538358,4214.358871,4216.922974,4208.717846,4221.025538,4214.358871,4219.487076,4247.179383,4228.717845,4218.461435,4238.974255,4226.153743,4221.025538,4219.487076
20,0,4212.82041,4206.153743,4205.640923,4198.461436,4200.512718,4206.153743,4211.794769,4239.487076,4222.563999,4197.948615,4228.717845,4216.410153,4211.281948,4211.794769
21,0,4203.07682,4204.615282,4202.564,4200.512718,4191.281949,4202.564,4210.256307,4233.84605,4214.358871,4195.897333,4220.512717,4208.205025,4204.615282,4209.743487
22,0,4207.692205,4209.743487,4212.307589,4211.794769,4219.487076,4209.230666,4216.410153,4236.922973,4212.307589,4212.82041,4227.179384,4216.922974,4214.871692,4215.897333
23,0,4211.281948,4208.205025,4211.281948,4205.640923,4235.384512,4207.692205,4213.846051,4234.358871,4212.82041,4212.307589,4229.230666,4218.461435,4218.974256,4216.410153
24,0,4209.230666,4207.692205,4208.205025,4197.948615,4232.307589,4207.179384,4212.82041,4230.256307,4216.922974,4210.769128,4227.179384,4212.307589,4212.82041,4213.846051
25,0,4209.230666,4213.33323,4209.743487,4203.589641,4233.84605,4216.410153,4219.999897,4235.384512,4220.512717,4218.974256,4226.153743,4212.307589,4210.769128,4213.33323
26,0,4207.179384,4207.179384,4204.615282,4205.640923,4224.615281,4214.358871,4219.999897,4237.435794,4216.922974,4212.82041,4222.051179,4211.794769,4209.743487,4210.769128
27,0,4204.102461,4201.025538,4201.538359,4203.07682,4209.230666,4204.615282,4214.358871,4232.307589,4215.897333,4202.051179,4217.948615,4206.666564,4203.589641,4208.205025
28,0,4209.743487,4217.435794,4207.692205,4210.256307,4220.512717,4209.230666,4218.461435,4236.410153,4226.666563,4207.692205,4224.102461,4209.230666,4208.717846,4211.281948
29,0,4214.871692,4229.743486,4209.230666,4218.461435,4240.512717,4215.384512,4217.948615,4241.025537,4225.640922,4214.358871,4229.230666,4214.871692,4217.435794,4213.33323
30,0,4215.384512,4221.025538,4207.692205,4219.487076,4250.769127,4211.794769,4212.82041,4237.435794,4214.358871,4217.435794,4230.256307,4216.410153,4216.410153,4217.435794
31,0,4214.871692,4216.922974,4207.179384,4216.922974,4253.333229,4212.82041,4218.461435,4239.999896,4219.999897,4225.128102,4234.358871,4218.461435,4218.974256,4222.051179
32,0,4213.846051,4223.58964,4208.205025,4217.948615,4240.512717,4220.512717,4226.153743,4245.128101,4230.256307,4231.281948,4233.33323,4222.563999,4222.563999,4217.435794
33,0,4214.358871,4223.58964,4209.743487,4222.051179,4223.58964,4221.025538,4224.615281,4241.538358,4226.666563,4222.563999,4225.640922,4221.025538,4213.846051,4210.256307
34,0,4215.384512,4218.974256,4208.717846,4219.999897,4229.230666,4212.82041,4218.974256,4237.948614,4222.563999,4213.846051,4223.58964,4214.358871,4207.179384,4209.230666
35,0,4212.82041,4217.948615,4203.589641,4213.846051,4244.615281,4207.179384,4214.871692,4237.948614,4224.102461,4218.461435,4229.743486,4213.846051,4210.769128,4216.410153
36,0,4210.769128,4220.512717,4206.153743,4214.871692,4239.487076,4208.205025,4214.358871,4236.922973,4225.640922,4225.128102,4229.743486,4217.435794,4209.743487,4219.487076
37,0,4213.846051,4224.615281,4208.717846,4216.410153,4219.487076,4207.692205,4214.871692,4233.33323,4224.102461,4217.435794,4225.640922,4216.922974,4206.666564,4215.897333
38,0,4224.102461,4232.820409,4209.743487,4229.230666,4232.820409,4215.897333,4222.563999,4235.897332,4225.640922,4221.538358,4233.33323,4224.102461,4215.384512,4220.512717
39,0,4227.179384,4233.84605,4210.769128,4236.922973,4269.230665,4227.692204,4231.794768,4240.512717,4225.640922,4237.435794,4236.410153,4229.230666,4217.948615,4222.563999
40,0,4219.487076,4226.666563,4202.564,4218.461435,4275.897331,4225.640922,4231.281948,4238.974255,4223.58964,4232.307589,4226.666563,4216.922974,4208.717846,4211.794769
41,0,4216.410153,4225.640922,4196.922974,4207.179384,4258.461434,4218.461435,4224.615281,4236.410153,4226.666563,4223.58964,4226.666563,4214.358871,4207.692205,4206.666564
42,0,4219.999897,4226.666563,4202.051179,4219.999897,4250.256306,4219.487076,4224.102461,4239.487076,4234.358871,4235.384512,4237.948614,4225.640922,4216.410153,4213.846051
43,0,4212.307589,4218.461435,4197.948615,4218.461435,4235.897332,4220.512717,4225.128102,4237.435794,4232.820409,4235.897332,4230.256307,4218.974256,4212.307589,4211.794769
44,0,4203.07682,4208.205025,4185.640923,4204.102461,4213.33323,4214.358871,4220.512717,4228.717845,4219.487076,4218.461435,4213.33323,4200.512718,4198.461436,4197.435795
45,0,4211.281948,4212.307589,4190.256308,4211.281948,4217.948615,4215.897333,4221.538358,4228.205025,4215.897333,4218.461435,4217.948615,4204.102461,4201.025538,4194.871692
46,0,4215.384512,4218.461435,4198.461436,4213.33323,4237.435794,4216.922974,4221.538358,4228.717845,4214.358871,4224.615281,4227.692204,4216.410153,4208.205025,4206.153743
47,0,4211.281948,4215.384512,4197.435795,4203.07682,4238.974255,4212.307589,4215.897333,4225.128102,4212.307589,4226.153743,4224.615281,4213.33323,4208.205025,4210.769128
48,0,4213.33323,4210.769128,4197.435795,4205.128102,4238.974255,4210.769128,4214.871692,4224.615281,4216.922974,4227.692204,4219.487076,4207.179384,4209.743487,4206.153743
49,0,4215.384512,4213.846051,4198.974256,4207.179384,4236.410153,4212.82041,4216.410153,4227.692204,4220.512717,4220.512717,4221.025538,4211.281948,4214.871692,4206.153743
50,0,4209.230666,4210.256307,4198.461436,4197.948615,4207.179384,4207.179384,4207.692205,4225.128102,4213.846051,4207.179384,4222.051179,4214.871692,4216.922974,4209.230666
51,0,4208.205025,4208.205025,4204.615282,4197.948615,4201.025538,4206.666564,4207.692205,4223.07682,4213.846051,4209.743487,4223.07682,4212.82041,4222.563999,4209.743487
52,0,4214.358871,4214.358871,4212.307589,4205.128102,4229.230666,4217.435794,4220.512717,4225.128102,4220.512717,4215.384512,4221.025538,4209.743487,4226.153743,4212.82041
53,0,4222.051179,4220.512717,4221.025538,4212.82041,4226.666563,4218.974256,4220.512717,4228.205025,4215.384512,4207.692205,4219.487076,4216.410153,4223.58964,4219.999897
54,0,4227.692204,4223.07682,4232.820409,4219.487076,4208.717846,4216.410153,4216.922974,4234.358871,4216.922974,4210.769128,4227.179384,4227.692204,4229.743486,4227.179384
55,0,4224.102461,4222.051179,4234.871691,4210.769128,4217.435794,4219.487076,4220.512717,4234.871691,4230.256307,4223.07682,4229.743486,4223.58964,4232.820409,4226.666563
56,0,4215.897333,4214.871692,4231.281948,4196.922974,4213.846051,4212.82041,4212.82041,4225.640922,4224.102461,4205.128102,4217.948615,4208.717846,4222.563999,4215.384512
57,0,4221.025538,4217.435794,4238.461435,4203.589641,4199.999897,4207.692205,4205.128102,4224.102461,4212.82041,4184.102462,4217.948615,4213.846051,4222.563999,4214.871692
58,0,4229.743486,4221.025538,4243.58964,4216.410153,4207.179384,4214.358871,4213.33323,4229.743486,4221.025538,4198.974256,4227.692204,4225.640922,4230.769127,4223.58964
59,0,4225.640922,4211.794769,4242.563999,4215.897333,4212.82041,4217.435794,4219.999897,4229.230666,4225.128102,4206.666564,4221.538358,4216.922974,4227.179384,4219.487076
60,0,4223.07682,4213.33323,4250.769127,4215.897333,4204.615282,4212.82041,4219.999897,4225.640922,4215.384512,4188.717846,4216.410153,4212.82041,4222.563999,4211.281948
61,0,4226.153743,4222.563999,4258.461434,4218.461435,4195.384513,4209.743487,4216.410153,4227.692204,4210.769128,4185.128103,4221.025538,4223.58964,4225.640922,4211.794769
62,0,4227.179384,4219.487076,4257.435793,4220.512717,4207.179384,4211.794769,4213.33323,4229.743486,4215.897333,4200.512718,4219.999897,4228.717845,4226.666563,4214.358871
63,0,4221.025538,4212.82041,4252.307588,4215.897333,4222.051179,4221.538358,4225.128102,4228.717845,4218.461435,4199.487077,4212.307589,4219.487076,4223.07682,4205.128102
64,0,4214.358871,4211.794769,4242.563999,4204.102461,4200.512718,4227.179384,4229.230666,4224.102461,4214.871692,4179.999898,4207.692205,4209.743487,4217.435794,4191.794769
65,0,4221.538358,4217.948615,4244.615281,4203.589641,4189.743487,4218.974256,4210.256307,4222.051179,4214.871692,4175.384513,4213.33323,4214.358871,4218.974256,4199.487077
66,0,4231.281948,4225.640922,4258.461434,4213.846051,4217.435794,4210.256307,4201.025538,4223.07682,4218.974256,4189.230667,4224.102461,4228.717845,4229.743486,4217.435794
67,0,4225.640922,4219.487076,4252.307588,4211.281948,4208.717846,4210.256307,4210.256307,4220.512717,4216.410153,4186.666564,4224.102461,4229.743486,4231.281948,4214.358871
68,0,4219.999897,4212.307589,4243.076819,4205.128102,4166.666565,4208.717846,4208.205025,4219.999897,4207.692205,4173.333231,4214.871692,4222.563999,4221.025538,4201.538359
69,0,4226.153743,4217.948615,4249.230665,4212.82041,4179.487077,4205.640923,4198.974256,4221.025538,4202.051179,4184.102462,4214.358871,4226.666563,4218.461435,4204.102461
70,0,4225.128102,4216.410153,4249.743486,4210.769128,4211.794769,4208.205025,4204.102461,4222.563999,4208.717846,4200.512718,4217.948615,4231.281948,4226.153743,4210.769128
71,0,4214.871692,4205.128102,4240.512717,4190.769128,4196.922974,4207.692205,4207.179384,4221.538358,4207.179384,4182.564,4209.743487,4222.051179,4224.615281,4205.640923
72,0,4216.922974,4208.205025,4240.512717,4187.179385,4185.640923,4204.102461,4199.487077,4217.948615,4196.410154,4163.076821,4205.640923,4219.999897,4217.948615,4203.589641
73,0,4225.128102,4216.410153,4244.615281,4199.999897,4193.333231,4205.128102,4196.410154,4216.410153,4196.922974,4173.333231,4214.358871,4228.205025,4220.512717,4211.794769
74,0,4226.666563,4217.435794,4249.743486,4211.281948,4199.999897,4209.230666,4203.07682,4221.025538,4214.358871,4194.871692,4223.58964,4231.794768,4233.33323,4219.999897
75,0,4226.666563,4219.999897,4255.384511,4212.307589,4203.07682,4211.794769,4208.717846,4228.205025,4222.563999,4206.666564,4225.640922,4231.281948,4241.538358,4217.948615
76,0,4227.692204,4221.538358,4252.307588,4210.256307,4189.743487,4213.33323,4207.692205,4230.256307,4216.922974,4206.666564,4221.025538,4232.820409,4235.897332,4211.794769
77,0,4222.051179,4213.33323,4242.563999,4204.615282,4170.256308,4212.307589,4207.692205,4222.051179,4211.281948,4196.410154,4214.358871,4227.179384,4227.179384,4208.717846
78,0,4219.487076,4212.307589,4243.076819,4206.153743,4183.076821,4212.82041,4210.256307,4213.33323,4209.743487,4186.666564,4218.461435,4225.128102,4230.769127,4211.281948
79,0,4225.640922,4222.563999,4249.743486,4215.897333,4209.230666,4215.384512,4212.307589,4214.358871,4214.871692,4188.717846,4223.58964,4231.794768,4235.897332,4215.384512
80,0,4219.999897,4215.897333,4244.10246,4209.230666,4207.179384,4211.794769,4211.281948,4215.897333,4209.743487,4187.179385,4210.769128,4224.102461,4221.025538,4205.640923
81,0,4206.666564,4201.025538,4230.769127,4190.769128,4203.07682,4208.205025,4205.128102,4211.281948,4195.897333,4177.948616,4197.948615,4208.717846,4207.692205,4194.871692
82,0,4201.538359,4199.999897,4225.128102,4186.153744,4201.538359,4205.128102,4195.384513,4208.205025,4197.948615,4179.999898,4203.07682,4206.666564,4215.384512,4199.487077
83,0,4202.564,4206.153743,4222.563999,4193.846051,4184.102462,4201.538359,4191.794769,4207.179384,4208.717846,4189.230667,4210.256307,4211.794769,4224.615281,4203.07682
84,0,4205.640923,4210.769128,4220.512717,4198.461436,4176.922975,4204.615282,4201.025538,4210.769128,4208.717846,4195.897333,4210.256307,4215.897333,4222.051179,4199.999897
85,0,4212.82041,4217.435794,4229.743486,4205.640923,4192.30759,4214.358871,4212.307589,4221.025538,4211.281948,4202.564,4215.384512,4222.051179,4225.128102,4205.128102
86,0,4212.82041,4216.410153,4234.358871,4206.666564,4202.564,4209.743487,4205.640923,4218.461435,4214.871692,4202.564,4218.974256,4222.051179,4230.769127,4209.230666
87,0,4206.666564,4212.307589,4228.205025,4200.512718,4205.640923,4202.051179,4197.435795,4208.205025,4211.794769,4196.410154,4217.435794,4219.487076,4227.692204,4205.640923
88,0,4209.230666,4217.435794,4225.128102,4204.102461,4206.153743,4201.538359,4198.974256,4207.692205,4210.256307,4196.410154,4214.871692,4221.538358,4224.102461,4205.640923
89,0,4211.794769,4219.487076,4224.615281,4208.717846,4192.82041,4203.07682,4199.999897,4210.256307,4211.794769,4195.384513,4213.846051,4217.948615,4227.179384,4208.717846
90,0,4201.025538,4206.666564,4216.922974,4202.051179,4181.025539,4201.538359,4193.333231,4205.640923,4202.051179,4178.974257,4205.640923,4208.717846,4220.512717,4204.615282
91,0,4198.461436,4201.025538,4215.384512,4201.025538,4184.615282,4198.974256,4194.871692,4202.564,4194.358872,4173.333231,4197.435795,4206.153743,4210.769128,4196.922974
92,0,4206.153743,4204.615282,4222.051179,4200.512718,4183.076821,4202.564,4204.615282,4209.743487,4199.487077,4184.615282,4199.487077,4205.128102,4213.33323,4191.794769
93,0,4204.615282,4204.615282,4219.487076,4196.410154,4176.922975,4202.564,4204.615282,4212.307589,4203.589641,4193.846051,4203.589641,4203.07682,4220.512717,4197.435795
94,0,4198.461436,4203.07682,4214.358871,4199.999897,4181.025539,4199.487077,4200.512718,4208.717846,4203.07682,4197.435795,4203.07682,4203.07682,4221.025538,4205.640923
95,0,4204.102461,4209.230666,4215.897333,4205.640923,4198.461436,4202.564,4207.692205,4211.281948,4209.230666,4200.512718,4207.692205,4207.692205,4222.051179,4203.589641
96,0,4207.692205,4213.846051,4216.922974,4205.640923,4214.358871,4208.205025,4212.82041,4214.358871,4213.33323,4199.487077,4212.82041,4210.769128,4225.128102,4199.487077
97,0,4209.230666,4215.384512,4215.384512,4205.640923,4212.307589,4207.179384,4202.564,4212.307589,4211.794769,4199.999897,4212.307589,4211.794769,4226.153743,4206.666564
98,0,4217.435794,4219.487076,4218.974256,4212.307589,4210.256307,4206.666564,4198.461436,4210.769128,4212.82041,4205.640923,4213.846051,4214.358871,4230.256307,4215.384512
99,0,4216.410153,4221.025538,4219.999897,4219.999897,4223.58964,4210.256307,4205.640923,4214.358871,4211.794769,4201.025538,4217.948615,4212.82041,4231.794768,4210.769128
100,0,4211.281948,4222.563999,4217.435794,4221.538358,4215.384512,4208.717846,4208.717846,4221.538358,4210.256307,4198.974256,4218.461435,4211.281948,4231.794768,4207.179384
101,0,4215.384512,4226.666563,4223.58964,4214.358871,4199.487077,4210.256307,4212.82041,4227.179384,4219.487076,4211.281948,4222.563999,4218.974256,4235.384512,4215.384512
102,0,4217.435794,4223.58964,4224.615281,4208.717846,4211.281948,4213.33323,4217.435794,4225.640922,4230.256307,4218.974256,4224.615281,4223.58964,4236.922973,4215.384512
103,0,4204.615282,4211.281948,4211.281948,4205.128102,4217.435794,4210.256307,4211.794769,4217.948615,4221.025538,4204.615282,4213.33323,4212.307589,4224.615281,4199.487077
104,0,4197.948615,4209.743487,4204.615282,4199.487077,4215.897333,4208.205025,4206.153743,4214.358871,4206.666564,4187.692205,4204.615282,4202.051179,4214.358871,4191.281949
105,0,4204.102461,4215.897333,4206.666564,4198.974256,4217.948615,4206.153743,4207.692205,4211.794769,4208.717846,4188.717846,4206.153743,4202.564,4215.897333,4197.948615
106,0,4207.179384,4217.435794,4204.615282,4205.640923,4208.205025,4206.666564,4209.743487,4210.256307,4222.051179,4205.128102,4210.769128,4207.179384,4223.58964,4204.102461
107,0,4209.743487,4223.58964,4208.717846,4212.82041,4212.82041,4206.153743,4205.640923,4212.82041,4229.743486,4214.871692,4218.974256,4212.82041,4229.743486,4205.640923
108,0,4218.974256,4234.871691,4220.512717,4220.512717,4237.435794,4210.256307,4208.717846,4221.025538,4229.743486,4210.256307,4228.717845,4223.07682,4234.358871,4211.281948
109,0,4221.025538,4231.794768,4216.410153,4223.58964,4215.384512,4218.461435,4217.948615,4226.666563,4226.153743,4204.615282,4226.153743,4225.128102,4232.307589,4210.769128
110,0,4214.358871,4219.999897,4208.717846,4214.358871,4188.717846,4213.846051,4215.384512,4217.435794,4215.897333,4210.256307,4220.512717,4217.948615,4228.205025,4207.179384
111,0,4210.769128,4222.051179,4207.179384,4202.564,4222.051179,4199.999897,4202.564,4205.640923,4207.692205,4210.769128,4223.07682,4216.410153,4229.230666,4208.717846
112,0,4215.384512,4232.820409,4206.153743,4204.102461,4251.794768,4202.564,4201.025538,4211.281948,4217.435794,4206.153743,4225.640922,4222.051179,4235.384512,4209.230666
113,0,4223.07682,4239.999896,4213.846051,4217.948615,4239.487076,4215.897333,4208.205025,4222.563999,4231.281948,4213.33323,4228.717845,4227.179384,4241.538358,4212.307589
114,0,4224.615281,4242.563999,4218.974256,4226.153743,4223.58964,4214.871692,4209.743487,4223.07682,4229.230666,4221.025538,4231.281948,4229.230666,4236.922973,4216.922974
115,0,4220.512717,4244.10246,4212.82041,4227.692204,4229.230666,4212.82041,4211.281948,4222.051179,4228.205025,4216.922974,4228.205025,4225.128102,4228.717845,4212.307589
116,0,4224.615281,4246.666563,4211.281948,4230.769127,4253.333229,4218.974256,4215.384512,4229.230666,4234.358871,4217.435794,4229.230666,4222.563999,4234.871691,4208.717846
117,0,4225.640922,4237.948614,4212.307589,4222.563999,4254.871691,4217.435794,4216.410153,4226.666563,4233.33323,4227.179384,4232.820409,4226.666563,4237.435794,4214.358871
118,0,4211.281948,4222.051179,4199.487077,4205.128102,4204.615282,4210.769128,4212.82041,4211.281948,4218.461435,4223.58964,4226.153743,4223.07682,4226.153743,4212.82041
119,0,4204.615282,4216.410153,4189.743487,4197.948615,4186.666564,4206.153743,4205.640923,4204.102461,4202.051179,4209.230666,4217.435794,4211.281948,4215.384512,4205.640923
120,0,4209.230666,4222.563999,4193.846051,4203.07682,4232.820409,4204.102461,4200.512718,4208.717846,4196.922974,4197.948615,4219.487076,4206.666564,4210.769128,4205.128102
121,0,4211.281948,4227.692204,4194.358872,4210.256307,4248.205024,4208.717846,4202.051179,4212.82041,4208.717846,4194.871692,4222.051179,4208.717846,4211.281948,4205.640923
122,0,4207.179384,4220.512717,4190.769128,4209.230666,4219.487076,4209.230666,4199.487077,4212.82041,4218.461435,4199.999897,4221.025538,4210.256307,4216.922974,4207.179384
123,0,4204.615282,4211.794769,4190.769128,4203.07682,4202.051179,4204.102461,4197.948615,4214.871692,4212.307589,4199.999897,4218.974256,4209.743487,4216.922974,4205.640923
124,0,4210.256307,4221.025538,4193.846051,4208.205025,4213.33323,4205.128102,4204.615282,4219.999897,4211.794769,4197.435795,4219.487076,4212.307589,4212.82041,4199.487077
125,0,4224.615281,4242.051178,4199.487077,4223.07682,4238.974255,4207.692205,4207.179384,4222.051179,4216.922974,4209.230666,4229.230666,4223.07682,4224.102461,4211.281948
126,0,4228.205025,4243.58964,4202.564,4223.07682,4242.563999,4206.153743,4203.07682,4214.871692,4213.33323,4217.948615,4237.948614,4228.717845,4236.410153,4226.666563
127,0,4222.051179,4235.384512,4201.538359,4214.871692,4231.794768,4217.435794,4208.205025,4214.871692,4219.487076,4221.538358,4237.948614,4226.153743,4235.897332,4219.999897
128,0,4225.640922,4238.461435,4203.07682,4220.512717,4236.410153,4229.230666,4218.461435,4225.640922,4234.358871,4232.307589,4238.974255,4227.179384,4235.897332,4214.871692
0,0,4232.820409,4246.153742,4207.179384,4230.769127,4228.205025,4222.051179,4219.999897,4228.205025,4234.358871,4239.487076,4243.58964,4231.281948,4237.948614,4222.051179
1,0,4224.615281,4243.076819,4202.051179,4227.692204,4205.640923,4211.794769,4214.871692,4221.025538,4221.538358,4225.128102,4239.487076,4227.179384,4228.717845,4213.846051
2,0,4216.410153,4235.897332,4194.358872,4218.461435,4228.717845,4216.410153,4216.410153,4225.640922,4224.615281,4218.974256,4231.794768,4218.974256,4219.487076,4199.999897
3,0,4215.384512,4234.358871,4192.30759,4218.461435,4258.461434,4222.563999,4222.051179,4234.871691,4233.84605,4225.128102,4227.179384,4211.794769,4216.410153,4201.538359
4,0,4214.871692,4232.307589,4192.82041,4221.538358,4244.615281,4221.025538,4221.025538,4232.820409,4230.256307,4216.410153,4223.07682,4209.230666,4213.33323,4202.564
5,0,4213.33323,4230.769127,4192.30759,4216.922974,4239.487076,4214.871692,4211.794769,4228.717845,4223.07682,4205.128102,4225.640922,4209.230666,4210.769128,4197.948615
6,0,4210.769128,4230.256307,4189.230667,4211.794769,4243.58964,4210.256307,4208.205025,4222.051179,4217.435794,4199.487077,4229.230666,4208.205025,4211.794769,4192.30759
7,0,4210.256307,4230.769127,4185.640923,4211.794769,4227.692204,4211.281948,4210.256307,4213.33323,4209.743487,4196.410154,4225.640922,4205.128102,4210.769128,4190.256308
8,0,4218.461435,4234.358871,4190.256308,4217.948615,4221.538358,4216.410153,4207.179384,4212.82041,4210.256307,4201.538359,4224.102461,4205.640923,4208.717846,4198.461436
9,0,4224.615281,4240.512717,4198.461436,4225.640922,4234.358871,4222.563999,4210.769128,4223.58964,4224.102461,4209.743487,4232.307589,4210.769128,4212.82041,4209.230666
10,0,4218.974256,4236.922973,4195.384513,4221.025538,4246.153742,4222.051179,4218.461435,4227.692204,4224.615281,4215.897333,4233.33323,4210.769128,4220.512717,4207.179384
11,0,4219.999897,4234.358871,4193.333231,4216.922974,4253.84605,4213.33323,4215.384512,4221.538358,4217.435794,4226.666563,4232.820409,4212.307589,4226.153743,4203.589641
12,0,4223.07682,4239.487076,4194.358872,4218.461435,4237.948614,4204.102461,4205.128102,4218.974256,4220.512717,4226.666563,4233.84605,4212.82041,4223.07682,4206.153743
13,0,4214.358871,4234.358871,4190.256308,4214.871692,4218.461435,4206.666564,4211.281948,4222.563999,4227.179384,4214.358871,4229.743486,4207.179384,4221.025538,4204.615282
14,0,4209.230666,4220.512717,4188.717846,4214.871692,4231.281948,4217.948615,4225.640922,4226.666563,4229.230666,4215.384512,4230.256307,4207.179384,4228.205025,4207.692205
15,0,4215.897333,4220.512717,4195.384513,4217.435794,4235.384512,4218.974256,4222.051179,4226.666563,4232.820409,4215.897333,4234.871691,4213.846051,4235.384512,4213.33323
16,0,4213.846051,4222.563999,4191.794769,4204.102461,4198.974256,4210.256307,4207.692205,4217.948615,4221.538358,4194.358872,4225.128102,4203.07682,4226.666563,4203.07682
17,0,4205.128102,4221.538358,4187.179385,4197.435795,4197.435795,4211.794769,4205.128102,4209.230666,4205.640923,4187.179385,4212.307589,4194.871692,4221.025538,4196.410154
18,0,4212.307589,4225.128102,4199.487077,4208.717846,4230.769127,4219.999897,4208.717846,4213.846051,4213.33323,4198.461436,4216.922974,4207.692205,4233.84605,4208.717846
19,0,4221.538358,4228.717845,4211.794769,4212.307589,4232.820409,4218.461435,4206.153743,4222.051179,4229.230666,4204.102461,4223.07682,4213.846051,4238.974255,4216.410153
20,0,4216.922974,4227.179384,4217.435794,4208.717846,4219.487076,4209.743487,4199.999897,4218.461435,4226.153743,4196.410154,4214.871692,4202.051179,4229.743486,4211.794769
21,0,4210.256307,4224.102461,4218.461435,4208.717846,4219.999897,4200.512718,4194.358872,4207.179384,4209.743487,4181.025539,4205.128102,4193.333231,4225.640922,4212.82041
22,0,4208.205025,4212.82041,4214.358871,4197.948615,4200.512718,4196.410154,4192.30759,4199.999897,4198.974256,4176.922975,4201.538359,4191.794769,4224.102461,4205.640923
23,0,4207.179384,4207.179384,4216.410153,4191.281949,4183.076821,4207.179384,4202.051179,4208.205025,4205.128102,4188.205026,4206.666564,4193.846051,4219.999897,4195.384513
24,0,4209.230666,4217.435794,4223.58964,4198.974256,4202.564,4215.897333,4208.717846,4219.999897,4217.435794,4187.179385,4211.794769,4196.922974,4220.512717,4201.025538
25,0,4210.256307,4217.948615,4219.999897,4198.461436,4206.666564,4209.230666,4198.974256,4215.897333,4218.974256,4175.897334,4207.692205,4191.794769,4223.07682,4208.717846
26,0,4212.82041,4214.358871,4218.974256,4197.948615,4193.333231,4205.128102,4191.281949,4214.871692,4215.897333,4184.102462,4205.128102,4196.410154,4226.153743,4212.307589
27,0,4218.461435,4219.999897,4226.153743,4206.153743,4206.153743,4210.769128,4195.897333,4225.128102,4218.974256,4190.256308,4208.205025,4204.102461,4226.153743,4214.358871
28,0,4218.974256,4218.461435,4225.128102,4201.538359,4214.871692,4211.281948,4197.435795,4226.666563,4216.410153,4173.333231,4205.128102,4198.974256,4218.461435,4210.256307
29,0,4214.871692,4212.307589,4219.487076,4184.615282,4201.538359,4204.615282,4193.846051,4218.461435,4204.102461,4162.564001,4200.512718,4195.897333,4215.384512,4210.256307
30,0,4219.487076,4225.128102,4227.692204,4194.358872,4201.025538,4208.205025,4203.07682,4221.538358,4206.666564,4180.512718,4206.666564,4203.07682,4224.615281,4221.025538
31,0,4225.640922,4231.794768,4236.922973,4209.230666,4191.794769,4214.871692,4212.307589,4224.102461,4218.974256,4191.281949,4209.743487,4204.102461,4227.179384,4218.974256
32,0,4223.58964,4217.948615,4232.820409,4201.538359,4175.384513,4211.794769,4206.666564,4214.358871,4214.871692,4181.025539,4202.564,4201.538359,4222.563999,4210.769128
33,0,4222.051179,4210.769128,4229.743486,4194.871692,4186.153744,4203.07682,4199.999897,4211.281948,4207.179384,4173.846052,4204.615282,4205.640923,4219.999897,4216.922974
34,0,4228.717845,4217.948615,4239.999896,4199.999897,4197.948615,4207.692205,4204.615282,4222.051179,4221.538358,4183.589641,4219.999897,4213.846051,4228.717845,4228.205025
35,0,4229.230666,4216.922974,4243.076819,4201.025538,4196.410154,4217.435794,4210.256307,4229.743486,4233.33323,4190.769128,4225.640922,4219.487076,4238.461435,4229.743486
36,0,4225.640922,4217.948615,4236.410153,4204.615282,4208.717846,4219.999897,4211.794769,4227.692204,4229.230666,4190.769128,4222.563999,4220.512717,4237.435794,4225.128102
37,0,4231.281948,4233.33323,4236.410153,4216.410153,4217.435794,4219.487076,4210.769128,4227.692204,4232.307589,4190.769128,4223.07682,4220.512717,4234.358871,4227.179384
38,0,4235.897332,4233.84605,4235.897332,4221.538358,4209.230666,4216.922974,4208.717846,4226.666563,4231.281948,4188.717846,4223.58964,4216.410153,4237.435794,4232.820409
39,0,4227.692204,4214.358871,4226.153743,4208.717846,4208.205025,4209.230666,4202.051179,4215.897333,4211.281948,4181.025539,4214.358871,4202.564,4227.692204,4224.102461
40,0,4214.358871,4201.025538,4209.230666,4186.666564,4189.230667,4203.07682,4196.410154,4209.743487,4195.897333,4170.769129,4200.512718,4185.640923,4207.179384,4208.205025
41,0,4209.230666,4197.948615,4195.897333,4177.435795,4145.640924,4197.435795,4194.358872,4210.256307,4195.384513,4163.589642,4197.435795,4182.05118,4202.564,4203.07682
42,0,4215.897333,4201.538359,4197.948615,4185.640923,4147.692206,4192.30759,4192.30759,4212.307589,4204.102461,4168.717847,4203.07682,4188.717846,4210.256307,4207.179384
43,0,4225.128102,4212.82041,4212.82041,4195.384513,4196.410154,4195.384513,4194.358872,4218.974256,4217.435794,4182.05118,4212.82041,4198.461436,4217.948615,4216.922974
44,0,4226.153743,4221.025538,4221.025538,4199.487077,4214.871692,4206.666564,4205.128102,4224.615281,4223.07682,4188.717846,4218.461435,4208.717846,4222.051179,4225.640922
45,0,4223.58964,4213.846051,4215.897333,4198.461436,4200.512718,4213.846051,4213.33323,4219.487076,4216.410153,4182.05118,4214.871692,4209.230666,4215.897333,4222.051179
46,0,4219.487076,4203.589641,4206.666564,4189.230667,4195.897333,4206.153743,4203.07682,4209.743487,4201.538359,4167.179385,4201.538359,4196.922974,4204.102461,4211.281948
47,0,4213.846051,4201.538359,4202.564,4183.076821,4191.281949,4199.487077,4194.871692,4210.769128,4194.358872,4162.05118,4193.846051,4190.256308,4197.435795,4206.153743
48,0,4215.384512,4203.589641,4202.051179,4192.30759,4183.589641,4205.128102,4199.999897,4215.384512,4200.512718,4163.076821,4198.461436,4191.794769,4198.974256,4205.128102
49,0,4223.58964,4209.230666,4206.666564,4204.615282,4181.025539,4211.281948,4210.256307,4218.974256,4210.256307,4172.30759,4203.589641,4197.435795,4205.128102,4209.230666
50,0,4224.102461,4212.82041,4210.769128,4197.948615,4169.743488,4207.692205,4211.794769,4221.025538,4215.384512,4183.076821,4205.128102,4203.589641,4208.205025,4210.769128
51,0,4221.538358,4210.256307,4204.615282,4188.717846,4178.461436,4199.999897,4202.051179,4219.487076,4214.358871,4174.871693,4205.640923,4200.512718,4208.717846,4205.640923
52,0,4222.563999,4212.307589,4196.410154,4191.794769,4206.153743,4198.974256,4196.410154,4219.487076,4208.717846,4164.615283,4208.717846,4193.333231,4209.230666,4207.179384
53,0,4219.487076,4217.948615,4198.974256,4192.82041,4203.07682,4199.999897,4196.410154,4216.410153,4202.564,4174.358872,4208.717846,4193.846051,4209.230666,4212.307589
54,0,4207.179384,4206.666564,4193.846051,4183.076821,4181.538359,4195.897333,4192.82041,4208.205025,4197.435795,4175.897334,4195.897333,4189.230667,4203.07682,4203.589641
55,0,4203.589641,4200.512718,4185.128103,4185.128103,4192.30759,4195.897333,4192.30759,4213.846051,4205.128102,4166.666565,4194.358872,4185.640923,4204.615282,4199.487077
56,0,4211.281948,4214.871692,4191.281949,4193.846051,4204.615282,4204.102461,4198.974256,4218.974256,4219.487076,4172.820411,4203.589641,4191.281949,4208.717846,4208.717846
57,0,4216.410153,4221.538358,4201.538359,4195.897333,4186.153744,4208.717846,4205.128102,4211.794769,4221.538358,4182.564,4204.102461,4195.384513,4206.666564,4211.281948
58,0,4223.07682,4218.461435,4207.692205,4201.538359,4183.076821,4208.717846,4208.717846,4211.794769,4216.922974,4184.615282,4208.205025,4202.564,4211.281948,4215.897333
59,0,4226.666563,4215.384512,4207.179384,4203.07682,4193.333231,4209.230666,4210.256307,4218.974256,4218.974256,4189.743487,4218.974256,4210.256307,4217.948615,4224.615281
60,0,4222.051179,4207.692205,4199.487077,4196.410154,4189.743487,4202.564,4204.102461,4217.435794,4214.358871,4184.615282,4212.82041,4204.102461,4208.205025,4215.384512
61,0,4221.025538,4207.179384,4202.051179,4197.948615,4194.871692,4193.333231,4198.461436,4217.948615,4208.717846,4175.384513,4203.589641,4200.512718,4200.512718,4203.07682
62,0,4223.58964,4216.922974,4211.794769,4203.07682,4212.82041,4201.025538,4203.07682,4224.615281,4216.410153,4177.435795,4209.230666,4206.153743,4207.179384,4211.794769
63,0,4221.025538,4221.025538,4209.743487,4199.999897,4213.33323,4213.846051,4210.256307,4223.58964,4218.461435,4177.435795,4211.794769,4205.640923,4209.230666,4219.487076
64,0,4220.512717,4226.666563,4206.153743,4204.615282,4215.384512,4212.307589,4209.743487,4218.461435,4209.230666,4177.435795,4212.307589,4204.102461,4209.230666,4215.897333
65,0,4222.563999,4225.128102,4202.051179,4206.666564,4208.717846,4208.205025,4207.692205,4218.461435,4208.205025,4179.999898,4216.410153,4204.615282,4210.256307,4212.307589
66,0,4221.025538,4215.897333,4197.948615,4198.974256,4185.128103,4213.33323,4207.692205,4219.999897,4214.871692,4183.076821,4216.922974,4203.589641,4210.769128,4214.871692
67,0,4224.102461,4223.58964,4204.615282,4203.589641,4194.871692,4209.743487,4203.07682,4215.897333,4216.922974,4190.256308,4219.999897,4206.666564,4217.948615,4222.563999
68,0,4233.84605,4236.410153,4216.922974,4216.410153,4225.128102,4206.666564,4203.07682,4216.410153,4222.051179,4199.487077,4228.205025,4215.897333,4228.717845,4228.717845
69,0,4231.794768,4227.692204,4211.794769,4211.794769,4212.307589,4211.794769,4208.205025,4222.563999,4227.179384,4201.025538,4226.666563,4217.948615,4224.102461,4221.025538
70,0,4217.435794,4213.33323,4200.512718,4201.025538,4189.230667,4208.205025,4206.666564,4219.999897,4221.538358,4198.974256,4215.384512,4211.794769,4212.82041,4209.230666
71,0,4208.205025,4207.179384,4194.358872,4198.974256,4197.948615,4203.589641,4203.07682,4216.410153,4211.794769,4189.743487,4207.692205,4203.07682,4205.128102,4205.128102
72,0,4209.743487,4206.666564,4192.82041,4199.487077,4213.33323,4207.179384,4206.666564,4221.025538,4212.82041,4179.999898,4207.179384,4197.435795,4197.948615,4203.07682
73,0,4212.307589,4207.692205,4195.897333,4198.461436,4214.871692,4203.07682,4204.102461,4218.974256,4213.846051,4184.615282,4207.179384,4196.922974,4195.384513,4197.435795
74,0,4214.871692,4209.230666,4197.948615,4199.487077,4215.897333,4201.538359,4201.538359,4215.897333,4210.769128,4188.717846,4204.615282,4198.974256,4195.897333,4195.384513
75,0,4213.846051,4207.692205,4194.358872,4195.384513,4218.974256,4209.230666,4206.153743,4219.999897,4207.692205,4180.512718,4204.102461,4199.999897,4196.410154,4201.538359
76,0,4213.33323,4209.743487,4193.846051,4192.82041,4215.384512,4210.256307,4208.205025,4220.512717,4210.769128,4183.589641,4208.205025,4203.589641,4201.538359,4211.281948
77,0,4219.487076,4216.410153,4199.999897,4204.615282,4194.358872,4208.717846,4212.82041,4224.102461,4221.538358,4198.974256,4216.410153,4209.743487,4212.307589,4216.410153
78,0,4227.692204,4224.615281,4206.666564,4219.999897,4177.948616,4213.846051,4221.025538,4231.794768,4228.717845,4209.230666,4225.128102,4215.384512,4222.051179,4223.07682
79,0,4228.205025,4228.205025,4207.179384,4218.461435,4208.717846,4213.33323,4217.435794,4231.794768,4232.307589,4210.769128,4230.769127,4219.999897,4227.179384,4228.205025
80,0,4213.846051,4216.922974,4194.358872,4206.153743,4248.205024,4211.281948,4208.205025,4228.717845,4234.871691,4205.640923,4224.615281,4212.307589,4220.512717,4213.33323
81,0,4200.512718,4206.666564,4181.538359,4196.922974,4239.999896,4211.794769,4206.666564,4228.717845,4230.769127,4203.589641,4214.871692,4202.051179,4209.230666,4197.435795
82,0,4203.589641,4210.256307,4181.538359,4199.999897,4227.692204,4209.230666,4205.128102,4226.153743,4216.410153,4207.692205,4213.846051,4200.512718,4207.692205,4199.999897
83,0,4210.769128,4216.410153,4185.640923,4212.307589,4243.58964,4208.717846,4200.512718,4220.512717,4208.205025,4207.179384,4214.358871,4198.974256,4206.153743,4201.538359
84,0,4208.205025,4213.33323,4181.025539,4211.281948,4244.10246,4212.82041,4203.589641,4217.948615,4214.871692,4197.435795,4205.640923,4190.256308,4198.461436,4194.358872
85,0,4205.640923,4213.846051,4177.948616,4202.564,4231.281948,4218.974256,4209.743487,4223.58964,4224.615281,4196.410154,4204.102461,4192.30759,4201.538359,4199.999897
86,0,4208.205025,4218.974256,4177.948616,4201.538359,4228.717845,4216.410153,4210.256307,4227.179384,4226.153743,4205.640923,4211.794769,4201.025538,4209.743487,4205.640923
87,0,4214.871692,4225.128102,4186.153744,4211.794769,4222.051179,4218.974256,4219.487076,4232.820409,4235.897332,4224.102461,4224.615281,4210.769128,4218.974256,4207.179384
88,0,4227.179384,4233.33323,4199.999897,4225.128102,4216.410153,4225.128102,4228.717845,4240.512717,4247.692204,4241.025537,4238.974255,4223.07682,4233.33323,4219.487076
89,0,4228.717845,4235.384512,4200.512718,4228.205025,4218.461435,4218.461435,4224.615281,4236.922973,4238.974255,4240.512717,4239.487076,4220.512717,4233.84605,4224.615281
90,0,4220.512717,4231.281948,4195.897333,4217.435794,4221.025538,4214.358871,4221.025538,4231.281948,4230.256307,4231.281948,4226.666563,4212.307589,4220.512717,4216.410153
91,0,4223.58964,4236.410153,4205.128102,4221.025538,4237.948614,4224.102461,4228.205025,4236.922973,4236.922973,4231.794768,4226.666563,4218.974256,4221.025538,4216.410153
92,0,4225.128102,4239.999896,4204.615282,4236.410153,4260.512716,4226.666563,4228.205025,4237.435794,4232.820409,4228.717845,4230.256307,4219.999897,4223.58964,4217.435794
93,0,4214.358871,4233.84605,4195.384513,4228.205025,4263.589639,4221.538358,4220.512717,4228.205025,4218.461435,4209.743487,4219.999897,4207.692205,4212.307589,4213.33323
94,0,4209.743487,4228.205025,4190.256308,4212.307589,4251.794768,4221.025538,4219.487076,4223.07682,4214.358871,4190.769128,4208.205025,4203.07682,4204.615282,4204.102461
95,0,4211.281948,4224.615281,4184.615282,4216.922974,4242.051178,4218.461435,4222.563999,4225.640922,4219.487076,4188.717846,4209.230666,4209.743487,4205.128102,4195.384513
96,0,4205.128102,4217.435794,4182.05118,4218.461435,4226.153743,4217.948615,4224.102461,4229.230666,4225.640922,4193.846051,4210.256307,4207.179384,4202.564,4193.846051
97,0,4202.051179,4213.33323,4187.179385,4207.692205,4212.82041,4218.974256,4221.538358,4229.743486,4223.07682,4199.487077,4207.179384,4206.153743,4200.512718,4198.461436
98,0,4215.384512,4222.563999,4197.948615,4215.897333,4222.563999,4216.410153,4223.07682,4233.33323,4224.102461,4213.846051,4219.999897,4222.563999,4212.82041,4211.794769
99,0,4234.871691,4238.974255,4213.33323,4239.999896,4239.487076,4222.563999,4230.256307,4243.076819,4244.615281,4241.025537,4243.076819,4243.076819,4229.230666,4231.281948
100,0,4241.538358,4248.717845,4221.025538,4246.666563,4231.794768,4227.692204,4232.307589,4246.666563,4256.922973,4254.871691,4245.128101,4243.58964,4232.307589,4237.948614
101,0,4231.281948,4239.487076,4211.281948,4233.84605,4216.922974,4220.512717,4224.615281,4240.512717,4243.076819,4239.999896,4228.717845,4228.717845,4221.538358,4226.153743
102,0,4221.025538,4225.128102,4206.153743,4228.717845,4227.179384,4219.999897,4225.128102,4244.615281,4233.84605,4227.179384,4221.538358,4224.615281,4212.307589,4220.512717
103,0,4217.948615,4225.640922,4204.102461,4230.256307,4242.051178,4225.640922,4227.692204,4246.666563,4230.769127,4218.974256,4219.487076,4226.153743,4204.102461,4219.487076
104,0,4220.512717,4238.461435,4193.333231,4225.640922,4235.384512,4216.410153,4215.897333,4238.974255,4217.948615,4199.487077,4208.205025,4219.487076,4197.948615,4214.871692
105,0,4228.205025,4244.10246,4189.230667,4228.205025,4210.256307,4206.666564,4203.589641,4228.205025,4206.153743,4178.974257,4201.538359,4212.82041,4198.974256,4218.461435
106,0,4238.461435,4242.563999,4193.846051,4242.051178,4203.07682,4207.179384,4204.102461,4221.025538,4203.07682,4175.384513,4206.666564,4217.435794,4203.07682,4227.692204
107,0,4241.538358,4242.563999,4196.410154,4241.025537,4222.051179,4207.179384,4205.128102,4221.025538,4197.435795,4171.281949,4207.179384,4219.999897,4202.564,4227.692204
108,0,4244.10246,4246.666563,4203.07682,4231.794768,4244.10246,4210.769128,4208.205025,4228.205025,4203.07682,4168.205026,4205.640923,4214.871692,4207.179384,4227.692204
109,0,4245.128101,4242.051178,4202.564,4227.692204,4244.615281,4213.846051,4212.307589,4231.794768,4214.871692,4176.410154,4207.692205,4213.33323,4213.33323,4232.307589
110,0,4242.563999,4233.84605,4193.333231,4222.563999,4223.58964,4205.128102,4207.692205,4227.692204,4211.794769,4187.692205,4208.717846,4216.410153,4215.384512,4234.358871
111,0,4249.230665,4241.538358,4199.487077,4221.538358,4214.871692,4201.538359,4206.153743,4229.743486,4208.717846,4197.948615,4213.33323,4221.025538,4221.025538,4241.538358
112,0,4265.128101,4259.999896,4220.512717,4232.820409,4236.410153,4212.82041,4215.897333,4238.974255,4221.538358,4206.153743,4226.666563,4232.307589,4236.922973,4259.999896
113,0,4272.820408,4261.025537,4228.205025,4234.358871,4236.922973,4214.358871,4216.922974,4243.58964,4225.640922,4208.205025,4232.307589,4236.922973,4239.999896,4268.205024
114,0,4267.692203,4247.179383,4220.512717,4222.051179,4203.07682,4204.615282,4207.692205,4235.384512,4211.794769,4201.538359,4221.025538,4227.692204,4226.153743,4258.974255
115,0,4268.717844,4248.717845,4224.615281,4224.102461,4207.692205,4203.07682,4201.538359,4225.640922,4205.128102,4193.846051,4216.410153,4223.07682,4223.07682,4253.333229
116,0,4276.922972,4259.999896,4239.487076,4237.948614,4239.487076,4205.128102,4199.487077,4221.025538,4203.589641,4184.615282,4217.435794,4224.615281,4228.205025,4255.897332
117,0,4283.076818,4262.563998,4248.717845,4236.410153,4245.640922,4208.205025,4199.487077,4220.512717,4201.538359,4175.897334,4211.281948,4225.128102,4225.640922,4262.051178
118,0,4284.102459,4257.435793,4246.666563,4222.051179,4227.179384,4205.128102,4194.871692,4219.487076,4197.948615,4166.153744,4204.615282,4223.58964,4221.538358,4266.153742
119,0,4286.153741,4261.538357,4248.717845,4222.051179,4218.461435,4199.487077,4191.794769,4221.538358,4197.435795,4157.435796,4207.179384,4228.717845,4225.128102,4273.333229
120,0,4296.410151,4274.87169,4262.051178,4237.948614,4227.692204,4205.128102,4202.564,4231.281948,4207.179384,4164.615283,4219.487076,4242.563999,4235.897332,4286.666562
121,0,4305.1281,4278.461434,4273.333229,4244.615281,4222.563999,4215.384512,4217.948615,4239.487076,4218.461435,4182.05118,4230.769127,4249.230665,4248.205024,4295.897331
122,0,4296.410151,4268.205024,4271.794767,4237.435794,4202.051179,4213.33323,4218.974256,4241.025537,4215.897333,4191.281949,4235.384512,4247.179383,4252.820409,4294.87169
123,0,4288.205023,4264.10246,4263.589639,4239.999896,4216.410153,4207.692205,4210.256307,4238.974255,4211.281948,4193.846051,4238.461435,4252.307588,4252.820409,4291.794767
124,0,4289.230664,4266.153742,4255.384511,4242.051178,4242.563999,4205.640923,4206.153743,4232.820409,4212.307589,4197.948615,4237.948614,4252.820409,4249.230665,4290.769126
125,0,4286.666562,4262.051178,4253.84605,4231.794768,4227.692204,4206.666564,4206.666564,4227.179384,4215.384512,4210.256307,4230.256307,4242.051178,4244.10246,4290.256305
126,0,4282.051177,4256.410152,4254.871691,4225.128102,4210.256307,4210.256307,4208.205025,4227.692204,4216.410153,4216.922974,4223.58964,4238.974255,4242.051178,4287.692203
127,0,4285.1281,4256.922973,4252.307588,4229.743486,4221.538358,4207.692205,4205.640923,4227.692204,4214.358871,4210.256307,4223.58964,4241.538358,4239.999896,4282.563998
128,0,4282.051177,4254.35887,4247.692204,4229.230666,4218.974256,4198.461436,4202.051179,4221.538358,4210.256307,4202.051179,4222.051179,4230.256307,4231.794768,4271.794767
0,0,4273.846049,4249.743486,4247.179383,4227.692204,4199.487077,4201.025538,4203.07682,4222.563999,4209.743487,4196.922974,4215.897333,4221.538358,4226.666563,4259.487075
1,0,4269.743485,4244.615281,4244.615281,4231.794768,4202.564,4209.230666,4202.051179,4225.640922,4203.589641,4175.897334,4210.256307,4224.615281,4224.615281,4254.35887
2,0,4262.051178,4233.84605,4241.538358,4226.153743,4225.640922,4209.743487,4200.512718,4225.640922,4194.358872,4161.53836,4208.717846,4226.153743,4223.07682,4257.435793
3,0,4251.281947,4224.102461,4241.538358,4215.897333,4239.999896,4206.153743,4204.615282,4227.692204,4201.025538,4173.846052,4209.743487,4224.102461,4225.128102,4257.948614
4,0,4251.794768,4226.666563,4241.025537,4221.025538,4231.794768,4209.743487,4210.256307,4230.256307,4217.948615,4181.538359,4211.794769,4226.666563,4226.666563,4252.820409
5,0,4254.35887,4229.743486,4239.487076,4228.205025,4211.281948,4211.794769,4212.307589,4228.717845,4218.461435,4182.564,4212.307589,4230.769127,4224.615281,4249.743486
6,0,4249.230665,4224.615281,4239.999896,4224.615281,4214.358871,4208.717846,4211.281948,4226.666563,4211.281948,4199.487077,4213.846051,4228.717845,4226.153743,4253.84605
7,0,4239.999896,4221.025538,4237.435794,4214.871692,4227.692204,4207.692205,4204.615282,4224.615281,4216.410153,4214.358871,4216.410153,4225.640922,4232.307589,4255.384511
8,0,4227.692204,4215.897333,4225.128102,4206.666564,4209.743487,4204.102461,4196.410154,4219.487076,4217.435794,4207.179384,4213.846051,4220.512717,4228.717845,4246.153742
9,0,4223.07682,4211.281948,4214.358871,4206.666564,4202.051179,4206.153743,4201.538359,4219.487076,4213.33323,4207.692205,4211.794769,4214.358871,4224.615281,4236.922973
10,0,4218.974256,4209.230666,4210.256307,4212.307589,4238.974255,4214.358871,4209.230666,4224.102461,4221.025538,4221.538358,4214.871692,4210.256307,4225.640922,4229.230666
11,0,4207.179384,4202.564,4204.615282,4206.666564,4248.205024,4212.307589,4203.589641,4221.538358,4218.974256,4216.922974,4211.794769,4205.640923,4216.410153,4218.461435
12,0,4206.153743,4197.948615,4197.435795,4193.333231,4218.461435,4202.564,4196.410154,4216.922974,4206.666564,4204.615282,4204.615282,4199.999897,4208.717846,4214.871692
13,0,4223.07682,4211.281948,4207.179384,4204.615282,4224.102461,4207.179384,4206.153743,4224.102461,4218.974256,4213.846051,4217.948615,4209.230666,4226.153743,4227.179384
14,0,4230.256307,4222.563999,4218.461435,4219.999897,4242.051178,4213.33323,4211.281948,4229.230666,4226.666563,4218.461435,4228.717845,4220.512717,4234.358871,4230.256307
15,0,4222.563999,4215.384512,4214.358871,4213.846051,4228.717845,4211.281948,4206.153743,4225.128102,4212.307589,4201.025538,4213.846051,4214.871692,4215.384512,4218.974256
16,0,4218.461435,4206.666564,4212.82041,4205.128102,4207.692205,4209.230666,4205.640923,4223.58964,4208.717846,4191.794769,4203.589641,4207.692205,4204.102461,4214.871692
17,0,4219.999897,4206.666564,4217.435794,4207.692205,4191.281949,4204.102461,4209.743487,4226.666563,4216.922974,4198.461436,4207.692205,4209.743487,4207.179384,4220.512717
18,0,4223.07682,4206.666564,4218.974256,4209.743487,4179.999898,4200.512718,4209.230666,4227.179384,4217.948615,4203.07682,4207.179384,4208.205025,4207.692205,4222.563999
19,0,4221.025538,4204.615282,4216.410153,4209.743487,4198.974256,4208.717846,4209.743487,4230.769127,4222.563999,4204.615282,4207.179384,4207.179384,4208.205025,4214.871692
20,0,4216.410153,4199.487077,4213.33323,4209.230666,4231.794768,4221.538358,4216.922974,4238.974255,4227.692204,4203.589641,4212.307589,4211.794769,4209.743487,4212.307589
21,0,4219.487076,4197.948615,4217.948615,4206.153743,4237.948614,4221.025538,4222.563999,4241.538358,4225.640922,4206.666564,4214.358871,4215.897333,4213.846051,4218.974256
22,0,4227.692204,4211.281948,4228.717845,4219.487076,4229.743486,4217.435794,4222.563999,4235.897332,4227.692204,4216.410153,4216.410153,4221.538358,4223.07682,4226.153743
23,0,4229.743486,4220.512717,4230.769127,4232.820409,4226.666563,4216.922974,4217.948615,4230.769127,4224.102461,4212.82041,4217.435794,4227.692204,4225.640922,4226.666563
24,0,4225.128102,4214.358871,4223.58964,4223.07682,4215.897333,4215.384512,4216.410153,4227.692204,4212.307589,4199.487077,4213.846051,4225.128102,4219.999897,4223.07682
25,0,4228.205025,4211.794769,4225.128102,4219.487076,4208.717846,4216.922974,4221.025538,4225.640922,4215.384512,4204.102461,4213.33323,4223.58964,4217.948615,4222.051179
26,0,4237.435794,4220.512717,4231.794768,4236.410153,4223.07682,4222.051179,4224.615281,4230.769127,4227.179384,4218.461435,4216.922974,4232.820409,4221.538358,4226.153743
27,0,4230.256307,4217.435794,4224.102461,4234.871691,4223.07682,4219.487076,4220.512717,4234.871691,4217.948615,4210.769128,4210.769128,4227.692204,4213.846051,4222.051179
28,0,4217.948615,4208.205025,4210.769128,4220.512717,4215.897333,4210.769128,4214.871692,4231.794768,4206.153743,4197.435795,4203.07682,4212.82041,4204.102461,4212.82041
29,0,4215.897333,4203.589641,4206.666564,4216.922974,4217.948615,4205.128102,4208.717846,4224.102461,4209.743487,4199.487077,4202.051179,4212.82041,4202.051179,4210.256307
30,0,4210.769128,4196.410154,4206.666564,4213.33323,4211.794769,4204.102461,4208.717846,4222.563999,4211.794769,4205.128102,4202.564,4215.384512,4201.025538,4209.743487
31,0,4205.640923,4193.333231,4205.128102,4212.307589,4214.358871,4211.794769,4219.999897,4231.281948,4212.82041,4206.666564,4203.07682,4210.769128,4200.512718,4206.153743
32,0,4215.384512,4204.102461,4210.256307,4218.974256,4231.794768,4226.153743,4232.820409,4241.025537,4223.07682,4215.384512,4210.769128,4217.435794,4209.230666,4208.205025
33,0,4220.512717,4208.205025,4210.256307,4217.948615,4223.58964,4219.999897,4227.179384,4238.974255,4225.128102,4227.179384,4218.974256,4228.717845,4213.846051,4212.307589
34,0,4209.743487,4200.512718,4204.615282,4212.82041,4218.974256,4208.205025,4215.384512,4231.794768,4221.025538,4229.743486,4215.897333,4220.512717,4209.743487,4210.256307
35,0,4202.051179,4194.871692,4200.512718,4207.179384,4236.922973,4214.358871,4214.358871,4231.794768,4222.051179,4224.102461,4206.153743,4204.615282,4204.102461,4206.153743
36,0,4209.230666,4199.999897,4197.435795,4204.615282,4227.692204,4222.051179,4218.974256,4235.384512,4220.512717,4226.153743,4211.794769,4208.205025,4208.717846,4208.205025
37,0,4221.025538,4212.307589,4201.025538,4218.461435,4214.871692,4221.025538,4223.58964,4239.999896,4224.102461,4241.538358,4230.769127,4227.179384,4222.051179,4215.897333
38,0,4214.358871,4208.205025,4203.07682,4224.615281,4228.717845,4221.538358,4221.025538,4238.461435,4228.205025,4241.538358,4230.256307,4226.153743,4219.487076,4213.846051
39,0,4200.512718,4197.435795,4193.333231,4207.179384,4233.84605,4217.948615,4211.794769,4229.230666,4220.512717,4226.153743,4213.33323,4208.717846,4206.666564,4204.102461
40,0,4226.153743,4229.743486,4211.794769,4225.128102,4261.538357,4227.692204,4227.179384,4241.538358,4244.10246,4255.897332,4234.358871,4234.358871,4235.384512,4226.666563
41,0,4271.794767,4283.589639,4254.871691,4280.512716,4305.64092,4263.076819,4263.076819,4274.35887,4292.820408,4316.922971,4277.435793,4282.051177,4283.076818,4269.230665
42,0,4279.487075,4298.461433,4268.717844,4299.487074,4302.563997,4290.256305,4287.179382,4289.743485,4309.230664,4337.435791,4287.179382,4291.794767,4288.205023,4278.461434
43,0,4270.256306,4292.820408,4267.179383,4290.256305,4296.922972,4288.717844,4289.743485,4289.743485,4306.153741,4330.769125,4281.025536,4286.153741,4279.999895,4270.769126
44,0,4275.897331,4295.38451,4271.281947,4298.461433,4326.666561,4279.487075,4282.051177,4290.256305,4303.076818,4326.15374,4285.1281,4288.717844,4286.153741,4276.922972
45,0,4276.922972,4289.230664,4264.61528,4298.974254,4325.64092,4277.948613,4273.846049,4285.640921,4288.717844,4316.922971,4281.538357,4283.589639,4281.025536,4276.410152
46,0,4264.10246,4278.974254,4252.820409,4281.538357,4294.87169,4277.948613,4273.846049,4278.461434,4279.999895,4307.179382,4270.256306,4274.87169,4265.640921,4258.974255
47,0,4262.051178,4277.948613,4255.897332,4285.640921,4300.512715,4276.922972,4277.435793,4279.999895,4292.820408,4309.743484,4270.769126,4275.897331,4266.666562,4254.35887
48,0,4261.538357,4271.794767,4253.333229,4288.717844,4311.281946,4270.769126,4270.256306,4277.435793,4298.461433,4309.230664,4273.333229,4275.384511,4268.205024,4259.999896
49,0,4256.410152,4267.692203,4243.58964,4270.769126,4294.87169,4269.743485,4268.205024,4270.256306,4288.205023,4297.435792,4271.794767,4270.769126,4259.487075,4258.974255
50,0,4253.84605,4268.205024,4235.897332,4258.461434,4285.640921,4270.256306,4271.281947,4270.769126,4282.563998,4277.948613,4269.230665,4265.128101,4255.384511,4253.84605
51,0,4254.35887,4265.128101,4233.33323,4268.717844,4302.563997,4268.717844,4268.205024,4273.846049,4286.153741,4266.153742,4268.205024,4264.61528,4260.512716,4252.307588
52,0,4255.897332,4264.61528,4238.461435,4278.974254,4299.999895,4271.794767,4267.692203,4271.794767,4288.205023,4273.333229,4269.743485,4269.230665,4261.538357,4253.84605
53,0,4255.384511,4266.666562,4243.58964,4277.948613,4286.153741,4277.435793,4274.87169,4270.769126,4288.205023,4279.487075,4271.794767,4270.256306,4257.948614,4253.84605
54,0,4253.84605,4260.512716,4239.487076,4271.794767,4301.025536,4277.435793,4276.922972,4273.333229,4287.692203,4275.384511,4271.794767,4265.640921,4256.922973,4253.84605
55,0,4250.256306,4254.35887,4231.281948,4265.128101,4312.820407,4268.205024,4270.256306,4273.333229,4284.102459,4277.435793,4270.256306,4264.61528,4254.35887,4248.717845
56,0,4246.153742,4261.025537,4231.281948,4263.076819,4303.589638,4266.153742,4267.692203,4273.333229,4284.102459,4286.153741,4270.769126,4270.256306,4252.820409,4244.10246
57,0,4248.205024,4266.666562,4234.358871,4268.205024,4294.358869,4269.230665,4269.230665,4274.35887,4290.256305,4288.205023,4272.307588,4269.230665,4253.84605,4247.179383
58,0,4247.179383,4258.461434,4228.717845,4269.230665,4294.358869,4265.128101,4265.128101,4273.333229,4288.205023,4278.461434,4272.307588,4259.487075,4249.230665,4248.205024
59,0,4243.076819,4255.384511,4225.128102,4262.051178,4301.025536,4265.128101,4263.076819,4270.769126,4281.538357,4273.846049,4271.794767,4257.948614,4244.10246,4244.10246
60,0,4244.10246,4258.974255,4227.179384,4255.897332,4296.922972,4271.794767,4266.666562,4270.769126,4279.487075,4277.948613,4269.230665,4259.999896,4242.563999,4238.974255
61,0,4246.666563,4255.384511,4227.179384,4259.487075,4284.102459,4271.794767,4266.666562,4271.281947,4277.435793,4277.948613,4264.61528,4257.435793,4237.948614,4239.999896
62,0,4249.230665,4257.435793,4228.717845,4268.205024,4295.38451,4268.205024,4264.61528,4270.769126,4278.974254,4280.512716,4268.205024,4262.563998,4240.512717,4247.179383
63,0,4250.769127,4268.205024,4235.384512,4270.256306,4305.64092,4269.743485,4266.666562,4272.820408,4283.076818,4290.256305,4274.35887,4270.769126,4251.794768,4251.281947
64,0,4243.076819,4262.051178,4229.743486,4263.589639,4280.512716,4266.666562,4264.61528,4271.281947,4274.35887,4281.025536,4263.076819,4262.563998,4243.58964,4242.563999
65,0,4231.281948,4246.153742,4215.897333,4252.307588,4274.35887,4260.512716,4257.948614,4262.563998,4260.512716,4249.743486,4246.153742,4250.769127,4222.563999,4230.256307
66,0,4236.922973,4253.84605,4218.461435,4254.871691,4304.102459,4259.999896,4256.410152,4264.10246,4264.61528,4248.205024,4255.897332,4253.84605,4228.717845,4234.871691
67,0,4246.666563,4267.179383,4227.692204,4270.769126,4304.615279,4258.974255,4257.948614,4271.281947,4275.384511,4276.410152,4268.205024,4258.461434,4245.128101,4242.051178
68,0,4247.179383,4268.205024,4230.256307,4276.922972,4294.87169,4260.512716,4258.974255,4270.769126,4275.897331,4282.563998,4263.589639,4258.461434,4242.563999,4242.051178
69,0,4241.025537,4260.512716,4225.640922,4257.948614,4285.640921,4257.435793,4254.871691,4263.589639,4269.230665,4264.10246,4255.384511,4256.410152,4236.410153,4237.435794
70,0,4236.410153,4257.948614,4226.153743,4248.205024,4266.666562,4254.871691,4251.281947,4264.61528,4274.35887,4265.128101,4258.974255,4258.461434,4248.205024,4237.435794
71,0,4237.948614,4262.563998,4234.871691,4263.589639,4275.384511,4261.538357,4257.435793,4270.256306,4282.563998,4277.435793,4265.640921,4261.025537,4261.538357,4245.640922
72,0,4241.538358,4266.666562,4241.538358,4269.743485,4304.102459,4271.281947,4264.10246,4271.281947,4279.999895,4276.922972,4263.589639,4260.512716,4263.076819,4251.794768
73,0,4242.563999,4263.589639,4246.153742,4256.410152,4300.512715,4269.743485,4258.461434,4270.256306,4277.435793,4270.256306,4261.025537,4260.512716,4264.10246,4248.205024
74,0,4243.076819,4257.948614,4252.307588,4251.794768,4280.512716,4264.61528,4252.820409,4267.692203,4282.051177,4267.692203,4263.076819,4261.538357,4267.179383,4243.58964
75,0,4242.563999,4253.84605,4251.794768,4255.897332,4271.281947,4260.512716,4248.205024,4263.589639,4281.025536,4264.61528,4259.999896,4258.461434,4262.051178,4243.076819
