title:P                                                                               , recorded:02.07.20 11.12.34, sampling:128, subject:N                                                                               , labels:COUNTER INTERPOLATED AF3 F7 F3 FC5 T7 P7 O1 O2 P8 T8 FC6 F4 F8 AF4, chan:37, units:emotiv,,,,,,,,,
116,0,4232.820409,4220.512717,4235.897332,4225.640922,4243.076819,4216.410153,4223.07682,4216.922974,4206.666564,4216.922974,4219.487076,4237.948614,4225.128102,4222.051179
117,0,4236.922973,4223.07682,4238.461435,4229.743486,4240.512717,4223.07682,4225.640922,4221.538358,4209.230666,4218.974256,4226.153743,4241.025537,4233.84605,4235.897332
118,0,4235.897332,4223.07682,4239.487076,4227.179384,4234.358871,4227.692204,4225.128102,4221.538358,4213.846051,4228.205025,4230.256307,4242.051178,4237.948614,4240.512717
119,0,4237.435794,4228.717845,4243.076819,4234.871691,4239.487076,4228.205025,4230.256307,4226.666563,4222.563999,4238.974255,4231.794768,4245.640922,4238.461435,4239.487076
120,0,4242.051178,4237.948614,4246.666563,4244.615281,4250.256306,4232.820409,4237.435794,4235.897332,4225.128102,4247.179383,4237.435794,4253.333229,4243.076819,4244.10246
121,0,4238.461435,4233.33323,4238.461435,4232.820409,4248.717845,4221.538358,4227.692204,4232.307589,4214.358871,4239.999896,4235.384512,4246.666563,4242.051178,4242.051178
122,0,4234.871691,4225.128102,4233.33323,4217.435794,4240.512717,4216.922974,4216.922974,4225.128102,4215.897333,4228.717845,4223.58964,4239.487076,4233.84605,4236.410153
123,0,4232.820409,4224.102461,4230.769127,4217.948615,4236.410153,4225.128102,4218.461435,4221.025538,4218.461435,4224.102461,4216.410153,4238.461435,4231.794768,4234.871691
124,0,4229.743486,4221.538358,4226.153743,4225.128102,4238.974255,4219.999897,4220.512717,4216.410153,4206.666564,4222.563999,4219.999897,4235.384512,4235.384512,4230.256307
125,0,4227.179384,4215.384512,4222.051179,4221.538358,4234.871691,4209.743487,4217.948615,4212.307589,4196.410154,4217.948615,4218.974256,4227.692204,4227.692204,4225.128102
126,0,4226.153743,4215.897333,4222.563999,4216.922974,4227.179384,4212.82041,4215.384512,4211.281948,4201.025538,4217.948615,4215.384512,4224.615281,4220.512717,4224.102461
127,0,4226.153743,4222.051179,4226.153743,4219.999897,4230.256307,4219.487076,4217.435794,4214.871692,4209.743487,4225.128102,4215.897333,4227.692204,4226.153743,4229.230666
128,0,4234.871691,4234.358871,4233.84605,4232.820409,4248.717845,4228.205025,4227.179384,4225.640922,4215.897333,4237.948614,4217.948615,4239.999896,4238.461435,4242.563999
0,0,4238.974255,4241.025537,4236.922973,4242.563999,4259.487075,4232.820409,4226.666563,4225.128102,4217.435794,4242.051178,4220.512717,4243.076819,4237.948614,4243.076819
1,0,4233.33323,4236.922973,4235.384512,4239.999896,4257.948614,4227.179384,4221.025538,4217.948615,4220.512717,4238.461435,4230.256307,4235.897332,4232.820409,4230.769127
2,0,4229.743486,4227.179384,4233.84605,4231.281948,4250.769127,4223.58964,4222.051179,4219.999897,4219.487076,4232.820409,4234.358871,4234.871691,4232.820409,4229.743486
3,0,4232.307589,4224.615281,4233.84605,4229.743486,4245.128101,4229.230666,4225.640922,4221.538358,4215.897333,4227.692204,4229.230666,4240.512717,4234.871691,4238.461435
4,0,4230.256307,4223.07682,4233.84605,4227.179384,4243.076819,4224.615281,4225.640922,4215.384512,4216.410153,4223.58964,4226.153743,4234.871691,4231.281948,4231.281948
5,0,4225.640922,4221.025538,4234.871691,4223.07682,4238.974255,4214.871692,4228.205025,4215.384512,4215.897333,4224.102461,4225.640922,4228.205025,4228.717845,4223.58964
6,0,4226.666563,4222.563999,4233.84605,4223.58964,4229.230666,4218.461435,4224.615281,4217.948615,4214.871692,4222.051179,4219.999897,4234.871691,4229.230666,4230.256307
7,0,4231.794768,4231.794768,4233.84605,4227.692204,4236.922973,4223.58964,4217.435794,4217.435794,4226.666563,4229.230666,4221.025538,4244.615281,4232.820409,4237.948614
8,0,4237.435794,4239.999896,4239.487076,4236.922973,4252.307588,4218.461435,4217.435794,4220.512717,4237.948614,4244.615281,4237.435794,4247.692204,4242.563999,4241.025537
9,0,4237.948614,4237.435794,4241.538358,4237.948614,4247.179383,4216.410153,4217.435794,4221.025538,4228.205025,4238.974255,4244.10246,4243.076819,4244.615281,4239.999896
10,0,4233.84605,4228.717845,4233.84605,4225.128102,4244.615281,4223.07682,4220.512717,4217.435794,4222.051179,4223.58964,4232.820409,4235.897332,4232.307589,4233.84605
11,0,4228.717845,4226.666563,4229.743486,4219.999897,4256.922973,4229.743486,4232.307589,4217.435794,4229.743486,4221.538358,4225.128102,4233.84605,4227.179384,4227.179384
12,0,4227.692204,4230.256307,4232.307589,4231.281948,4250.769127,4228.717845,4237.948614,4220.512717,4228.717845,4225.128102,4230.769127,4234.358871,4234.871691,4228.205025
13,0,4229.230666,4225.640922,4225.640922,4231.281948,4223.07682,4225.640922,4228.717845,4216.410153,4212.307589,4218.974256,4229.230666,4229.230666,4232.307589,4227.692204
14,0,4229.743486,4224.615281,4221.025538,4221.538358,4221.538358,4222.563999,4221.538358,4206.666564,4202.051179,4218.974256,4226.666563,4231.794768,4233.84605,4231.794768
15,0,4234.871691,4235.384512,4229.230666,4220.512717,4241.538358,4217.435794,4217.948615,4206.666564,4208.205025,4232.820409,4233.33323,4245.128101,4247.692204,4244.615281
16,0,4244.10246,4245.128101,4236.410153,4228.717845,4251.281947,4223.58964,4219.487076,4218.974256,4221.538358,4244.615281,4245.640922,4249.743486,4252.820409,4250.256306
17,0,4243.076819,4244.10246,4232.820409,4236.410153,4250.769127,4232.820409,4227.692204,4224.102461,4228.205025,4239.487076,4247.179383,4245.128101,4247.179383,4244.10246
18,0,4237.435794,4243.58964,4229.743486,4241.025537,4256.410152,4227.179384,4227.179384,4221.025538,4230.769127,4233.33323,4238.461435,4247.692204,4249.230665,4246.153742
19,0,4232.307589,4239.487076,4227.692204,4231.794768,4253.333229,4216.410153,4215.384512,4221.025538,4226.666563,4228.205025,4232.820409,4246.153742,4244.615281,4242.563999
20,0,4230.256307,4236.922973,4230.256307,4228.717845,4239.999896,4225.640922,4216.410153,4221.025538,4221.538358,4217.435794,4230.769127,4238.974255,4235.384512,4231.281948
21,0,4231.794768,4241.025537,4234.358871,4244.615281,4237.948614,4235.384512,4226.153743,4211.281948,4216.410153,4207.179384,4220.512717,4235.897332,4233.84605,4230.769127
22,0,4233.84605,4239.999896,4231.281948,4244.615281,4243.076819,4228.717845,4224.102461,4207.692205,4206.666564,4208.717846,4219.999897,4236.922973,4233.33323,4240.512717
23,0,4231.794768,4234.871691,4226.666563,4226.666563,4241.025537,4222.563999,4221.025538,4207.692205,4198.461436,4214.871692,4237.948614,4237.948614,4237.435794,4246.153742
24,0,4230.769127,4238.461435,4227.692204,4229.230666,4241.538358,4226.666563,4222.563999,4205.128102,4207.179384,4222.051179,4245.640922,4238.974255,4242.563999,4243.076819
25,0,4230.256307,4237.435794,4224.615281,4233.33323,4241.025537,4226.666563,4219.487076,4209.743487,4221.538358,4227.179384,4235.384512,4233.33323,4238.461435,4235.897332
26,0,4228.717845,4232.820409,4221.025538,4224.102461,4243.58964,4220.512717,4217.948615,4216.410153,4224.102461,4225.128102,4233.84605,4230.256307,4235.897332,4236.922973
27,0,4235.384512,4235.384512,4226.153743,4229.743486,4248.717845,4222.563999,4218.974256,4212.82041,4221.025538,4224.102461,4230.256307,4237.435794,4240.512717,4243.58964
28,0,4238.461435,4233.84605,4225.640922,4233.84605,4242.563999,4224.615281,4217.435794,4207.692205,4214.358871,4221.025538,4215.384512,4234.871691,4236.410153,4237.435794
29,0,4227.692204,4225.640922,4221.025538,4227.179384,4236.410153,4223.07682,4217.435794,4207.179384,4204.102461,4214.358871,4217.435794,4225.128102,4227.692204,4228.717845
30,0,4223.07682,4226.153743,4227.179384,4236.410153,4237.435794,4230.769127,4221.025538,4207.179384,4197.948615,4215.897333,4232.820409,4229.230666,4230.256307,4235.384512
31,0,4233.84605,4234.358871,4234.871691,4244.10246,4242.563999,4232.307589,4221.538358,4206.666564,4205.640923,4225.640922,4238.974255,4240.512717,4238.461435,4244.10246
32,0,4235.897332,4235.384512,4228.717845,4236.410153,4246.666563,4222.051179,4221.538358,4205.128102,4216.410153,4228.717845,4238.974255,4241.025537,4241.025537,4240.512717
33,0,4227.179384,4233.33323,4222.563999,4236.922973,4242.563999,4227.179384,4226.666563,4208.717846,4217.435794,4230.769127,4240.512717,4239.487076,4241.025537,4234.871691
34,0,4219.487076,4233.33323,4228.205025,4235.897332,4230.256307,4236.922973,4227.692204,4215.384512,4212.307589,4233.33323,4232.307589,4238.974255,4237.948614,4234.358871
35,0,4218.461435,4235.897332,4232.820409,4232.820409,4238.461435,4234.358871,4225.128102,4213.846051,4212.82041,4225.640922,4224.102461,4234.358871,4235.897332,4236.922973
36,0,4217.948615,4227.692204,4223.07682,4232.820409,4254.871691,4227.179384,4218.974256,4206.666564,4207.179384,4209.743487,4219.999897,4224.102461,4224.102461,4227.179384
37,0,4214.871692,4218.461435,4215.897333,4229.230666,4246.666563,4224.615281,4215.897333,4208.717846,4203.07682,4209.743487,4217.948615,4221.538358,4218.461435,4218.461435
38,0,4214.358871,4223.58964,4222.051179,4225.128102,4233.33323,4223.07682,4218.461435,4210.256307,4210.256307,4222.051179,4218.974256,4227.692204,4230.769127,4225.640922
39,0,4224.102461,4236.410153,4236.410153,4241.538358,4241.538358,4232.820409,4228.717845,4211.794769,4221.538358,4236.922973,4227.692204,4238.461435,4244.615281,4237.948614
40,0,4228.717845,4241.025537,4237.948614,4248.205024,4244.615281,4236.410153,4230.256307,4215.897333,4218.461435,4237.435794,4231.281948,4241.538358,4240.512717,4237.435794
41,0,4225.640922,4241.538358,4231.281948,4236.410153,4236.410153,4232.307589,4225.128102,4213.846051,4207.179384,4227.692204,4221.538358,4237.948614,4233.33323,4232.307589
42,0,4223.58964,4233.84605,4227.692204,4230.256307,4231.281948,4232.307589,4225.640922,4207.692205,4207.692205,4224.615281,4219.487076,4233.84605,4235.897332,4231.281948
43,0,4217.948615,4222.051179,4227.179384,4227.179384,4231.281948,4227.179384,4224.615281,4204.102461,4211.794769,4227.692204,4227.179384,4228.205025,4237.435794,4230.256307
44,0,4211.281948,4222.051179,4223.58964,4221.025538,4229.743486,4223.58964,4218.974256,4202.564,4210.256307,4225.640922,4222.563999,4219.999897,4232.820409,4229.230666
45,0,4212.82041,4225.128102,4218.974256,4223.58964,4226.153743,4227.179384,4219.487076,4202.564,4210.256307,4219.999897,4212.82041,4217.435794,4229.230666,4223.07682
46,0,4218.461435,4229.743486,4225.128102,4240.512717,4229.743486,4229.743486,4227.692204,4210.256307,4214.358871,4219.999897,4219.999897,4225.640922,4234.871691,4225.640922
47,0,4226.153743,4244.615281,4236.922973,4251.281947,4241.538358,4230.256307,4234.871691,4216.922974,4220.512717,4226.153743,4229.743486,4235.897332,4245.640922,4244.10246
48,0,4227.692204,4253.333229,4238.461435,4251.281947,4250.769127,4233.84605,4235.897332,4215.897333,4224.102461,4236.410153,4223.58964,4237.435794,4249.230665,4249.743486
49,0,4224.102461,4246.666563,4235.384512,4253.333229,4241.538358,4239.487076,4234.871691,4212.82041,4221.538358,4244.10246,4222.563999,4238.461435,4246.153742,4240.512717
50,0,4224.615281,4242.051178,4234.871691,4254.35887,4231.794768,4240.512717,4235.384512,4215.384512,4217.435794,4244.615281,4231.281948,4244.615281,4246.666563,4245.640922
51,0,4224.102461,4238.461435,4228.205025,4240.512717,4241.538358,4233.84605,4232.820409,4213.33323,4216.410153,4234.358871,4227.179384,4238.461435,4243.58964,4248.205024
52,0,4220.512717,4238.461435,4225.640922,4232.307589,4258.461434,4235.384512,4234.358871,4211.794769,4218.974256,4233.84605,4216.922974,4228.205025,4241.025537,4239.487076
53,0,4221.538358,4239.999896,4232.820409,4241.025537,4257.435793,4248.205024,4239.487076,4217.948615,4222.563999,4242.051178,4221.025538,4232.307589,4241.538358,4239.487076
54,0,4227.179384,4235.384512,4233.33323,4248.717845,4250.256306,4246.666563,4237.948614,4219.999897,4224.102461,4243.58964,4222.051179,4238.974255,4237.948614,4241.025537
55,0,4222.563999,4227.692204,4223.58964,4241.538358,4244.10246,4232.307589,4229.230666,4209.230666,4217.435794,4230.769127,4205.640923,4228.205025,4228.205025,4229.743486
56,0,4218.461435,4230.256307,4227.692204,4235.384512,4238.461435,4231.794768,4230.256307,4206.153743,4216.922974,4224.102461,4204.102461,4221.025538,4229.743486,4227.692204
57,0,4218.461435,4226.666563,4230.256307,4234.871691,4233.33323,4229.743486,4231.281948,4207.179384,4214.871692,4217.948615,4212.82041,4225.640922,4231.281948,4231.281948
58,0,4217.435794,4219.487076,4223.58964,4239.999896,4234.871691,4222.051179,4227.692204,4201.025538,4207.692205,4209.230666,4209.743487,4224.102461,4225.128102,4224.102461
59,0,4212.82041,4220.512717,4220.512717,4234.871691,4233.33323,4225.128102,4227.692204,4198.461436,4205.640923,4210.769128,4201.025538,4213.846051,4220.512717,4216.922974
60,0,4210.769128,4223.58964,4225.640922,4225.640922,4235.897332,4232.820409,4232.820409,4203.07682,4212.307589,4221.025538,4208.205025,4215.384512,4224.102461,4222.563999
61,0,4213.846051,4225.128102,4229.743486,4234.871691,4244.10246,4232.820409,4233.84605,4203.07682,4216.410153,4222.563999,4216.410153,4219.487076,4231.281948,4224.102461
62,0,4214.358871,4226.666563,4225.640922,4237.948614,4241.538358,4231.794768,4230.769127,4200.512718,4214.358871,4215.384512,4216.410153,4215.384512,4234.358871,4216.922974
63,0,4216.922974,4226.153743,4220.512717,4224.615281,4230.769127,4232.307589,4229.743486,4199.999897,4211.281948,4211.794769,4212.307589,4214.358871,4230.769127,4215.384512
64,0,4219.999897,4224.102461,4219.999897,4228.717845,4233.33323,4230.769127,4238.461435,4202.564,4212.82041,4212.307589,4207.179384,4217.948615,4227.692204,4222.563999
65,0,4225.640922,4224.615281,4225.640922,4238.974255,4242.051178,4235.384512,4244.615281,4212.307589,4218.461435,4214.871692,4211.281948,4220.512717,4231.281948,4225.128102
66,0,4234.358871,4225.128102,4226.153743,4233.33323,4234.871691,4239.999896,4238.461435,4217.435794,4221.025538,4217.435794,4218.461435,4223.58964,4232.307589,4220.512717
67,0,4232.307589,4228.205025,4223.58964,4238.974255,4231.794768,4234.358871,4230.769127,4212.82041,4224.102461,4220.512717,4219.999897,4228.717845,4231.281948,4223.07682
68,0,4225.128102,4226.153743,4224.615281,4248.205024,4239.999896,4229.230666,4228.717845,4212.82041,4228.205025,4224.102461,4216.922974,4228.205025,4230.256307,4226.153743
69,0,4224.615281,4218.461435,4224.102461,4232.820409,4244.615281,4231.794768,4230.256307,4216.922974,4224.615281,4223.07682,4216.922974,4223.07682,4227.179384,4216.922974
70,0,4224.615281,4215.384512,4220.512717,4219.487076,4238.461435,4230.769127,4229.230666,4212.82041,4215.897333,4214.871692,4215.897333,4216.410153,4223.07682,4214.358871
71,0,4223.58964,4221.025538,4223.58964,4228.717845,4232.820409,4228.717845,4230.769127,4207.692205,4213.33323,4210.256307,4210.769128,4218.974256,4224.102461,4224.615281
72,0,4224.102461,4220.512717,4228.205025,4228.717845,4235.897332,4227.179384,4229.743486,4211.281948,4215.384512,4209.743487,4204.102461,4223.58964,4222.563999,4222.051179
73,0,4225.128102,4219.487076,4229.743486,4228.205025,4242.563999,4227.692204,4231.281948,4222.563999,4223.07682,4214.358871,4210.256307,4226.153743,4221.025538,4215.897333
74,0,4226.666563,4224.102461,4230.769127,4235.897332,4238.974255,4231.794768,4239.487076,4228.205025,4227.179384,4218.461435,4218.461435,4229.230666,4223.07682,4221.025538
75,0,4227.692204,4226.153743,4234.871691,4234.871691,4228.717845,4235.897332,4245.640922,4227.179384,4225.640922,4214.871692,4213.33323,4229.743486,4221.538358,4224.615281
76,0,4222.051179,4217.948615,4231.794768,4230.256307,4225.640922,4228.717845,4241.538358,4222.051179,4224.102461,4204.615282,4206.153743,4224.102461,4214.871692,4215.897333
77,0,4221.025538,4215.897333,4229.230666,4237.948614,4230.256307,4221.025538,4237.435794,4219.999897,4224.102461,4206.666564,4215.384512,4228.205025,4217.435794,4215.384512
78,0,4227.692204,4220.512717,4231.281948,4240.512717,4233.33323,4224.615281,4238.461435,4222.051179,4224.102461,4215.897333,4221.025538,4235.384512,4225.640922,4225.640922
79,0,4229.230666,4223.58964,4232.820409,4235.897332,4232.307589,4227.179384,4238.461435,4225.640922,4226.153743,4215.897333,4208.205025,4231.281948,4224.615281,4228.717845
80,0,4228.717845,4219.999897,4232.820409,4232.820409,4221.538358,4218.974256,4234.358871,4221.538358,4223.07682,4210.256307,4204.615282,4228.205025,4219.999897,4224.615281
81,0,4230.256307,4220.512717,4237.435794,4228.205025,4217.435794,4215.384512,4232.820409,4218.974256,4215.897333,4208.205025,4218.974256,4236.922973,4225.128102,4229.230666
82,0,4234.358871,4229.230666,4241.025537,4235.384512,4230.256307,4225.128102,4239.999896,4226.666563,4225.128102,4215.384512,4228.205025,4243.58964,4227.692204,4236.410153
83,0,4235.384512,4234.358871,4237.948614,4249.230665,4233.84605,4228.717845,4246.666563,4232.307589,4233.33323,4224.615281,4225.128102,4244.615281,4228.205025,4233.84605
84,0,4234.358871,4228.205025,4233.84605,4246.153742,4219.487076,4221.538358,4242.563999,4231.794768,4225.640922,4227.692204,4226.666563,4242.051178,4232.820409,4231.281948
85,0,4230.769127,4223.07682,4226.666563,4234.358871,4218.461435,4222.563999,4239.487076,4229.743486,4223.58964,4225.640922,4227.179384,4235.384512,4230.769127,4230.256307
86,0,4228.717845,4229.743486,4226.666563,4235.384512,4235.897332,4234.871691,4246.153742,4233.84605,4232.820409,4233.84605,4220.512717,4235.897332,4231.281948,4226.666563
87,0,4227.692204,4231.794768,4228.205025,4237.948614,4231.794768,4232.820409,4242.563999,4230.769127,4228.205025,4232.820409,4214.358871,4233.33323,4233.33323,4219.487076
88,0,4224.615281,4223.58964,4221.025538,4230.769127,4214.871692,4216.922974,4227.692204,4219.487076,4212.307589,4212.307589,4211.794769,4224.102461,4221.025538,4213.33323
89,0,4224.615281,4222.051179,4219.999897,4228.205025,4217.435794,4214.871692,4230.256307,4219.487076,4209.743487,4207.692205,4219.487076,4227.692204,4219.999897,4218.974256
90,0,4231.794768,4232.820409,4231.281948,4235.384512,4230.769127,4224.615281,4245.640922,4228.717845,4222.563999,4229.743486,4234.871691,4243.076819,4240.512717,4232.307589
91,0,4233.33323,4236.410153,4230.256307,4238.974255,4226.153743,4219.487076,4239.487076,4224.615281,4220.512717,4228.205025,4233.33323,4236.410153,4238.461435,4225.640922
92,0,4229.230666,4233.84605,4222.563999,4241.025537,4220.512717,4217.948615,4228.717845,4217.948615,4213.846051,4214.358871,4226.666563,4225.128102,4226.666563,4218.461435
93,0,4228.717845,4229.230666,4228.717845,4239.487076,4220.512717,4225.640922,4233.84605,4221.025538,4220.512717,4223.07682,4230.256307,4233.84605,4235.897332,4228.205025
94,0,4230.256307,4229.230666,4234.871691,4236.922973,4224.102461,4227.692204,4239.487076,4222.051179,4227.692204,4234.871691,4228.717845,4241.538358,4239.487076,4230.256307
95,0,4226.666563,4228.205025,4227.179384,4235.384512,4228.717845,4221.538358,4234.871691,4219.999897,4214.871692,4223.58964,4217.948615,4230.769127,4221.538358,4216.922974
96,0,4225.640922,4231.794768,4224.102461,4239.487076,4231.794768,4219.999897,4233.84605,4221.538358,4203.589641,4210.769128,4214.871692,4219.487076,4212.307589,4215.897333
97,0,4224.102461,4232.307589,4221.538358,4237.435794,4226.666563,4218.461435,4233.84605,4217.948615,4204.102461,4206.153743,4207.692205,4216.410153,4209.743487,4215.897333
98,0,4223.07682,4227.179384,4218.461435,4229.230666,4223.07682,4221.025538,4234.871691,4219.999897,4204.102461,4210.256307,4205.128102,4217.435794,4210.256307,4210.256307
99,0,4224.615281,4228.205025,4222.563999,4224.102461,4225.128102,4227.692204,4237.948614,4226.153743,4204.102461,4218.974256,4215.384512,4218.974256,4218.974256,4212.82041
100,0,4225.640922,4231.794768,4226.666563,4233.84605,4230.256307,4227.179384,4234.871691,4221.025538,4204.615282,4215.384512,4212.82041,4219.999897,4216.922974,4218.461435
101,0,4223.58964,4226.666563,4221.538358,4245.640922,4233.33323,4222.563999,4231.794768,4216.410153,4201.538359,4205.128102,4202.564,4221.025538,4206.153743,4221.025538
102,0,4223.58964,4222.051179,4215.897333,4233.84605,4231.281948,4218.974256,4234.358871,4215.897333,4198.461436,4206.153743,4201.538359,4218.974256,4206.153743,4217.948615
103,0,4226.153743,4228.205025,4219.999897,4223.58964,4227.179384,4217.948615,4234.871691,4214.871692,4201.025538,4211.281948,4197.948615,4215.897333,4208.717846,4211.281948
104,0,4221.025538,4231.281948,4224.615281,4234.358871,4224.102461,4216.922974,4229.743486,4213.846051,4202.051179,4206.666564,4191.794769,4215.897333,4204.102461,4210.256307
105,0,4215.384512,4224.615281,4224.102461,4236.410153,4220.512717,4213.846051,4228.205025,4213.33323,4199.487077,4201.538359,4199.487077,4217.435794,4204.615282,4215.897333
106,0,4222.563999,4223.07682,4223.58964,4223.07682,4216.922974,4214.358871,4229.743486,4211.281948,4197.948615,4206.153743,4205.640923,4217.948615,4206.153743,4215.384512
107,0,4229.230666,4230.769127,4227.692204,4229.743486,4223.07682,4223.58964,4234.358871,4214.871692,4207.179384,4214.358871,4202.051179,4223.07682,4204.615282,4213.33323
108,0,4224.102461,4232.307589,4230.769127,4240.512717,4223.07682,4228.205025,4241.025537,4221.025538,4212.307589,4212.307589,4199.999897,4223.58964,4205.640923,4213.846051
109,0,4222.563999,4225.640922,4229.743486,4239.487076,4216.922974,4225.640922,4243.076819,4224.102461,4206.153743,4207.179384,4204.102461,4222.563999,4205.640923,4216.410153
110,0,4227.692204,4221.025538,4227.692204,4235.897332,4218.461435,4219.999897,4233.84605,4223.58964,4197.948615,4204.615282,4203.589641,4223.07682,4198.974256,4215.384512
111,0,4231.794768,4226.153743,4232.307589,4236.410153,4224.102461,4219.999897,4234.871691,4225.128102,4199.487077,4206.666564,4200.512718,4226.153743,4199.999897,4216.410153
112,0,4228.205025,4227.179384,4233.33323,4233.84605,4219.999897,4227.692204,4246.153742,4228.717845,4201.025538,4208.205025,4202.564,4228.717845,4202.051179,4223.07682
113,0,4219.999897,4223.58964,4227.179384,4234.871691,4218.974256,4233.33323,4248.205024,4230.769127,4201.538359,4208.717846,4207.692205,4230.256307,4200.512718,4226.666563
114,0,4217.435794,4221.538358,4223.07682,4232.820409,4229.230666,4230.769127,4245.128101,4223.58964,4205.128102,4209.230666,4210.769128,4227.179384,4202.564,4217.435794
115,0,4221.025538,4223.07682,4225.640922,4226.666563,4231.281948,4229.230666,4249.230665,4223.58964,4208.205025,4217.948615,4216.922974,4224.615281,4208.205025,4214.358871
116,0,4219.487076,4222.051179,4221.538358,4223.07682,4222.563999,4229.743486,4246.666563,4227.179384,4206.153743,4222.051179,4217.435794,4223.58964,4205.640923,4218.974256
117,0,4219.487076,4222.563999,4214.871692,4224.102461,4224.102461,4231.281948,4239.487076,4223.07682,4203.07682,4214.871692,4210.769128,4220.512717,4201.538359,4216.922974
118,0,4224.102461,4231.281948,4219.999897,4232.820409,4227.692204,4231.794768,4242.051178,4221.538358,4204.615282,4212.307589,4214.871692,4215.384512,4206.153743,4218.461435
119,0,4226.153743,4239.999896,4230.256307,4245.640922,4228.205025,4237.948614,4248.205024,4228.717845,4212.307589,4218.974256,4224.102461,4220.512717,4213.846051,4228.205025
120,0,4230.769127,4241.538358,4235.384512,4247.692204,4236.410153,4247.692204,4251.794768,4235.897332,4219.999897,4231.794768,4226.153743,4231.281948,4223.58964,4231.794768
121,0,4233.84605,4239.487076,4235.384512,4241.538358,4242.051178,4246.153742,4253.333229,4236.410153,4221.025538,4240.512717,4230.769127,4235.384512,4229.230666,4231.281948
122,0,4228.205025,4241.025537,4236.922973,4239.999896,4235.384512,4238.461435,4252.307588,4234.871691,4213.846051,4233.33323,4241.025537,4234.358871,4223.58964,4234.358871
123,0,4222.563999,4237.948614,4232.307589,4241.025537,4227.179384,4235.384512,4245.128101,4228.717845,4207.179384,4222.051179,4235.897332,4228.205025,4214.871692,4230.256307
124,0,4221.538358,4225.128102,4221.025538,4236.410153,4229.743486,4235.897332,4238.974255,4225.640922,4208.205025,4222.051179,4222.051179,4220.512717,4214.871692,4219.487076
125,0,4222.563999,4221.025538,4218.461435,4227.692204,4235.384512,4235.384512,4243.076819,4224.615281,4210.256307,4219.999897,4222.051179,4218.974256,4214.358871,4213.846051
126,0,4224.102461,4232.820409,4227.179384,4226.666563,4236.410153,4239.487076,4247.692204,4223.58964,4212.82041,4223.07682,4231.281948,4223.58964,4211.794769,4218.974256
127,0,4221.538358,4234.871691,4227.692204,4227.692204,4231.794768,4237.948614,4240.512717,4219.487076,4212.307589,4227.179384,4227.692204,4221.538358,4211.281948,4220.512717
128,0,4221.538358,4230.256307,4227.179384,4233.33323,4233.84605,4237.948614,4241.025537,4218.974256,4213.846051,4225.128102,4224.102461,4223.07682,4216.410153,4217.435794
0,0,4222.051179,4231.281948,4229.230666,4239.487076,4239.999896,4244.10246,4252.307588,4221.538358,4214.871692,4218.974256,4228.205025,4228.717845,4213.846051,4216.410153
1,0,4223.07682,4232.307589,4228.205025,4245.640922,4240.512717,4240.512717,4248.205024,4218.974256,4211.281948,4216.922974,4227.179384,4225.128102,4213.846051,4218.461435
2,0,4222.051179,4227.179384,4225.640922,4243.076819,4237.948614,4227.692204,4231.281948,4212.82041,4205.128102,4210.769128,4218.461435,4217.948615,4214.871692,4213.846051
3,0,4220.512717,4229.230666,4223.58964,4232.307589,4241.538358,4229.230666,4231.794768,4215.384512,4204.102461,4203.589641,4215.384512,4214.871692,4208.717846,4210.256307
4,0,4216.410153,4224.102461,4219.999897,4225.128102,4236.922973,4241.538358,4242.563999,4222.563999,4208.205025,4197.435795,4217.948615,4212.82041,4199.999897,4214.358871
5,0,4215.384512,4215.384512,4226.666563,4226.153743,4230.769127,4245.128101,4247.179383,4226.153743,4213.33323,4202.564,4226.153743,4217.948615,4206.666564,4221.025538
6,0,4221.025538,4225.128102,4234.871691,4229.230666,4230.769127,4239.487076,4248.205024,4228.205025,4221.025538,4223.58964,4233.33323,4226.666563,4222.563999,4228.205025
7,0,4228.205025,4243.076819,4234.358871,4233.33323,4227.179384,4237.435794,4248.717845,4228.205025,4223.58964,4228.717845,4234.358871,4227.179384,4227.179384,4229.743486
8,0,4230.256307,4245.640922,4234.871691,4238.974255,4227.692204,4235.384512,4243.076819,4221.025538,4215.384512,4212.307589,4232.307589,4220.512717,4222.563999,4223.07682
9,0,4222.563999,4238.461435,4236.922973,4244.615281,4236.410153,4232.307589,4237.435794,4214.358871,4212.82041,4209.230666,4227.692204,4219.487076,4216.410153,4218.461435
10,0,4216.922974,4238.974255,4229.743486,4244.10246,4233.33323,4230.256307,4236.410153,4210.769128,4217.435794,4214.871692,4222.563999,4219.487076,4213.33323,4218.461435
11,0,4214.871692,4229.743486,4217.948615,4231.281948,4218.974256,4226.666563,4233.33323,4206.153743,4204.102461,4199.999897,4215.384512,4208.205025,4209.230666,4210.256307
12,0,4211.281948,4216.410153,4218.461435,4224.102461,4225.640922,4224.102461,4231.281948,4204.615282,4189.230667,4188.717846,4210.256307,4203.589641,4203.07682,4204.615282
13,0,4207.692205,4216.922974,4224.615281,4236.410153,4233.84605,4226.153743,4230.256307,4207.179384,4199.487077,4196.922974,4207.692205,4209.743487,4197.948615,4208.205025
14,0,4210.256307,4225.128102,4229.230666,4244.615281,4227.179384,4230.769127,4234.871691,4211.794769,4212.82041,4204.615282,4207.692205,4213.33323,4201.538359,4211.794769
15,0,4218.974256,4230.256307,4230.769127,4237.948614,4229.743486,4232.820409,4241.538358,4215.897333,4209.743487,4210.769128,4212.307589,4216.410153,4213.33323,4216.922974
16,0,4222.051179,4230.256307,4231.794768,4236.410153,4236.922973,4234.871691,4241.538358,4215.897333,4209.230666,4219.999897,4217.948615,4222.563999,4218.461435,4224.102461
17,0,4216.410153,4222.051179,4225.640922,4236.922973,4225.640922,4230.769127,4234.358871,4209.743487,4211.281948,4218.974256,4211.281948,4216.410153,4210.256307,4218.974256
18,0,4213.846051,4217.948615,4221.538358,4235.897332,4221.025538,4227.692204,4234.871691,4210.769128,4211.794769,4217.948615,4209.743487,4212.82041,4211.281948,4213.846051
19,0,4213.846051,4222.563999,4224.615281,4235.897332,4225.128102,4230.769127,4238.461435,4217.948615,4211.794769,4216.922974,4221.538358,4219.487076,4217.435794,4219.487076
20,0,4211.281948,4223.07682,4225.640922,4235.897332,4216.410153,4234.871691,4238.974255,4216.922974,4207.179384,4213.33323,4219.999897,4214.871692,4213.846051,4223.07682
21,0,4209.743487,4217.948615,4216.922974,4235.384512,4212.307589,4231.281948,4234.358871,4207.692205,4197.435795,4211.281948,4203.589641,4206.153743,4207.179384,4213.846051
22,0,4214.871692,4225.128102,4216.922974,4237.948614,4228.717845,4224.615281,4225.128102,4206.666564,4196.410154,4213.33323,4209.743487,4214.358871,4215.384512,4212.307589
23,0,4213.33323,4225.128102,4226.153743,4229.230666,4232.820409,4220.512717,4221.538358,4209.743487,4194.871692,4209.743487,4222.051179,4218.974256,4219.999897,4218.461435
24,0,4205.640923,4212.307589,4225.128102,4224.102461,4218.461435,4216.922974,4226.666563,4208.205025,4187.179385,4203.589641,4211.281948,4209.743487,4202.564,4215.897333
25,0,4207.179384,4213.846051,4220.512717,4237.435794,4215.384512,4212.307589,4226.153743,4204.102461,4182.564,4195.897333,4197.948615,4207.179384,4190.769128,4209.743487
26,0,4212.307589,4224.102461,4225.128102,4237.435794,4219.487076,4213.846051,4225.640922,4204.615282,4189.743487,4194.358872,4206.153743,4212.307589,4202.564,4212.307589
27,0,4210.256307,4219.999897,4224.615281,4219.999897,4217.948615,4222.563999,4230.256307,4209.743487,4198.974256,4202.564,4219.487076,4212.82041,4214.871692,4218.974256
28,0,4214.358871,4216.922974,4220.512717,4219.999897,4218.461435,4225.640922,4234.358871,4211.794769,4201.538359,4209.743487,4222.563999,4216.410153,4218.974256,4225.640922
29,0,4224.615281,4224.102461,4226.666563,4228.205025,4225.640922,4226.666563,4234.871691,4213.846051,4207.692205,4215.897333,4225.128102,4221.538358,4227.179384,4230.769127
30,0,4221.025538,4222.563999,4226.153743,4223.07682,4227.179384,4228.205025,4232.307589,4213.33323,4210.769128,4219.487076,4228.717845,4215.897333,4227.692204,4222.563999
31,0,4215.384512,4221.025538,4215.897333,4225.128102,4223.58964,4226.153743,4228.205025,4210.256307,4206.153743,4216.410153,4227.179384,4216.922974,4222.051179,4217.435794
32,0,4223.58964,4225.640922,4216.922974,4230.769127,4223.07682,4222.051179,4226.153743,4204.102461,4199.999897,4207.692205,4218.974256,4226.666563,4217.948615,4225.128102
33,0,4227.179384,4227.692204,4222.563999,4226.666563,4225.640922,4223.07682,4226.666563,4203.07682,4198.461436,4206.666564,4216.410153,4222.563999,4214.358871,4223.58964
34,0,4219.487076,4221.538358,4213.846051,4223.58964,4218.974256,4220.512717,4223.07682,4204.102461,4196.410154,4205.640923,4217.435794,4207.692205,4205.640923,4208.717846
35,0,4219.487076,4214.871692,4210.769128,4230.256307,4215.897333,4216.410153,4224.615281,4202.564,4195.384513,4200.512718,4213.33323,4210.256307,4204.102461,4209.230666
36,0,4224.615281,4212.82041,4218.461435,4226.153743,4221.025538,4218.974256,4227.692204,4206.666564,4199.999897,4198.974256,4207.179384,4219.487076,4207.692205,4215.897333
37,0,4227.179384,4221.025538,4223.07682,4218.461435,4225.128102,4222.051179,4229.743486,4215.384512,4205.128102,4204.102461,4214.871692,4222.051179,4210.769128,4217.435794
38,0,4222.051179,4216.922974,4222.563999,4218.461435,4218.461435,4218.461435,4231.281948,4216.922974,4202.051179,4203.589641,4215.897333,4221.538358,4206.666564,4219.999897
39,0,4216.410153,4206.666564,4224.615281,4223.58964,4215.384512,4218.461435,4232.820409,4214.358871,4203.589641,4205.128102,4206.666564,4225.640922,4205.128102,4223.07682
40,0,4217.435794,4209.230666,4219.487076,4218.974256,4215.384512,4217.948615,4228.205025,4209.230666,4201.538359,4203.589641,4207.179384,4225.128102,4206.666564,4218.974256
41,0,4222.563999,4221.538358,4216.410153,4215.897333,4218.461435,4216.922974,4227.692204,4204.615282,4190.256308,4195.897333,4217.435794,4221.538358,4206.666564,4215.897333
42,0,4225.128102,4225.128102,4225.640922,4223.58964,4224.102461,4219.999897,4229.230666,4205.128102,4191.281949,4195.384513,4217.435794,4228.717845,4209.230666,4222.563999
43,0,4226.153743,4225.128102,4232.820409,4232.820409,4222.563999,4225.640922,4225.128102,4209.230666,4204.102461,4206.666564,4212.82041,4237.435794,4211.794769,4226.153743
44,0,4226.666563,4227.692204,4227.692204,4235.384512,4216.922974,4221.538358,4223.58964,4208.205025,4206.153743,4207.179384,4216.410153,4235.897332,4209.230666,4223.58964
45,0,4222.563999,4229.743486,4224.615281,4236.410153,4218.974256,4213.33323,4225.128102,4208.205025,4201.538359,4198.974256,4218.461435,4233.33323,4212.307589,4227.179384
46,0,4227.179384,4235.384512,4231.281948,4233.84605,4227.692204,4221.025538,4226.153743,4215.384512,4209.743487,4208.205025,4215.897333,4241.025537,4220.512717,4236.922973
47,0,4233.33323,4237.435794,4234.358871,4229.230666,4233.33323,4234.358871,4230.769127,4219.999897,4215.897333,4219.487076,4215.897333,4246.153742,4217.948615,4234.871691
48,0,4228.205025,4229.230666,4227.692204,4228.205025,4230.256307,4229.230666,4231.794768,4217.948615,4206.666564,4210.256307,4215.384512,4237.948614,4205.640923,4224.102461
49,0,4223.58964,4225.128102,4223.58964,4226.666563,4226.153743,4214.871692,4223.58964,4213.33323,4196.410154,4198.461436,4213.846051,4233.84605,4204.102461,4224.102461
50,0,4229.743486,4229.743486,4228.717845,4225.640922,4230.769127,4219.999897,4225.128102,4214.871692,4199.999897,4204.615282,4218.974256,4238.974255,4211.281948,4227.692204
51,0,4228.717845,4229.230666,4229.743486,4228.205025,4230.769127,4229.230666,4229.743486,4216.410153,4205.128102,4207.179384,4219.487076,4237.948614,4208.717846,4222.563999
52,0,4225.128102,4232.820409,4226.153743,4231.281948,4227.692204,4226.153743,4227.179384,4218.974256,4209.230666,4211.281948,4218.974256,4233.84605,4207.179384,4225.128102
53,0,4229.230666,4243.076819,4225.128102,4231.794768,4229.230666,4220.512717,4225.640922,4219.999897,4208.205025,4218.461435,4219.999897,4233.33323,4211.281948,4232.307589
54,0,4231.281948,4249.230665,4229.743486,4241.538358,4232.307589,4224.615281,4230.769127,4219.487076,4205.128102,4216.922974,4221.538358,4235.384512,4215.384512,4233.84605
55,0,4228.717845,4243.58964,4229.230666,4244.615281,4230.769127,4229.230666,4231.281948,4221.025538,4205.640923,4215.897333,4220.512717,4237.948614,4215.384512,4234.871691
56,0,4229.230666,4239.999896,4220.512717,4232.307589,4232.820409,4228.717845,4230.769127,4223.07682,4210.769128,4227.692204,4225.640922,4239.999896,4221.538358,4236.922973
57,0,4227.692204,4237.435794,4213.846051,4223.58964,4230.769127,4225.128102,4229.230666,4218.461435,4207.692205,4228.717845,4227.692204,4232.820409,4219.999897,4232.307589
58,0,4223.58964,4235.897332,4216.922974,4225.640922,4226.666563,4227.692204,4232.307589,4219.487076,4204.615282,4220.512717,4226.666563,4229.230666,4217.435794,4232.307589
59,0,4220.512717,4230.256307,4216.410153,4223.07682,4223.07682,4227.179384,4231.281948,4222.051179,4206.666564,4217.948615,4223.58964,4231.281948,4218.461435,4234.358871
60,0,4219.487076,4226.666563,4213.33323,4220.512717,4226.666563,4222.563999,4227.692204,4218.461435,4208.205025,4218.974256,4216.922974,4230.256307,4214.871692,4228.717845
61,0,4216.410153,4229.230666,4215.384512,4226.666563,4230.769127,4225.128102,4229.230666,4215.897333,4206.153743,4219.999897,4211.794769,4224.615281,4209.230666,4223.58964
62,0,4217.948615,4232.820409,4218.461435,4233.84605,4226.666563,4233.84605,4235.384512,4218.974256,4208.205025,4224.615281,4216.922974,4225.640922,4214.358871,4228.205025
63,0,4225.640922,4238.461435,4223.07682,4241.538358,4228.717845,4234.871691,4236.922973,4221.025538,4218.974256,4229.230666,4227.692204,4234.871691,4223.58964,4234.358871
64,0,4228.205025,4245.128101,4228.205025,4245.640922,4244.10246,4234.871691,4235.897332,4221.025538,4219.999897,4231.794768,4227.692204,4239.999896,4225.640922,4232.820409
65,0,4229.743486,4245.128101,4225.128102,4240.512717,4246.666563,4233.33323,4233.33323,4218.461435,4208.717846,4228.717845,4218.461435,4231.794768,4226.153743,4226.666563
66,0,4232.820409,4246.666563,4222.051179,4243.58964,4237.948614,4229.230666,4229.743486,4214.871692,4204.615282,4227.179384,4221.025538,4227.179384,4226.666563,4228.717845
67,0,4230.256307,4253.333229,4230.769127,4244.615281,4241.025537,4232.307589,4232.820409,4218.461435,4209.230666,4232.307589,4233.84605,4233.84605,4228.717845,4235.384512
68,0,4226.666563,4249.743486,4232.820409,4231.281948,4241.025537,4231.281948,4230.256307,4216.922974,4206.666564,4227.179384,4231.794768,4234.358871,4228.205025,4230.256307
69,0,4227.179384,4241.025537,4223.07682,4229.743486,4228.717845,4223.58964,4221.538358,4210.256307,4203.07682,4217.948615,4219.999897,4230.256307,4221.538358,4221.025538
70,0,4223.07682,4237.948614,4219.487076,4236.410153,4222.563999,4224.102461,4222.563999,4211.794769,4201.538359,4220.512717,4213.846051,4224.615281,4213.33323,4218.461435
71,0,4223.07682,4243.076819,4227.692204,4238.461435,4230.256307,4230.769127,4229.230666,4219.999897,4203.07682,4226.666563,4215.897333,4223.58964,4215.897333,4225.640922
72,0,4230.256307,4248.205024,4233.33323,4236.922973,4236.922973,4228.717845,4228.717845,4218.974256,4205.128102,4223.07682,4214.871692,4228.205025,4223.58964,4228.717845
73,0,4231.794768,4252.307588,4233.84605,4234.358871,4235.897332,4225.640922,4226.666563,4216.410153,4207.179384,4229.743486,4216.410153,4234.871691,4228.717845,4229.743486
74,0,4229.743486,4247.179383,4232.307589,4235.384512,4228.717845,4225.128102,4228.205025,4217.435794,4210.256307,4237.435794,4226.153743,4237.435794,4228.717845,4231.794768
75,0,4233.33323,4242.051178,4233.84605,4247.179383,4228.717845,4225.640922,4230.769127,4219.999897,4216.410153,4234.871691,4235.897332,4241.025537,4230.256307,4236.922973
76,0,4233.33323,4243.58964,4233.33323,4239.487076,4228.205025,4225.128102,4230.769127,4219.487076,4214.871692,4231.281948,4233.33323,4240.512717,4230.769127,4237.435794
77,0,4230.769127,4247.692204,4229.230666,4225.640922,4231.281948,4227.692204,4232.307589,4223.07682,4212.82041,4235.384512,4232.307589,4238.461435,4233.84605,4237.948614
78,0,4231.281948,4249.230665,4229.743486,4237.948614,4241.025537,4232.307589,4232.820409,4225.640922,4214.871692,4238.974255,4235.384512,4242.051178,4233.84605,4239.487076
79,0,4230.769127,4253.84605,4237.948614,4250.769127,4249.230665,4236.922973,4234.871691,4222.563999,4211.281948,4237.435794,4230.769127,4242.563999,4233.33323,4233.33323
80,0,4224.102461,4252.820409,4234.358871,4238.974255,4240.512717,4234.358871,4235.897332,4218.974256,4201.538359,4231.281948,4222.563999,4233.33323,4235.897332,4229.230666
81,0,4219.487076,4241.025537,4219.487076,4226.666563,4229.743486,4228.205025,4237.948614,4223.58964,4199.999897,4228.205025,4222.563999,4228.205025,4232.307589,4231.794768
82,0,4221.538358,4236.922973,4217.435794,4231.281948,4234.358871,4229.230666,4238.974255,4229.743486,4207.179384,4232.820409,4226.153743,4230.769127,4225.128102,4227.179384
83,0,4225.640922,4245.640922,4227.692204,4249.230665,4239.999896,4234.871691,4237.948614,4230.256307,4213.846051,4234.871691,4229.743486,4234.358871,4230.769127,4218.461435
84,0,4225.640922,4247.692204,4233.84605,4250.769127,4237.435794,4234.358871,4239.487076,4227.692204,4215.897333,4231.281948,4230.769127,4234.871691,4235.897332,4220.512717
85,0,4222.563999,4238.461435,4227.692204,4227.692204,4234.358871,4230.769127,4237.948614,4223.07682,4212.82041,4227.179384,4226.666563,4231.794768,4225.128102,4221.538358
86,0,4223.07682,4242.563999,4223.58964,4229.230666,4241.025537,4234.358871,4234.871691,4224.102461,4212.82041,4230.256307,4229.743486,4232.307589,4226.153743,4225.128102
87,0,4226.153743,4252.820409,4229.230666,4248.205024,4244.10246,4236.410153,4235.384512,4229.743486,4217.435794,4237.435794,4235.897332,4236.410153,4239.487076,4233.33323
88,0,4225.640922,4248.205024,4232.820409,4243.076819,4236.410153,4231.794768,4236.922973,4231.794768,4219.487076,4238.974255,4234.358871,4240.512717,4242.051178,4233.33323
89,0,4223.07682,4236.922973,4228.717845,4233.84605,4228.717845,4229.230666,4233.33323,4225.640922,4211.794769,4230.769127,4233.33323,4238.974255,4236.410153,4229.230666
90,0,4225.640922,4238.974255,4227.692204,4239.999896,4233.33323,4230.769127,4231.281948,4222.051179,4201.538359,4226.666563,4234.358871,4236.410153,4235.384512,4231.281948
91,0,4221.538358,4237.435794,4225.640922,4232.820409,4233.84605,4223.07682,4228.717845,4218.461435,4195.897333,4220.512717,4227.179384,4229.230666,4228.717845,4224.615281
92,0,4216.410153,4233.84605,4225.128102,4225.640922,4233.33323,4219.487076,4225.640922,4216.410153,4202.564,4217.435794,4229.230666,4230.256307,4228.205025,4224.102461
93,0,4222.563999,4239.487076,4232.307589,4239.487076,4239.487076,4226.666563,4227.692204,4217.435794,4209.230666,4228.717845,4239.999896,4235.897332,4237.435794,4234.358871
94,0,4230.256307,4247.692204,4240.512717,4249.743486,4242.051178,4234.358871,4233.84605,4219.999897,4212.82041,4242.563999,4238.461435,4237.948614,4237.948614,4235.384512
95,0,4226.666563,4247.692204,4238.461435,4243.076819,4239.487076,4231.281948,4233.33323,4222.563999,4216.922974,4239.487076,4235.384512,4240.512717,4229.743486,4233.33323
96,0,4226.153743,4249.743486,4236.410153,4242.563999,4249.230665,4230.769127,4235.384512,4229.230666,4223.07682,4238.461435,4245.128101,4247.692204,4234.358871,4246.153742
97,0,4229.743486,4246.666563,4235.384512,4247.179383,4249.743486,4235.384512,4236.410153,4228.717845,4224.615281,4243.076819,4245.128101,4244.10246,4237.435794,4246.666563
98,0,4228.205025,4237.948614,4229.230666,4243.076819,4236.410153,4232.307589,4234.871691,4221.538358,4222.051179,4235.897332,4233.33323,4236.410153,4228.717845,4232.820409
99,0,4225.128102,4242.051178,4228.717845,4239.999896,4238.461435,4227.692204,4233.33323,4221.538358,4218.974256,4225.128102,4229.743486,4233.84605,4227.179384,4232.820409
100,0,4225.640922,4247.692204,4231.794768,4244.10246,4246.153742,4230.769127,4231.794768,4225.640922,4215.897333,4226.153743,4233.84605,4234.358871,4230.769127,4238.974255
101,0,4224.102461,4238.974255,4230.769127,4238.974255,4236.922973,4233.33323,4232.307589,4221.538358,4213.846051,4228.717845,4232.820409,4238.461435,4226.666563,4237.435794
102,0,4221.025538,4232.820409,4230.769127,4226.666563,4224.615281,4225.640922,4231.794768,4217.948615,4218.974256,4226.666563,4233.33323,4240.512717,4225.640922,4235.897332
103,0,4224.615281,4240.512717,4235.384512,4233.84605,4222.051179,4218.974256,4230.769127,4222.051179,4225.640922,4233.33323,4243.58964,4242.051178,4233.33323,4237.948614
104,0,4225.640922,4244.10246,4233.84605,4249.230665,4223.58964,4216.922974,4228.717845,4219.999897,4216.922974,4239.487076,4249.230665,4239.999896,4234.358871,4239.487076
105,0,4219.999897,4236.410153,4230.769127,4246.666563,4228.205025,4219.999897,4228.717845,4214.871692,4210.256307,4237.948614,4244.615281,4235.384512,4232.820409,4239.999896
106,0,4218.974256,4233.33323,4232.820409,4233.33323,4227.692204,4223.07682,4229.230666,4217.435794,4219.487076,4236.410153,4242.563999,4235.897332,4233.33323,4235.897332
107,0,4223.58964,4239.999896,4232.307589,4234.871691,4225.640922,4223.58964,4230.769127,4223.07682,4224.102461,4236.922973,4245.128101,4241.538358,4234.871691,4236.922973
108,0,4221.538358,4238.974255,4228.205025,4239.487076,4223.58964,4219.999897,4230.256307,4217.435794,4216.410153,4236.922973,4233.84605,4238.974255,4234.358871,4239.487076
109,0,4221.025538,4234.358871,4232.307589,4234.871691,4224.102461,4221.025538,4229.743486,4214.871692,4218.461435,4240.512717,4229.230666,4236.410153,4234.358871,4237.435794
110,0,4227.179384,4239.487076,4239.999896,4232.820409,4228.205025,4224.615281,4232.820409,4221.538358,4224.102461,4240.512717,4239.487076,4239.999896,4231.794768,4236.410153
111,0,4229.230666,4246.153742,4242.563999,4242.051178,4232.820409,4223.58964,4235.897332,4222.563999,4224.102461,4237.435794,4244.615281,4241.025537,4230.769127,4236.410153
112,0,4224.102461,4234.358871,4232.820409,4239.487076,4227.692204,4223.58964,4234.871691,4218.974256,4223.58964,4238.461435,4235.384512,4234.358871,4226.666563,4227.179384
113,0,4218.974256,4227.179384,4227.179384,4231.794768,4224.102461,4227.179384,4234.358871,4221.538358,4224.102461,4237.948614,4234.358871,4231.794768,4226.666563,4221.538358
114,0,4221.538358,4236.922973,4232.307589,4237.948614,4224.615281,4223.58964,4233.33323,4221.538358,4223.07682,4234.358871,4239.999896,4233.84605,4229.230666,4228.205025
115,0,4227.179384,4243.076819,4235.384512,4245.128101,4223.58964,4217.435794,4230.769127,4217.435794,4224.615281,4237.948614,4238.974255,4236.922973,4232.307589,4237.435794
116,0,4225.128102,4234.871691,4232.820409,4231.281948,4224.102461,4215.384512,4226.666563,4216.922974,4217.948615,4235.384512,4236.410153,4233.84605,4231.281948,4236.410153
117,0,4222.563999,4232.307589,4235.384512,4223.07682,4224.615281,4220.512717,4229.230666,4219.999897,4211.281948,4226.153743,4236.922973,4232.820409,4227.692204,4232.820409
118,0,4225.128102,4238.974255,4242.051178,4241.025537,4228.717845,4225.640922,4234.358871,4221.538358,4218.974256,4229.743486,4234.871691,4237.948614,4226.666563,4233.33323
119,0,4226.153743,4242.563999,4240.512717,4249.743486,4235.384512,4228.717845,4234.871691,4223.07682,4230.256307,4237.948614,4236.410153,4240.512717,4229.743486,4234.358871
120,0,4225.128102,4241.538358,4236.922973,4245.128101,4234.871691,4229.230666,4239.999896,4229.743486,4235.897332,4241.025537,4246.153742,4243.58964,4236.410153,4239.487076
121,0,4226.666563,4241.538358,4238.974255,4246.666563,4234.871691,4231.281948,4244.615281,4233.84605,4238.974255,4246.153742,4248.717845,4249.743486,4243.076819,4249.230665
122,0,4226.153743,4242.051178,4238.461435,4243.076819,4244.10246,4233.33323,4238.461435,4226.666563,4236.410153,4245.128101,4234.358871,4246.153742,4238.461435,4245.128101
123,0,4221.538358,4237.435794,4227.692204,4238.461435,4246.153742,4228.717845,4230.256307,4215.384512,4229.743486,4228.205025,4224.615281,4229.230666,4222.563999,4229.743486
124,0,4222.563999,4234.358871,4223.07682,4243.58964,4235.384512,4224.102461,4229.743486,4211.794769,4226.153743,4220.512717,4226.666563,4219.487076,4217.435794,4226.153743
125,0,4223.58964,4237.435794,4230.256307,4238.461435,4234.871691,4222.563999,4230.256307,4213.33323,4223.58964,4224.102461,4228.717845,4224.102461,4222.563999,4230.256307
126,0,4223.07682,4243.58964,4233.84605,4233.84605,4249.230665,4228.717845,4234.358871,4215.384512,4229.230666,4226.666563,4232.820409,4232.820409,4228.205025,4234.871691
127,0,4224.102461,4240.512717,4230.769127,4240.512717,4249.743486,4230.769127,4238.461435,4213.33323,4233.33323,4225.128102,4236.410153,4232.307589,4229.743486,4234.358871
128,0,4226.153743,4229.743486,4229.230666,4237.948614,4234.871691,4224.102461,4234.871691,4207.179384,4228.205025,4223.58964,4228.205025,4229.743486,4223.58964,4225.640922
0,0,4222.051179,4216.410153,4222.051179,4223.58964,4224.615281,4216.922974,4230.769127,4203.07682,4222.563999,4217.435794,4216.410153,4228.717845,4211.794769,4212.82041
1,0,4218.461435,4212.82041,4213.33323,4223.07682,4226.153743,4216.410153,4232.307589,4204.102461,4221.538358,4211.794769,4221.025538,4224.615281,4212.82041,4208.205025
2,0,4213.33323,4210.769128,4210.769128,4215.384512,4220.512717,4215.897333,4227.179384,4202.564,4216.922974,4207.692205,4221.025538,4213.846051,4215.897333,4208.205025
3,0,4209.230666,4208.205025,4211.794769,4205.640923,4219.487076,4215.384512,4226.153743,4205.128102,4216.922974,4210.769128,4214.358871,4212.307589,4209.230666,4210.769128
4,0,4215.897333,4212.307589,4212.82041,4214.358871,4226.153743,4216.922974,4230.769127,4213.33323,4223.07682,4218.461435,4219.487076,4223.58964,4208.717846,4215.897333
5,0,4227.179384,4225.640922,4221.538358,4227.179384,4231.281948,4219.999897,4231.794768,4219.999897,4228.717845,4224.615281,4231.794768,4235.384512,4222.051179,4224.615281
6,0,4228.205025,4229.743486,4228.717845,4226.666563,4236.922973,4221.025538,4230.256307,4219.487076,4230.256307,4223.07682,4230.769127,4233.84605,4223.58964,4225.128102
7,0,4224.615281,4222.563999,4224.615281,4222.563999,4238.974255,4224.102461,4235.384512,4218.974256,4226.666563,4221.538358,4226.153743,4230.769127,4217.435794,4220.512717
8,0,4225.640922,4224.615281,4225.640922,4226.666563,4233.33323,4227.692204,4237.435794,4222.051179,4225.640922,4225.128102,4233.84605,4236.410153,4223.58964,4225.128102
9,0,4227.179384,4231.281948,4230.256307,4230.256307,4227.179384,4225.128102,4232.307589,4219.999897,4224.102461,4223.58964,4238.974255,4238.974255,4228.205025,4230.256307
10,0,4225.640922,4228.205025,4228.205025,4226.153743,4226.153743,4222.563999,4231.794768,4217.435794,4222.563999,4219.999897,4228.717845,4232.307589,4219.999897,4229.230666
11,0,4225.128102,4227.179384,4226.666563,4224.615281,4228.205025,4226.666563,4235.384512,4219.999897,4223.58964,4224.102461,4222.563999,4230.256307,4219.487076,4226.666563
12,0,4227.179384,4232.307589,4228.717845,4227.179384,4234.871691,4226.153743,4235.384512,4221.025538,4226.153743,4230.256307,4229.230666,4236.410153,4228.205025,4226.153743
13,0,4227.179384,4233.84605,4227.692204,4229.743486,4238.974255,4217.435794,4231.794768,4219.487076,4222.563999,4225.640922,4230.256307,4235.384512,4226.666563,4226.153743
14,0,4227.179384,4232.307589,4228.205025,4235.897332,4234.358871,4217.948615,4230.769127,4223.07682,4223.07682,4224.102461,4227.179384,4230.769127,4223.07682,4232.307589
15,0,4228.717845,4231.281948,4225.128102,4235.384512,4229.230666,4221.025538,4230.256307,4223.07682,4228.205025,4229.743486,4228.205025,4229.230666,4228.205025,4231.794768
16,0,4228.717845,4229.743486,4218.461435,4223.58964,4229.230666,4219.487076,4229.230666,4215.897333,4226.666563,4227.179384,4227.692204,4230.769127,4233.33323,4223.58964
17,0,4221.025538,4224.102461,4219.487076,4219.999897,4225.640922,4221.025538,4226.666563,4214.871692,4219.487076,4219.487076,4223.58964,4226.666563,4229.230666,4217.435794
18,0,4222.563999,4229.743486,4231.281948,4232.307589,4224.615281,4230.256307,4229.230666,4224.102461,4225.128102,4227.692204,4229.230666,4228.205025,4231.281948,4224.615281
19,0,4233.84605,4238.461435,4233.84605,4232.307589,4225.640922,4232.820409,4230.769127,4226.153743,4234.358871,4237.948614,4233.33323,4234.871691,4239.999896,4234.358871
20,0,4236.410153,4239.999896,4229.743486,4229.743486,4225.640922,4225.640922,4225.640922,4219.487076,4229.230666,4231.281948,4231.794768,4234.871691,4238.974255,4233.84605
21,0,4239.487076,4244.10246,4231.794768,4239.487076,4224.102461,4223.07682,4223.07682,4215.897333,4224.102461,4221.538358,4230.769127,4233.33323,4230.769127,4232.820409
22,0,4250.256306,4257.948614,4237.435794,4242.563999,4233.33323,4232.307589,4231.281948,4221.025538,4232.820409,4225.640922,4228.205025,4239.999896,4234.358871,4245.640922
23,0,4249.743486,4255.384511,4232.820409,4233.84605,4235.897332,4232.820409,4230.769127,4222.051179,4227.692204,4222.051179,4221.025538,4237.948614,4236.922973,4251.794768
24,0,4245.128101,4244.10246,4227.179384,4230.769127,4224.102461,4219.999897,4218.461435,4214.871692,4215.897333,4206.666564,4220.512717,4228.717845,4231.281948,4245.640922
25,0,4258.461434,4254.35887,4233.84605,4240.512717,4225.128102,4214.871692,4219.487076,4216.410153,4224.102461,4212.307589,4231.794768,4237.948614,4234.358871,4252.820409
26,0,4272.307588,4269.230665,4242.563999,4255.384511,4237.435794,4227.692204,4234.358871,4228.205025,4242.051178,4234.358871,4241.025537,4253.84605,4246.666563,4269.230665
27,0,4272.820408,4269.230665,4244.615281,4259.999896,4237.435794,4236.922973,4237.435794,4230.256307,4247.692204,4237.435794,4238.974255,4252.820409,4248.717845,4273.846049
28,0,4269.230665,4267.179383,4242.563999,4244.10246,4233.84605,4227.179384,4227.692204,4223.07682,4241.025537,4224.102461,4232.307589,4246.666563,4239.999896,4269.230665
29,0,4266.666562,4265.128101,4236.410153,4230.769127,4237.948614,4221.025538,4224.615281,4221.025538,4236.410153,4219.487076,4229.230666,4247.179383,4237.435794,4265.640921
30,0,4266.666562,4259.487075,4232.307589,4239.487076,4235.384512,4228.717845,4230.769127,4222.051179,4242.563999,4221.025538,4232.307589,4246.666563,4242.051178,4262.563998
31,0,4261.538357,4258.974255,4233.33323,4249.230665,4229.743486,4230.256307,4231.794768,4219.999897,4250.769127,4220.512717,4234.871691,4239.999896,4238.974255,4256.410152
32,0,4247.179383,4253.333229,4227.179384,4237.435794,4221.538358,4218.974256,4223.07682,4213.33323,4244.615281,4213.846051,4231.281948,4231.281948,4224.102461,4246.153742
33,0,4238.461435,4241.538358,4219.999897,4222.051179,4216.410153,4220.512717,4222.051179,4212.82041,4237.435794,4205.640923,4226.666563,4227.692204,4218.974256,4242.563999
34,0,4244.615281,4241.025537,4224.102461,4226.153743,4223.58964,4229.230666,4229.230666,4217.435794,4239.487076,4206.153743,4226.153743,4228.717845,4226.666563,4248.717845
35,0,4255.384511,4256.410152,4235.384512,4244.615281,4234.358871,4230.769127,4230.256307,4219.487076,4245.640922,4216.922974,4236.922973,4236.410153,4234.871691,4256.922973
36,0,4251.794768,4256.922973,4234.358871,4241.538358,4224.102461,4224.102461,4224.615281,4215.897333,4244.615281,4217.948615,4236.410153,4240.512717,4229.230666,4250.769127
37,0,4237.435794,4239.999896,4225.640922,4226.153743,4215.897333,4221.025538,4224.615281,4216.410153,4236.410153,4214.871692,4223.58964,4237.948614,4217.435794,4236.922973
38,0,4231.281948,4231.281948,4224.102461,4223.58964,4225.640922,4226.153743,4228.717845,4219.999897,4235.897332,4218.974256,4219.487076,4235.897332,4218.461435,4228.717845
39,0,4241.538358,4239.999896,4231.794768,4228.205025,4232.820409,4230.769127,4231.794768,4222.051179,4242.051178,4222.051179,4232.820409,4237.948614,4227.692204,4233.84605
40,0,4243.076819,4235.897332,4231.281948,4222.051179,4223.58964,4225.640922,4232.820409,4222.051179,4238.974255,4211.794769,4235.384512,4234.871691,4222.563999,4235.897332
41,0,4231.281948,4222.563999,4221.538358,4217.948615,4216.922974,4219.999897,4231.281948,4220.512717,4230.769127,4203.07682,4218.974256,4226.153743,4210.256307,4231.794768
42,0,4229.230666,4225.640922,4221.025538,4218.461435,4222.051179,4221.538358,4229.743486,4219.487076,4229.230666,4204.102461,4211.794769,4225.640922,4212.82041,4231.794768
43,0,4239.487076,4240.512717,4230.256307,4228.205025,4229.230666,4231.794768,4233.84605,4221.025538,4238.461435,4213.33323,4226.666563,4238.461435,4226.666563,4243.58964
44,0,4238.461435,4237.435794,4226.666563,4236.410153,4228.717845,4231.794768,4230.769127,4219.999897,4246.666563,4221.538358,4233.84605,4244.10246,4231.794768,4244.615281
45,0,4225.128102,4223.07682,4216.410153,4225.128102,4224.615281,4219.487076,4219.999897,4213.33323,4239.999896,4216.922974,4223.58964,4229.230666,4225.640922,4229.230666
46,0,4226.666563,4226.666563,4216.922974,4216.922974,4230.256307,4217.435794,4219.999897,4209.743487,4233.33323,4213.846051,4224.102461,4219.999897,4227.692204,4226.666563
47,0,4234.358871,4237.948614,4221.538358,4226.666563,4230.769127,4227.179384,4226.153743,4214.358871,4241.538358,4222.051179,4236.922973,4228.205025,4235.384512,4235.897332
48,0,4230.256307,4239.487076,4222.563999,4230.256307,4221.025538,4229.743486,4226.153743,4219.999897,4247.179383,4226.153743,4234.358871,4230.769127,4233.84605,4234.358871
49,0,4225.128102,4237.948614,4227.692204,4219.487076,4221.538358,4228.205025,4224.615281,4216.410153,4241.538358,4226.153743,4228.205025,4227.692204,4232.307589,4228.717845
50,0,4228.717845,4243.076819,4234.871691,4224.102461,4231.281948,4226.666563,4227.692204,4212.82041,4243.58964,4226.666563,4233.84605,4232.820409,4240.512717,4231.794768
51,0,4229.743486,4242.051178,4228.717845,4237.948614,4228.205025,4218.974256,4229.230666,4212.307589,4240.512717,4222.563999,4228.717845,4229.230666,4239.999896,4231.794768
52,0,4227.179384,4238.461435,4222.563999,4237.948614,4223.58964,4223.07682,4232.307589,4213.33323,4234.871691,4226.666563,4224.102461,4221.025538,4235.384512,4227.692204
53,0,4228.205025,4242.563999,4227.692204,4232.307589,4225.640922,4231.281948,4232.307589,4214.358871,4240.512717,4236.410153,4236.922973,4226.666563,4241.025537,4229.743486
54,0,4231.794768,4250.256306,4235.384512,4243.58964,4228.205025,4232.820409,4233.33323,4219.999897,4251.794768,4236.922973,4250.256306,4238.974255,4252.820409,4242.051178
55,0,4226.153743,4244.10246,4231.794768,4243.58964,4226.153743,4234.358871,4239.487076,4223.07682,4251.794768,4229.230666,4243.076819,4238.974255,4251.281947,4241.025537
56,0,4218.974256,4235.384512,4222.563999,4223.58964,4231.281948,4239.487076,4242.051178,4222.051179,4250.256306,4229.230666,4232.307589,4232.307589,4241.025537,4223.58964
57,0,4218.461435,4236.922973,4216.410153,4219.487076,4239.487076,4237.435794,4235.384512,4217.435794,4247.179383,4231.281948,4228.717845,4225.640922,4236.410153,4217.435794
58,0,4217.435794,4234.871691,4212.82041,4231.794768,4236.922973,4229.743486,4233.84605,4213.846051,4234.871691,4227.692204,4224.615281,4221.025538,4236.922973,4225.128102
59,0,4212.307589,4225.640922,4211.794769,4229.230666,4222.563999,4223.58964,4235.384512,4213.846051,4229.743486,4218.974256,4213.33323,4219.999897,4230.256307,4221.025538
60,0,4216.410153,4231.794768,4214.871692,4223.07682,4221.538358,4225.640922,4233.84605,4216.922974,4238.974255,4221.025538,4211.794769,4222.563999,4227.179384,4217.435794
61,0,4220.512717,4238.974255,4216.410153,4227.692204,4229.230666,4231.281948,4232.820409,4220.512717,4243.58964,4229.230666,4223.07682,4226.666563,4233.84605,4223.07682
62,0,4215.897333,4236.410153,4216.410153,4227.692204,4227.179384,4232.307589,4236.410153,4226.666563,4247.179383,4228.717845,4230.256307,4228.717845,4237.948614,4223.58964
63,0,4215.897333,4235.897332,4216.922974,4222.563999,4227.692204,4234.871691,4238.974255,4227.179384,4255.384511,4226.666563,4225.640922,4222.563999,4236.922973,4221.538358
64,0,4218.461435,4238.974255,4216.922974,4225.640922,4238.461435,4238.974255,4239.999896,4220.512717,4249.230665,4229.743486,4224.615281,4220.512717,4239.999896,4222.563999
65,0,4214.871692,4235.384512,4217.435794,4234.358871,4239.487076,4235.384512,4240.512717,4216.410153,4236.410153,4225.128102,4227.692204,4223.58964,4241.538358,4220.512717
66,0,4213.33323,4230.769127,4218.461435,4236.922973,4233.33323,4234.358871,4237.948614,4215.384512,4241.538358,4215.897333,4219.999897,4222.051179,4232.820409,4210.769128
67,0,4211.281948,4228.205025,4215.897333,4226.153743,4236.410153,4239.999896,4238.461435,4212.82041,4251.281947,4217.948615,4210.769128,4213.33323,4224.615281,4205.640923
68,0,4211.281948,4226.153743,4211.281948,4217.435794,4236.922973,4241.025537,4244.615281,4217.948615,4250.769127,4224.615281,4219.487076,4211.794769,4228.205025,4209.743487
69,0,4221.538358,4237.435794,4217.948615,4229.743486,4237.435794,4239.999896,4249.743486,4227.179384,4256.922973,4235.384512,4233.33323,4225.640922,4240.512717,4221.538358
70,0,4226.153743,4248.205024,4228.205025,4239.999896,4235.384512,4239.999896,4246.666563,4227.179384,4263.076819,4241.538358,4233.84605,4237.435794,4246.153742,4231.281948
71,0,4221.025538,4244.10246,4234.871691,4230.256307,4231.281948,4239.487076,4248.205024,4225.640922,4256.922973,4230.769127,4226.666563,4237.948614,4241.025537,4229.743486
72,0,4215.897333,4235.897332,4231.794768,4223.58964,4235.384512,4235.897332,4250.256306,4222.051179,4248.205024,4218.461435,4218.974256,4226.153743,4232.820409,4217.435794
73,0,4214.871692,4239.487076,4223.58964,4233.84605,4238.974255,4231.281948,4239.487076,4213.846051,4247.179383,4222.563999,4218.461435,4221.538358,4232.307589,4212.82041
74,0,4213.33323,4235.897332,4219.999897,4233.33323,4229.743486,4230.256307,4230.256307,4207.179384,4237.948614,4221.538358,4220.512717,4223.07682,4230.256307,4214.358871
75,0,4214.358871,4226.153743,4224.102461,4230.256307,4230.256307,4235.384512,4238.974255,4210.256307,4228.717845,4215.384512,4218.461435,4224.102461,4232.307589,4210.256307
76,0,4210.256307,4221.538358,4219.999897,4228.205025,4235.897332,4232.307589,4243.58964,4211.794769,4230.256307,4213.846051,4213.846051,4219.487076,4231.794768,4203.07682
77,0,4202.564,4219.487076,4211.281948,4216.410153,4227.179384,4228.717845,4241.538358,4212.307589,4233.84605,4211.794769,4209.230666,4213.33323,4221.025538,4203.07682
78,0,4208.717846,4219.999897,4214.871692,4211.794769,4221.025538,4230.769127,4242.563999,4217.435794,4238.461435,4213.846051,4210.256307,4216.410153,4216.410153,4208.717846
79,0,4219.487076,4227.692204,4228.717845,4229.743486,4231.794768,4230.769127,4245.640922,4221.025538,4243.58964,4225.128102,4223.58964,4225.640922,4231.281948,4216.410153
80,0,4214.358871,4228.205025,4228.205025,4234.871691,4236.410153,4231.281948,4246.666563,4219.487076,4243.076819,4228.717845,4227.179384,4224.615281,4237.435794,4214.358871
81,0,4206.153743,4216.410153,4219.999897,4221.025538,4227.179384,4233.84605,4246.153742,4217.435794,4239.487076,4222.563999,4218.461435,4218.461435,4224.615281,4204.615282
82,0,4208.205025,4211.281948,4217.435794,4215.384512,4215.384512,4228.717845,4239.999896,4212.307589,4237.948614,4216.922974,4217.948615,4216.922974,4221.538358,4202.564
83,0,4208.717846,4215.897333,4217.435794,4212.307589,4215.384512,4223.07682,4235.897332,4206.153743,4232.307589,4210.769128,4218.461435,4217.948615,4226.666563,4207.179384
84,0,4204.102461,4220.512717,4218.974256,4214.871692,4225.640922,4229.743486,4238.974255,4211.794769,4230.256307,4213.846051,4217.948615,4217.435794,4227.692204,4205.640923
85,0,4203.07682,4217.948615,4221.025538,4221.538358,4226.666563,4233.33323,4238.974255,4218.974256,4232.820409,4221.538358,4219.487076,4215.897333,4224.615281,4202.051179
86,0,4209.230666,4220.512717,4226.666563,4219.999897,4225.640922,4230.256307,4237.435794,4212.82041,4229.230666,4218.974256,4218.461435,4219.487076,4227.179384,4209.230666
87,0,4213.846051,4229.230666,4228.205025,4221.538358,4226.153743,4231.281948,4239.999896,4205.128102,4223.58964,4215.384512,4216.922974,4223.58964,4235.384512,4219.487076
88,0,4212.82041,4229.743486,4224.615281,4233.33323,4228.205025,4235.384512,4244.615281,4209.230666,4224.615281,4219.999897,4226.153743,4223.07682,4236.922973,4218.974256
89,0,4212.82041,4225.640922,4224.615281,4231.281948,4232.820409,4238.974255,4246.153742,4213.33323,4225.128102,4217.948615,4231.281948,4222.563999,4230.256307,4210.256307
90,0,4218.461435,4233.84605,4234.871691,4223.07682,4241.025537,4245.640922,4249.230665,4215.384512,4228.717845,4218.974256,4229.230666,4231.281948,4231.794768,4213.846051
91,0,4220.512717,4237.435794,4238.461435,4226.153743,4239.999896,4243.076819,4248.717845,4220.512717,4232.820409,4227.179384,4229.230666,4235.897332,4234.871691,4225.640922
92,0,4216.922974,4227.692204,4228.205025,4231.281948,4237.435794,4235.897332,4246.153742,4222.051179,4235.384512,4229.743486,4231.281948,4229.743486,4230.256307,4225.128102
93,0,4208.717846,4214.871692,4216.922974,4223.58964,4234.871691,4235.897332,4241.538358,4214.871692,4232.820409,4222.051179,4220.512717,4216.922974,4221.538358,4208.205025
94,0,4205.640923,4213.33323,4215.384512,4214.871692,4234.871691,4239.487076,4238.974255,4210.769128,4225.640922,4215.897333,4209.230666,4212.82041,4221.538358,4201.538359
95,0,4213.33323,4217.435794,4213.846051,4212.82041,4238.461435,4241.025537,4240.512717,4211.281948,4224.615281,4216.410153,4216.922974,4220.512717,4231.281948,4210.256307
96,0,4221.538358,4225.640922,4215.897333,4222.051179,4244.10246,4244.615281,4246.666563,4213.846051,4234.871691,4221.538358,4230.256307,4229.230666,4241.025537,4218.461435
97,0,4222.051179,4224.615281,4222.563999,4227.179384,4242.051178,4238.974255,4246.153742,4214.871692,4236.410153,4221.025538,4218.461435,4226.153743,4233.84605,4215.384512
98,0,4223.07682,4221.538358,4226.153743,4222.563999,4239.999896,4231.794768,4242.051178,4217.435794,4232.820409,4213.33323,4204.615282,4225.640922,4223.58964,4211.794769
99,0,4223.07682,4225.640922,4225.128102,4222.563999,4240.512717,4239.999896,4247.179383,4222.563999,4237.948614,4209.230666,4213.33323,4230.256307,4229.743486,4218.974256
100,0,4222.051179,4224.615281,4230.769127,4231.281948,4232.307589,4244.615281,4249.743486,4224.102461,4241.025537,4209.743487,4224.102461,4233.84605,4232.820409,4228.205025
101,0,4222.563999,4216.410153,4235.384512,4227.179384,4219.999897,4232.307589,4240.512717,4219.487076,4233.33323,4209.230666,4221.025538,4233.84605,4226.153743,4226.153743
102,0,4224.615281,4216.410153,4232.307589,4210.769128,4220.512717,4226.153743,4238.974255,4219.999897,4229.743486,4210.256307,4215.897333,4233.33323,4226.666563,4216.922974
103,0,4225.640922,4223.07682,4232.820409,4215.384512,4233.84605,4233.33323,4248.717845,4229.230666,4233.84605,4216.410153,4224.102461,4241.025537,4234.871691,4217.948615
104,0,4223.07682,4222.051179,4233.84605,4227.179384,4241.025537,4237.435794,4249.743486,4232.820409,4235.897332,4218.974256,4233.84605,4246.153742,4237.435794,4227.179384
105,0,4219.487076,4214.358871,4229.743486,4218.974256,4236.410153,4234.358871,4244.615281,4228.717845,4235.897332,4216.410153,4228.717845,4239.487076,4234.871691,4227.179384
106,0,4217.948615,4210.256307,4224.102461,4208.717846,4226.666563,4230.769127,4241.538358,4221.538358,4231.794768,4212.82041,4214.871692,4232.307589,4231.794768,4219.999897
107,0,4218.974256,4219.487076,4225.128102,4221.538358,4228.205025,4231.281948,4238.461435,4218.461435,4227.692204,4212.82041,4215.384512,4233.33323,4232.307589,4219.999897
108,0,4222.563999,4227.179384,4228.717845,4227.692204,4236.410153,4232.307589,4233.84605,4218.974256,4228.205025,4208.717846,4222.051179,4232.820409,4232.820409,4221.538358
109,0,4226.153743,4227.692204,4230.769127,4221.025538,4233.33323,4228.717845,4235.384512,4220.512717,4232.820409,4205.640923,4221.025538,4233.33323,4233.33323,4222.051179
110,0,4223.58964,4224.615281,4229.230666,4220.512717,4223.07682,4219.487076,4237.435794,4218.974256,4228.205025,4204.615282,4217.435794,4234.871691,4227.692204,4218.974256
111,0,4224.615281,4226.153743,4231.281948,4226.153743,4228.717845,4222.563999,4238.974255,4223.58964,4225.128102,4207.692205,4221.025538,4235.384512,4226.666563,4217.435794
112,0,4225.128102,4225.640922,4228.717845,4226.153743,4233.33323,4231.794768,4240.512717,4226.153743,4231.281948,4207.179384,4225.640922,4230.256307,4227.692204,4216.922974
113,0,4218.974256,4215.897333,4221.538358,4225.128102,4224.615281,4228.717845,4237.435794,4219.999897,4233.84605,4204.102461,4222.051179,4222.563999,4220.512717,4212.82041
114,0,4214.871692,4207.179384,4218.974256,4215.897333,4217.435794,4221.025538,4232.820409,4217.948615,4226.666563,4202.564,4211.281948,4217.435794,4212.307589,4205.640923
115,0,4216.922974,4212.307589,4222.051179,4206.666564,4225.128102,4227.179384,4235.384512,4226.153743,4228.717845,4207.692205,4210.769128,4220.512717,4222.051179,4203.589641
116,0,4219.487076,4222.051179,4226.153743,4214.871692,4228.205025,4230.769127,4236.922973,4229.230666,4238.974255,4215.897333,4222.563999,4224.102461,4234.871691,4213.33323
117,0,4219.999897,4225.128102,4227.179384,4223.58964,4221.538358,4224.615281,4234.358871,4227.179384,4236.410153,4219.487076,4229.230666,4224.615281,4230.769127,4222.563999
118,0,4215.897333,4221.538358,4222.051179,4211.281948,4220.512717,4223.07682,4231.281948,4225.128102,4225.640922,4213.33323,4219.487076,4219.999897,4219.487076,4212.82041
119,0,4215.897333,4218.461435,4215.897333,4208.717846,4226.666563,4223.58964,4232.820409,4222.051179,4225.128102,4205.640923,4210.769128,4214.358871,4215.384512,4203.07682
120,0,4224.102461,4222.563999,4221.538358,4225.640922,4227.179384,4226.666563,4236.410153,4227.692204,4234.358871,4210.769128,4223.07682,4221.538358,4222.563999,4217.948615
121,0,4227.692204,4226.153743,4231.794768,4230.769127,4224.102461,4228.717845,4236.410153,4233.84605,4236.410153,4217.948615,4235.384512,4233.33323,4228.205025,4229.743486
122,0,4225.640922,4218.974256,4234.358871,4222.051179,4227.692204,4225.640922,4233.84605,4229.743486,4230.769127,4219.999897,4227.692204,4231.794768,4224.615281,4221.538358
123,0,4221.025538,4211.281948,4230.769127,4218.974256,4227.179384,4222.563999,4233.84605,4227.692204,4230.769127,4217.435794,4224.615281,4225.640922,4224.102461,4218.461435
124,0,4218.461435,4215.384512,4230.256307,4223.58964,4218.974256,4221.025538,4233.84605,4227.179384,4229.230666,4213.33323,4234.358871,4232.307589,4229.230666,4226.666563
125,0,4219.999897,4213.846051,4231.281948,4220.512717,4218.974256,4217.948615,4230.769127,4222.563999,4215.897333,4207.179384,4226.666563,4235.897332,4226.666563,4225.640922
126,0,4223.07682,4210.769128,4232.820409,4213.33323,4226.666563,4221.538358,4232.820409,4226.153743,4212.307589,4205.128102,4210.769128,4226.666563,4223.07682,4221.538358
127,0,4215.897333,4210.256307,4227.179384,4215.384512,4218.461435,4223.07682,4235.384512,4226.666563,4217.435794,4205.128102,4207.692205,4217.435794,4216.922974,4213.33323
128,0,4208.205025,4208.205025,4216.922974,4222.563999,4204.615282,4215.897333,4232.820409,4215.897333,4212.82041,4204.102461,4210.769128,4216.922974,4214.358871,4207.692205
0,0,4210.256307,4204.102461,4213.33323,4216.410153,4206.153743,4208.717846,4224.102461,4210.769128,4207.179384,4202.564,4215.384512,4219.999897,4223.07682,4213.846051
1,0,4216.922974,4209.743487,4220.512717,4211.281948,4222.051179,4211.281948,4220.512717,4215.384512,4216.410153,4208.205025,4218.974256,4223.07682,4232.307589,4219.999897
2,0,4217.948615,4213.33323,4221.538358,4211.281948,4223.07682,4210.256307,4219.487076,4214.358871,4214.358871,4209.230666,4215.897333,4217.435794,4228.205025,4214.871692
3,0,4216.922974,4212.307589,4223.58964,4211.281948,4213.846051,4204.615282,4220.512717,4210.769128,4203.07682,4199.999897,4217.435794,4215.384512,4227.179384,4217.948615
4,0,4218.461435,4215.897333,4230.256307,4210.769128,4213.33323,4205.640923,4224.102461,4210.769128,4207.692205,4196.922974,4220.512717,4223.07682,4230.256307,4225.128102
5,0,4219.999897,4219.487076,4228.205025,4212.82041,4224.615281,4215.897333,4227.179384,4213.33323,4216.410153,4205.640923,4217.435794,4225.640922,4229.230666,4217.948615
6,0,4217.948615,4215.384512,4221.025538,4213.33323,4221.538358,4219.999897,4226.153743,4217.948615,4212.307589,4205.640923,4216.922974,4218.974256,4228.717845,4207.692205
7,0,4213.33323,4210.769128,4219.487076,4214.871692,4208.717846,4215.384512,4224.615281,4217.948615,4206.666564,4196.922974,4215.897333,4217.948615,4229.230666,4212.307589
8,0,4210.769128,4210.256307,4220.512717,4214.358871,4211.794769,4215.897333,4226.153743,4216.922974,4206.666564,4199.487077,4209.230666,4221.025538,4232.820409,4219.999897
9,0,4218.461435,4218.974256,4229.743486,4219.487076,4224.615281,4219.999897,4232.307589,4221.538358,4212.82041,4213.33323,4215.897333,4227.179384,4247.179383,4226.153743
10,0,4227.179384,4231.281948,4242.051178,4234.871691,4227.179384,4223.07682,4236.410153,4223.58964,4217.948615,4217.948615,4232.307589,4235.384512,4257.948614,4233.33323
11,0,4223.07682,4225.128102,4238.974255,4234.871691,4218.974256,4224.102461,4234.358871,4218.974256,4209.230666,4207.179384,4228.717845,4233.84605,4248.717845,4231.794768
12,0,4219.487076,4218.461435,4233.33323,4224.615281,4215.897333,4221.025538,4233.33323,4220.512717,4204.615282,4204.102461,4217.948615,4230.769127,4243.58964,4227.692204
13,0,4223.07682,4230.256307,4235.897332,4222.563999,4223.58964,4221.025538,4233.33323,4229.743486,4214.871692,4213.33323,4220.512717,4228.717845,4249.230665,4229.230666
14,0,4218.974256,4231.281948,4231.794768,4221.538358,4225.128102,4221.025538,4230.769127,4229.230666,4215.897333,4212.307589,4221.025538,4219.487076,4237.948614,4223.58964
15,0,4212.307589,4214.358871,4224.102461,4215.897333,4213.33323,4216.922974,4229.230666,4221.025538,4207.692205,4199.999897,4211.281948,4212.82041,4221.538358,4215.897333
16,0,4215.897333,4217.948615,4228.717845,4222.051179,4213.33323,4219.999897,4231.281948,4222.563999,4214.871692,4207.179384,4214.871692,4225.640922,4232.820409,4224.102461
17,0,4221.538358,4233.33323,4233.33323,4228.717845,4222.051179,4223.58964,4231.281948,4229.230666,4222.051179,4218.461435,4227.692204,4235.897332,4248.717845,4231.281948
18,0,4228.205025,4235.897332,4238.461435,4228.205025,4222.563999,4225.128102,4233.84605,4230.769127,4218.461435,4223.58964,4234.358871,4237.948614,4248.717845,4232.307589
19,0,4230.256307,4227.692204,4239.999896,4221.025538,4217.435794,4227.692204,4235.384512,4226.153743,4213.33323,4223.07682,4228.717845,4237.435794,4242.563999,4232.307589
20,0,4219.999897,4226.153743,4235.384512,4212.307589,4221.538358,4231.281948,4234.871691,4225.128102,4213.33323,4216.410153,4221.025538,4235.384512,4238.974255,4229.230666
21,0,4213.846051,4224.102461,4231.281948,4201.025538,4222.563999,4227.692204,4235.384512,4226.153743,4213.33323,4206.666564,4215.897333,4227.692204,4231.794768,4218.461435
22,0,4221.538358,4223.07682,4234.871691,4192.30759,4225.640922,4227.692204,4237.948614,4227.692204,4218.461435,4210.769128,4215.897333,4225.128102,4228.205025,4214.358871
23,0,4225.640922,4225.640922,4235.897332,4191.281949,4230.769127,4230.769127,4236.410153,4226.666563,4221.538358,4216.410153,4214.871692,4229.230666,4234.871691,4220.512717
24,0,4221.538358,4228.717845,4233.84605,4197.435795,4225.640922,4227.179384,4232.820409,4223.07682,4218.461435,4211.281948,4217.435794,4233.33323,4242.563999,4227.692204
25,0,4216.410153,4224.615281,4228.717845,4191.281949,4215.897333,4215.897333,4226.153743,4219.487076,4215.897333,4205.128102,4222.051179,4231.281948,4239.487076,4224.615281
26,0,4214.358871,4221.025538,4224.102461,4181.025539,4220.512717,4212.307589,4221.538358,4215.897333,4216.922974,4206.666564,4217.948615,4229.230666,4233.84605,4216.922974
27,0,4215.384512,4224.102461,4229.230666,4183.589641,4228.717845,4218.461435,4224.615281,4217.435794,4215.384512,4210.769128,4214.871692,4233.33323,4237.435794,4217.948615
28,0,4220.512717,4230.769127,4235.897332,4188.205026,4228.205025,4219.487076,4230.256307,4221.025538,4217.948615,4217.948615,4223.58964,4237.948614,4243.076819,4225.128102
29,0,4226.666563,4238.461435,4234.358871,4192.30759,4225.128102,4219.487076,4232.820409,4222.051179,4226.153743,4219.999897,4232.307589,4238.461435,4243.076819,4229.230666
30,0,4224.102461,4241.025537,4231.281948,4193.846051,4223.07682,4223.07682,4232.820409,4219.487076,4226.153743,4215.384512,4229.743486,4234.358871,4243.076819,4227.692204
31,0,4218.974256,4231.794768,4230.256307,4178.974257,4223.58964,4223.07682,4231.794768,4218.461435,4222.051179,4217.435794,4225.640922,4227.692204,4241.538358,4220.512717
32,0,4215.897333,4221.538358,4226.153743,4167.179385,4225.640922,4223.58964,4228.717845,4216.922974,4216.410153,4218.974256,4224.102461,4221.538358,4234.871691,4216.410153
33,0,4215.384512,4225.640922,4227.692204,4178.974257,4226.666563,4231.281948,4231.794768,4213.846051,4213.846051,4209.743487,4222.563999,4223.58964,4232.307589,4222.563999
34,0,4219.487076,4234.871691,4235.897332,4187.179385,4223.07682,4231.794768,4236.410153,4214.871692,4216.410153,4205.640923,4223.07682,4227.179384,4235.897332,4230.256307
35,0,4227.179384,4237.948614,4239.487076,4185.640923,4220.512717,4224.102461,4233.33323,4221.025538,4218.974256,4215.897333,4229.743486,4227.692204,4241.538358,4233.33323
36,0,4225.128102,4232.820409,4230.769127,4184.615282,4220.512717,4221.538358,4230.256307,4219.487076,4212.307589,4214.358871,4232.307589,4226.666563,4241.538358,4230.769127
37,0,4216.410153,4231.794768,4225.128102,4183.589641,4217.948615,4221.538358,4232.820409,4215.897333,4211.794769,4211.281948,4233.84605,4231.794768,4242.563999,4230.256307
38,0,4211.281948,4224.102461,4226.666563,4175.384513,4210.256307,4212.82041,4224.615281,4214.871692,4210.769128,4207.692205,4231.794768,4227.179384,4239.487076,4226.153743
39,0,4210.769128,4218.974256,4226.666563,4174.358872,4214.871692,4211.281948,4216.410153,4212.307589,4200.512718,4197.948615,4218.974256,4214.358871,4231.794768,4219.487076
40,0,4209.230666,4220.512717,4221.025538,4179.487077,4214.358871,4218.974256,4225.640922,4213.33323,4199.999897,4199.999897,4207.692205,4213.33323,4226.666563,4216.410153
41,0,4209.230666,4221.025538,4225.128102,4183.076821,4206.153743,4222.051179,4233.33323,4217.948615,4209.743487,4212.307589,4217.948615,4225.640922,4231.794768,4220.512717
42,0,4210.769128,4215.384512,4231.281948,4182.05118,4212.307589,4216.922974,4223.58964,4210.769128,4205.640923,4205.128102,4222.051179,4223.58964,4226.666563,4218.461435
43,0,4211.281948,4215.897333,4229.743486,4182.564,4226.153743,4218.461435,4219.999897,4204.102461,4198.461436,4193.333231,4204.615282,4214.358871,4216.410153,4210.769128
44,0,4208.717846,4219.487076,4229.230666,4183.076821,4217.948615,4214.871692,4223.58964,4212.82041,4207.179384,4200.512718,4201.025538,4216.410153,4222.563999,4216.922974
45,0,4208.205025,4217.948615,4228.717845,4178.461436,4209.743487,4205.640923,4221.025538,4224.615281,4220.512717,4211.281948,4214.871692,4217.948615,4233.84605,4227.179384
46,0,4208.717846,4211.281948,4219.999897,4176.410154,4214.871692,4208.717846,4217.435794,4221.538358,4217.435794,4206.153743,4212.82041,4209.743487,4227.179384,4216.410153
47,0,4206.666564,4208.717846,4214.358871,4174.871693,4217.435794,4219.999897,4222.563999,4214.358871,4210.769128,4201.538359,4200.512718,4204.102461,4215.384512,4204.102461
48,0,4204.102461,4214.871692,4218.974256,4172.820411,4218.974256,4223.58964,4226.153743,4215.897333,4211.281948,4204.615282,4199.999897,4206.666564,4216.922974,4207.692205
49,0,4201.025538,4215.897333,4217.435794,4179.487077,4216.410153,4218.974256,4222.051179,4217.948615,4206.153743,4201.538359,4203.07682,4203.07682,4220.512717,4208.205025
50,0,4203.589641,4212.307589,4215.897333,4189.743487,4215.897333,4217.948615,4222.051179,4213.846051,4201.538359,4199.487077,4201.538359,4202.564,4222.051179,4210.256307
51,0,4210.256307,4218.974256,4224.615281,4190.769128,4224.615281,4223.07682,4225.128102,4211.794769,4209.743487,4210.256307,4201.538359,4210.769128,4227.179384,4221.025538
52,0,4211.794769,4227.692204,4224.615281,4186.666564,4228.717845,4228.717845,4227.692204,4213.846051,4216.410153,4219.487076,4209.743487,4212.82041,4233.33323,4221.538358
53,0,4209.230666,4223.07682,4216.410153,4188.717846,4224.615281,4225.640922,4228.717845,4217.948615,4216.410153,4214.871692,4210.769128,4210.769128,4234.871691,4218.461435
54,0,4211.794769,4221.025538,4224.102461,4189.230667,4226.666563,4224.102461,4231.794768,4225.640922,4225.640922,4217.435794,4202.051179,4218.974256,4233.84605,4227.179384
55,0,4209.743487,4214.358871,4227.692204,4172.30759,4217.435794,4221.025538,4228.205025,4226.666563,4223.58964,4218.461435,4198.461436,4220.512717,4226.153743,4223.58964
56,0,4205.128102,4204.615282,4217.435794,4170.769129,4203.07682,4214.871692,4225.128102,4222.051179,4211.281948,4210.769128,4209.743487,4211.794769,4224.615281,4214.358871
57,0,4210.256307,4210.769128,4217.948615,4191.794769,4208.717846,4213.846051,4227.179384,4223.07682,4216.410153,4211.794769,4218.461435,4214.871692,4233.84605,4223.07682
58,0,4223.07682,4226.153743,4229.230666,4199.999897,4218.461435,4216.922974,4229.230666,4228.717845,4228.717845,4221.538358,4221.025538,4228.205025,4240.512717,4234.358871
59,0,4225.640922,4226.153743,4225.128102,4187.179385,4216.410153,4219.487076,4227.179384,4225.640922,4229.230666,4222.051179,4223.58964,4227.179384,4236.410153,4226.666563
60,0,4215.384512,4214.358871,4213.33323,4182.05118,4219.999897,4223.07682,4226.666563,4219.999897,4229.230666,4222.051179,4222.051179,4218.461435,4233.84605,4213.846051
61,0,4206.666564,4205.640923,4207.179384,4182.05118,4215.897333,4224.102461,4224.615281,4220.512717,4227.692204,4218.461435,4212.307589,4211.794769,4232.307589,4207.692205
62,0,4208.717846,4207.692205,4209.230666,4178.974257,4201.025538,4222.051179,4224.102461,4221.025538,4221.025538,4207.179384,4208.205025,4204.615282,4226.666563,4208.205025
63,0,4211.794769,4215.897333,4216.922974,4179.999898,4202.564,4224.102461,4225.128102,4219.487076,4222.051179,4205.128102,4214.871692,4205.128102,4220.512717,4214.871692
64,0,4210.256307,4216.922974,4221.538358,4186.153744,4221.538358,4228.205025,4223.07682,4221.538358,4228.717845,4208.717846,4216.922974,4218.461435,4218.461435,4216.922974
65,0,4212.307589,4215.384512,4219.999897,4191.794769,4231.281948,4229.230666,4221.538358,4226.153743,4231.281948,4210.769128,4214.358871,4226.153743,4220.512717,4215.384512
66,0,4212.82041,4216.410153,4218.974256,4187.692205,4226.666563,4228.205025,4227.692204,4226.666563,4233.84605,4220.512717,4215.897333,4221.025538,4221.538358,4215.897333
67,0,4213.33323,4218.461435,4223.58964,4186.666564,4225.640922,4230.769127,4228.717845,4231.281948,4241.025537,4233.33323,4214.871692,4219.999897,4220.512717,4217.948615
68,0,4220.512717,4226.666563,4231.281948,4201.025538,4232.307589,4234.358871,4225.640922,4236.410153,4243.076819,4237.435794,4217.435794,4226.153743,4226.153743,4221.538358
69,0,4221.538358,4229.743486,4229.743486,4205.640923,4234.871691,4233.33323,4231.794768,4234.358871,4239.999896,4236.922973,4230.769127,4225.128102,4233.33323,4224.615281
70,0,4211.281948,4219.487076,4218.974256,4188.205026,4224.102461,4228.717845,4233.33323,4229.743486,4237.435794,4229.230666,4232.820409,4218.974256,4231.281948,4220.512717
71,0,4213.846051,4222.563999,4223.58964,4185.640923,4220.512717,4231.794768,4230.256307,4231.794768,4234.871691,4221.538358,4226.153743,4223.58964,4228.205025,4218.974256
72,0,4221.538358,4231.794768,4234.358871,4198.974256,4218.461435,4235.897332,4231.794768,4233.33323,4227.692204,4216.410153,4222.563999,4227.179384,4225.640922,4221.538358
73,0,4212.82041,4223.07682,4229.743486,4199.999897,4213.846051,4229.743486,4234.358871,4231.281948,4224.102461,4208.205025,4218.461435,4221.025538,4217.435794,4216.410153
74,0,4205.128102,4211.281948,4220.512717,4191.794769,4216.922974,4220.512717,4229.743486,4229.230666,4225.640922,4201.025538,4213.33323,4215.384512,4210.769128,4211.794769
75,0,4210.769128,4217.948615,4223.58964,4193.846051,4224.615281,4223.58964,4227.179384,4229.743486,4228.205025,4213.846051,4216.922974,4222.051179,4221.538358,4221.025538
76,0,4212.82041,4225.128102,4228.205025,4198.974256,4224.615281,4228.205025,4228.717845,4226.666563,4228.717845,4226.153743,4219.487076,4229.230666,4233.33323,4227.692204
77,0,4210.769128,4229.743486,4228.205025,4203.07682,4227.692204,4228.205025,4231.281948,4224.615281,4230.256307,4223.58964,4218.461435,4229.743486,4233.84605,4224.102461
78,0,4214.871692,4232.820409,4227.692204,4204.102461,4231.794768,4228.205025,4233.33323,4230.256307,4233.84605,4222.051179,4225.128102,4227.179384,4234.871691,4222.563999
79,0,4217.948615,4230.256307,4230.256307,4200.512718,4226.153743,4229.230666,4233.84605,4232.820409,4237.435794,4228.717845,4233.84605,4227.179384,4241.025537,4225.128102
80,0,4211.794769,4220.512717,4229.743486,4195.384513,4218.974256,4225.640922,4233.84605,4228.205025,4233.84605,4224.615281,4230.256307,4224.615281,4234.358871,4221.025538
81,0,4205.640923,4211.281948,4220.512717,4194.358872,4212.82041,4221.538358,4229.743486,4226.666563,4227.179384,4210.769128,4218.974256,4216.922974,4222.563999,4212.82041
82,0,4205.640923,4208.205025,4214.358871,4196.410154,4205.128102,4213.846051,4220.512717,4224.615281,4224.615281,4206.153743,4213.33323,4212.82041,4221.538358,4209.743487
83,0,4210.256307,4213.33323,4221.025538,4195.384513,4206.153743,4208.205025,4217.948615,4223.58964,4228.205025,4212.307589,4216.922974,4216.410153,4225.128102,4212.82041
84,0,4212.307589,4218.461435,4226.666563,4192.30759,4213.33323,4216.410153,4228.717845,4231.281948,4234.358871,4215.384512,4225.128102,4224.615281,4226.666563,4217.948615
85,0,4210.256307,4219.999897,4226.153743,4198.461436,4211.281948,4223.07682,4235.384512,4235.384512,4234.871691,4216.410153,4232.307589,4231.281948,4231.281948,4219.487076
86,0,4214.358871,4223.58964,4230.256307,4205.128102,4210.256307,4218.974256,4229.230666,4230.256307,4227.692204,4218.974256,4234.871691,4236.410153,4239.999896,4219.487076
87,0,4218.461435,4221.538358,4234.358871,4197.948615,4206.666564,4218.974256,4226.153743,4228.717845,4225.128102,4215.897333,4229.230666,4237.948614,4237.948614,4219.487076
88,0,4216.410153,4218.974256,4230.256307,4195.897333,4199.999897,4228.717845,4234.871691,4233.84605,4234.358871,4215.897333,4223.58964,4234.358871,4231.281948,4218.974256
89,0,4211.794769,4219.999897,4218.461435,4204.102461,4209.230666,4230.256307,4237.435794,4232.307589,4238.974255,4220.512717,4225.640922,4224.615281,4228.717845,4211.794769
90,0,4212.82041,4225.640922,4217.435794,4205.128102,4231.794768,4227.179384,4230.256307,4230.769127,4239.999896,4222.051179,4228.717845,4224.102461,4231.281948,4210.769128
91,0,4214.871692,4226.153743,4228.205025,4201.538359,4232.307589,4228.205025,4231.794768,4234.358871,4242.563999,4218.461435,4220.512717,4230.256307,4232.307589,4215.384512
92,0,4213.846051,4221.538358,4233.33323,4202.564,4220.512717,4231.281948,4241.538358,4239.487076,4246.153742,4218.974256,4218.461435,4230.256307,4231.281948,4213.846051
93,0,4208.717846,4217.948615,4227.179384,4201.538359,4216.410153,4226.153743,4240.512717,4237.948614,4245.640922,4220.512717,4228.205025,4228.205025,4233.33323,4209.743487
94,0,4208.717846,4219.999897,4229.230666,4204.102461,4217.948615,4225.640922,4237.948614,4236.410153,4247.692204,4227.692204,4235.897332,4237.435794,4244.10246,4216.410153
95,0,4213.33323,4222.563999,4236.410153,4204.102461,4218.461435,4231.281948,4240.512717,4242.563999,4250.769127,4237.435794,4242.051178,4247.179383,4249.230665,4223.58964
96,0,4212.307589,4221.025538,4232.820409,4201.538359,4217.435794,4231.281948,4238.461435,4246.666563,4252.820409,4239.487076,4248.717845,4249.230665,4248.717845,4224.102461
97,0,4208.717846,4217.435794,4228.205025,4208.717846,4218.974256,4227.179384,4234.871691,4241.025537,4253.84605,4234.358871,4242.563999,4245.640922,4250.256306,4222.051179
98,0,4210.256307,4217.948615,4231.281948,4212.307589,4226.666563,4229.743486,4237.435794,4238.461435,4247.179383,4231.281948,4233.84605,4242.051178,4249.743486,4218.461435
99,0,4211.281948,4219.487076,4231.281948,4205.128102,4228.717845,4229.743486,4235.897332,4239.487076,4235.897332,4225.640922,4234.358871,4235.897332,4238.974255,4215.384512
100,0,4210.256307,4215.384512,4229.230666,4203.07682,4225.128102,4227.692204,4233.33323,4236.922973,4229.230666,4216.410153,4233.33323,4228.717845,4227.179384,4214.358871
101,0,4208.717846,4210.256307,4227.179384,4204.102461,4221.025538,4226.666563,4236.922973,4235.384512,4230.769127,4216.410153,4231.281948,4226.153743,4224.102461,4212.307589
102,0,4208.205025,4212.82041,4225.128102,4202.051179,4218.461435,4226.666563,4237.948614,4235.897332,4230.256307,4225.128102,4233.33323,4230.769127,4227.179384,4213.33323
103,0,4209.230666,4214.358871,4222.051179,4203.07682,4215.384512,4224.615281,4228.717845,4233.84605,4223.58964,4221.538358,4232.307589,4232.820409,4223.07682,4217.435794
104,0,4207.179384,4207.692205,4218.974256,4198.461436,4212.307589,4216.922974,4220.512717,4229.743486,4218.461435,4213.33323,4225.640922,4225.128102,4216.922974,4218.974256
105,0,4209.230666,4208.717846,4216.922974,4191.281949,4210.256307,4215.897333,4225.640922,4230.769127,4218.461435,4220.512717,4229.230666,4224.102461,4227.692204,4218.974256
106,0,4212.307589,4216.410153,4217.435794,4194.871692,4210.769128,4225.640922,4230.769127,4233.84605,4221.025538,4227.692204,4234.358871,4229.230666,4236.922973,4219.487076
107,0,4216.922974,4226.666563,4227.692204,4208.205025,4216.922974,4230.256307,4231.794768,4239.487076,4227.692204,4229.743486,4235.897332,4234.871691,4233.84605,4226.153743
108,0,4219.999897,4228.205025,4235.384512,4211.794769,4215.384512,4222.563999,4234.358871,4243.076819,4236.410153,4233.84605,4241.538358,4237.948614,4234.358871,4230.256307
109,0,4214.871692,4216.922974,4228.205025,4207.179384,4209.743487,4221.025538,4230.769127,4235.384512,4232.307589,4228.205025,4237.948614,4229.743486,4234.358871,4223.07682
110,0,4209.743487,4208.205025,4215.897333,4205.640923,4208.717846,4221.025538,4221.025538,4224.102461,4222.051179,4213.846051,4222.563999,4212.82041,4223.07682,4213.33323
111,0,4215.384512,4214.358871,4218.461435,4207.692205,4209.230666,4215.384512,4224.102461,4225.128102,4223.58964,4213.33323,4223.58964,4213.33323,4220.512717,4215.384512
112,0,4216.922974,4217.435794,4221.538358,4203.589641,4202.051179,4212.82041,4225.128102,4227.692204,4226.153743,4212.307589,4229.743486,4225.640922,4226.153743,4215.384512
113,0,4211.794769,4218.461435,4222.563999,4202.564,4209.230666,4218.974256,4222.563999,4228.205025,4232.307589,4214.871692,4226.666563,4233.33323,4229.743486,4212.82041
114,0,4210.769128,4219.999897,4227.692204,4205.640923,4225.128102,4218.461435,4228.717845,4232.820409,4236.410153,4221.538358,4223.58964,4231.281948,4228.205025,4213.846051
115,0,4210.769128,4218.461435,4228.205025,4205.640923,4226.153743,4214.871692,4231.794768,4232.307589,4231.281948,4217.435794,4225.640922,4227.692204,4226.666563,4217.435794
116,0,4211.281948,4218.461435,4226.153743,4208.205025,4221.538358,4219.999897,4226.666563,4230.256307,4228.205025,4220.512717,4234.871691,4230.769127,4232.820409,4219.999897
117,0,4216.410153,4225.640922,4227.692204,4217.948615,4223.58964,4224.102461,4227.692204,4235.384512,4237.948614,4236.410153,4247.179383,4235.384512,4241.538358,4222.563999
118,0,4221.538358,4232.307589,4229.743486,4220.512717,4225.640922,4221.025538,4229.230666,4233.84605,4239.999896,4231.794768,4245.128101,4231.794768,4238.461435,4222.563999
119,0,4221.025538,4231.281948,4226.666563,4211.281948,4224.615281,4217.435794,4221.538358,4221.538358,4224.615281,4210.769128,4229.230666,4226.153743,4225.128102,4218.461435
120,0,4214.871692,4223.07682,4224.615281,4208.205025,4223.07682,4214.871692,4219.999897,4218.461435,4221.025538,4209.743487,4226.153743,4224.615281,4218.974256,4214.358871
121,0,4207.692205,4215.897333,4221.025538,4212.82041,4214.871692,4215.897333,4224.615281,4221.025538,4225.128102,4213.846051,4228.205025,4219.487076,4217.948615,4211.794769
122,0,4208.717846,4221.538358,4219.999897,4211.281948,4216.410153,4221.025538,4225.640922,4218.461435,4221.538358,4210.256307,4226.153743,4219.487076,4219.487076,4213.846051
123,0,4210.256307,4227.179384,4222.563999,4206.153743,4227.179384,4217.948615,4219.487076,4215.897333,4219.487076,4210.256307,4225.128102,4226.666563,4220.512717,4216.922974
124,0,4210.769128,4223.58964,4223.58964,4215.384512,4224.615281,4215.384512,4219.487076,4218.974256,4232.307589,4218.461435,4229.743486,4233.84605,4224.102461,4220.512717
125,0,4212.82041,4217.435794,4219.487076,4217.948615,4210.769128,4216.922974,4221.025538,4219.999897,4233.84605,4224.102461,4236.410153,4231.281948,4229.230666,4219.487076
126,0,4212.307589,4219.487076,4214.871692,4208.717846,4213.846051,4215.384512,4217.435794,4219.487076,4218.974256,4218.461435,4236.410153,4223.58964,4225.128102,4215.384512
127,0,4207.179384,4221.538358,4213.33323,4206.666564,4224.615281,4221.025538,4219.999897,4218.974256,4216.410153,4209.743487,4227.179384,4215.384512,4214.871692,4211.281948
128,0,4203.589641,4212.307589,4210.769128,4205.128102,4226.153743,4231.794768,4227.179384,4221.025538,4225.128102,4211.794769,4219.487076,4208.205025,4214.358871,4210.769128
0,0,4202.564,4203.589641,4207.692205,4196.410154,4217.435794,4224.102461,4221.538358,4217.948615,4220.512717,4216.410153,4217.948615,4204.615282,4215.897333,4210.256307
1,0,4204.102461,4214.871692,4213.846051,4202.051179,4215.384512,4214.358871,4215.384512,4214.358871,4215.384512,4217.948615,4217.435794,4207.692205,4217.435794,4210.256307
2,0,4206.666564,4222.051179,4216.410153,4210.256307,4219.999897,4213.846051,4213.846051,4212.307589,4212.82041,4213.846051,4217.435794,4213.33323,4224.615281,4211.281948
3,0,4212.307589,4218.974256,4216.410153,4207.692205,4224.615281,4216.922974,4216.922974,4214.871692,4214.871692,4217.948615,4233.33323,4225.640922,4238.461435,4223.58964
4,0,4219.999897,4223.07682,4225.128102,4211.794769,4225.640922,4226.153743,4227.179384,4223.07682,4226.666563,4232.307589,4251.794768,4236.922973,4245.640922,4235.897332
5,0,4221.538358,4228.205025,4230.256307,4225.128102,4224.102461,4230.256307,4230.769127,4226.153743,4230.769127,4234.358871,4247.179383,4235.897332,4239.487076,4229.743486
6,0,4216.922974,4225.128102,4226.666563,4228.717845,4221.538358,4221.538358,4224.102461,4219.999897,4217.435794,4222.051179,4231.281948,4229.230666,4229.743486,4222.563999
7,0,4219.999897,4227.179384,4230.256307,4224.615281,4222.563999,4222.051179,4228.205025,4220.512717,4213.846051,4223.07682,4235.897332,4232.307589,4232.820409,4229.230666
8,0,4227.692204,4232.307589,4237.948614,4225.640922,4228.205025,4232.820409,4234.871691,4226.153743,4224.615281,4236.410153,4248.205024,4240.512717,4243.58964,4236.922973
9,0,4224.102461,4230.256307,4237.948614,4225.128102,4231.794768,4235.897332,4229.230666,4219.999897,4221.025538,4228.717845,4237.435794,4236.410153,4238.974255,4236.922973
10,0,4221.025538,4223.58964,4231.794768,4217.435794,4224.615281,4228.717845,4222.051179,4210.769128,4207.179384,4214.871692,4219.487076,4223.58964,4223.58964,4230.256307
11,0,4219.487076,4216.410153,4222.051179,4216.922974,4211.794769,4216.410153,4216.410153,4213.33323,4203.589641,4215.897333,4217.435794,4215.384512,4216.922974,4217.435794
12,0,4207.692205,4210.256307,4212.82041,4214.871692,4207.692205,4211.281948,4212.307589,4213.33323,4204.102461,4215.897333,4223.07682,4214.358871,4217.948615,4210.256307
13,0,4200.512718,4206.153743,4209.230666,4197.435795,4204.615282,4214.358871,4210.769128,4204.102461,4195.897333,4203.07682,4222.051179,4213.33323,4216.922974,4213.846051
14,0,4206.666564,4207.179384,4210.769128,4193.333231,4200.512718,4213.33323,4207.179384,4198.974256,4185.640923,4196.410154,4216.410153,4210.769128,4214.871692,4213.33323
15,0,4209.743487,4211.794769,4213.846051,4209.743487,4208.717846,4210.256307,4205.128102,4202.564,4186.153744,4201.025538,4213.33323,4210.769128,4215.384512,4212.82041
16,0,4208.205025,4213.846051,4214.358871,4211.281948,4222.563999,4217.435794,4210.769128,4208.717846,4197.435795,4207.692205,4223.07682,4213.846051,4218.461435,4218.461435
17,0,4210.769128,4211.794769,4212.307589,4202.051179,4217.948615,4214.871692,4209.743487,4206.153743,4200.512718,4207.692205,4222.051179,4213.33323,4215.384512,4219.487076
18,0,4221.538358,4227.179384,4225.128102,4218.461435,4221.025538,4213.33323,4211.794769,4206.153743,4199.487077,4209.743487,4213.33323,4217.435794,4218.461435,4224.615281
19,0,4227.692204,4240.512717,4237.435794,4234.358871,4231.794768,4226.153743,4222.563999,4212.82041,4200.512718,4218.974256,4225.640922,4230.256307,4228.717845,4236.410153
20,0,4220.512717,4229.743486,4229.743486,4226.666563,4228.205025,4229.230666,4225.128102,4217.948615,4204.102461,4225.128102,4239.999896,4232.820409,4228.205025,4238.974255
21,0,4210.769128,4218.461435,4219.487076,4212.307589,4225.128102,4218.461435,4216.922974,4214.358871,4202.051179,4215.897333,4224.102461,4219.487076,4218.461435,4224.102461
22,0,4210.769128,4224.102461,4221.538358,4211.794769,4228.717845,4218.461435,4217.435794,4212.82041,4200.512718,4208.205025,4210.769128,4214.871692,4219.487076,4215.897333
23,0,4208.717846,4221.025538,4219.487076,4217.948615,4218.461435,4221.538358,4219.487076,4216.410153,4204.102461,4209.230666,4216.410153,4215.384512,4222.563999,4216.922974
24,0,4210.769128,4219.999897,4215.384512,4223.07682,4218.461435,4223.58964,4220.512717,4216.410153,4212.82041,4215.384512,4217.435794,4213.846051,4224.102461,4218.461435
25,0,4221.025538,4228.717845,4218.974256,4221.538358,4229.230666,4231.794768,4222.051179,4212.307589,4217.435794,4225.640922,4214.358871,4221.025538,4228.205025,4224.102461
26,0,4221.025538,4225.128102,4218.974256,4218.974256,4225.640922,4229.230666,4219.999897,4209.743487,4214.871692,4227.692204,4219.487076,4228.717845,4231.281948,4230.769127
27,0,4218.461435,4216.922974,4215.897333,4221.025538,4220.512717,4221.538358,4218.461435,4210.769128,4217.435794,4219.999897,4223.07682,4226.666563,4231.281948,4235.384512
28,0,4221.538358,4221.025538,4216.410153,4215.384512,4222.051179,4223.07682,4217.435794,4210.256307,4219.487076,4215.384512,4220.512717,4224.615281,4229.743486,4233.84605
29,0,4218.974256,4223.07682,4214.871692,4207.179384,4218.974256,4219.999897,4213.846051,4209.230666,4214.358871,4213.846051,4216.410153,4220.512717,4225.640922,4221.538358
30,0,4216.922974,4218.974256,4217.435794,4212.82041,4217.435794,4216.922974,4213.33323,4212.82041,4214.871692,4211.794769,4214.871692,4217.948615,4225.640922,4213.846051
31,0,4224.615281,4230.769127,4229.743486,4224.615281,4228.717845,4226.666563,4220.512717,4221.538358,4225.128102,4223.07682,4219.487076,4229.230666,4233.33323,4225.640922
32,0,4227.179384,4240.512717,4233.84605,4224.102461,4234.871691,4233.84605,4228.717845,4224.102461,4224.102461,4230.256307,4221.538358,4232.307589,4234.358871,4232.820409
33,0,4222.051179,4229.230666,4228.205025,4224.615281,4222.563999,4231.794768,4229.743486,4221.025538,4212.82041,4219.487076,4221.538358,4223.58964,4230.769127,4226.153743
34,0,4219.999897,4215.897333,4226.666563,4224.102461,4214.358871,4225.640922,4220.512717,4217.948615,4209.743487,4211.794769,4222.563999,4222.563999,4228.717845,4224.615281
35,0,4227.179384,4229.230666,4234.358871,4222.563999,4228.717845,4226.666563,4220.512717,4225.128102,4222.563999,4231.794768,4230.769127,4236.410153,4239.487076,4237.948614
36,0,4231.281948,4240.512717,4233.33323,4223.58964,4235.897332,4231.794768,4227.179384,4229.743486,4228.717845,4242.563999,4235.384512,4238.974255,4251.794768,4244.10246
37,0,4225.640922,4230.769127,4226.666563,4223.58964,4226.153743,4234.358871,4227.692204,4228.717845,4223.58964,4230.256307,4230.769127,4229.743486,4247.179383,4231.794768
38,0,4221.538358,4220.512717,4224.615281,4223.58964,4226.153743,4231.794768,4225.128102,4227.692204,4220.512717,4227.179384,4228.205025,4226.666563,4234.358871,4223.58964
39,0,4226.153743,4222.563999,4226.666563,4226.153743,4231.281948,4227.692204,4222.563999,4223.58964,4219.999897,4233.84605,4227.179384,4229.230666,4231.794768,4231.794768
40,0,4223.58964,4220.512717,4228.205025,4218.461435,4222.563999,4222.563999,4216.922974,4219.999897,4216.922974,4231.794768,4218.974256,4229.743486,4233.33323,4235.897332
41,0,4221.025538,4217.435794,4230.256307,4213.33323,4215.897333,4219.999897,4212.307589,4222.051179,4215.897333,4223.58964,4216.410153,4227.692204,4229.230666,4229.230666
42,0,4224.615281,4218.974256,4230.256307,4218.461435,4212.307589,4214.871692,4208.717846,4221.025538,4212.307589,4214.871692,4217.948615,4227.179384,4224.615281,4221.025538
43,0,4222.563999,4221.538358,4230.769127,4222.051179,4211.794769,4209.743487,4211.281948,4219.999897,4205.640923,4209.230666,4215.384512,4231.281948,4219.999897,4218.974256
44,0,4217.435794,4221.538358,4231.794768,4220.512717,4218.461435,4215.897333,4218.974256,4225.640922,4206.153743,4211.794769,4217.948615,4231.794768,4222.051179,4222.563999
45,0,4217.435794,4218.974256,4224.615281,4215.384512,4215.897333,4220.512717,4218.461435,4224.615281,4209.230666,4214.871692,4223.58964,4223.58964,4227.179384,4218.974256
46,0,4222.051179,4218.461435,4219.999897,4216.410153,4203.589641,4215.384512,4210.769128,4216.922974,4205.128102,4211.281948,4221.538358,4218.974256,4226.666563,4215.897333
47,0,4227.692204,4229.230666,4230.769127,4225.640922,4208.205025,4212.82041,4208.205025,4215.384512,4202.051179,4214.358871,4225.128102,4230.256307,4230.256307,4226.153743
48,0,4228.717845,4237.435794,4238.974255,4230.769127,4226.666563,4215.897333,4207.692205,4216.410153,4204.615282,4222.563999,4233.84605,4239.487076,4238.974255,4228.205025
49,0,4223.58964,4230.256307,4231.281948,4229.230666,4226.666563,4215.897333,4203.589641,4214.358871,4203.589641,4216.922974,4227.692204,4230.256307,4232.307589,4217.435794
50,0,4219.999897,4226.666563,4225.640922,4230.256307,4222.563999,4217.435794,4204.102461,4216.410153,4204.102461,4211.281948,4218.974256,4219.999897,4225.128102,4218.974256
51,0,4222.051179,4228.205025,4224.102461,4224.102461,4225.640922,4219.999897,4209.230666,4223.07682,4208.717846,4216.922974,4221.538358,4219.999897,4229.743486,4229.743486
52,0,4223.58964,4227.692204,4219.999897,4220.512717,4226.666563,4223.07682,4217.435794,4230.256307,4213.846051,4227.692204,4229.743486,4226.666563,4235.384512,4232.820409
53,0,4222.563999,4223.58964,4221.025538,4225.128102,4223.07682,4222.563999,4223.58964,4234.871691,4215.897333,4229.743486,4234.871691,4227.692204,4237.435794,4228.205025
54,0,4224.615281,4227.692204,4230.769127,4224.102461,4225.128102,4225.640922,4225.128102,4238.461435,4216.410153,4229.743486,4241.538358,4231.794768,4247.692204,4231.281948
55,0,4225.128102,4229.743486,4230.256307,4218.974256,4223.07682,4226.153743,4218.461435,4232.820409,4215.384512,4226.666563,4241.538358,4238.461435,4247.692204,4233.84605
56,0,4225.128102,4232.820409,4229.230666,4229.743486,4223.58964,4226.666563,4216.410153,4227.692204,4218.461435,4231.281948,4238.461435,4239.487076,4243.58964,4233.33323
57,0,4228.205025,4239.487076,4235.384512,4243.076819,4232.820409,4228.205025,4222.051179,4228.717845,4218.461435,4237.948614,4242.563999,4232.307589,4250.769127,4237.435794
58,0,4230.769127,4240.512717,4239.999896,4242.563999,4237.435794,4227.179384,4223.07682,4229.230666,4211.281948,4232.307589,4249.230665,4230.769127,4255.384511,4242.563999
59,0,4228.205025,4236.922973,4234.358871,4233.84605,4230.769127,4226.153743,4220.512717,4226.666563,4211.281948,4225.640922,4246.153742,4238.974255,4247.692204,4241.538358
60,0,4228.205025,4237.948614,4229.743486,4230.769127,4231.281948,4233.84605,4227.179384,4229.230666,4219.487076,4234.871691,4243.076819,4240.512717,4245.640922,4242.051178
61,0,4230.769127,4242.563999,4231.794768,4232.307589,4237.948614,4235.897332,4228.205025,4231.794768,4223.07682,4245.640922,4249.743486,4233.84605,4252.820409,4241.025537
62,0,4230.256307,4241.025537,4236.922973,4233.33323,4236.922973,4225.640922,4218.974256,4227.692204,4217.435794,4236.922973,4248.205024,4229.230666,4251.281947,4233.33323
63,0,4228.205025,4231.794768,4235.384512,4227.179384,4226.666563,4217.435794,4211.281948,4219.999897,4205.640923,4215.384512,4232.820409,4224.102461,4236.922973,4230.256307
64,0,4220.512717,4225.640922,4228.205025,4223.07682,4222.051179,4216.922974,4210.769128,4213.846051,4203.07682,4213.846051,4231.281948,4219.487076,4229.743486,4230.769127
65,0,4220.512717,4229.230666,4225.640922,4227.179384,4223.58964,4219.999897,4215.384512,4217.948615,4216.922974,4233.33323,4244.615281,4224.102461,4239.999896,4231.281948
66,0,4227.692204,4233.33323,4227.179384,4230.256307,4223.58964,4224.615281,4219.487076,4227.179384,4225.128102,4238.974255,4249.230665,4231.794768,4247.692204,4235.384512
67,0,4229.230666,4231.794768,4230.256307,4228.717845,4226.153743,4225.128102,4222.563999,4227.179384,4223.07682,4228.717845,4245.128101,4234.358871,4242.563999,4235.897332
68,0,4230.256307,4229.743486,4232.820409,4225.640922,4223.07682,4219.999897,4223.58964,4225.640922,4229.230666,4227.179384,4245.640922,4237.435794,4241.538358,4235.384512
69,0,4237.435794,4233.33323,4237.948614,4229.230666,4218.461435,4219.487076,4222.563999,4230.256307,4240.512717,4234.871691,4251.794768,4242.563999,4250.256306,4242.563999
70,0,4236.922973,4236.922973,4239.487076,4229.743486,4223.58964,4219.999897,4218.461435,4225.640922,4238.461435,4230.769127,4247.179383,4240.512717,4245.640922,4245.640922
71,0,4228.717845,4237.435794,4237.435794,4228.717845,4233.84605,4222.563999,4218.974256,4214.358871,4233.33323,4223.07682,4232.307589,4235.384512,4234.358871,4237.948614
72,0,4219.999897,4226.153743,4227.179384,4223.07682,4226.666563,4221.025538,4216.410153,4210.256307,4232.820409,4214.871692,4222.563999,4226.153743,4225.640922,4226.153743
73,0,4214.871692,4215.384512,4218.461435,4218.974256,4216.922974,4221.025538,4211.281948,4213.33323,4235.384512,4217.435794,4228.717845,4222.563999,4220.512717,4223.58964
74,0,4217.948615,4214.871692,4218.974256,4220.512717,4216.410153,4224.615281,4214.358871,4218.974256,4239.487076,4225.640922,4233.33323,4226.153743,4225.128102,4227.179384
75,0,4227.692204,4221.025538,4224.615281,4225.640922,4215.384512,4224.102461,4219.487076,4224.615281,4238.974255,4226.153743,4229.743486,4230.769127,4235.384512,4231.281948
76,0,4231.794768,4225.128102,4226.666563,4224.102461,4213.846051,4222.051179,4215.897333,4220.512717,4230.769127,4219.999897,4228.717845,4230.769127,4234.871691,4231.281948
77,0,4231.794768,4235.384512,4227.179384,4221.538358,4221.025538,4224.615281,4215.897333,4218.461435,4233.33323,4227.179384,4232.820409,4230.769127,4229.743486,4231.281948
78,0,4229.743486,4243.076819,4229.743486,4226.153743,4225.128102,4222.563999,4217.948615,4221.025538,4241.538358,4237.948614,4235.897332,4230.769127,4231.281948,4230.769127
79,0,4229.230666,4241.538358,4228.717845,4232.820409,4225.128102,4219.999897,4221.025538,4221.025538,4236.410153,4230.769127,4238.974255,4230.256307,4235.384512,4232.820409
80,0,4228.717845,4237.435794,4224.615281,4227.692204,4227.179384,4221.538358,4224.102461,4218.461435,4225.128102,4218.461435,4233.33323,4229.230666,4233.84605,4233.33323
81,0,4227.692204,4239.487076,4227.692204,4225.128102,4230.256307,4221.538358,4222.051179,4220.512717,4228.717845,4225.640922,4227.179384,4233.84605,4234.871691,4231.281948
82,0,4231.794768,4240.512717,4231.281948,4233.84605,4233.84605,4225.128102,4218.974256,4222.051179,4236.922973,4242.563999,4238.974255,4238.974255,4243.076819,4235.897332
83,0,4234.871691,4238.974255,4227.179384,4239.999896,4234.871691,4233.33323,4226.153743,4223.58964,4231.281948,4243.58964,4249.743486,4231.794768,4249.230665,4241.025537
84,0,4232.820409,4235.897332,4220.512717,4233.33323,4228.717845,4230.769127,4230.256307,4227.179384,4223.58964,4229.230666,4239.487076,4221.025538,4248.717845,4236.922973
85,0,4230.769127,4229.230666,4218.461435,4224.615281,4223.58964,4223.58964,4220.512717,4228.717845,4226.666563,4221.538358,4228.205025,4217.948615,4241.538358,4230.769127
86,0,4230.769127,4227.179384,4222.563999,4223.58964,4221.025538,4225.128102,4217.435794,4229.743486,4235.384512,4230.256307,4233.33323,4223.07682,4238.461435,4231.794768
87,0,4231.794768,4233.33323,4227.692204,4231.794768,4217.948615,4225.128102,4220.512717,4230.256307,4234.871691,4236.922973,4238.974255,4227.692204,4242.563999,4233.33323
88,0,4231.794768,4238.461435,4227.692204,4238.974255,4221.538358,4224.102461,4222.051179,4228.717845,4229.743486,4230.256307,4233.84605,4226.666563,4244.10246,4231.794768
89,0,4228.205025,4227.692204,4220.512717,4225.640922,4226.666563,4227.179384,4223.58964,4224.615281,4228.205025,4215.384512,4224.615281,4221.025538,4232.820409,4227.179384
90,0,4226.666563,4218.461435,4221.025538,4213.846051,4232.307589,4233.33323,4224.615281,4223.58964,4231.794768,4215.897333,4227.179384,4228.205025,4227.179384,4226.666563
91,0,4227.179384,4215.897333,4218.974256,4217.948615,4229.743486,4227.692204,4216.922974,4218.461435,4225.640922,4224.615281,4227.692204,4230.769127,4230.769127,4226.153743
92,0,4225.128102,4217.435794,4215.384512,4224.102461,4218.461435,4217.435794,4210.256307,4212.307589,4213.846051,4220.512717,4219.999897,4219.999897,4231.281948,4225.128102
93,0,4224.615281,4219.999897,4217.435794,4223.58964,4214.871692,4218.461435,4212.82041,4213.33323,4211.281948,4208.717846,4221.025538,4219.487076,4228.717845,4228.717845
94,0,4229.743486,4226.153743,4225.128102,4227.179384,4231.794768,4227.179384,4219.487076,4218.461435,4217.948615,4216.922974,4234.358871,4230.769127,4232.820409,4237.948614
95,0,4227.692204,4227.179384,4228.205025,4228.717845,4235.897332,4222.051179,4218.974256,4214.871692,4218.461435,4227.179384,4234.358871,4229.743486,4234.871691,4233.84605
96,0,4222.563999,4224.102461,4224.102461,4227.692204,4224.102461,4216.922974,4216.410153,4210.256307,4215.897333,4221.538358,4225.640922,4221.025538,4231.794768,4223.58964
97,0,4223.58964,4224.102461,4223.58964,4235.384512,4222.563999,4222.051179,4216.410153,4213.33323,4222.051179,4221.025538,4220.512717,4218.974256,4231.281948,4227.179384
98,0,4226.153743,4223.07682,4226.153743,4239.999896,4228.717845,4225.640922,4216.922974,4215.384512,4227.692204,4227.692204,4221.538358,4221.025538,4235.384512,4234.871691
99,0,4222.051179,4220.512717,4219.999897,4226.666563,4227.692204,4222.051179,4214.358871,4209.230666,4223.58964,4222.563999,4224.615281,4219.487076,4234.358871,4228.205025
100,0,4225.640922,4226.153743,4216.922974,4222.051179,4227.179384,4223.07682,4217.435794,4207.692205,4220.512717,4219.487076,4223.58964,4217.948615,4233.84605,4223.07682
101,0,4231.794768,4231.794768,4222.051179,4233.33323,4227.692204,4223.07682,4219.487076,4213.33323,4222.051179,4224.102461,4223.58964,4219.999897,4237.948614,4231.281948
102,0,4226.153743,4225.640922,4222.563999,4235.897332,4226.666563,4221.025538,4215.897333,4212.307589,4218.461435,4224.615281,4230.769127,4219.487076,4236.410153,4234.358871
103,0,4225.128102,4223.58964,4221.538358,4231.794768,4232.307589,4227.692204,4217.948615,4214.358871,4218.461435,4232.307589,4236.410153,4218.461435,4236.922973,4231.794768
104,0,4233.33323,4231.794768,4226.153743,4237.948614,4237.948614,4230.769127,4219.999897,4220.512717,4221.538358,4240.512717,4232.820409,4226.666563,4243.076819,4233.33323
105,0,4232.820409,4239.999896,4232.307589,4242.051178,4236.922973,4225.640922,4218.974256,4217.948615,4219.487076,4234.358871,4230.769127,4235.384512,4246.153742,4237.948614
106,0,4229.230666,4236.410153,4233.33323,4237.948614,4229.743486,4226.666563,4222.563999,4218.974256,4224.615281,4230.769127,4228.205025,4231.281948,4241.025537,4240.512717
107,0,4233.33323,4228.717845,4230.256307,4238.974255,4226.666563,4231.794768,4227.692204,4228.205025,4234.358871,4236.922973,4225.128102,4226.153743,4238.461435,4242.563999
108,0,4231.794768,4224.102461,4223.58964,4231.794768,4227.692204,4229.230666,4226.153743,4224.102461,4228.717845,4226.666563,4219.487076,4224.615281,4236.922973,4235.384512
109,0,4224.615281,4222.563999,4221.025538,4217.948615,4226.666563,4228.717845,4226.153743,4221.025538,4221.538358,4216.922974,4210.256307,4222.051179,4233.33323,4229.743486
110,0,4221.025538,4221.025538,4219.999897,4213.846051,4222.563999,4229.230666,4225.640922,4226.666563,4221.538358,4225.640922,4207.179384,4218.461435,4231.794768,4230.769127
111,0,4222.051179,4223.58964,4218.461435,4228.717845,4225.640922,4229.230666,4225.640922,4226.666563,4223.58964,4238.461435,4222.051179,4225.128102,4240.512717,4231.281948
112,0,4224.102461,4225.640922,4217.948615,4237.435794,4232.307589,4233.33323,4228.717845,4225.128102,4229.230666,4241.025537,4233.33323,4230.769127,4247.179383,4232.307589
113,0,4228.717845,4227.179384,4223.58964,4230.769127,4231.281948,4240.512717,4228.717845,4229.230666,4234.358871,4241.025537,4226.666563,4226.666563,4241.025537,4235.897332
114,0,4228.717845,4223.58964,4226.153743,4223.07682,4221.538358,4235.897332,4222.563999,4224.615281,4229.743486,4234.358871,4216.922974,4220.512717,4230.769127,4233.33323
115,0,4225.128102,4217.948615,4221.025538,4223.58964,4216.410153,4226.153743,4217.948615,4215.384512,4226.666563,4228.717845,4216.922974,4223.07682,4228.717845,4228.717845
116,0,4225.640922,4218.461435,4221.025538,4226.666563,4221.025538,4223.07682,4215.897333,4215.897333,4232.820409,4234.871691,4222.563999,4228.717845,4232.307589,4229.743486
117,0,4235.384512,4229.743486,4235.897332,4228.205025,4228.205025,4228.205025,4221.025538,4222.563999,4237.948614,4237.948614,4228.717845,4233.33323,4239.487076,4236.410153
118,0,4240.512717,4234.871691,4241.538358,4231.281948,4229.230666,4233.33323,4228.717845,4226.153743,4234.871691,4231.794768,4231.281948,4236.922973,4238.974255,4239.999896
119,0,4232.307589,4227.179384,4230.256307,4236.410153,4226.666563,4230.769127,4225.128102,4223.07682,4226.666563,4224.102461,4225.128102,4233.84605,4231.794768,4238.461435
120,0,4224.615281,4220.512717,4225.128102,4235.897332,4224.102461,4226.153743,4217.948615,4217.948615,4219.487076,4218.974256,4215.384512,4220.512717,4227.179384,4227.692204
121,0,4224.102461,4222.563999,4227.179384,4227.692204,4218.974256,4223.58964,4218.974256,4217.948615,4216.922974,4217.948615,4214.358871,4212.307589,4226.153743,4218.461435
122,0,4232.307589,4227.179384,4229.743486,4227.692204,4214.358871,4221.025538,4219.487076,4221.538358,4216.410153,4225.128102,4224.615281,4221.538358,4231.794768,4225.640922
123,0,4236.922973,4219.487076,4227.179384,4230.256307,4216.410153,4222.051179,4215.384512,4222.563999,4219.999897,4227.692204,4229.230666,4230.769127,4238.461435,4233.84605
124,0,4228.717845,4207.692205,4223.58964,4222.563999,4216.410153,4226.666563,4216.410153,4222.563999,4223.58964,4225.640922,4224.102461,4226.666563,4236.922973,4231.281948
125,0,4223.58964,4212.307589,4222.563999,4226.666563,4209.230666,4223.58964,4216.922974,4219.999897,4223.07682,4224.615281,4221.538358,4225.128102,4233.84605,4226.153743
126,0,4230.256307,4223.07682,4222.563999,4235.384512,4215.384512,4222.051179,4213.846051,4217.948615,4216.922974,4221.538358,4222.563999,4226.666563,4232.820409,4225.128102
127,0,4226.153743,4213.33323,4214.358871,4217.435794,4223.58964,4224.615281,4208.717846,4213.33323,4205.640923,4209.230666,4214.358871,4215.897333,4225.640922,4213.846051
128,0,4221.538358,4208.205025,4213.33323,4209.743487,4223.07682,4221.538358,4209.230666,4213.846051,4206.666564,4209.230666,4212.82041,4214.358871,4225.128102,4214.871692
0,0,4232.307589,4222.563999,4224.615281,4229.230666,4218.461435,4217.435794,4211.794769,4219.487076,4217.948615,4222.563999,4225.128102,4227.179384,4230.769127,4227.179384
1,0,4240.512717,4229.743486,4231.281948,4232.820409,4216.922974,4219.999897,4212.307589,4219.487076,4221.025538,4225.128102,4227.179384,4229.743486,4234.358871,4226.666563
2,0,4235.897332,4221.538358,4228.205025,4221.538358,4217.948615,4218.974256,4210.256307,4211.281948,4212.82041,4211.281948,4214.358871,4223.58964,4235.897332,4222.563999
3,0,4234.871691,4221.538358,4232.307589,4231.794768,4224.102461,4218.461435,4213.33323,4212.82041,4215.897333,4214.871692,4218.974256,4229.230666,4242.051178,4231.794768
4,0,4236.410153,4224.615281,4235.384512,4238.461435,4221.538358,4217.948615,4212.82041,4216.922974,4218.461435,4225.640922,4229.743486,4231.281948,4244.615281,4236.410153
5,0,4235.897332,4228.205025,4234.358871,4239.487076,4217.435794,4216.410153,4206.666564,4212.82041,4212.307589,4217.435794,4228.717845,4227.692204,4246.153742,4234.358871
6,0,4238.974255,4235.384512,4239.487076,4245.640922,4222.563999,4216.922974,4206.666564,4212.307589,4215.384512,4212.307589,4230.256307,4233.33323,4252.307588,4236.922973
7,0,4238.974255,4234.871691,4245.128101,4238.974255,4227.179384,4219.487076,4216.922974,4220.512717,4222.051179,4224.102461,4236.922973,4242.563999,4256.410152,4242.563999
8,0,4236.922973,4229.743486,4245.128101,4232.307589,4228.205025,4220.512717,4223.07682,4225.128102,4223.58964,4230.769127,4237.948614,4243.076819,4255.897332,4244.10246
9,0,4237.435794,4230.256307,4244.10246,4238.974255,4226.666563,4223.58964,4218.974256,4224.102461,4221.025538,4227.179384,4237.948614,4239.487076,4252.820409,4240.512717
10,0,4236.410153,4230.256307,4239.999896,4240.512717,4221.538358,4225.640922,4219.487076,4219.487076,4218.461435,4223.07682,4236.922973,4239.999896,4251.281947,4233.84605
11,0,4236.922973,4230.256307,4236.410153,4242.051178,4223.07682,4222.563999,4224.102461,4222.563999,4218.461435,4226.666563,4234.358871,4246.666563,4253.333229,4234.358871
12,0,4237.948614,4228.717845,4239.999896,4246.666563,4231.281948,4222.563999,4223.58964,4228.205025,4224.102461,4235.897332,4235.384512,4246.666563,4252.307588,4238.974255
13,0,4232.307589,4218.974256,4234.871691,4231.281948,4225.640922,4221.025538,4216.922974,4224.615281,4224.102461,4232.820409,4235.384512,4235.897332,4246.153742,4234.871691
14,0,4225.640922,4215.384512,4222.051179,4218.461435,4213.846051,4215.897333,4214.358871,4219.487076,4221.538358,4225.640922,4232.820409,4231.281948,4243.076819,4226.666563
15,0,4223.07682,4214.871692,4217.948615,4226.153743,4215.897333,4214.358871,4213.846051,4222.563999,4224.102461,4231.794768,4231.281948,4229.743486,4243.58964,4222.051179
16,0,4224.615281,4213.33323,4222.051179,4230.256307,4224.615281,4217.948615,4212.82041,4225.640922,4224.102461,4237.435794,4232.307589,4226.153743,4243.58964,4226.666563
17,0,4227.692204,4214.358871,4221.538358,4219.487076,4225.640922,4218.974256,4211.794769,4220.512717,4218.461435,4227.692204,4230.256307,4225.128102,4240.512717,4228.205025
18,0,4232.820409,4219.999897,4226.666563,4218.974256,4232.307589,4220.512717,4214.871692,4220.512717,4222.563999,4225.640922,4230.769127,4229.743486,4241.538358,4222.563999
19,0,4232.820409,4222.563999,4234.358871,4227.179384,4232.307589,4222.051179,4216.922974,4223.07682,4227.692204,4232.307589,4233.33323,4234.358871,4242.563999,4223.07682
20,0,4232.820409,4226.153743,4233.84605,4230.256307,4220.512717,4222.563999,4217.435794,4221.538358,4221.538358,4232.307589,4227.692204,4235.897332,4240.512717,4230.256307
21,0,4232.820409,4224.102461,4229.230666,4226.153743,4215.384512,4222.051179,4217.435794,4219.487076,4213.846051,4224.615281,4218.974256,4232.307589,4233.33323,4225.640922
22,0,4230.256307,4222.051179,4232.820409,4223.58964,4225.128102,4227.692204,4223.58964,4228.717845,4224.102461,4223.07682,4227.179384,4234.871691,4232.820409,4224.615281
23,0,4229.743486,4224.102461,4238.461435,4224.102461,4227.692204,4230.256307,4227.179384,4236.410153,4233.33323,4226.666563,4233.84605,4241.538358,4234.871691,4233.33323
24,0,4232.307589,4221.538358,4241.538358,4232.307589,4221.538358,4225.640922,4226.153743,4234.358871,4226.666563,4224.615281,4228.717845,4241.538358,4232.820409,4229.743486
25,0,4233.84605,4215.384512,4242.563999,4229.230666,4218.461435,4221.538358,4228.205025,4234.871691,4217.948615,4213.846051,4226.153743,4235.897332,4227.692204,4217.435794
26,0,4233.84605,4219.487076,4241.538358,4216.922974,4220.512717,4222.563999,4228.717845,4236.410153,4218.461435,4214.358871,4230.256307,4241.025537,4229.743486,4223.58964
27,0,4231.794768,4223.07682,4237.948614,4220.512717,4219.999897,4219.487076,4219.487076,4232.307589,4221.538358,4227.179384,4235.897332,4247.179383,4235.897332,4231.794768
28,0,4229.743486,4214.358871,4237.948614,4232.820409,4217.948615,4219.999897,4217.435794,4229.230666,4225.640922,4229.743486,4236.410153,4243.076819,4234.871691,4223.58964
29,0,4226.153743,4206.153743,4237.948614,4224.615281,4216.410153,4226.153743,4223.58964,4231.794768,4229.743486,4220.512717,4222.563999,4234.871691,4227.179384,4214.358871
30,0,4227.179384,4210.769128,4233.33323,4214.871692,4215.897333,4227.692204,4225.640922,4231.794768,4229.743486,4224.615281,4217.948615,4233.84605,4227.692204,4217.435794
31,0,4227.692204,4212.307589,4232.307589,4220.512717,4216.922974,4227.179384,4228.717845,4228.717845,4230.769127,4237.948614,4233.33323,4237.948614,4233.33323,4218.461435
32,0,4222.051179,4199.999897,4233.84605,4218.974256,4214.358871,4227.692204,4233.33323,4226.153743,4229.743486,4233.84605,4233.33323,4234.871691,4225.128102,4209.743487
33,0,4218.974256,4197.435795,4232.820409,4208.717846,4209.230666,4222.051179,4228.205025,4226.666563,4224.102461,4219.999897,4217.948615,4228.717845,4213.846051,4209.230666
34,0,4221.538358,4206.666564,4227.692204,4207.692205,4210.256307,4218.461435,4220.512717,4224.102461,4217.435794,4213.33323,4212.82041,4224.102461,4212.307589,4215.384512
35,0,4223.58964,4212.82041,4229.743486,4219.999897,4221.025538,4225.640922,4222.051179,4224.102461,4219.999897,4223.07682,4215.384512,4226.153743,4215.897333,4217.435794
36,0,4226.153743,4213.846051,4233.84605,4228.717845,4221.538358,4226.153743,4221.538358,4231.281948,4227.692204,4234.871691,4218.461435,4231.794768,4218.974256,4215.897333
37,0,4231.281948,4218.461435,4236.922973,4235.897332,4217.948615,4219.999897,4221.025538,4232.820409,4231.794768,4236.410153,4223.58964,4236.410153,4226.666563,4219.999897
38,0,4225.640922,4216.410153,4232.307589,4234.871691,4218.461435,4217.435794,4221.025538,4222.563999,4228.205025,4229.743486,4218.974256,4231.794768,4230.769127,4218.461435
