title:P                                                                               , recorded:02.07.20 11.17.30, sampling:128, subject:N                                                                               , labels:COUNTER INTERPOLATED AF3 F7 F3 FC5 T7 P7 O1 O2 P8 T8 FC6 F4 F8 AF4, chan:37, units:emotiv,,,,,,,,,
96,0,4297.948613,4239.487076,4244.10246,4212.82041,4232.307589,4229.230666,4232.307589,4233.33323,4225.640922,4203.07682,4225.128102,4198.974256,4250.256306,4230.769127
97,0,4303.589638,4250.769127,4250.256306,4226.666563,4249.230665,4216.922974,4229.230666,4235.897332,4227.179384,4221.025538,4247.179383,4210.256307,4263.076819,4242.563999
98,0,4313.333228,4263.076819,4248.717845,4249.230665,4247.692204,4230.769127,4238.974255,4244.10246,4234.358871,4224.615281,4248.205024,4207.692205,4265.640921,4241.538358
99,0,4325.64092,4266.666562,4251.281947,4256.922973,4239.999896,4230.256307,4239.999896,4249.230665,4240.512717,4225.128102,4253.84605,4204.615282,4274.87169,4250.256306
100,0,4323.076817,4261.025537,4253.333229,4238.461435,4247.692204,4220.512717,4240.512717,4245.128101,4236.922973,4226.666563,4258.461434,4196.410154,4275.384511,4255.384511
101,0,4303.076818,4244.615281,4237.435794,4219.999897,4243.58964,4220.512717,4236.410153,4230.769127,4223.58964,4212.82041,4237.435794,4176.922975,4259.999896,4232.820409
102,0,4290.769126,4230.769127,4224.615281,4216.410153,4222.563999,4221.538358,4224.615281,4224.102461,4216.410153,4195.384513,4223.07682,4166.666565,4251.794768,4215.384512
103,0,4296.922972,4231.794768,4226.666563,4214.871692,4213.846051,4219.487076,4223.07682,4233.84605,4221.025538,4197.948615,4233.84605,4169.743488,4251.794768,4224.615281
104,0,4306.153741,4243.076819,4237.435794,4219.487076,4225.128102,4225.128102,4232.307589,4240.512717,4226.153743,4213.846051,4246.153742,4174.871693,4253.84605,4239.999896
105,0,4299.999895,4244.10246,4241.025537,4222.051179,4230.256307,4224.615281,4232.820409,4231.281948,4224.102461,4213.33323,4241.538358,4174.871693,4254.35887,4236.410153
106,0,4293.846049,4243.076819,4238.461435,4218.461435,4237.435794,4225.640922,4233.84605,4230.256307,4231.281948,4209.743487,4237.435794,4173.333231,4257.948614,4230.256307
107,0,4302.563997,4251.281947,4243.076819,4219.999897,4242.563999,4238.461435,4243.58964,4245.128101,4245.640922,4223.58964,4250.769127,4184.615282,4268.717844,4239.999896
108,0,4307.179382,4252.307588,4250.769127,4230.769127,4234.871691,4245.640922,4252.307588,4250.769127,4243.58964,4224.102461,4258.974255,4194.358872,4269.743485,4245.128101
109,0,4302.051177,4247.179383,4252.820409,4241.538358,4238.461435,4240.512717,4251.281947,4242.051178,4235.897332,4210.769128,4249.230665,4189.743487,4257.948614,4236.410153
110,0,4301.025536,4246.153742,4252.820409,4242.051178,4243.076819,4229.230666,4247.179383,4242.051178,4242.563999,4212.307589,4239.999896,4186.666564,4253.333229,4232.820409
111,0,4304.102459,4247.692204,4256.922973,4237.948614,4234.358871,4231.281948,4253.333229,4254.35887,4252.307588,4221.025538,4245.128101,4193.333231,4260.512716,4242.563999
112,0,4306.666561,4251.794768,4264.10246,4245.640922,4237.948614,4244.615281,4260.512716,4256.410152,4252.307588,4219.999897,4252.820409,4197.948615,4263.589639,4246.666563
113,0,4310.256305,4263.076819,4267.692203,4258.461434,4254.35887,4250.769127,4255.384511,4248.205024,4252.307588,4226.666563,4258.461434,4203.07682,4266.666562,4246.153742
114,0,4308.717843,4266.666562,4264.10246,4257.435793,4253.333229,4244.615281,4244.615281,4243.58964,4252.820409,4235.897332,4260.512716,4206.666564,4271.794767,4248.717845
115,0,4306.666561,4266.153742,4263.589639,4252.307588,4251.281947,4248.717845,4249.230665,4247.179383,4255.384511,4236.922973,4260.512716,4206.666564,4274.87169,4252.820409
116,0,4310.769125,4267.179383,4267.692203,4252.307588,4255.897332,4254.871691,4257.948614,4248.205024,4258.974255,4233.33323,4258.461434,4205.640923,4272.820408,4251.281947
117,0,4313.333228,4266.153742,4269.743485,4253.333229,4255.384511,4253.84605,4257.948614,4248.205024,4265.640921,4233.84605,4254.871691,4208.205025,4272.307588,4250.769127
118,0,4304.615279,4255.384511,4264.10246,4244.615281,4244.10246,4252.307588,4258.461434,4253.84605,4269.230665,4229.230666,4244.615281,4205.128102,4267.179383,4248.205024
119,0,4303.076818,4257.948614,4265.128101,4243.076819,4245.640922,4250.769127,4259.999896,4261.538357,4272.307588,4230.769127,4247.692204,4207.179384,4269.743485,4253.333229
120,0,4312.307587,4266.153742,4270.256306,4243.076819,4254.871691,4244.615281,4250.256306,4255.384511,4268.205024,4235.384512,4261.025537,4210.256307,4281.538357,4259.999896
121,0,4313.846048,4264.61528,4271.281947,4236.410153,4247.179383,4241.025537,4244.10246,4247.692204,4261.025537,4237.948614,4259.487075,4208.205025,4286.666562,4257.948614
122,0,4308.205023,4262.051178,4266.153742,4243.58964,4234.871691,4244.615281,4251.281947,4252.307588,4264.10246,4241.538358,4252.307588,4205.128102,4282.563998,4251.794768
123,0,4310.769125,4272.820408,4264.10246,4265.128101,4253.333229,4254.871691,4258.974255,4256.410152,4273.846049,4249.230665,4264.61528,4207.692205,4287.179382,4258.461434
124,0,4315.89733,4276.410152,4263.589639,4263.589639,4263.589639,4258.974255,4256.410152,4251.794768,4270.769126,4246.666563,4270.769126,4209.743487,4291.281946,4265.128101
125,0,4313.846048,4268.205024,4261.538357,4244.10246,4236.922973,4253.333229,4251.794768,4246.666563,4258.461434,4232.307589,4258.974255,4203.589641,4284.61528,4257.435793
126,0,4315.38451,4266.666562,4261.025537,4243.58964,4224.615281,4247.692204,4250.256306,4246.153742,4256.410152,4222.563999,4253.333229,4200.512718,4278.461434,4253.333229
127,0,4317.435792,4269.743485,4262.563998,4251.794768,4236.410153,4250.769127,4254.35887,4249.230665,4262.051178,4221.025538,4255.897332,4203.07682,4279.487075,4254.35887
128,0,4314.871689,4267.179383,4264.61528,4247.179383,4238.974255,4251.281947,4256.922973,4250.769127,4262.563998,4223.58964,4257.435793,4206.153743,4281.025536,4252.307588
0,0,4311.281946,4258.974255,4257.435793,4235.897332,4233.84605,4244.615281,4253.84605,4245.640922,4258.461434,4221.025538,4254.871691,4197.948615,4277.948613,4245.128101
1,0,4310.769125,4254.871691,4250.769127,4237.948614,4242.563999,4249.743486,4257.435793,4244.615281,4262.051178,4227.179384,4255.384511,4194.358872,4278.461434,4243.58964
2,0,4313.333228,4259.487075,4254.35887,4250.256306,4254.35887,4261.538357,4261.538357,4251.794768,4270.256306,4240.512717,4259.487075,4204.102461,4284.102459,4247.692204
3,0,4314.358869,4267.179383,4258.974255,4258.974255,4254.35887,4259.487075,4258.974255,4252.307588,4269.230665,4242.051178,4261.538357,4210.769128,4286.666562,4248.717845
4,0,4310.769125,4266.666562,4254.35887,4256.922973,4245.128101,4250.769127,4254.35887,4245.128101,4258.974255,4232.820409,4257.948614,4204.102461,4282.051177,4242.563999
5,0,4308.717843,4263.589639,4254.35887,4250.769127,4245.640922,4251.281947,4254.871691,4244.10246,4257.435793,4226.666563,4254.871691,4197.435795,4278.461434,4237.435794
6,0,4305.64092,4259.999896,4253.84605,4237.435794,4239.999896,4247.179383,4251.794768,4241.025537,4258.461434,4216.922974,4249.743486,4191.281949,4273.333229,4233.33323
7,0,4298.461433,4260.512716,4249.230665,4235.897332,4223.07682,4243.58964,4248.717845,4235.897332,4256.922973,4216.922974,4249.743486,4190.256308,4271.794767,4234.358871
8,0,4296.410151,4258.461434,4243.58964,4243.58964,4214.871692,4239.487076,4246.666563,4234.358871,4252.307588,4216.922974,4249.743486,4185.128103,4269.743485,4234.358871
9,0,4307.692202,4263.076819,4248.205024,4248.205024,4236.410153,4238.974255,4246.666563,4236.410153,4253.84605,4215.384512,4250.769127,4180.512718,4268.205024,4235.384512
10,0,4314.358869,4268.717844,4257.948614,4249.743486,4255.384511,4246.666563,4245.640922,4237.435794,4258.974255,4225.128102,4253.333229,4188.205026,4272.307588,4239.999896
11,0,4311.281946,4265.640921,4257.435793,4251.281947,4248.205024,4253.84605,4249.230665,4237.435794,4256.922973,4229.230666,4254.871691,4200.512718,4274.87169,4243.076819
12,0,4305.64092,4257.435793,4246.153742,4244.615281,4233.84605,4247.179383,4250.256306,4232.307589,4247.179383,4213.33323,4250.256306,4194.358872,4265.640921,4235.384512
13,0,4301.538356,4253.84605,4242.051178,4239.487076,4224.102461,4237.948614,4243.076819,4226.153743,4242.051178,4205.640923,4245.128101,4183.589641,4259.999896,4227.692204
14,0,4298.974254,4251.794768,4246.666563,4242.563999,4213.846051,4234.871691,4237.435794,4226.666563,4246.153742,4210.256307,4244.615281,4184.615282,4267.179383,4234.871691
15,0,4298.974254,4248.717845,4246.666563,4236.922973,4213.846051,4236.410153,4241.025537,4224.615281,4251.794768,4211.794769,4247.179383,4185.640923,4272.307588,4241.025537
16,0,4295.38451,4244.10246,4235.384512,4228.205025,4222.051179,4236.922973,4237.435794,4218.461435,4242.563999,4207.179384,4242.563999,4175.384513,4263.589639,4230.256307
17,0,4284.102459,4236.922973,4222.051179,4231.281948,4227.179384,4236.410153,4224.615281,4211.794769,4227.179384,4191.794769,4223.58964,4157.948616,4249.743486,4213.33323
18,0,4281.538357,4239.487076,4226.153743,4229.743486,4239.999896,4245.128101,4232.307589,4215.897333,4234.358871,4189.743487,4220.512717,4158.461437,4250.769127,4215.384512
19,0,4289.743485,4244.615281,4238.974255,4219.999897,4246.666563,4257.435793,4249.230665,4227.692204,4248.205024,4205.640923,4240.512717,4176.410154,4261.538357,4228.205025
20,0,4297.435792,4246.153742,4243.076819,4230.769127,4238.974255,4252.820409,4244.615281,4233.33323,4246.153742,4214.358871,4248.205024,4185.640923,4267.692203,4236.922973
21,0,4299.487074,4248.717845,4242.051178,4246.153742,4234.358871,4239.999896,4235.897332,4230.769127,4243.58964,4213.846051,4239.487076,4182.564,4268.717844,4241.025537
22,0,4300.512715,4252.307588,4248.205024,4242.563999,4233.33323,4243.58964,4247.179383,4234.871691,4257.435793,4224.102461,4247.179383,4188.205026,4275.897331,4247.179383
23,0,4294.358869,4237.948614,4245.128101,4224.615281,4213.846051,4246.153742,4252.820409,4235.384512,4256.922973,4223.58964,4254.871691,4189.743487,4274.35887,4246.153742
24,0,4289.230664,4225.128102,4238.461435,4218.974256,4197.948615,4244.10246,4249.743486,4231.281948,4244.615281,4215.897333,4247.692204,4182.564,4265.640921,4238.974255
25,0,4291.794767,4229.230666,4238.974255,4224.615281,4201.538359,4242.051178,4245.640922,4229.743486,4237.948614,4210.769128,4239.999896,4177.435795,4257.435793,4232.820409
26,0,4298.461433,4238.974255,4245.128101,4234.358871,4213.846051,4242.563999,4244.615281,4227.179384,4236.922973,4203.07682,4240.512717,4177.435795,4253.333229,4235.384512
27,0,4298.461433,4235.897332,4243.076819,4227.179384,4218.974256,4238.974255,4243.076819,4218.974256,4236.922973,4196.410154,4237.948614,4171.281949,4249.743486,4236.410153
28,0,4295.38451,4231.281948,4236.922973,4216.410153,4218.461435,4237.948614,4241.025537,4216.922974,4235.897332,4204.102461,4238.461435,4170.256308,4250.769127,4235.384512
29,0,4292.820408,4231.794768,4238.461435,4220.512717,4210.769128,4237.948614,4238.974255,4213.846051,4228.205025,4209.743487,4242.051178,4176.922975,4253.84605,4238.974255
30,0,4289.743485,4231.794768,4243.076819,4219.487076,4210.256307,4235.897332,4243.58964,4211.794769,4228.717845,4204.615282,4242.051178,4179.487077,4252.307588,4242.563999
31,0,4283.076818,4225.640922,4238.974255,4211.281948,4209.743487,4234.871691,4245.128101,4216.410153,4235.384512,4200.512718,4240.512717,4174.358872,4248.205024,4235.384512
32,0,4280.512716,4225.128102,4232.820409,4222.051179,4197.948615,4239.999896,4240.512717,4216.922974,4231.794768,4203.589641,4235.384512,4169.743488,4248.717845,4229.743486
33,0,4287.692203,4234.358871,4237.435794,4243.076819,4198.974256,4246.153742,4239.999896,4213.33323,4232.307589,4211.794769,4231.794768,4174.871693,4254.35887,4236.410153
34,0,4299.487074,4242.563999,4251.281947,4249.230665,4211.794769,4249.230665,4247.179383,4222.051179,4247.692204,4229.743486,4246.666563,4188.717846,4263.076819,4251.281947
35,0,4305.64092,4247.692204,4258.461434,4243.58964,4216.410153,4251.281947,4254.35887,4233.84605,4256.410152,4247.692204,4265.128101,4196.922974,4272.820408,4261.025537
36,0,4299.999895,4245.640922,4251.281947,4235.384512,4213.846051,4248.717845,4254.35887,4234.871691,4255.384511,4246.666563,4260.512716,4191.281949,4271.281947,4256.410152
37,0,4296.922972,4241.025537,4246.666563,4233.33323,4214.871692,4243.58964,4248.717845,4233.33323,4252.820409,4236.410153,4250.769127,4189.743487,4263.589639,4252.820409
38,0,4299.487074,4242.051178,4249.743486,4239.487076,4216.922974,4244.10246,4248.205024,4233.84605,4247.179383,4231.794768,4250.256306,4190.769128,4262.051178,4256.410152
39,0,4296.410151,4243.58964,4247.179383,4238.461435,4220.512717,4247.179383,4247.179383,4230.769127,4241.025537,4229.230666,4247.179383,4183.589641,4261.025537,4248.717845
40,0,4286.666562,4234.871691,4234.358871,4229.230666,4214.358871,4239.487076,4238.974255,4219.999897,4230.769127,4217.948615,4236.922973,4172.820411,4251.281947,4233.84605
41,0,4290.256305,4238.974255,4235.897332,4236.410153,4212.82041,4236.922973,4241.538358,4218.461435,4231.281948,4215.897333,4241.538358,4176.410154,4254.871691,4243.58964
42,0,4299.487074,4249.743486,4244.615281,4245.128101,4221.025538,4239.999896,4247.179383,4226.153743,4242.051178,4221.538358,4250.769127,4182.05118,4265.640921,4255.384511
43,0,4299.999895,4247.179383,4244.615281,4241.538358,4221.025538,4240.512717,4247.179383,4230.256307,4246.153742,4225.640922,4248.205024,4185.128103,4266.666562,4251.281947
44,0,4297.435792,4237.435794,4242.051178,4235.897332,4207.179384,4240.512717,4245.640922,4227.179384,4239.999896,4224.102461,4242.051178,4187.692205,4264.61528,4249.230665
45,0,4299.487074,4238.974255,4248.205024,4230.769127,4205.128102,4243.076819,4249.230665,4231.794768,4240.512717,4225.640922,4248.717845,4191.794769,4270.256306,4256.410152
46,0,4302.051177,4242.051178,4247.692204,4227.179384,4204.615282,4237.948614,4246.153742,4230.769127,4239.999896,4220.512717,4250.769127,4192.30759,4264.61528,4254.871691
47,0,4305.64092,4245.640922,4246.666563,4241.025537,4194.871692,4234.358871,4241.025537,4221.025538,4235.897332,4213.846051,4246.153742,4195.384513,4259.999896,4250.769127
48,0,4306.153741,4244.10246,4248.205024,4248.205024,4195.384513,4234.358871,4241.025537,4218.461435,4234.358871,4210.769128,4243.076819,4198.461436,4260.512716,4252.307588
49,0,4303.076818,4241.025537,4244.10246,4237.948614,4212.82041,4230.256307,4237.948614,4217.435794,4226.153743,4205.128102,4239.487076,4195.897333,4255.384511,4254.35887
50,0,4301.538356,4242.051178,4234.358871,4229.743486,4219.487076,4225.128102,4231.794768,4206.666564,4221.025538,4199.487077,4231.794768,4190.769128,4248.205024,4247.179383
51,0,4302.051177,4240.512717,4233.33323,4231.281948,4214.871692,4230.769127,4234.358871,4199.999897,4228.205025,4199.999897,4229.230666,4191.794769,4249.230665,4238.974255
52,0,4300.512715,4233.33323,4234.871691,4229.230666,4213.33323,4232.307589,4235.897332,4201.538359,4229.230666,4201.025538,4224.102461,4192.30759,4248.205024,4235.384512
53,0,4302.051177,4233.33323,4231.281948,4225.640922,4211.281948,4225.640922,4229.743486,4198.974256,4219.487076,4202.564,4220.512717,4189.743487,4245.640922,4233.84605
54,0,4304.102459,4242.051178,4233.84605,4230.256307,4209.743487,4225.640922,4227.179384,4197.435795,4224.102461,4207.692205,4231.794768,4196.922974,4251.281947,4234.871691
55,0,4303.589638,4245.128101,4241.538358,4238.974255,4215.384512,4232.820409,4230.256307,4199.999897,4231.794768,4208.205025,4241.538358,4208.717846,4255.897332,4241.538358
56,0,4308.717843,4246.666563,4246.666563,4238.974255,4220.512717,4235.384512,4236.410153,4204.102461,4228.717845,4209.230666,4243.076819,4213.33323,4259.487075,4248.205024
57,0,4313.333228,4246.666563,4244.615281,4225.640922,4215.897333,4233.84605,4240.512717,4211.794769,4227.692204,4211.794769,4242.051178,4211.794769,4258.461434,4249.230665
58,0,4312.820407,4246.153742,4242.563999,4230.769127,4217.435794,4234.358871,4236.410153,4217.948615,4233.84605,4212.82041,4242.051178,4212.307589,4256.410152,4250.256306
59,0,4306.153741,4244.615281,4238.461435,4246.666563,4219.999897,4233.33323,4228.205025,4213.33323,4228.205025,4213.846051,4241.025537,4208.717846,4252.820409,4246.666563
60,0,4300.512715,4243.58964,4235.384512,4244.615281,4220.512717,4234.358871,4230.256307,4207.692205,4224.615281,4216.922974,4241.538358,4201.538359,4249.743486,4238.461435
61,0,4296.410151,4235.384512,4229.743486,4229.230666,4215.897333,4231.794768,4228.205025,4205.128102,4224.102461,4208.717846,4231.281948,4194.358872,4243.076819,4229.230666
62,0,4295.38451,4231.794768,4226.153743,4225.640922,4215.384512,4226.666563,4220.512717,4202.564,4212.82041,4200.512718,4219.487076,4192.30759,4238.974255,4224.615281
63,0,4291.794767,4231.794768,4223.58964,4226.666563,4218.974256,4225.640922,4217.948615,4197.435795,4200.512718,4189.743487,4215.897333,4189.230667,4233.84605,4222.051179
64,0,4290.769126,4236.922973,4229.230666,4229.230666,4225.128102,4229.230666,4222.051179,4198.461436,4209.743487,4183.589641,4219.487076,4189.230667,4232.307589,4227.179384
65,0,4302.563997,4249.230665,4237.435794,4238.974255,4229.743486,4226.666563,4225.128102,4205.640923,4219.999897,4193.846051,4228.717845,4198.461436,4243.58964,4237.435794
66,0,4315.38451,4264.61528,4244.615281,4253.84605,4238.974255,4230.769127,4227.692204,4214.358871,4222.563999,4213.846051,4243.076819,4210.769128,4257.948614,4246.666563
67,0,4315.38451,4269.230665,4245.640922,4252.307588,4243.076819,4236.922973,4224.615281,4210.769128,4225.640922,4218.461435,4241.025537,4212.82041,4257.435793,4252.307588
68,0,4309.230664,4266.153742,4239.999896,4241.025537,4231.794768,4230.256307,4219.999897,4198.974256,4221.025538,4208.205025,4226.666563,4210.256307,4250.769127,4251.281947
69,0,4306.153741,4259.487075,4237.948614,4242.563999,4222.563999,4223.07682,4216.410153,4196.410154,4208.717846,4200.512718,4223.07682,4205.128102,4245.128101,4243.076819
70,0,4305.1281,4253.333229,4241.538358,4250.256306,4231.794768,4223.58964,4215.384512,4201.538359,4213.33323,4199.999897,4227.692204,4199.487077,4240.512717,4237.948614
71,0,4301.025536,4252.307588,4242.563999,4246.666563,4236.410153,4226.153743,4222.563999,4203.589641,4223.58964,4204.615282,4228.717845,4201.025538,4240.512717,4236.922973
72,0,4295.897331,4250.256306,4237.435794,4238.974255,4230.256307,4226.666563,4225.128102,4202.564,4222.563999,4209.230666,4230.769127,4204.102461,4244.10246,4233.84605
73,0,4295.38451,4249.743486,4236.410153,4243.58964,4234.871691,4230.256307,4218.461435,4201.538359,4216.922974,4209.230666,4232.307589,4199.999897,4244.615281,4237.435794
74,0,4299.487074,4250.256306,4238.974255,4248.205024,4244.10246,4235.897332,4217.948615,4202.051179,4215.897333,4205.640923,4228.205025,4197.948615,4242.563999,4241.025537
75,0,4300.512715,4250.769127,4242.051178,4248.205024,4244.615281,4239.487076,4222.563999,4204.615282,4216.410153,4210.256307,4227.692204,4204.102461,4242.051178,4237.435794
76,0,4300.512715,4248.717845,4242.563999,4245.640922,4243.076819,4233.33323,4218.461435,4202.051179,4214.358871,4215.384512,4231.794768,4205.128102,4242.051178,4232.820409
77,0,4305.1281,4248.717845,4239.999896,4244.10246,4243.076819,4227.692204,4218.461435,4204.615282,4216.922974,4213.846051,4231.281948,4204.102461,4245.640922,4235.897332
78,0,4307.692202,4250.769127,4238.461435,4249.230665,4238.461435,4226.153743,4219.999897,4209.743487,4219.487076,4209.743487,4223.58964,4204.615282,4245.128101,4236.410153
79,0,4310.256305,4259.999896,4244.615281,4259.999896,4239.999896,4226.153743,4218.974256,4209.743487,4223.07682,4215.897333,4231.281948,4210.769128,4246.666563,4241.025537
80,0,4304.615279,4255.384511,4243.58964,4249.230665,4239.487076,4224.615281,4219.487076,4206.153743,4218.974256,4214.871692,4241.538358,4209.743487,4245.128101,4242.051178
81,0,4293.333228,4237.435794,4235.384512,4231.794768,4227.179384,4223.07682,4222.051179,4206.666564,4210.769128,4199.999897,4227.692204,4198.974256,4235.384512,4230.256307
82,0,4292.820408,4239.487076,4232.307589,4240.512717,4220.512717,4224.102461,4220.512717,4211.794769,4210.256307,4198.461436,4214.871692,4197.948615,4230.769127,4223.58964
83,0,4306.666561,4263.589639,4245.640922,4266.153742,4237.435794,4234.358871,4224.615281,4219.999897,4226.666563,4226.666563,4236.410153,4214.358871,4250.769127,4240.512717
84,0,4308.205023,4264.61528,4249.230665,4260.512716,4243.58964,4235.384512,4226.666563,4220.512717,4233.33323,4238.974255,4249.230665,4216.410153,4257.435793,4245.640922
85,0,4298.974254,4249.230665,4239.487076,4244.10246,4239.487076,4227.692204,4223.58964,4213.846051,4221.538358,4224.102461,4235.384512,4207.179384,4240.512717,4231.794768
86,0,4302.563997,4253.333229,4242.563999,4257.435793,4245.640922,4228.717845,4224.615281,4215.897333,4219.999897,4222.051179,4235.897332,4216.410153,4243.58964,4235.384512
87,0,4312.307587,4265.640921,4255.897332,4269.743485,4252.307588,4235.897332,4230.256307,4221.538358,4227.692204,4232.307589,4249.230665,4231.281948,4262.051178,4250.769127
88,0,4313.846048,4262.563998,4258.974255,4254.35887,4247.179383,4234.358871,4231.281948,4223.58964,4227.179384,4228.205025,4247.692204,4228.717845,4258.974255,4249.230665
89,0,4307.179382,4253.84605,4254.871691,4246.153742,4241.025537,4230.256307,4227.692204,4227.692204,4225.640922,4224.615281,4242.051178,4225.640922,4248.717845,4244.615281
90,0,4300.512715,4252.307588,4252.820409,4255.897332,4244.10246,4231.281948,4226.666563,4230.769127,4232.307589,4233.84605,4248.205024,4230.769127,4252.820409,4253.84605
91,0,4299.999895,4247.179383,4250.256306,4245.128101,4249.230665,4232.820409,4227.692204,4229.230666,4236.922973,4238.461435,4250.256306,4227.692204,4257.435793,4258.461434
92,0,4301.538356,4240.512717,4251.794768,4234.358871,4246.153742,4234.358871,4228.717845,4230.256307,4238.461435,4232.820409,4246.153742,4221.025538,4255.384511,4250.256306
93,0,4299.487074,4241.025537,4255.384511,4253.333229,4237.435794,4236.410153,4227.179384,4231.281948,4235.384512,4227.179384,4241.538358,4222.051179,4249.743486,4244.10246
94,0,4297.435792,4244.615281,4252.820409,4262.563998,4231.794768,4236.922973,4226.153743,4229.743486,4228.205025,4225.640922,4237.948614,4223.07682,4245.640922,4245.640922
95,0,4296.922972,4241.538358,4247.692204,4248.205024,4221.025538,4227.692204,4224.615281,4229.230666,4221.025538,4219.999897,4234.871691,4216.410153,4242.563999,4240.512717
96,0,4296.922972,4240.512717,4249.743486,4247.179383,4223.58964,4223.07682,4224.102461,4231.281948,4221.538358,4215.384512,4236.410153,4216.922974,4242.563999,4234.358871
97,0,4293.333228,4242.051178,4249.230665,4252.820409,4242.563999,4231.281948,4228.205025,4228.717845,4224.102461,4217.948615,4236.922973,4219.999897,4239.487076,4233.33323
98,0,4295.897331,4249.230665,4251.281947,4255.897332,4257.435793,4243.076819,4234.871691,4230.769127,4225.128102,4232.307589,4243.58964,4223.07682,4243.076819,4238.974255
99,0,4301.538356,4258.461434,4252.820409,4260.512716,4255.384511,4244.10246,4232.307589,4235.384512,4224.102461,4239.487076,4246.153742,4224.102461,4250.256306,4242.051178
100,0,4301.025536,4256.922973,4247.692204,4263.076819,4245.640922,4239.999896,4226.666563,4233.84605,4224.615281,4236.922973,4240.512717,4224.102461,4252.820409,4238.974255
101,0,4294.358869,4240.512717,4239.999896,4256.410152,4234.358871,4233.33323,4224.615281,4230.256307,4224.102461,4232.820409,4237.435794,4219.487076,4249.743486,4234.358871
102,0,4294.358869,4243.58964,4247.179383,4257.435793,4241.538358,4233.33323,4225.640922,4235.897332,4228.205025,4236.410153,4244.10246,4221.025538,4252.820409,4237.435794
103,0,4297.948613,4256.922973,4254.35887,4256.922973,4256.410152,4236.922973,4226.153743,4238.461435,4229.230666,4240.512717,4247.692204,4228.205025,4255.384511,4242.051178
104,0,4297.435792,4254.35887,4251.794768,4250.256306,4254.871691,4234.871691,4226.153743,4233.84605,4225.640922,4240.512717,4246.666563,4229.743486,4254.871691,4241.538358
105,0,4289.230664,4240.512717,4243.58964,4246.153742,4240.512717,4225.640922,4223.07682,4229.230666,4218.461435,4230.769127,4238.974255,4214.358871,4247.692204,4231.281948
106,0,4283.589639,4238.461435,4236.922973,4249.743486,4232.307589,4222.563999,4220.512717,4226.153743,4211.794769,4215.897333,4228.205025,4200.512718,4238.461435,4223.07682
107,0,4289.230664,4246.666563,4239.487076,4255.897332,4235.897332,4227.179384,4221.538358,4225.128102,4208.205025,4215.384512,4229.230666,4207.692205,4238.461435,4228.205025
108,0,4290.256305,4248.205024,4243.58964,4254.35887,4244.615281,4231.794768,4222.563999,4227.692204,4212.82041,4218.974256,4232.307589,4214.871692,4239.487076,4233.33323
109,0,4278.974254,4243.076819,4239.999896,4247.692204,4247.692204,4238.974255,4225.128102,4229.743486,4217.435794,4213.846051,4223.07682,4205.640923,4233.84605,4226.666563
110,0,4279.999895,4243.076819,4238.974255,4248.205024,4236.922973,4239.999896,4228.205025,4230.256307,4215.897333,4216.410153,4222.563999,4201.025538,4236.922973,4225.640922
111,0,4287.692203,4243.076819,4242.563999,4252.307588,4226.666563,4223.07682,4226.153743,4231.794768,4219.999897,4226.153743,4230.769127,4208.205025,4243.076819,4231.281948
112,0,4282.051177,4237.948614,4239.487076,4250.769127,4230.256307,4207.179384,4225.128102,4232.820409,4225.640922,4227.692204,4230.769127,4213.33323,4239.999896,4229.743486
113,0,4282.563998,4243.076819,4241.538358,4248.717845,4243.076819,4210.256307,4227.179384,4232.307589,4224.615281,4232.820409,4236.410153,4217.435794,4248.717845,4237.948614
114,0,4294.358869,4251.794768,4245.128101,4252.307588,4245.128101,4216.410153,4226.153743,4229.230666,4219.999897,4237.435794,4246.666563,4218.461435,4264.10246,4251.281947
115,0,4292.307587,4246.153742,4239.487076,4255.897332,4244.10246,4212.82041,4225.640922,4229.743486,4222.563999,4233.84605,4241.538358,4212.307589,4256.922973,4247.179383
116,0,4278.974254,4236.410153,4234.871691,4243.076819,4244.10246,4208.205025,4225.640922,4229.743486,4224.102461,4228.205025,4230.769127,4207.692205,4243.58964,4233.33323
117,0,4281.025536,4242.051178,4242.051178,4237.435794,4242.051178,4212.82041,4224.615281,4231.794768,4224.615281,4234.358871,4237.435794,4213.846051,4250.256306,4236.410153
118,0,4279.999895,4243.58964,4239.999896,4250.256306,4234.358871,4212.307589,4218.461435,4230.769127,4224.615281,4234.358871,4232.307589,4211.794769,4249.230665,4239.999896
119,0,4273.846049,4239.999896,4236.410153,4256.410152,4230.256307,4208.717846,4218.974256,4230.256307,4223.07682,4230.256307,4222.051179,4209.230666,4245.128101,4235.897332
120,0,4276.410152,4237.435794,4238.974255,4239.999896,4233.33323,4209.230666,4224.102461,4230.256307,4222.563999,4231.281948,4231.281948,4210.769128,4251.794768,4231.794768
121,0,4279.999895,4234.358871,4241.025537,4236.410153,4241.025537,4213.846051,4224.615281,4228.205025,4224.102461,4235.897332,4241.538358,4213.33323,4253.333229,4232.307589
122,0,4274.87169,4227.692204,4236.410153,4242.051178,4237.948614,4212.307589,4219.487076,4221.025538,4216.922974,4228.717845,4231.281948,4208.205025,4240.512717,4228.205025
123,0,4274.35887,4233.84605,4237.948614,4243.076819,4240.512717,4215.897333,4222.051179,4224.615281,4214.871692,4225.128102,4228.205025,4206.666564,4240.512717,4230.769127
124,0,4275.384511,4238.461435,4241.025537,4246.153742,4236.922973,4216.922974,4220.512717,4230.769127,4219.487076,4228.717845,4233.84605,4209.230666,4244.615281,4234.871691
125,0,4273.333229,4236.410153,4241.538358,4252.307588,4226.666563,4213.33323,4215.897333,4227.692204,4216.410153,4224.102461,4228.205025,4209.230666,4237.948614,4233.84605
126,0,4279.487075,4244.10246,4246.153742,4248.205024,4236.922973,4218.461435,4224.615281,4231.794768,4218.974256,4225.128102,4225.128102,4215.384512,4237.948614,4236.922973
127,0,4283.589639,4250.256306,4253.84605,4245.128101,4252.307588,4224.102461,4234.871691,4241.538358,4231.281948,4241.538358,4235.897332,4224.615281,4248.717845,4244.615281
128,0,4280.512716,4240.512717,4254.35887,4252.307588,4244.10246,4218.461435,4233.33323,4237.948614,4228.205025,4242.563999,4239.999896,4223.58964,4252.820409,4242.051178
0,0,4279.487075,4230.769127,4246.666563,4251.794768,4233.84605,4214.358871,4228.205025,4230.769127,4217.948615,4225.640922,4230.256307,4211.794769,4245.640922,4229.230666
1,0,4280.512716,4238.461435,4242.051178,4248.717845,4240.512717,4218.461435,4226.666563,4233.33323,4225.128102,4223.58964,4230.256307,4208.205025,4244.10246,4227.692204
2,0,4280.512716,4247.179383,4241.025537,4249.743486,4239.487076,4215.384512,4221.025538,4231.281948,4228.205025,4226.666563,4233.33323,4209.743487,4246.153742,4234.871691
3,0,4279.999895,4244.615281,4244.10246,4248.717845,4233.84605,4210.256307,4220.512717,4227.692204,4221.025538,4221.025538,4229.230666,4210.256307,4244.615281,4238.461435
4,0,4277.435793,4236.922973,4242.051178,4244.615281,4231.281948,4211.794769,4225.128102,4229.743486,4220.512717,4215.897333,4222.563999,4209.743487,4242.563999,4235.897332
5,0,4273.846049,4236.410153,4237.435794,4244.10246,4232.820409,4216.410153,4225.128102,4230.256307,4225.128102,4217.435794,4224.102461,4208.717846,4242.563999,4234.358871
6,0,4272.307588,4238.974255,4237.435794,4236.410153,4234.871691,4215.384512,4221.025538,4225.128102,4217.948615,4215.384512,4224.615281,4205.640923,4235.384512,4230.256307
7,0,4280.512716,4249.230665,4246.666563,4245.640922,4238.461435,4214.871692,4224.615281,4224.102461,4216.922974,4217.948615,4223.58964,4213.33323,4235.384512,4234.358871
8,0,4291.281946,4255.897332,4252.820409,4270.256306,4233.33323,4215.897333,4225.640922,4226.153743,4225.640922,4221.025538,4224.615281,4223.07682,4242.563999,4244.615281
9,0,4294.87169,4252.820409,4253.84605,4266.666562,4229.230666,4216.410153,4223.58964,4228.205025,4230.256307,4222.563999,4232.307589,4226.666563,4247.179383,4248.205024
10,0,4286.666562,4248.717845,4248.717845,4246.153742,4232.307589,4216.410153,4228.717845,4227.179384,4226.153743,4221.025538,4239.487076,4226.153743,4244.615281,4244.10246
11,0,4284.61528,4254.35887,4247.179383,4247.692204,4234.871691,4221.538358,4232.307589,4226.666563,4224.615281,4220.512717,4241.025537,4229.230666,4244.615281,4249.743486
12,0,4286.153741,4255.384511,4247.179383,4247.179383,4228.205025,4218.461435,4220.512717,4224.615281,4219.487076,4217.435794,4234.358871,4227.692204,4242.051178,4251.794768
13,0,4282.563998,4249.230665,4242.051178,4235.897332,4229.743486,4207.692205,4214.871692,4226.153743,4217.435794,4215.897333,4228.205025,4225.128102,4237.435794,4244.10246
14,0,4281.538357,4246.666563,4236.410153,4237.435794,4228.717845,4207.179384,4217.948615,4227.692204,4224.102461,4217.948615,4226.153743,4225.128102,4235.384512,4238.461435
15,0,4286.153741,4250.256306,4238.461435,4243.076819,4221.538358,4214.358871,4217.948615,4226.666563,4228.717845,4219.487076,4227.179384,4226.666563,4232.820409,4236.922973
16,0,4290.769126,4256.410152,4240.512717,4232.820409,4226.153743,4213.33323,4218.461435,4223.58964,4227.179384,4218.974256,4225.128102,4229.230666,4230.769127,4236.410153
17,0,4291.794767,4251.281947,4236.410153,4225.640922,4237.435794,4211.794769,4222.563999,4222.051179,4228.205025,4217.435794,4217.948615,4230.769127,4231.794768,4235.384512
18,0,4295.38451,4248.717845,4241.538358,4245.128101,4237.948614,4221.025538,4225.640922,4228.205025,4234.358871,4221.538358,4224.615281,4236.410153,4238.974255,4238.974255
19,0,4298.974254,4259.487075,4253.84605,4266.153742,4234.358871,4224.102461,4228.205025,4234.358871,4235.384512,4226.153743,4240.512717,4248.717845,4245.640922,4244.615281
20,0,4298.461433,4268.717844,4257.435793,4261.538357,4239.999896,4219.487076,4231.794768,4231.794768,4231.794768,4223.58964,4243.58964,4254.35887,4244.10246,4249.743486
21,0,4293.846049,4264.61528,4249.743486,4251.281947,4242.563999,4218.974256,4229.743486,4226.153743,4230.256307,4221.538358,4235.897332,4247.179383,4237.435794,4248.205024
22,0,4286.666562,4255.897332,4243.58964,4252.820409,4238.974255,4218.461435,4225.128102,4228.205025,4230.769127,4222.051179,4233.84605,4241.025537,4232.307589,4244.10246
23,0,4281.538357,4247.179383,4238.974255,4244.615281,4231.281948,4209.230666,4222.051179,4229.230666,4225.640922,4214.871692,4231.794768,4237.948614,4229.743486,4240.512717
24,0,4281.025536,4250.256306,4239.487076,4239.999896,4232.307589,4208.205025,4225.128102,4230.256307,4224.615281,4215.897333,4227.692204,4237.948614,4233.33323,4241.538358
25,0,4277.948613,4254.35887,4242.563999,4244.615281,4231.794768,4214.358871,4225.128102,4229.230666,4224.615281,4221.025538,4223.58964,4237.948614,4232.820409,4240.512717
26,0,4274.87169,4247.179383,4240.512717,4238.461435,4223.07682,4212.307589,4218.461435,4224.615281,4216.922974,4215.384512,4218.461435,4235.384512,4226.666563,4237.435794
27,0,4275.897331,4242.563999,4234.871691,4232.307589,4226.153743,4212.82041,4217.948615,4224.615281,4216.410153,4217.435794,4223.58964,4233.33323,4228.717845,4238.974255
28,0,4281.538357,4256.410152,4241.538358,4252.820409,4242.051178,4224.615281,4230.769127,4235.384512,4234.871691,4236.922973,4243.58964,4242.051178,4244.10246,4248.717845
29,0,4280.512716,4255.897332,4244.615281,4264.61528,4237.948614,4223.07682,4234.358871,4239.487076,4243.076819,4236.410153,4246.153742,4245.128101,4244.10246,4247.179383
30,0,4273.846049,4240.512717,4235.897332,4247.179383,4224.615281,4213.33323,4223.58964,4232.307589,4234.358871,4223.58964,4235.384512,4234.358871,4234.358871,4239.487076
31,0,4267.692203,4238.461435,4228.205025,4234.358871,4225.640922,4213.33323,4218.461435,4226.153743,4227.179384,4223.07682,4231.794768,4226.666563,4234.358871,4236.922973
32,0,4266.153742,4247.692204,4228.205025,4237.948614,4226.666563,4216.922974,4223.07682,4223.07682,4225.640922,4225.640922,4230.256307,4227.179384,4235.897332,4236.410153
33,0,4266.666562,4242.563999,4227.179384,4239.487076,4219.487076,4213.846051,4220.512717,4217.948615,4224.615281,4221.025538,4221.025538,4224.615281,4226.666563,4230.769127
34,0,4268.717844,4230.769127,4228.717845,4236.410153,4221.025538,4210.256307,4216.410153,4217.948615,4224.615281,4215.897333,4214.358871,4221.025538,4223.58964,4227.692204
35,0,4273.846049,4233.33323,4235.384512,4234.358871,4229.743486,4212.82041,4221.538358,4228.205025,4228.205025,4219.999897,4217.435794,4224.615281,4233.33323,4230.769127
36,0,4278.974254,4243.58964,4241.025537,4241.538358,4232.307589,4214.358871,4226.153743,4233.33323,4229.230666,4225.128102,4224.615281,4230.769127,4238.461435,4235.897332
37,0,4276.922972,4245.128101,4238.461435,4248.717845,4227.692204,4209.743487,4221.538358,4223.58964,4225.640922,4217.948615,4227.692204,4226.666563,4232.307589,4235.897332
38,0,4268.717844,4243.076819,4232.307589,4245.640922,4229.743486,4206.666564,4215.897333,4216.410153,4224.102461,4209.743487,4222.563999,4217.948615,4228.717845,4229.230666
39,0,4274.35887,4252.307588,4233.84605,4254.35887,4245.128101,4214.871692,4220.512717,4223.07682,4230.256307,4216.922974,4224.615281,4222.563999,4239.487076,4229.230666
40,0,4286.153741,4254.35887,4239.999896,4255.897332,4246.153742,4218.461435,4225.128102,4224.615281,4236.410153,4224.102461,4232.820409,4233.33323,4250.769127,4237.948614
41,0,4284.61528,4244.615281,4241.025537,4238.461435,4231.794768,4216.410153,4224.102461,4222.051179,4237.435794,4223.58964,4231.281948,4231.794768,4247.179383,4244.615281
42,0,4273.846049,4235.897332,4230.769127,4233.33323,4223.07682,4211.794769,4216.410153,4218.974256,4227.179384,4213.33323,4215.384512,4217.948615,4231.794768,4236.922973
43,0,4272.307588,4236.922973,4224.102461,4245.128101,4225.640922,4209.230666,4215.384512,4216.410153,4222.051179,4207.692205,4210.769128,4218.461435,4229.230666,4230.256307
44,0,4275.384511,4236.410153,4232.307589,4241.025537,4227.692204,4210.256307,4221.025538,4218.974256,4227.692204,4214.358871,4218.974256,4224.102461,4235.384512,4231.794768
45,0,4276.410152,4237.948614,4239.999896,4237.948614,4230.256307,4212.82041,4224.102461,4224.102461,4231.794768,4221.538358,4221.538358,4222.051179,4239.487076,4235.897332
46,0,4271.281947,4236.922973,4234.358871,4241.538358,4226.153743,4206.666564,4216.922974,4221.025538,4224.615281,4213.846051,4212.307589,4216.410153,4236.410153,4229.230666
47,0,4269.743485,4238.461435,4233.84605,4241.538358,4224.615281,4204.615282,4216.922974,4221.538358,4224.615281,4213.33323,4214.358871,4219.999897,4236.410153,4229.230666
48,0,4278.974254,4247.692204,4239.487076,4250.256306,4232.820409,4209.230666,4225.128102,4230.769127,4230.769127,4222.051179,4225.640922,4228.205025,4243.58964,4244.615281
49,0,4290.769126,4258.974255,4245.640922,4258.461434,4239.999896,4214.358871,4223.07682,4231.794768,4233.33323,4224.615281,4232.307589,4236.922973,4251.281947,4261.538357
50,0,4298.974254,4264.10246,4254.871691,4251.794768,4241.025537,4217.435794,4222.051179,4228.717845,4234.871691,4228.717845,4235.384512,4248.717845,4257.435793,4271.794767
51,0,4309.743484,4270.256306,4262.051178,4256.410152,4237.435794,4219.487076,4231.794768,4232.820409,4237.435794,4236.922973,4241.025537,4256.922973,4259.999896,4281.538357
52,0,4316.922971,4271.794767,4258.461434,4267.692203,4225.128102,4214.358871,4227.692204,4228.205025,4231.794768,4227.692204,4237.948614,4252.820409,4250.256306,4287.179382
53,0,4318.974253,4264.10246,4254.871691,4262.563998,4219.487076,4209.230666,4216.922974,4219.999897,4222.563999,4213.846051,4228.717845,4247.179383,4243.58964,4286.153741
54,0,4324.615279,4264.10246,4261.538357,4263.076819,4226.666563,4209.743487,4221.025538,4224.102461,4221.538358,4215.384512,4224.615281,4249.743486,4252.307588,4288.717844
55,0,4329.230663,4274.87169,4266.666562,4274.87169,4230.256307,4210.769128,4227.692204,4232.307589,4226.153743,4220.512717,4226.153743,4256.922973,4257.948614,4291.794767
56,0,4329.743484,4277.948613,4267.692203,4264.61528,4232.307589,4214.871692,4228.205025,4233.84605,4231.281948,4226.153743,4238.974255,4261.538357,4257.948614,4296.410151
57,0,4330.256304,4275.384511,4268.717844,4253.333229,4241.538358,4223.58964,4231.794768,4233.33323,4235.897332,4236.922973,4250.256306,4263.076819,4265.128101,4301.025536
58,0,4324.615279,4275.897331,4269.743485,4269.743485,4244.615281,4224.102461,4230.256307,4235.384512,4235.384512,4237.435794,4245.640922,4259.999896,4264.61528,4293.846049
59,0,4309.743484,4262.563998,4262.051178,4274.87169,4228.205025,4214.358871,4218.974256,4231.794768,4226.153743,4225.640922,4233.33323,4247.179383,4244.615281,4272.820408
60,0,4302.563997,4253.333229,4255.384511,4261.538357,4223.07682,4213.846051,4217.435794,4229.743486,4224.102461,4227.179384,4234.871691,4237.435794,4238.461435,4264.61528
61,0,4305.1281,4262.563998,4254.871691,4256.410152,4233.84605,4215.384512,4222.051179,4230.256307,4230.769127,4235.897332,4239.999896,4241.538358,4249.743486,4267.179383
62,0,4305.64092,4267.179383,4253.333229,4258.974255,4238.461435,4216.922974,4224.615281,4233.84605,4236.410153,4240.512717,4239.487076,4250.769127,4256.922973,4268.205024
63,0,4300.512715,4255.384511,4245.640922,4253.84605,4228.205025,4219.999897,4223.58964,4235.384512,4233.84605,4237.948614,4230.769127,4241.538358,4250.256306,4262.051178
64,0,4297.435792,4254.871691,4246.153742,4255.897332,4225.640922,4222.563999,4221.025538,4234.871691,4230.256307,4235.897332,4224.615281,4231.794768,4247.692204,4256.922973
65,0,4292.820408,4256.410152,4250.256306,4260.512716,4232.820409,4218.461435,4222.563999,4231.281948,4230.256307,4233.33323,4226.153743,4236.410153,4249.743486,4254.35887
66,0,4286.153741,4250.769127,4251.281947,4261.538357,4239.487076,4219.487076,4231.794768,4232.820409,4234.358871,4233.33323,4229.230666,4240.512717,4251.794768,4253.333229
67,0,4282.051177,4250.769127,4249.230665,4258.461434,4241.025537,4222.563999,4232.820409,4235.897332,4237.435794,4233.84605,4225.640922,4236.410153,4256.410152,4247.692204
68,0,4282.563998,4253.333229,4246.153742,4254.35887,4235.897332,4218.974256,4228.205025,4232.820409,4236.922973,4233.84605,4222.563999,4235.384512,4258.974255,4242.051178
69,0,4281.025536,4249.230665,4243.58964,4253.333229,4228.205025,4216.922974,4228.717845,4229.743486,4232.820409,4232.820409,4224.615281,4234.358871,4255.384511,4239.999896
70,0,4278.461434,4249.230665,4245.128101,4255.384511,4234.358871,4223.07682,4232.307589,4233.33323,4234.871691,4237.435794,4230.256307,4233.84605,4253.84605,4242.051178
71,0,4274.87169,4246.666563,4243.076819,4249.230665,4242.051178,4228.205025,4231.794768,4237.435794,4240.512717,4243.076819,4234.358871,4235.897332,4252.307588,4238.974255
72,0,4271.281947,4237.948614,4235.897332,4235.897332,4241.025537,4224.615281,4230.769127,4235.897332,4234.871691,4236.410153,4231.281948,4234.871691,4249.743486,4229.230666
73,0,4272.820408,4239.999896,4238.461435,4245.640922,4243.58964,4225.128102,4233.33323,4232.820409,4231.794768,4233.84605,4227.692204,4233.84605,4250.769127,4225.640922
74,0,4269.743485,4241.538358,4243.58964,4261.538357,4239.487076,4230.256307,4233.84605,4232.820409,4237.435794,4239.487076,4228.717845,4234.358871,4248.717845,4227.179384
75,0,4259.999896,4228.717845,4235.384512,4247.692204,4231.281948,4227.692204,4229.230666,4232.820409,4237.435794,4236.922973,4227.692204,4230.256307,4240.512717,4221.025538
76,0,4262.563998,4231.794768,4231.794768,4234.358871,4246.666563,4223.07682,4228.717845,4233.33323,4236.922973,4237.948614,4230.256307,4229.743486,4245.640922,4222.051179
77,0,4272.820408,4249.743486,4244.615281,4249.230665,4258.461434,4223.58964,4231.794768,4234.871691,4244.10246,4247.692204,4239.487076,4237.948614,4262.051178,4235.897332
78,0,4269.743485,4248.205024,4247.692204,4256.410152,4237.435794,4218.974256,4226.666563,4231.281948,4238.974255,4243.076819,4238.461435,4238.461435,4260.512716,4236.410153
79,0,4265.640921,4242.563999,4240.512717,4244.10246,4233.33323,4217.948615,4226.666563,4228.205025,4233.33323,4237.948614,4232.820409,4233.33323,4251.281947,4229.743486
80,0,4270.256306,4242.563999,4241.025537,4237.948614,4249.230665,4225.128102,4234.358871,4236.410153,4242.051178,4242.051178,4233.84605,4232.307589,4249.230665,4230.769127
81,0,4268.717844,4238.461435,4244.615281,4245.128101,4246.666563,4228.717845,4236.922973,4246.153742,4247.692204,4243.076819,4229.230666,4230.256307,4249.230665,4231.281948
82,0,4257.948614,4230.769127,4235.897332,4248.205024,4230.256307,4223.58964,4233.33323,4239.999896,4241.538358,4234.358871,4213.33323,4222.051179,4238.461435,4221.538358
83,0,4254.35887,4226.666563,4227.179384,4243.58964,4226.153743,4222.051179,4230.769127,4232.820409,4241.025537,4232.820409,4212.82041,4215.897333,4228.205025,4216.410153
84,0,4257.435793,4221.538358,4226.666563,4235.897332,4232.307589,4218.974256,4227.179384,4232.307589,4241.025537,4231.794768,4222.051179,4212.307589,4225.640922,4213.846051
85,0,4258.974255,4226.153743,4231.281948,4238.461435,4241.538358,4222.563999,4229.743486,4234.358871,4239.999896,4230.769127,4224.615281,4216.922974,4231.794768,4215.384512
86,0,4254.871691,4231.281948,4232.820409,4241.025537,4241.025537,4228.717845,4231.281948,4232.820409,4239.487076,4229.230666,4219.999897,4218.461435,4233.84605,4215.897333
87,0,4256.922973,4232.307589,4233.84605,4245.640922,4239.999896,4229.230666,4230.769127,4233.84605,4243.076819,4235.897332,4222.051179,4217.435794,4233.84605,4215.897333
88,0,4261.538357,4231.794768,4231.794768,4245.128101,4242.051178,4228.205025,4233.84605,4238.974255,4247.692204,4243.076819,4227.692204,4215.897333,4235.384512,4215.384512
89,0,4256.410152,4227.692204,4228.717845,4233.84605,4239.487076,4227.179384,4234.358871,4236.410153,4242.563999,4236.410153,4226.666563,4212.82041,4232.820409,4216.410153
90,0,4256.922973,4229.743486,4231.794768,4237.435794,4240.512717,4227.692204,4231.794768,4228.205025,4239.487076,4233.33323,4226.153743,4216.410153,4232.307589,4221.538358
91,0,4262.563998,4233.33323,4231.281948,4249.743486,4241.025537,4230.256307,4231.794768,4226.666563,4244.615281,4237.948614,4222.563999,4222.051179,4233.84605,4218.974256
92,0,4255.897332,4226.153743,4224.102461,4241.025537,4229.230666,4225.128102,4231.794768,4225.640922,4246.153742,4230.769127,4210.769128,4217.948615,4226.153743,4210.256307
93,0,4248.205024,4218.461435,4221.538358,4230.769127,4224.102461,4218.461435,4230.256307,4218.974256,4242.051178,4221.538358,4209.230666,4211.794769,4221.538358,4208.717846
94,0,4254.35887,4219.487076,4225.128102,4236.922973,4231.281948,4217.948615,4229.743486,4217.435794,4237.948614,4223.07682,4217.948615,4213.846051,4226.153743,4211.281948
95,0,4255.897332,4218.461435,4223.07682,4236.410153,4223.07682,4216.410153,4224.102461,4216.410153,4231.794768,4217.435794,4209.743487,4213.846051,4221.538358,4208.717846
96,0,4254.35887,4224.102461,4227.179384,4236.410153,4217.435794,4217.435794,4226.666563,4216.410153,4232.307589,4218.461435,4209.230666,4218.461435,4221.538358,4214.358871
97,0,4255.897332,4228.205025,4230.769127,4231.281948,4228.205025,4219.487076,4233.33323,4220.512717,4240.512717,4230.256307,4225.128102,4224.102461,4230.256307,4222.051179
98,0,4253.84605,4223.58964,4227.179384,4226.153743,4238.974255,4218.461435,4231.794768,4221.025538,4246.153742,4232.820409,4227.692204,4223.58964,4233.33323,4219.487076
99,0,4254.871691,4225.640922,4224.102461,4233.33323,4237.948614,4221.538358,4227.179384,4217.435794,4244.615281,4223.07682,4217.948615,4218.461435,4230.769127,4213.33323
100,0,4258.461434,4231.281948,4224.102461,4241.538358,4233.33323,4227.179384,4228.205025,4219.487076,4244.10246,4221.538358,4221.025538,4217.948615,4228.717845,4211.281948
101,0,4256.922973,4225.128102,4223.58964,4236.410153,4225.128102,4221.025538,4225.128102,4219.999897,4241.538358,4219.487076,4221.025538,4221.538358,4224.102461,4210.769128
102,0,4257.948614,4225.640922,4226.153743,4236.410153,4226.666563,4217.948615,4226.666563,4220.512717,4239.999896,4216.922974,4218.461435,4228.205025,4230.256307,4216.922974
103,0,4257.435793,4227.692204,4224.615281,4233.84605,4231.794768,4221.025538,4231.794768,4222.563999,4236.922973,4213.846051,4219.487076,4224.102461,4232.307589,4215.897333
104,0,4256.410152,4223.58964,4221.538358,4230.256307,4229.230666,4222.051179,4232.820409,4224.102461,4241.025537,4215.897333,4219.487076,4223.07682,4225.640922,4212.307589
105,0,4264.61528,4229.230666,4224.615281,4239.999896,4232.820409,4226.153743,4231.281948,4225.640922,4248.717845,4223.07682,4221.538358,4236.410153,4229.230666,4217.435794
106,0,4271.281947,4235.384512,4227.692204,4237.948614,4239.487076,4231.281948,4233.33323,4224.615281,4248.205024,4224.615281,4226.153743,4241.538358,4235.897332,4218.461435
107,0,4265.128101,4227.179384,4225.128102,4228.717845,4232.307589,4228.717845,4231.281948,4218.974256,4243.58964,4216.922974,4221.025538,4234.358871,4228.717845,4213.33323
108,0,4261.025537,4227.692204,4224.615281,4237.948614,4228.717845,4222.563999,4226.666563,4218.461435,4245.128101,4214.358871,4216.922974,4237.435794,4223.07682,4216.922974
109,0,4263.589639,4231.794768,4222.563999,4242.563999,4229.743486,4221.025538,4222.051179,4218.461435,4241.538358,4213.33323,4217.435794,4239.487076,4228.205025,4220.512717
110,0,4262.051178,4226.666563,4220.512717,4232.307589,4228.717845,4224.615281,4221.025538,4211.794769,4232.820409,4208.205025,4214.871692,4230.256307,4228.205025,4217.435794
111,0,4267.179383,4238.461435,4225.640922,4241.538358,4242.051178,4230.769127,4228.205025,4213.33323,4240.512717,4217.948615,4213.846051,4236.922973,4230.769127,4225.128102
112,0,4278.974254,4259.999896,4235.384512,4257.435793,4256.922973,4234.358871,4236.922973,4224.102461,4258.974255,4239.999896,4226.153743,4258.461434,4247.692204,4238.974255
113,0,4279.487075,4255.897332,4238.461435,4251.794768,4248.205024,4233.84605,4237.948614,4228.205025,4261.538357,4247.179383,4239.999896,4261.025537,4259.487075,4243.076819
114,0,4270.256306,4238.974255,4231.281948,4243.076819,4226.153743,4228.717845,4232.820409,4225.128102,4247.692204,4230.769127,4235.897332,4243.58964,4245.640922,4231.794768
115,0,4269.743485,4238.974255,4228.717845,4243.076819,4222.563999,4225.640922,4234.358871,4227.692204,4244.615281,4222.051179,4226.153743,4240.512717,4231.281948,4224.615281
116,0,4274.87169,4248.205024,4234.871691,4242.051178,4236.922973,4229.230666,4243.58964,4233.33323,4250.769127,4230.256307,4228.205025,4250.769127,4237.948614,4229.743486
117,0,4276.922972,4255.897332,4238.461435,4251.794768,4246.153742,4235.897332,4248.205024,4234.871691,4253.84605,4238.461435,4236.410153,4256.922973,4244.615281,4236.922973
118,0,4273.333229,4252.307588,4231.281948,4260.512716,4232.820409,4232.820409,4239.487076,4226.153743,4244.10246,4230.769127,4229.230666,4251.794768,4235.897332,4229.230666
119,0,4268.205024,4244.10246,4230.769127,4254.35887,4224.102461,4225.640922,4231.794768,4216.922974,4232.307589,4219.487076,4218.461435,4246.153742,4230.256307,4220.512717
120,0,4262.563998,4238.974255,4227.179384,4242.051178,4227.692204,4223.07682,4228.717845,4215.384512,4231.281948,4217.435794,4216.410153,4240.512717,4227.179384,4217.435794
121,0,4267.692203,4241.025537,4222.563999,4241.538358,4231.794768,4228.205025,4229.743486,4221.538358,4245.128101,4230.769127,4223.58964,4245.128101,4232.820409,4225.640922
122,0,4273.333229,4246.666563,4229.230666,4247.179383,4241.538358,4229.230666,4231.794768,4224.615281,4253.333229,4245.128101,4228.205025,4254.35887,4244.10246,4237.948614
123,0,4276.922972,4257.948614,4239.999896,4260.512716,4254.871691,4232.820409,4237.948614,4228.205025,4255.384511,4253.333229,4234.871691,4259.999896,4254.871691,4245.128101
124,0,4279.999895,4262.051178,4240.512717,4267.179383,4252.820409,4241.025537,4242.563999,4235.384512,4258.974255,4255.384511,4243.076819,4261.538357,4255.384511,4245.128101
125,0,4277.948613,4252.820409,4234.871691,4248.717845,4245.128101,4241.538358,4242.051178,4237.435794,4258.974255,4246.666563,4240.512717,4258.974255,4247.179383,4237.948614
126,0,4271.794767,4245.128101,4229.230666,4236.410153,4241.025537,4233.33323,4236.922973,4228.205025,4252.820409,4234.871691,4226.153743,4250.256306,4237.948614,4228.717845
127,0,4268.205024,4246.153742,4226.666563,4253.84605,4234.358871,4230.256307,4233.84605,4219.487076,4250.256306,4233.33323,4223.07682,4245.640922,4238.461435,4226.153743
128,0,4267.179383,4245.640922,4228.717845,4264.10246,4228.717845,4229.743486,4233.84605,4221.538358,4249.743486,4233.33323,4231.794768,4246.666563,4242.051178,4230.769127
0,0,4269.743485,4242.051178,4229.743486,4246.153742,4230.769127,4224.615281,4232.307589,4222.563999,4245.640922,4226.153743,4230.769127,4245.640922,4237.435794,4234.871691
1,0,4271.281947,4241.538358,4229.743486,4238.974255,4231.281948,4224.102461,4232.820409,4218.974256,4243.58964,4223.58964,4223.58964,4244.615281,4235.897332,4235.897332
2,0,4268.717844,4240.512717,4228.717845,4240.512717,4222.563999,4225.128102,4233.33323,4217.948615,4243.58964,4221.025538,4222.563999,4245.128101,4237.948614,4233.33323
3,0,4268.717844,4241.538358,4229.743486,4237.948614,4219.487076,4220.512717,4230.769127,4223.58964,4241.538358,4216.410153,4222.563999,4246.666563,4236.410153,4231.281948
4,0,4273.333229,4245.640922,4236.410153,4246.153742,4224.102461,4216.410153,4229.743486,4223.58964,4238.974255,4215.897333,4221.025538,4247.692204,4236.410153,4233.84605
5,0,4275.384511,4252.307588,4243.58964,4252.307588,4231.794768,4222.563999,4231.794768,4219.487076,4243.076819,4224.615281,4228.205025,4251.281947,4240.512717,4234.871691
6,0,4269.230665,4250.256306,4235.897332,4239.487076,4231.794768,4224.102461,4230.256307,4217.948615,4238.974255,4221.538358,4227.692204,4247.179383,4234.358871,4224.102461
7,0,4263.076819,4242.051178,4225.640922,4237.948614,4224.102461,4218.461435,4226.666563,4216.922974,4231.281948,4212.307589,4221.538358,4241.025537,4225.640922,4218.461435
8,0,4263.589639,4237.948614,4225.640922,4250.256306,4224.102461,4216.410153,4224.102461,4216.922974,4234.358871,4211.794769,4221.538358,4241.025537,4225.640922,4220.512717
9,0,4270.256306,4243.58964,4232.307589,4249.743486,4232.307589,4223.07682,4229.230666,4225.128102,4243.076819,4222.563999,4225.640922,4245.640922,4229.230666,4222.563999
10,0,4267.179383,4238.974255,4229.743486,4237.435794,4224.102461,4222.051179,4227.179384,4224.615281,4237.435794,4221.025538,4222.051179,4241.538358,4227.179384,4216.922974
11,0,4263.076819,4234.871691,4225.128102,4239.487076,4221.025538,4219.487076,4219.487076,4215.384512,4231.794768,4216.410153,4224.615281,4239.999896,4230.256307,4217.948615
12,0,4267.692203,4242.563999,4225.128102,4244.615281,4231.794768,4223.58964,4223.07682,4214.358871,4235.897332,4219.487076,4229.230666,4242.051178,4231.794768,4223.07682
13,0,4267.692203,4246.153742,4225.128102,4238.461435,4232.820409,4223.07682,4228.717845,4217.435794,4237.948614,4218.974256,4225.128102,4234.871691,4223.58964,4218.974256
14,0,4261.025537,4237.435794,4218.461435,4233.33323,4221.025538,4214.871692,4220.512717,4215.384512,4231.281948,4213.846051,4218.974256,4225.640922,4218.461435,4209.230666
15,0,4261.025537,4235.384512,4216.410153,4236.410153,4223.07682,4214.871692,4216.410153,4217.948615,4231.281948,4215.384512,4221.025538,4228.205025,4222.563999,4206.666564
16,0,4264.61528,4239.487076,4217.948615,4231.281948,4223.58964,4217.948615,4223.58964,4221.025538,4234.358871,4211.794769,4220.512717,4231.281948,4221.025538,4208.717846
17,0,4266.153742,4245.640922,4221.538358,4229.230666,4218.461435,4216.410153,4225.128102,4220.512717,4231.281948,4205.128102,4218.461435,4232.307589,4217.435794,4210.769128
18,0,4268.717844,4256.922973,4230.769127,4247.692204,4226.666563,4220.512717,4225.640922,4223.07682,4229.743486,4212.307589,4226.666563,4243.076819,4226.153743,4220.512717
19,0,4270.769126,4258.974255,4237.435794,4261.538357,4233.33323,4226.153743,4227.179384,4222.563999,4229.230666,4218.974256,4237.948614,4252.307588,4234.358871,4228.205025
20,0,4269.743485,4248.717845,4232.820409,4256.410152,4228.205025,4220.512717,4224.102461,4216.410153,4226.153743,4211.281948,4232.307589,4246.666563,4228.717845,4226.153743
21,0,4265.640921,4245.128101,4226.153743,4248.205024,4220.512717,4213.33323,4222.051179,4215.384512,4224.615281,4204.615282,4217.948615,4239.487076,4218.461435,4222.563999
22,0,4262.563998,4248.205024,4227.179384,4249.743486,4217.435794,4216.410153,4224.615281,4218.974256,4226.666563,4209.743487,4219.999897,4243.076819,4217.948615,4223.58964
23,0,4261.025537,4239.999896,4227.692204,4244.615281,4215.384512,4216.922974,4222.051179,4218.461435,4223.07682,4211.281948,4224.102461,4246.153742,4222.051179,4222.051179
24,0,4262.051178,4237.435794,4227.179384,4241.025537,4221.538358,4215.897333,4218.974256,4217.435794,4224.615281,4212.82041,4223.58964,4248.717845,4224.102461,4223.58964
25,0,4259.487075,4239.487076,4226.153743,4241.538358,4221.538358,4212.82041,4218.974256,4215.384512,4226.666563,4207.692205,4221.538358,4244.10246,4217.948615,4220.512717
26,0,4258.461434,4238.974255,4229.230666,4235.897332,4218.974256,4215.384512,4219.999897,4215.897333,4223.58964,4207.179384,4221.538358,4239.487076,4217.435794,4217.435794
27,0,4259.487075,4237.948614,4229.743486,4228.717845,4222.563999,4219.999897,4217.435794,4218.461435,4224.102461,4213.846051,4224.102461,4241.025537,4219.487076,4222.051179
28,0,4262.563998,4245.640922,4228.717845,4244.10246,4229.743486,4222.051179,4217.435794,4220.512717,4230.256307,4218.974256,4228.205025,4243.58964,4219.999897,4229.230666
29,0,4263.076819,4248.205024,4226.153743,4254.35887,4230.769127,4219.487076,4219.999897,4216.922974,4228.205025,4214.871692,4227.692204,4238.974255,4219.487076,4226.153743
30,0,4264.10246,4249.230665,4229.743486,4247.692204,4229.230666,4222.051179,4224.615281,4217.948615,4226.666563,4215.897333,4233.33323,4241.538358,4224.615281,4226.153743
31,0,4266.666562,4253.84605,4236.410153,4248.717845,4223.58964,4223.58964,4225.128102,4225.640922,4229.230666,4218.974256,4240.512717,4246.153742,4224.615281,4229.743486
32,0,4262.563998,4249.743486,4231.794768,4250.256306,4221.538358,4219.999897,4221.538358,4227.179384,4231.281948,4215.384512,4232.307589,4242.051178,4219.487076,4226.666563
33,0,4254.871691,4235.897332,4224.102461,4236.410153,4221.025538,4216.410153,4218.974256,4223.58964,4231.281948,4214.871692,4226.666563,4241.025537,4222.051179,4223.07682
34,0,4257.948614,4233.84605,4228.205025,4235.384512,4218.974256,4215.384512,4219.487076,4222.051179,4229.230666,4215.384512,4232.820409,4244.615281,4228.205025,4224.102461
35,0,4261.538357,4241.538358,4232.307589,4237.948614,4217.435794,4215.897333,4221.025538,4222.051179,4227.692204,4213.846051,4231.281948,4241.025537,4221.538358,4223.07682
36,0,4256.922973,4241.538358,4226.153743,4227.179384,4218.974256,4217.435794,4222.563999,4221.025538,4229.230666,4215.897333,4226.666563,4238.461435,4216.922974,4221.538358
37,0,4254.35887,4239.999896,4224.102461,4229.230666,4221.538358,4222.563999,4224.615281,4219.999897,4226.666563,4216.922974,4226.666563,4241.538358,4222.051179,4218.974256
38,0,4255.897332,4244.10246,4228.717845,4242.563999,4223.07682,4226.153743,4226.153743,4221.025538,4218.461435,4208.205025,4225.128102,4239.487076,4217.435794,4215.897333
39,0,4257.435793,4243.076819,4232.307589,4248.717845,4227.692204,4226.666563,4227.692204,4225.128102,4219.999897,4206.153743,4224.102461,4237.948614,4213.33323,4220.512717
40,0,4256.922973,4238.974255,4231.794768,4244.10246,4229.743486,4228.717845,4229.230666,4229.230666,4231.281948,4218.974256,4229.230666,4242.563999,4223.58964,4226.153743
41,0,4254.35887,4242.563999,4230.769127,4235.897332,4234.358871,4231.281948,4227.692204,4231.794768,4238.461435,4229.743486,4236.410153,4245.640922,4231.794768,4224.102461
42,0,4250.769127,4235.897332,4225.128102,4229.230666,4231.281948,4222.563999,4219.487076,4227.692204,4229.743486,4222.051179,4231.281948,4237.435794,4223.58964,4217.435794
43,0,4257.435793,4229.230666,4226.666563,4238.461435,4228.205025,4217.948615,4219.487076,4224.102461,4223.07682,4215.897333,4227.692204,4235.384512,4224.615281,4221.538358
44,0,4264.61528,4236.922973,4236.410153,4243.58964,4229.743486,4225.128102,4227.179384,4226.153743,4227.179384,4221.025538,4236.410153,4241.538358,4234.871691,4228.717845
45,0,4265.640921,4246.153742,4243.076819,4233.84605,4230.769127,4229.230666,4228.717845,4226.666563,4230.769127,4230.769127,4244.615281,4251.281947,4237.948614,4234.358871
46,0,4262.563998,4237.948614,4241.538358,4236.410153,4226.666563,4222.563999,4224.615281,4222.563999,4225.128102,4227.692204,4235.384512,4252.820409,4232.820409,4234.871691
47,0,4263.589639,4236.922973,4242.051178,4251.794768,4229.743486,4221.538358,4230.769127,4225.640922,4224.615281,4221.025538,4233.33323,4249.230665,4234.358871,4232.307589
48,0,4265.128101,4240.512717,4239.487076,4246.153742,4231.281948,4222.563999,4232.307589,4224.102461,4226.666563,4218.974256,4239.487076,4246.153742,4236.410153,4226.666563
49,0,4259.999896,4231.794768,4230.769127,4229.743486,4218.461435,4216.922974,4222.051179,4214.358871,4222.051179,4214.871692,4231.281948,4242.563999,4229.230666,4218.974256
50,0,4255.384511,4225.640922,4226.153743,4231.281948,4209.743487,4211.281948,4220.512717,4213.33323,4215.897333,4207.692205,4219.999897,4238.461435,4224.102461,4218.974256
51,0,4257.948614,4233.84605,4232.307589,4242.563999,4215.384512,4216.922974,4225.128102,4219.487076,4217.948615,4211.281948,4229.230666,4241.538358,4229.743486,4226.153743
52,0,4256.922973,4234.358871,4233.33323,4239.487076,4219.999897,4218.461435,4219.999897,4211.794769,4217.435794,4211.281948,4236.922973,4238.974255,4225.640922,4221.025538
53,0,4248.205024,4226.666563,4226.666563,4236.410153,4221.025538,4209.230666,4214.358871,4204.102461,4212.82041,4200.512718,4227.692204,4231.794768,4218.461435,4212.307589
54,0,4246.153742,4225.640922,4222.051179,4230.256307,4215.384512,4204.615282,4212.307589,4208.205025,4211.281948,4197.948615,4225.128102,4232.820409,4223.07682,4219.999897
55,0,4249.230665,4228.205025,4223.07682,4218.974256,4217.948615,4213.846051,4216.410153,4216.410153,4216.922974,4209.743487,4235.897332,4240.512717,4227.692204,4229.743486
56,0,4248.717845,4223.07682,4223.07682,4221.025538,4224.102461,4217.435794,4219.999897,4217.435794,4222.563999,4214.358871,4233.84605,4239.487076,4223.58964,4225.128102
57,0,4245.128101,4221.538358,4224.102461,4232.307589,4220.512717,4214.358871,4217.948615,4215.384512,4223.07682,4208.717846,4223.58964,4234.871691,4223.07682,4218.461435
58,0,4245.128101,4227.692204,4227.692204,4235.384512,4219.487076,4219.487076,4221.025538,4219.487076,4225.128102,4214.358871,4227.692204,4235.384512,4228.717845,4220.512717
59,0,4246.666563,4227.179384,4227.692204,4231.794768,4228.205025,4222.563999,4228.205025,4224.102461,4226.666563,4221.025538,4234.358871,4235.897332,4230.256307,4225.640922
60,0,4245.640922,4224.102461,4226.666563,4230.256307,4229.230666,4219.487076,4225.640922,4226.153743,4225.128102,4217.948615,4231.794768,4234.358871,4229.230666,4226.153743
61,0,4244.615281,4222.563999,4227.692204,4226.666563,4219.999897,4215.384512,4217.435794,4226.153743,4222.051179,4212.307589,4227.179384,4233.84605,4224.615281,4219.999897
62,0,4245.128101,4221.025538,4229.743486,4225.640922,4219.487076,4215.897333,4218.974256,4224.102461,4220.512717,4212.82041,4226.666563,4235.384512,4219.999897,4215.897333
63,0,4238.461435,4216.922974,4228.205025,4218.461435,4214.358871,4215.384512,4219.487076,4222.563999,4216.922974,4207.179384,4224.102461,4227.692204,4211.794769,4208.717846
64,0,4238.974255,4220.512717,4228.205025,4217.948615,4212.307589,4215.897333,4217.948615,4226.153743,4217.435794,4205.640923,4227.179384,4226.666563,4214.358871,4208.717846
65,0,4247.179383,4220.512717,4225.640922,4226.153743,4211.794769,4212.307589,4215.897333,4224.102461,4219.999897,4210.256307,4232.307589,4235.897332,4230.769127,4219.999897
66,0,4250.256306,4219.999897,4227.179384,4232.307589,4213.33323,4216.922974,4221.538358,4223.07682,4222.051179,4215.384512,4237.948614,4242.563999,4244.615281,4231.794768
67,0,4246.153742,4216.410153,4227.179384,4223.07682,4218.461435,4226.153743,4227.179384,4229.230666,4225.128102,4211.794769,4242.563999,4242.051178,4242.051178,4231.281948
68,0,4246.666563,4211.281948,4222.563999,4211.281948,4220.512717,4224.102461,4222.051179,4232.820409,4227.179384,4207.179384,4240.512717,4242.563999,4236.922973,4230.256307
69,0,4249.743486,4208.717846,4224.102461,4210.256307,4214.358871,4220.512717,4219.999897,4231.794768,4226.153743,4206.666564,4236.410153,4244.10246,4236.922973,4228.717845
70,0,4251.281947,4210.769128,4233.33323,4219.487076,4214.871692,4227.179384,4229.230666,4236.410153,4231.794768,4213.846051,4241.538358,4250.769127,4238.974255,4229.230666
71,0,4249.743486,4207.179384,4229.743486,4214.871692,4216.410153,4225.128102,4227.692204,4231.281948,4230.256307,4213.846051,4241.538358,4252.820409,4234.358871,4229.743486
72,0,4246.153742,4202.564,4220.512717,4203.07682,4211.281948,4214.871692,4216.410153,4218.461435,4219.487076,4202.564,4230.769127,4243.076819,4226.666563,4222.563999
73,0,4245.640922,4209.743487,4221.025538,4216.410153,4211.281948,4214.358871,4214.871692,4215.897333,4216.922974,4201.025538,4224.615281,4237.435794,4224.102461,4213.846051
74,0,4243.076819,4213.33323,4222.051179,4224.615281,4217.435794,4218.461435,4218.974256,4218.461435,4221.538358,4205.640923,4223.58964,4238.974255,4225.128102,4212.82041
75,0,4242.563999,4209.230666,4219.487076,4204.102461,4219.999897,4220.512717,4216.922974,4216.922974,4222.563999,4205.128102,4223.07682,4237.948614,4222.051179,4220.512717
76,0,4248.717845,4211.794769,4222.051179,4203.07682,4221.538358,4224.102461,4214.871692,4216.922974,4221.025538,4203.589641,4225.640922,4239.999896,4222.563999,4223.58964
77,0,4255.897332,4223.58964,4230.256307,4231.794768,4228.205025,4229.230666,4223.07682,4227.692204,4226.666563,4211.281948,4233.84605,4251.794768,4233.33323,4225.640922
78,0,4254.871691,4225.128102,4232.820409,4233.33323,4227.179384,4230.256307,4231.281948,4232.820409,4230.769127,4213.846051,4238.461435,4256.922973,4235.384512,4227.692204
79,0,4248.717845,4214.871692,4227.179384,4211.794769,4219.487076,4228.205025,4230.256307,4228.205025,4226.153743,4211.794769,4239.487076,4251.281947,4226.666563,4224.102461
80,0,4246.153742,4206.666564,4223.58964,4210.256307,4212.82041,4227.179384,4226.666563,4224.615281,4220.512717,4211.281948,4237.948614,4248.205024,4223.58964,4223.07682
81,0,4254.871691,4214.358871,4231.794768,4223.58964,4221.025538,4232.307589,4231.281948,4229.230666,4227.692204,4213.33323,4236.410153,4254.35887,4228.717845,4232.820409
82,0,4261.025537,4227.692204,4238.461435,4231.794768,4231.281948,4232.307589,4234.358871,4232.307589,4232.820409,4214.871692,4237.948614,4257.948614,4231.281948,4233.33323
83,0,4255.897332,4233.84605,4237.948614,4231.794768,4228.717845,4224.102461,4231.794768,4230.256307,4228.717845,4217.435794,4238.974255,4255.384511,4232.820409,4225.640922
84,0,4248.717845,4226.666563,4227.179384,4217.948615,4218.974256,4216.410153,4225.128102,4225.640922,4222.563999,4213.33323,4229.230666,4244.10246,4226.153743,4218.974256
85,0,4248.717845,4224.102461,4219.999897,4218.974256,4221.025538,4219.999897,4223.07682,4228.205025,4225.640922,4213.33323,4226.666563,4242.051178,4222.563999,4217.435794
86,0,4252.820409,4227.692204,4227.179384,4232.820409,4223.58964,4225.128102,4226.666563,4230.769127,4229.230666,4218.461435,4231.794768,4253.333229,4230.769127,4221.538358
87,0,4257.435793,4230.256307,4238.974255,4236.410153,4219.999897,4227.179384,4232.307589,4229.230666,4227.692204,4218.974256,4232.307589,4261.025537,4238.974255,4231.794768
88,0,4258.461434,4227.692204,4239.999896,4228.205025,4221.538358,4225.640922,4230.256307,4226.153743,4226.153743,4216.410153,4233.33323,4260.512716,4238.974255,4234.871691
89,0,4257.948614,4229.230666,4237.435794,4226.666563,4225.128102,4223.07682,4226.153743,4223.58964,4229.230666,4223.07682,4242.563999,4261.538357,4245.128101,4237.435794
90,0,4258.974255,4229.230666,4239.999896,4229.743486,4218.461435,4223.58964,4226.153743,4218.461435,4232.307589,4227.692204,4244.10246,4259.487075,4247.692204,4239.999896
91,0,4258.461434,4221.538358,4239.999896,4230.256307,4217.948615,4228.717845,4227.692204,4217.435794,4231.794768,4221.538358,4235.384512,4256.410152,4241.025537,4234.871691
92,0,4252.820409,4214.358871,4233.33323,4216.410153,4225.128102,4230.256307,4227.692204,4218.461435,4226.153743,4215.897333,4228.717845,4252.820409,4234.871691,4227.179384
93,0,4246.666563,4216.410153,4227.692204,4207.179384,4231.281948,4227.179384,4226.666563,4219.999897,4224.615281,4213.846051,4224.615281,4244.10246,4228.717845,4221.538358
94,0,4246.666563,4225.128102,4228.717845,4223.07682,4231.794768,4229.743486,4227.179384,4224.102461,4229.230666,4217.435794,4225.640922,4239.487076,4227.179384,4218.974256
95,0,4250.256306,4229.743486,4229.230666,4231.281948,4224.615281,4229.230666,4227.179384,4221.025538,4229.230666,4216.410153,4225.640922,4242.563999,4227.692204,4218.974256
96,0,4254.35887,4236.922973,4231.794768,4228.717845,4221.538358,4224.615281,4230.769127,4221.025538,4228.717845,4214.871692,4225.640922,4243.076819,4231.281948,4223.58964
97,0,4254.871691,4242.563999,4235.384512,4232.307589,4218.974256,4222.051179,4230.256307,4223.58964,4231.281948,4214.871692,4225.640922,4239.999896,4232.820409,4224.102461
98,0,4259.487075,4245.640922,4238.974255,4240.512717,4219.487076,4225.128102,4227.692204,4224.615281,4236.922973,4219.999897,4230.256307,4248.717845,4237.948614,4227.179384
99,0,4263.589639,4241.025537,4239.487076,4234.871691,4219.999897,4224.102461,4223.58964,4226.153743,4241.025537,4227.179384,4236.410153,4257.948614,4245.128101,4232.820409
100,0,4262.563998,4233.33323,4238.974255,4228.717845,4219.999897,4222.563999,4222.051179,4226.666563,4242.563999,4233.33323,4238.974255,4256.922973,4248.205024,4237.435794
101,0,4257.948614,4231.281948,4237.948614,4228.205025,4222.563999,4223.07682,4225.128102,4221.025538,4236.410153,4231.281948,4235.384512,4254.35887,4244.615281,4235.384512
102,0,4258.461434,4238.461435,4240.512717,4228.205025,4229.743486,4225.128102,4230.256307,4225.640922,4237.948614,4233.84605,4236.922973,4258.974255,4249.230665,4232.307589
103,0,4259.487075,4232.820409,4238.974255,4223.58964,4222.563999,4226.666563,4230.256307,4235.384512,4241.538358,4236.922973,4239.999896,4257.948614,4257.435793,4235.897332
104,0,4257.948614,4223.58964,4236.410153,4227.692204,4211.794769,4231.794768,4232.307589,4236.410153,4241.025537,4235.897332,4240.512717,4255.897332,4256.922973,4242.051178
105,0,4255.897332,4224.102461,4241.538358,4238.974255,4220.512717,4235.384512,4234.358871,4236.922973,4242.563999,4236.922973,4242.563999,4259.487075,4252.307588,4241.538358
106,0,4257.948614,4223.07682,4244.615281,4233.84605,4230.256307,4236.410153,4234.871691,4239.999896,4248.205024,4240.512717,4246.153742,4260.512716,4254.35887,4235.897332
107,0,4255.897332,4216.922974,4235.384512,4216.410153,4221.538358,4232.820409,4233.84605,4236.410153,4246.666563,4234.358871,4237.948614,4252.307588,4250.256306,4227.692204
108,0,4250.769127,4219.487076,4229.743486,4216.410153,4214.358871,4229.230666,4228.205025,4229.230666,4239.999896,4226.153743,4229.743486,4244.10246,4236.410153,4221.025538
109,0,4249.230665,4225.640922,4233.33323,4226.153743,4219.999897,4229.230666,4223.07682,4222.563999,4233.84605,4224.615281,4229.743486,4241.538358,4229.743486,4218.461435
110,0,4250.769127,4231.794768,4232.820409,4226.153743,4227.692204,4230.256307,4222.051179,4223.07682,4233.33323,4225.128102,4232.820409,4241.025537,4231.794768,4217.948615
111,0,4251.281947,4235.384512,4226.153743,4216.410153,4221.025538,4225.128102,4218.974256,4229.743486,4236.922973,4223.07682,4232.820409,4239.487076,4232.307589,4218.974256
112,0,4255.897332,4240.512717,4228.717845,4220.512717,4221.025538,4227.692204,4221.538358,4234.358871,4242.563999,4225.640922,4236.922973,4243.58964,4236.922973,4226.153743
113,0,4258.461434,4248.205024,4236.410153,4231.281948,4230.256307,4234.871691,4231.281948,4234.871691,4247.179383,4234.358871,4244.10246,4248.205024,4244.10246,4231.794768
114,0,4251.794768,4243.58964,4235.897332,4227.692204,4225.128102,4232.820409,4231.281948,4232.820409,4247.179383,4236.410153,4244.10246,4246.153742,4242.051178,4226.153743
115,0,4248.717845,4231.281948,4234.871691,4222.563999,4221.025538,4229.743486,4228.205025,4232.307589,4245.640922,4232.307589,4240.512717,4248.205024,4242.051178,4224.102461
116,0,4254.35887,4233.33323,4238.974255,4227.692204,4234.358871,4232.307589,4233.33323,4238.461435,4248.205024,4237.948614,4239.487076,4253.333229,4247.692204,4227.179384
117,0,4261.538357,4246.153742,4243.58964,4229.743486,4247.179383,4238.974255,4239.487076,4246.666563,4257.948614,4250.769127,4243.58964,4255.897332,4246.153742,4228.205025
118,0,4253.84605,4237.435794,4234.871691,4220.512717,4231.281948,4235.897332,4234.358871,4240.512717,4255.384511,4239.487076,4235.897332,4248.717845,4234.871691,4222.051179
119,0,4239.999896,4218.461435,4221.538358,4215.897333,4210.256307,4226.153743,4229.743486,4227.692204,4241.025537,4218.461435,4222.051179,4235.897332,4228.205025,4212.307589
120,0,4236.922973,4209.743487,4221.538358,4199.999897,4207.179384,4217.435794,4228.205025,4222.563999,4233.33323,4215.384512,4219.999897,4232.820409,4225.128102,4206.153743
121,0,4244.615281,4219.487076,4234.358871,4193.846051,4222.051179,4221.538358,4230.769127,4226.666563,4240.512717,4228.205025,4229.230666,4244.615281,4230.256307,4216.410153
122,0,4249.230665,4230.769127,4235.897332,4214.358871,4224.615281,4226.153743,4231.794768,4230.256307,4244.615281,4232.820409,4233.33323,4247.179383,4237.948614,4225.128102
123,0,4247.179383,4231.281948,4231.794768,4226.666563,4216.410153,4224.615281,4230.769127,4228.205025,4239.999896,4229.743486,4230.256307,4238.974255,4239.487076,4223.58964
124,0,4242.563999,4222.051179,4232.307589,4212.82041,4218.461435,4219.999897,4229.230666,4220.512717,4232.307589,4221.538358,4219.487076,4232.820409,4234.358871,4222.051179
125,0,4241.025537,4217.435794,4226.153743,4203.589641,4218.461435,4217.948615,4229.743486,4218.461435,4230.769127,4212.82041,4213.33323,4231.794768,4229.230666,4222.051179
126,0,4246.666563,4229.743486,4223.07682,4216.410153,4215.384512,4222.563999,4231.794768,4225.128102,4241.025537,4218.461435,4223.07682,4235.384512,4231.794768,4222.563999
127,0,4250.769127,4241.538358,4231.794768,4224.615281,4223.58964,4226.666563,4230.769127,4226.153743,4244.10246,4226.666563,4233.84605,4238.461435,4237.948614,4223.07682
128,0,4250.769127,4239.487076,4237.435794,4218.461435,4231.794768,4227.692204,4230.256307,4223.58964,4237.948614,4228.205025,4235.897332,4243.58964,4243.076819,4225.128102
0,0,4251.794768,4236.410153,4237.435794,4217.948615,4225.128102,4230.769127,4230.769127,4227.692204,4239.487076,4233.84605,4239.999896,4251.281947,4245.128101,4227.179384
1,0,4250.256306,4240.512717,4236.922973,4221.538358,4216.410153,4231.281948,4231.281948,4225.640922,4243.58964,4237.435794,4238.974255,4247.692204,4245.128101,4223.58964
2,0,4248.717845,4239.999896,4231.794768,4211.794769,4223.58964,4230.256307,4234.358871,4218.974256,4241.025537,4230.256307,4232.820409,4240.512717,4242.051178,4222.563999
3,0,4252.820409,4239.999896,4232.820409,4214.358871,4237.948614,4234.358871,4239.999896,4224.615281,4242.051178,4231.281948,4235.897332,4247.179383,4244.10246,4232.307589
4,0,4260.512716,4247.692204,4245.128101,4237.435794,4241.538358,4236.410153,4240.512717,4233.33323,4248.205024,4237.948614,4238.461435,4252.307588,4247.692204,4242.051178
5,0,4261.538357,4250.256306,4246.153742,4235.384512,4235.384512,4236.410153,4239.999896,4230.256307,4250.256306,4234.871691,4234.358871,4245.640922,4243.076819,4237.948614
6,0,4252.820409,4237.948614,4232.307589,4210.256307,4224.615281,4234.358871,4239.999896,4223.07682,4245.128101,4224.102461,4232.307589,4238.461435,4230.769127,4226.153743
7,0,4247.692204,4231.281948,4229.743486,4210.769128,4218.461435,4237.948614,4238.974255,4226.666563,4244.615281,4223.07682,4233.84605,4237.948614,4227.179384,4222.051179
8,0,4245.640922,4229.743486,4231.281948,4215.384512,4210.256307,4237.435794,4239.487076,4229.743486,4245.640922,4225.640922,4228.205025,4238.461435,4228.717845,4226.666563
9,0,4244.615281,4230.769127,4231.281948,4210.256307,4207.179384,4229.743486,4239.487076,4224.615281,4243.076819,4225.128102,4226.666563,4240.512717,4228.717845,4230.769127
10,0,4244.615281,4232.307589,4229.743486,4213.33323,4208.717846,4222.051179,4230.769127,4218.974256,4231.281948,4221.538358,4229.230666,4234.358871,4226.153743,4224.615281
11,0,4245.128101,4230.256307,4228.205025,4214.358871,4211.794769,4224.102461,4226.666563,4217.948615,4230.256307,4224.102461,4228.205025,4226.666563,4224.615281,4218.974256
12,0,4242.563999,4222.051179,4226.153743,4203.07682,4211.281948,4225.128102,4228.717845,4214.871692,4236.410153,4226.153743,4219.487076,4223.58964,4222.051179,4218.461435
13,0,4244.10246,4225.640922,4235.897332,4209.743487,4218.461435,4229.230666,4232.820409,4214.871692,4239.999896,4228.205025,4222.563999,4230.256307,4229.743486,4225.128102
14,0,4246.666563,4238.461435,4246.153742,4229.230666,4229.743486,4235.384512,4232.307589,4221.025538,4238.461435,4231.794768,4235.384512,4235.897332,4239.999896,4231.794768
15,0,4245.128101,4238.974255,4242.563999,4232.820409,4228.205025,4232.307589,4229.743486,4221.538358,4237.948614,4226.153743,4233.33323,4234.358871,4236.410153,4228.205025
16,0,4244.10246,4228.205025,4235.897332,4217.948615,4215.384512,4224.615281,4227.179384,4214.871692,4232.307589,4210.256307,4218.461435,4226.666563,4221.538358,4221.538358
17,0,4247.179383,4225.640922,4236.922973,4208.205025,4209.743487,4226.153743,4228.717845,4213.33323,4224.615281,4206.153743,4216.410153,4227.179384,4215.897333,4224.102461
18,0,4251.794768,4231.281948,4243.58964,4213.846051,4213.846051,4231.281948,4231.794768,4217.948615,4227.179384,4215.897333,4228.717845,4238.974255,4222.563999,4232.820409
19,0,4252.307588,4230.256307,4244.615281,4221.538358,4209.743487,4230.769127,4234.871691,4218.974256,4231.794768,4221.538358,4232.307589,4244.10246,4227.692204,4231.794768
20,0,4248.205024,4222.563999,4239.487076,4214.358871,4196.922974,4222.563999,4235.897332,4216.410153,4230.256307,4221.025538,4227.179384,4236.922973,4225.640922,4224.615281
21,0,4244.615281,4219.487076,4235.897332,4206.666564,4204.615282,4216.410153,4230.256307,4213.33323,4224.102461,4217.948615,4221.025538,4228.717845,4224.102461,4223.07682
22,0,4247.179383,4225.128102,4237.948614,4219.999897,4223.07682,4224.102461,4228.717845,4214.871692,4228.205025,4223.58964,4222.051179,4228.717845,4229.230666,4227.179384
23,0,4248.205024,4223.58964,4237.948614,4214.871692,4217.948615,4227.692204,4226.666563,4214.358871,4231.794768,4228.717845,4225.640922,4229.230666,4229.230666,4223.58964
24,0,4242.563999,4217.435794,4235.384512,4222.563999,4212.307589,4222.051179,4222.051179,4208.717846,4226.153743,4219.999897,4226.666563,4228.205025,4225.128102,4221.025538
25,0,4238.974255,4217.435794,4233.33323,4224.615281,4216.922974,4221.538358,4224.102461,4204.615282,4222.051179,4205.640923,4223.58964,4226.153743,4223.07682,4226.153743
26,0,4242.051178,4222.051179,4232.307589,4133.333232,4211.281948,4229.230666,4231.794768,4206.666564,4227.692204,4207.692205,4223.07682,4226.666563,4226.153743,4227.179384
27,0,4239.487076,4222.563999,4234.871691,4072.820413,4206.666564,4229.743486,4228.717845,4208.205025,4228.205025,4216.410153,4223.58964,4226.153743,4226.153743,4221.538358
28,0,4237.948614,4225.640922,4243.58964,4167.179385,4218.461435,4225.128102,4223.07682,4208.717846,4222.051179,4219.487076,4222.051179,4226.666563,4225.128102,4224.615281
29,0,4244.615281,4226.666563,4246.153742,4239.487076,4216.410153,4223.07682,4225.128102,4210.769128,4219.487076,4217.435794,4215.897333,4228.717845,4224.615281,4228.717845
30,0,4250.769127,4227.179384,4248.205024,4201.538359,4206.666564,4227.179384,4229.743486,4214.871692,4222.563999,4219.999897,4219.999897,4236.410153,4231.281948,4229.230666
31,0,4248.717845,4225.128102,4246.153742,4198.461436,4209.743487,4227.179384,4230.256307,4214.358871,4222.563999,4218.974256,4227.692204,4236.922973,4233.33323,4226.153743
32,0,4248.205024,4225.640922,4242.563999,4234.871691,4216.410153,4228.717845,4229.743486,4213.846051,4223.07682,4215.384512,4229.230666,4234.871691,4227.179384,4227.179384
33,0,4248.205024,4228.717845,4239.999896,4230.256307,4216.922974,4231.794768,4223.58964,4212.82041,4220.512717,4210.769128,4225.128102,4233.33323,4223.07682,4226.666563
34,0,4246.666563,4230.769127,4238.974255,4225.128102,4220.512717,4231.281948,4219.487076,4210.769128,4216.922974,4207.692205,4221.538358,4229.230666,4219.487076,4221.538358
35,0,4246.153742,4226.666563,4234.871691,4220.512717,4219.999897,4226.153743,4219.999897,4211.794769,4217.435794,4197.948615,4214.871692,4222.051179,4211.281948,4218.461435
36,0,4250.256306,4226.153743,4234.358871,4215.384512,4216.410153,4228.717845,4225.128102,4215.897333,4220.512717,4196.922974,4216.410153,4227.692204,4215.897333,4223.58964
37,0,4255.384511,4233.33323,4238.461435,4224.615281,4218.461435,4236.410153,4230.256307,4216.410153,4220.512717,4211.794769,4227.692204,4237.435794,4226.153743,4230.769127
38,0,4254.35887,4235.384512,4234.871691,4230.769127,4220.512717,4236.922973,4225.128102,4211.794769,4219.487076,4215.384512,4226.666563,4235.897332,4224.615281,4233.84605
39,0,4253.333229,4229.230666,4234.358871,4226.153743,4217.435794,4232.820409,4221.538358,4211.281948,4219.999897,4210.256307,4221.025538,4235.897332,4225.128102,4232.820409
40,0,4258.461434,4225.128102,4242.051178,4216.410153,4216.410153,4231.794768,4226.153743,4213.846051,4219.487076,4212.82041,4223.07682,4240.512717,4228.717845,4229.230666
41,0,4264.61528,4229.230666,4246.153742,4223.58964,4224.102461,4233.33323,4228.717845,4216.410153,4219.999897,4215.897333,4224.615281,4245.128101,4225.640922,4230.256307
42,0,4262.563998,4231.794768,4242.563999,4235.384512,4226.153743,4233.33323,4225.128102,4217.435794,4224.615281,4210.769128,4224.615281,4247.179383,4226.666563,4234.358871
43,0,4263.076819,4235.897332,4241.025537,4234.871691,4221.538358,4232.820409,4225.128102,4220.512717,4231.281948,4216.410153,4233.33323,4250.769127,4236.410153,4236.922973
44,0,4261.538357,4236.922973,4238.461435,4223.58964,4216.922974,4228.717845,4226.153743,4219.487076,4227.179384,4221.538358,4236.922973,4251.281947,4232.820409,4232.820409
45,0,4254.871691,4229.743486,4233.84605,4222.563999,4215.897333,4226.153743,4229.230666,4218.974256,4225.128102,4218.974256,4234.871691,4252.307588,4227.179384,4229.230666
46,0,4246.153742,4217.948615,4227.692204,4220.512717,4209.743487,4227.179384,4226.666563,4218.974256,4226.153743,4216.922974,4229.743486,4247.179383,4231.281948,4224.102461
47,0,4245.128101,4219.487076,4225.128102,4217.948615,4210.256307,4227.692204,4220.512717,4217.435794,4226.153743,4218.974256,4223.58964,4239.487076,4233.84605,4223.58964
48,0,4250.256306,4228.205025,4230.256307,4224.615281,4217.435794,4227.692204,4219.999897,4214.871692,4223.58964,4217.435794,4221.538358,4242.051178,4231.281948,4230.256307
49,0,4254.871691,4233.33323,4237.435794,4230.769127,4222.563999,4232.307589,4224.102461,4217.435794,4225.640922,4218.461435,4226.666563,4249.230665,4237.948614,4238.461435
50,0,4255.384511,4230.256307,4234.358871,4227.179384,4221.538358,4235.897332,4221.025538,4219.487076,4228.205025,4219.487076,4224.615281,4248.205024,4243.076819,4235.384512
51,0,4255.897332,4230.769127,4230.769127,4221.538358,4223.58964,4237.948614,4219.487076,4214.871692,4224.615281,4214.871692,4219.999897,4246.666563,4243.58964,4230.256307
52,0,4257.948614,4232.820409,4233.33323,4219.487076,4225.640922,4236.410153,4223.58964,4213.33323,4224.615281,4215.384512,4222.051179,4247.692204,4245.640922,4230.256307
53,0,4253.84605,4224.615281,4237.435794,4223.58964,4219.487076,4229.743486,4223.58964,4217.948615,4229.230666,4221.538358,4224.615281,4246.666563,4246.666563,4226.153743
54,0,4243.58964,4215.897333,4235.384512,4226.666563,4208.205025,4227.179384,4217.948615,4215.897333,4225.640922,4220.512717,4221.538358,4243.58964,4243.076819,4222.051179
55,0,4239.487076,4219.487076,4229.230666,4223.58964,4203.07682,4227.692204,4215.897333,4208.717846,4216.410153,4213.846051,4216.410153,4239.999896,4238.461435,4221.538358
56,0,4243.58964,4227.692204,4230.769127,4225.640922,4211.794769,4226.153743,4221.538358,4212.307589,4218.974256,4217.435794,4218.461435,4240.512717,4242.563999,4225.128102
57,0,4247.692204,4230.256307,4238.461435,4228.717845,4219.999897,4230.769127,4226.153743,4219.487076,4226.666563,4222.051179,4225.128102,4244.615281,4249.230665,4230.769127
58,0,4245.640922,4227.692204,4235.384512,4227.179384,4216.410153,4234.358871,4220.512717,4217.435794,4222.563999,4214.358871,4225.640922,4244.10246,4246.666563,4229.743486
59,0,4243.58964,4223.07682,4234.358871,4228.717845,4217.948615,4231.281948,4216.410153,4215.384512,4221.025538,4214.358871,4224.102461,4241.538358,4247.692204,4227.692204
60,0,4248.717845,4227.692204,4246.153742,4233.33323,4229.743486,4235.384512,4224.102461,4222.051179,4228.205025,4225.640922,4227.692204,4246.666563,4259.487075,4230.769127
61,0,4249.230665,4234.871691,4245.128101,4233.84605,4229.230666,4237.435794,4229.743486,4224.615281,4229.230666,4225.128102,4228.717845,4250.256306,4258.461434,4230.256307
62,0,4248.717845,4237.948614,4239.999896,4234.871691,4226.666563,4236.410153,4231.794768,4227.179384,4230.256307,4228.205025,4232.820409,4253.333229,4254.871691,4232.820409
63,0,4252.307588,4237.435794,4243.58964,4233.33323,4233.33323,4238.461435,4235.897332,4234.358871,4235.897332,4239.487076,4237.435794,4255.897332,4257.948614,4235.384512
64,0,4252.307588,4238.974255,4245.128101,4237.948614,4238.461435,4240.512717,4238.461435,4236.410153,4239.487076,4242.563999,4237.435794,4253.333229,4256.410152,4232.307589
65,0,4246.666563,4239.487076,4239.999896,4245.128101,4230.769127,4238.461435,4233.84605,4229.743486,4234.358871,4233.84605,4232.307589,4246.666563,4250.256306,4227.179384
66,0,4246.666563,4238.974255,4239.999896,4245.640922,4225.640922,4237.948614,4233.33323,4227.692204,4231.794768,4229.743486,4228.717845,4247.692204,4253.333229,4230.256307
67,0,4244.10246,4233.84605,4233.84605,4234.871691,4222.563999,4235.897332,4230.769127,4225.128102,4228.205025,4221.538358,4224.615281,4245.128101,4248.205024,4226.153743
68,0,4240.512717,4235.384512,4226.666563,4230.256307,4227.179384,4240.512717,4229.743486,4226.153743,4227.692204,4218.974256,4224.615281,4239.999896,4243.58964,4222.563999
69,0,4244.10246,4237.948614,4227.692204,4231.794768,4236.410153,4247.692204,4233.84605,4233.84605,4231.281948,4225.640922,4227.692204,4242.051178,4252.820409,4227.692204
70,0,4245.640922,4237.948614,4232.820409,4233.33323,4230.769127,4244.10246,4234.358871,4234.358871,4230.256307,4227.692204,4229.743486,4245.128101,4259.487075,4232.820409
71,0,4242.563999,4235.897332,4232.307589,4230.769127,4215.384512,4232.820409,4223.07682,4227.692204,4224.615281,4221.538358,4231.794768,4242.563999,4252.820409,4228.717845
72,0,4246.153742,4235.384512,4232.307589,4233.33323,4218.461435,4230.769127,4217.435794,4230.256307,4223.58964,4220.512717,4230.256307,4244.615281,4249.230665,4227.179384
73,0,4247.692204,4232.820409,4233.84605,4232.820409,4228.205025,4232.307589,4225.128102,4235.897332,4221.538358,4225.128102,4225.640922,4250.256306,4250.769127,4230.769127
74,0,4239.999896,4226.666563,4232.307589,4224.102461,4221.025538,4230.256307,4229.743486,4234.871691,4215.897333,4223.07682,4225.128102,4249.230665,4249.743486,4231.281948
75,0,4241.538358,4229.743486,4234.358871,4228.717845,4215.384512,4233.84605,4229.743486,4237.435794,4218.461435,4223.58964,4232.307589,4249.743486,4254.35887,4233.84605
76,0,4248.717845,4232.820409,4238.461435,4236.410153,4216.410153,4240.512717,4229.230666,4241.538358,4224.615281,4226.666563,4233.84605,4249.230665,4257.435793,4236.922973
77,0,4247.179383,4230.256307,4238.974255,4232.820409,4215.384512,4237.948614,4228.205025,4239.487076,4223.07682,4223.58964,4230.769127,4249.230665,4253.84605,4233.84605
78,0,4241.025537,4223.07682,4233.33323,4229.230666,4209.743487,4229.743486,4227.692204,4232.820409,4216.410153,4216.922974,4226.153743,4251.794768,4250.769127,4231.281948
79,0,4243.58964,4225.128102,4232.820409,4233.33323,4210.256307,4229.230666,4230.256307,4229.230666,4217.948615,4218.974256,4224.615281,4253.84605,4252.307588,4232.307589
80,0,4245.640922,4229.230666,4234.358871,4229.743486,4215.384512,4228.717845,4229.743486,4229.230666,4222.051179,4221.538358,4224.615281,4249.230665,4250.256306,4228.205025
81,0,4242.051178,4227.179384,4236.922973,4225.640922,4219.487076,4231.794768,4231.281948,4233.84605,4224.615281,4226.153743,4232.820409,4248.205024,4251.794768,4231.794768
82,0,4245.128101,4229.230666,4239.487076,4237.948614,4221.025538,4237.435794,4232.820409,4237.435794,4229.230666,4231.794768,4242.051178,4252.820409,4257.948614,4241.025537
83,0,4250.256306,4230.769127,4241.538358,4241.025537,4223.58964,4241.538358,4234.358871,4239.487076,4234.871691,4234.358871,4239.487076,4251.281947,4255.384511,4235.897332
84,0,4244.615281,4226.666563,4241.538358,4228.717845,4223.07682,4241.025537,4233.33323,4238.974255,4232.307589,4230.769127,4230.769127,4244.10246,4244.10246,4223.58964
85,0,4242.563999,4233.33323,4239.487076,4236.922973,4224.615281,4238.461435,4230.769127,4237.435794,4232.307589,4229.743486,4230.769127,4242.563999,4243.58964,4224.102461
86,0,4245.640922,4242.563999,4231.281948,4251.794768,4228.205025,4237.948614,4228.205025,4236.410153,4231.281948,4229.230666,4230.256307,4238.974255,4245.128101,4221.538358
87,0,4248.205024,4249.230665,4232.820409,4250.769127,4235.897332,4243.076819,4233.84605,4238.974255,4228.717845,4234.358871,4230.769127,4237.435794,4245.128101,4218.974256
88,0,4248.717845,4248.205024,4236.922973,4243.076819,4237.435794,4237.435794,4230.769127,4235.384512,4225.128102,4229.230666,4227.692204,4237.435794,4239.999896,4218.461435
89,0,4247.179383,4242.051178,4233.33323,4243.58964,4234.358871,4229.743486,4220.512717,4224.615281,4218.974256,4213.846051,4218.974256,4233.33323,4233.33323,4210.256307
90,0,4240.512717,4233.33323,4229.743486,4241.025537,4225.640922,4231.281948,4223.07682,4219.999897,4213.33323,4206.666564,4212.82041,4227.179384,4227.692204,4202.564
91,0,4242.563999,4237.435794,4235.897332,4244.615281,4222.051179,4237.435794,4234.358871,4228.717845,4218.461435,4215.384512,4220.512717,4232.307589,4232.307589,4215.897333
92,0,4248.205024,4240.512717,4237.435794,4247.179383,4223.58964,4234.358871,4234.358871,4232.820409,4223.58964,4223.07682,4229.230666,4236.922973,4239.999896,4224.615281
93,0,4243.58964,4231.794768,4233.33323,4236.922973,4225.128102,4229.743486,4227.692204,4228.205025,4221.538358,4221.025538,4225.128102,4233.84605,4240.512717,4217.435794
94,0,4243.58964,4230.256307,4234.871691,4238.974255,4230.769127,4228.205025,4227.692204,4229.230666,4221.025538,4216.922974,4222.051179,4236.922973,4239.487076,4221.538358
95,0,4248.717845,4235.384512,4235.897332,4245.640922,4231.794768,4227.692204,4231.281948,4233.33323,4221.025538,4216.410153,4225.128102,4238.974255,4242.051178,4226.153743
96,0,4245.640922,4238.974255,4234.358871,4238.461435,4226.666563,4230.256307,4234.358871,4233.84605,4223.07682,4221.025538,4223.07682,4237.435794,4244.615281,4223.07682
97,0,4242.051178,4238.974255,4233.84605,4236.410153,4224.102461,4233.84605,4233.33323,4236.410153,4228.717845,4224.615281,4219.487076,4239.487076,4245.640922,4223.07682
98,0,4245.640922,4243.58964,4237.948614,4253.333229,4231.281948,4237.948614,4237.435794,4242.563999,4233.33323,4227.179384,4229.230666,4239.999896,4249.230665,4224.102461
99,0,4244.615281,4242.051178,4238.974255,4261.025537,4229.230666,4238.461435,4242.051178,4243.58964,4229.743486,4226.666563,4233.33323,4234.358871,4245.640922,4217.435794
100,0,4241.025537,4236.410153,4238.461435,4255.384511,4229.230666,4238.974255,4240.512717,4241.025537,4222.051179,4225.128102,4224.615281,4233.84605,4243.58964,4215.384512
101,0,4237.948614,4231.281948,4233.84605,4245.640922,4235.384512,4241.025537,4237.948614,4236.922973,4217.948615,4220.512717,4217.948615,4228.717845,4242.051178,4212.307589
102,0,4234.358871,4225.640922,4232.820409,4237.435794,4239.487076,4245.128101,4240.512717,4238.974255,4226.666563,4221.538358,4217.435794,4219.999897,4235.897332,4204.102461
103,0,4231.794768,4219.999897,4231.794768,4234.358871,4245.640922,4248.205024,4243.076819,4245.128101,4233.33323,4226.153743,4213.846051,4218.461435,4233.84605,4202.564
104,0,4231.281948,4221.025538,4224.615281,4241.538358,4251.281947,4248.205024,4240.512717,4249.230665,4232.307589,4230.769127,4213.846051,4222.563999,4239.487076,4204.615282
105,0,4227.692204,4219.999897,4219.487076,4237.948614,4236.922973,4242.051178,4235.384512,4241.538358,4230.256307,4228.717845,4217.948615,4218.974256,4239.487076,4202.564
106,0,4233.33323,4226.666563,4229.230666,4232.820409,4228.717845,4236.410153,4234.871691,4234.358871,4231.794768,4230.769127,4224.615281,4221.538358,4244.615281,4210.769128
107,0,4243.58964,4240.512717,4240.512717,4247.179383,4244.615281,4237.948614,4237.948614,4237.435794,4232.820409,4238.974255,4230.256307,4234.871691,4255.897332,4224.615281
108,0,4246.153742,4245.128101,4241.025537,4264.61528,4252.307588,4244.615281,4243.076819,4240.512717,4231.281948,4240.512717,4233.33323,4242.051178,4257.435793,4230.256307
109,0,4244.615281,4244.615281,4240.512717,4263.589639,4242.563999,4246.153742,4244.615281,4237.435794,4228.717845,4236.410153,4232.820409,4235.897332,4252.820409,4227.692204
110,0,4245.640922,4249.743486,4242.051178,4257.435793,4244.10246,4243.076819,4244.615281,4235.897332,4232.820409,4236.410153,4235.384512,4234.871691,4252.820409,4225.640922
111,0,4247.179383,4245.640922,4237.948614,4252.307588,4246.666563,4242.563999,4242.051178,4235.384512,4236.922973,4236.922973,4234.871691,4237.948614,4250.256306,4221.538358
112,0,4248.717845,4236.410153,4237.435794,4250.256306,4237.948614,4246.153742,4241.025537,4236.922973,4237.435794,4237.948614,4230.256307,4241.025537,4248.205024,4223.07682
113,0,4251.281947,4242.563999,4244.10246,4256.922973,4238.461435,4248.205024,4241.538358,4242.051178,4240.512717,4244.615281,4236.410153,4248.205024,4256.922973,4234.871691
114,0,4246.153742,4239.999896,4242.051178,4248.717845,4241.025537,4241.538358,4236.410153,4238.461435,4238.461435,4241.538358,4239.999896,4246.666563,4258.461434,4234.358871
115,0,4239.487076,4224.102461,4234.358871,4230.769127,4235.384512,4234.871691,4231.794768,4232.307589,4232.820409,4230.769127,4227.692204,4233.84605,4243.076819,4219.487076
116,0,4243.076819,4223.07682,4234.871691,4236.410153,4231.794768,4237.435794,4233.84605,4233.84605,4233.33323,4228.205025,4218.974256,4227.179384,4234.358871,4212.307589
117,0,4247.692204,4230.769127,4238.974255,4248.717845,4232.307589,4242.051178,4236.922973,4235.897332,4234.871691,4231.281948,4228.205025,4233.33323,4241.025537,4223.58964
118,0,4238.974255,4220.512717,4232.820409,4239.487076,4221.025538,4233.33323,4232.820409,4230.769127,4228.205025,4223.07682,4226.153743,4230.256307,4235.897332,4225.128102
119,0,4236.922973,4216.410153,4230.769127,4242.051178,4221.538358,4229.230666,4232.307589,4231.794768,4232.820409,4223.58964,4220.512717,4229.743486,4230.769127,4218.974256
120,0,4243.58964,4222.563999,4236.922973,4250.256306,4234.871691,4235.384512,4234.358871,4234.871691,4241.025537,4234.871691,4224.615281,4237.435794,4238.461435,4222.051179
121,0,4241.025537,4224.102461,4238.461435,4245.128101,4235.897332,4238.974255,4235.897332,4232.820409,4236.922973,4234.358871,4225.640922,4238.461435,4244.615281,4228.205025
122,0,4229.743486,4218.974256,4228.717845,4235.384512,4221.538358,4230.769127,4230.256307,4227.692204,4228.205025,4224.615281,4215.897333,4227.179384,4236.410153,4217.435794
123,0,4229.743486,4217.948615,4224.615281,4233.33323,4213.846051,4228.205025,4222.563999,4224.615281,4227.692204,4223.07682,4214.871692,4220.512717,4231.794768,4207.692205
124,0,4234.871691,4219.999897,4230.769127,4235.384512,4217.948615,4238.974255,4225.128102,4223.58964,4230.256307,4225.128102,4222.563999,4226.666563,4236.410153,4214.358871
125,0,4236.410153,4225.128102,4234.871691,4241.025537,4225.128102,4242.563999,4233.84605,4225.128102,4231.794768,4226.666563,4225.128102,4235.384512,4241.538358,4219.487076
126,0,4237.948614,4228.205025,4231.794768,4238.461435,4224.615281,4237.435794,4231.794768,4229.743486,4230.769127,4228.205025,4225.640922,4237.435794,4243.076819,4222.051179
127,0,4238.461435,4227.692204,4229.743486,4227.692204,4219.999897,4237.435794,4227.692204,4232.307589,4232.307589,4224.615281,4224.615281,4234.871691,4241.025537,4224.615281
128,0,4234.871691,4222.563999,4230.256307,4227.692204,4218.461435,4238.461435,4232.307589,4231.281948,4235.897332,4224.615281,4217.948615,4229.230666,4237.948614,4219.999897
0,0,4233.33323,4221.538358,4229.230666,4242.051178,4220.512717,4237.435794,4235.897332,4230.769127,4233.84605,4230.769127,4217.948615,4227.692204,4239.487076,4218.974256
1,0,4236.410153,4226.153743,4230.769127,4246.666563,4221.025538,4238.461435,4234.871691,4229.743486,4230.769127,4228.205025,4225.640922,4231.794768,4239.487076,4223.58964
2,0,4233.84605,4217.948615,4226.666563,4228.205025,4211.794769,4230.769127,4227.179384,4222.563999,4227.692204,4212.82041,4220.512717,4229.230666,4230.256307,4215.897333
3,0,4231.794768,4210.256307,4221.538358,4218.461435,4201.538359,4222.051179,4217.435794,4214.358871,4222.563999,4205.128102,4210.769128,4223.58964,4226.153743,4207.692205
4,0,4233.84605,4216.410153,4223.07682,4226.153743,4204.102461,4225.640922,4217.948615,4214.871692,4217.948615,4202.051179,4212.307589,4225.640922,4227.692204,4210.256307
5,0,4234.358871,4219.487076,4222.563999,4227.179384,4210.769128,4229.230666,4221.538358,4219.487076,4218.974256,4200.512718,4212.82041,4230.256307,4222.563999,4210.769128
6,0,4234.871691,4210.256307,4215.384512,4220.512717,4207.692205,4220.512717,4214.358871,4215.897333,4217.435794,4201.538359,4204.615282,4228.205025,4214.871692,4206.153743
7,0,4235.384512,4209.743487,4216.410153,4221.025538,4206.153743,4215.384512,4212.82041,4212.82041,4216.410153,4208.205025,4204.615282,4226.153743,4218.974256,4208.717846
8,0,4234.358871,4215.384512,4218.974256,4219.487076,4204.102461,4221.025538,4218.461435,4215.897333,4217.948615,4208.717846,4207.692205,4228.205025,4221.538358,4212.307589
9,0,4237.948614,4215.384512,4217.435794,4221.538358,4205.128102,4230.769127,4221.538358,4221.538358,4223.07682,4207.179384,4208.205025,4233.33323,4219.999897,4216.410153
10,0,4239.999896,4211.281948,4217.435794,4229.743486,4211.281948,4232.820409,4219.487076,4216.922974,4225.640922,4207.179384,4207.179384,4231.794768,4221.025538,4215.384512
11,0,4238.974255,4218.974256,4222.051179,4227.692204,4217.435794,4233.84605,4221.025538,4211.281948,4224.615281,4209.743487,4208.717846,4232.307589,4225.128102,4215.897333
12,0,4244.10246,4230.256307,4225.640922,4219.999897,4216.410153,4234.871691,4223.58964,4213.846051,4222.051179,4207.692205,4209.230666,4239.999896,4223.07682,4219.487076
13,0,4249.743486,4233.33323,4230.256307,4233.84605,4214.358871,4230.769127,4222.563999,4216.410153,4222.563999,4203.589641,4211.281948,4245.640922,4222.051179,4223.07682
14,0,4241.025537,4227.179384,4230.256307,4245.640922,4208.717846,4224.615281,4217.435794,4212.307589,4220.512717,4199.999897,4211.794769,4242.051178,4225.128102,4223.58964
15,0,4237.948614,4228.717845,4229.230666,4239.999896,4213.846051,4230.256307,4221.538358,4213.846051,4224.102461,4206.153743,4214.871692,4243.58964,4230.256307,4226.153743
16,0,4245.128101,4233.33323,4233.33323,4235.384512,4226.666563,4238.974255,4231.281948,4226.153743,4237.435794,4222.563999,4218.461435,4252.820409,4232.307589,4229.230666
17,0,4249.230665,4240.512717,4241.025537,4246.153742,4232.820409,4241.538358,4234.358871,4236.922973,4244.10246,4239.999896,4228.205025,4266.153742,4242.051178,4236.410153
18,0,4247.692204,4243.076819,4240.512717,4249.230665,4224.615281,4236.410153,4226.666563,4230.256307,4228.717845,4237.948614,4236.410153,4269.230665,4252.307588,4239.999896
19,0,4245.640922,4234.358871,4232.820409,4237.948614,4210.769128,4225.640922,4218.461435,4221.025538,4213.33323,4219.487076,4228.717845,4257.948614,4244.10246,4230.256307
20,0,4242.563999,4225.640922,4231.281948,4236.410153,4207.179384,4218.974256,4216.410153,4223.07682,4216.922974,4209.743487,4216.922974,4251.281947,4230.769127,4221.025538
21,0,4242.051178,4227.692204,4236.410153,4244.10246,4217.435794,4224.615281,4218.974256,4227.179384,4223.58964,4214.358871,4217.948615,4253.333229,4232.820409,4223.58964
22,0,4240.512717,4231.794768,4238.461435,4242.563999,4225.640922,4231.794768,4219.999897,4226.666563,4224.615281,4220.512717,4217.435794,4251.794768,4235.897332,4229.743486
23,0,4239.487076,4229.743486,4235.897332,4238.461435,4219.487076,4230.256307,4219.487076,4228.205025,4225.640922,4223.58964,4211.281948,4248.717845,4233.33323,4229.230666
24,0,4243.58964,4233.33323,4234.871691,4240.512717,4215.384512,4228.717845,4222.051179,4230.769127,4226.666563,4226.666563,4213.846051,4251.281947,4235.897332,4227.179384
25,0,4242.051178,4228.205025,4230.769127,4227.179384,4211.281948,4224.615281,4217.948615,4228.205025,4220.512717,4220.512717,4211.794769,4246.153742,4232.307589,4224.615281
26,0,4241.025537,4222.051179,4231.794768,4224.615281,4205.640923,4217.948615,4216.410153,4229.230666,4221.538358,4221.538358,4212.82041,4244.10246,4232.820409,4226.666563
27,0,4250.256306,4229.743486,4239.487076,4249.230665,4203.589641,4222.051179,4225.128102,4232.307589,4232.307589,4233.84605,4225.640922,4251.281947,4242.563999,4230.769127
28,0,4251.794768,4231.794768,4238.461435,4249.230665,4212.307589,4232.307589,4228.205025,4230.769127,4232.307589,4234.871691,4227.179384,4252.820409,4240.512717,4227.692204
29,0,4237.435794,4216.410153,4225.640922,4221.025538,4218.974256,4229.743486,4217.948615,4223.07682,4213.846051,4219.487076,4212.82041,4237.948614,4227.692204,4217.948615
30,0,4236.922973,4222.051179,4225.128102,4227.179384,4225.128102,4228.717845,4219.487076,4223.07682,4204.102461,4217.948615,4210.769128,4233.84605,4229.230666,4221.025538
31,0,4244.10246,4235.897332,4229.743486,4243.58964,4223.58964,4234.358871,4229.743486,4228.205025,4211.794769,4222.051179,4213.33323,4243.076819,4231.281948,4225.128102
32,0,4245.128101,4233.33323,4231.281948,4237.948614,4217.948615,4237.948614,4228.205025,4232.307589,4217.948615,4224.102461,4215.384512,4245.640922,4232.307589,4223.58964
33,0,4246.153742,4229.743486,4234.871691,4233.84605,4216.922974,4233.33323,4223.07682,4231.794768,4213.33323,4224.615281,4221.025538,4243.076819,4239.999896,4223.58964
34,0,4248.717845,4234.358871,4237.435794,4236.922973,4220.512717,4227.692204,4228.717845,4228.717845,4209.743487,4221.538358,4221.025538,4246.666563,4241.538358,4224.615281
35,0,4251.794768,4236.410153,4238.461435,4239.487076,4221.538358,4226.666563,4231.281948,4228.205025,4213.846051,4225.128102,4222.051179,4254.871691,4239.999896,4228.205025
36,0,4257.948614,4234.358871,4240.512717,4245.640922,4217.435794,4229.743486,4230.769127,4229.743486,4215.897333,4233.84605,4228.717845,4258.461434,4244.10246,4233.84605
37,0,4252.307588,4227.692204,4237.435794,4237.435794,4211.794769,4230.769127,4233.33323,4230.256307,4211.794769,4229.743486,4227.179384,4255.897332,4239.487076,4229.230666
38,0,4235.897332,4215.384512,4228.205025,4214.871692,4206.666564,4224.615281,4229.230666,4224.102461,4206.666564,4213.846051,4217.435794,4248.717845,4226.666563,4222.051179
39,0,4232.820409,4209.743487,4225.640922,4216.410153,4202.051179,4217.948615,4219.487076,4217.435794,4202.564,4204.615282,4212.307589,4239.999896,4223.07682,4221.025538
40,0,4236.922973,4208.205025,4224.615281,4230.769127,4203.07682,4215.897333,4218.974256,4216.410153,4198.974256,4204.615282,4207.179384,4238.461435,4223.07682,4219.487076
41,0,4232.307589,4205.640923,4222.051179,4226.153743,4207.692205,4219.487076,4224.102461,4222.563999,4202.051179,4208.717846,4205.640923,4241.538358,4223.58964,4216.410153
42,0,4231.794768,4211.281948,4223.07682,4217.948615,4210.256307,4223.07682,4224.102461,4228.205025,4208.717846,4211.281948,4214.358871,4239.487076,4229.230666,4219.487076
43,0,4242.051178,4221.025538,4228.717845,4228.205025,4212.82041,4228.205025,4228.717845,4235.384512,4215.384512,4217.948615,4223.07682,4243.076819,4234.871691,4223.07682
44,0,4237.435794,4211.794769,4226.153743,4230.256307,4210.769128,4228.205025,4233.33323,4241.025537,4217.435794,4219.487076,4214.871692,4242.563999,4226.666563,4209.743487
45,0,4226.666563,4202.564,4216.410153,4216.922974,4205.128102,4222.563999,4230.769127,4235.384512,4211.281948,4213.33323,4206.666564,4231.794768,4216.410153,4195.897333
46,0,4230.769127,4211.794769,4213.846051,4215.897333,4204.102461,4221.538358,4228.717845,4226.666563,4203.07682,4204.615282,4209.743487,4224.102461,4216.410153,4199.999897
47,0,4237.948614,4220.512717,4218.974256,4226.153743,4207.179384,4223.07682,4230.769127,4222.563999,4201.025538,4198.461436,4208.205025,4224.102461,4213.846051,4203.589641
48,0,4233.33323,4216.410153,4219.487076,4230.769127,4201.538359,4217.948615,4230.256307,4218.461435,4197.948615,4194.871692,4200.512718,4224.615281,4206.153743,4192.82041
49,0,4235.897332,4223.58964,4229.743486,4238.974255,4207.692205,4223.58964,4232.307589,4222.563999,4201.538359,4203.07682,4209.743487,4232.820409,4214.358871,4199.487077
50,0,4239.999896,4228.717845,4234.871691,4239.999896,4215.897333,4226.666563,4233.84605,4229.230666,4207.692205,4207.692205,4217.948615,4234.871691,4219.999897,4209.743487
51,0,4234.871691,4221.538358,4227.179384,4230.769127,4209.743487,4220.512717,4233.84605,4231.281948,4209.230666,4207.179384,4214.358871,4230.769127,4215.384512,4205.128102
52,0,4230.769127,4216.410153,4220.512717,4229.230666,4207.179384,4216.410153,4231.794768,4225.640922,4203.07682,4201.538359,4209.743487,4229.743486,4210.769128,4197.948615
53,0,4230.256307,4216.922974,4220.512717,4234.871691,4210.769128,4212.82041,4227.179384,4218.461435,4198.461436,4191.281949,4204.102461,4223.58964,4203.589641,4193.333231
54,0,4229.230666,4213.846051,4217.948615,4219.487076,4206.666564,4209.230666,4227.692204,4217.948615,4198.974256,4192.82041,4199.487077,4212.82041,4199.999897,4189.743487
55,0,4231.281948,4212.307589,4218.461435,4211.281948,4206.666564,4217.948615,4236.410153,4226.153743,4205.128102,4206.153743,4206.666564,4218.974256,4213.33323,4193.846051
56,0,4233.33323,4211.794769,4222.563999,4224.615281,4210.256307,4223.58964,4236.922973,4230.769127,4209.230666,4207.692205,4211.794769,4224.102461,4218.974256,4196.410154
57,0,4235.384512,4216.922974,4220.512717,4230.769127,4206.153743,4218.461435,4231.281948,4229.743486,4209.743487,4204.615282,4209.230666,4218.461435,4210.256307,4195.384513
58,0,4242.051178,4226.153743,4223.07682,4229.230666,4206.666564,4222.051179,4237.435794,4236.410153,4215.897333,4211.281948,4215.384512,4220.512717,4216.410153,4202.564
59,0,4242.051178,4226.666563,4226.666563,4233.33323,4212.82041,4227.179384,4241.025537,4240.512717,4216.410153,4212.307589,4218.974256,4224.615281,4227.692204,4208.717846
60,0,4235.384512,4220.512717,4222.051179,4233.84605,4211.281948,4224.615281,4234.871691,4236.410153,4213.33323,4211.281948,4210.769128,4221.538358,4222.051179,4206.153743
61,0,4228.717845,4212.307589,4211.281948,4221.538358,4207.692205,4220.512717,4230.769127,4229.743486,4208.205025,4206.153743,4202.564,4212.307589,4207.179384,4197.435795
62,0,4229.230666,4213.33323,4208.717846,4221.538358,4217.948615,4222.563999,4233.33323,4228.205025,4205.128102,4201.538359,4204.102461,4209.743487,4206.666564,4193.846051
63,0,4230.256307,4216.410153,4212.82041,4227.179384,4221.025538,4221.025538,4232.307589,4228.205025,4204.102461,4200.512718,4206.153743,4209.743487,4210.769128,4194.358872
64,0,4231.281948,4219.487076,4218.461435,4223.07682,4218.974256,4220.512717,4233.33323,4230.256307,4207.179384,4200.512718,4208.205025,4213.33323,4213.33323,4201.025538
65,0,4230.256307,4218.461435,4219.999897,4221.538358,4218.974256,4227.179384,4236.410153,4231.794768,4208.717846,4196.410154,4204.615282,4211.794769,4209.743487,4203.07682
66,0,4228.205025,4216.410153,4219.487076,4231.281948,4214.358871,4234.871691,4236.922973,4231.281948,4210.769128,4197.435795,4199.999897,4211.281948,4206.153743,4199.487077
67,0,4228.205025,4216.922974,4219.487076,4232.820409,4209.230666,4232.307589,4236.922973,4231.794768,4211.794769,4202.564,4202.051179,4217.435794,4211.794769,4201.025538
68,0,4232.820409,4223.07682,4220.512717,4226.153743,4216.410153,4229.230666,4240.512717,4236.410153,4212.82041,4210.256307,4210.769128,4220.512717,4224.615281,4208.717846
69,0,4235.384512,4222.563999,4221.025538,4225.128102,4219.487076,4228.717845,4236.410153,4235.897332,4213.846051,4214.358871,4214.358871,4219.999897,4231.281948,4201.025538
70,0,4229.743486,4214.358871,4220.512717,4225.640922,4214.358871,4225.128102,4230.256307,4229.743486,4210.769128,4211.281948,4212.82041,4219.999897,4229.230666,4184.102462
71,0,4227.179384,4214.871692,4215.897333,4219.487076,4211.281948,4223.07682,4229.743486,4225.640922,4206.153743,4206.153743,4209.230666,4216.410153,4226.153743,4177.948616
72,0,4233.84605,4221.538358,4216.922974,4223.58964,4211.794769,4231.794768,4234.871691,4228.717845,4214.358871,4212.307589,4214.358871,4217.435794,4234.358871,4182.05118
73,0,4234.358871,4215.384512,4219.999897,4224.102461,4213.33323,4236.922973,4235.897332,4231.794768,4222.051179,4214.358871,4219.487076,4221.538358,4239.487076,4185.640923
74,0,4227.179384,4210.769128,4218.461435,4218.461435,4216.410153,4229.230666,4234.358871,4230.769127,4216.410153,4207.179384,4212.82041,4219.999897,4230.256307,4178.461436
75,0,4223.07682,4213.33323,4215.897333,4224.102461,4208.205025,4223.07682,4231.794768,4226.666563,4209.743487,4204.102461,4206.153743,4214.871692,4223.07682,4150.769129
76,0,4228.205025,4214.358871,4219.487076,4228.717845,4207.692205,4232.307589,4236.922973,4227.179384,4215.897333,4212.307589,4209.230666,4218.461435,4228.717845,4128.717848
77,0,4229.743486,4210.256307,4218.974256,4213.846051,4219.999897,4242.563999,4242.051178,4230.769127,4221.025538,4216.922974,4204.615282,4218.974256,4227.692204,4122.051181
78,0,4221.025538,4205.128102,4209.743487,4203.589641,4215.897333,4237.435794,4237.948614,4229.230666,4217.435794,4209.743487,4196.410154,4208.717846,4219.487076,4113.846053
79,0,4218.974256,4206.153743,4208.717846,4219.487076,4205.128102,4230.256307,4233.84605,4228.717845,4218.461435,4211.281948,4204.615282,4207.179384,4219.999897,4109.743489
80,0,4218.974256,4203.589641,4214.871692,4223.07682,4206.153743,4230.769127,4233.33323,4225.640922,4217.435794,4210.769128,4206.666564,4211.281948,4213.33323,4107.692207
81,0,4218.461435,4202.051179,4219.999897,4212.82041,4209.743487,4232.307589,4232.307589,4221.538358,4212.307589,4207.179384,4203.589641,4211.281948,4212.307589,4111.281951
82,0,4226.666563,4207.179384,4218.461435,4217.948615,4210.769128,4229.743486,4231.794768,4222.563999,4212.82041,4214.358871,4210.256307,4208.205025,4226.153743,4123.076822
83,0,4236.410153,4216.410153,4223.07682,4230.769127,4214.871692,4234.871691,4236.410153,4231.794768,4221.538358,4228.205025,4219.999897,4216.922974,4234.871691,4134.871694
84,0,4230.256307,4210.769128,4228.717845,4223.07682,4206.666564,4234.871691,4234.871691,4233.33323,4218.974256,4225.640922,4218.461435,4224.102461,4228.717845,4133.333232
85,0,4227.179384,4204.102461,4228.717845,4217.435794,4201.025538,4231.281948,4233.33323,4227.179384,4214.871692,4217.948615,4216.410153,4219.487076,4226.666563,4131.28195
86,0,4225.128102,4195.897333,4218.974256,4216.410153,4205.640923,4226.666563,4230.256307,4218.974256,4212.82041,4207.692205,4206.666564,4203.589641,4219.999897,4118.461438
87,0,4213.33323,4180.512718,4205.640923,4204.102461,4205.128102,4224.102461,4225.128102,4216.410153,4206.153743,4195.897333,4191.281949,4189.230667,4206.153743,4100.51272
88,0,4209.230666,4178.974257,4202.564,4197.948615,4201.538359,4225.640922,4224.615281,4219.487076,4205.640923,4197.948615,4192.82041,4190.256308,4203.589641,4104.102464
89,0,4215.384512,4191.281949,4208.205025,4203.589641,4207.179384,4228.717845,4226.153743,4221.025538,4214.871692,4208.717846,4202.564,4201.025538,4210.769128,4111.281951
90,0,4217.948615,4192.82041,4210.256307,4198.974256,4207.692205,4228.205025,4223.58964,4222.563999,4217.435794,4212.82041,4197.948615,4204.615282,4210.769128,4103.076823
91,0,4217.435794,4191.281949,4211.794769,4199.487077,4207.179384,4228.717845,4226.666563,4226.666563,4213.33323,4215.897333,4192.82041,4203.07682,4207.692205,4102.564002
92,0,4223.07682,4200.512718,4215.897333,4216.922974,4219.487076,4236.410153,4236.410153,4232.307589,4222.563999,4223.58964,4206.153743,4209.230666,4213.846051,4112.820412
93,0,4230.256307,4208.717846,4218.461435,4224.102461,4227.179384,4241.025537,4237.435794,4235.897332,4233.33323,4229.230666,4220.512717,4219.999897,4224.615281,4122.051181
94,0,4235.384512,4212.307589,4219.999897,4215.384512,4219.487076,4235.384512,4232.820409,4236.410153,4229.230666,4230.256307,4221.538358,4225.128102,4225.128102,4129.230668
95,0,4236.922973,4212.307589,4224.102461,4216.922974,4208.205025,4229.743486,4233.33323,4233.33323,4221.025538,4225.128102,4217.948615,4224.615281,4223.07682,4134.358873
96,0,4233.84605,4202.564,4222.563999,4219.999897,4198.974256,4228.205025,4232.820409,4230.769127,4218.461435,4213.846051,4211.794769,4224.615281,4219.999897,4129.743489
97,0,4231.281948,4194.358872,4217.435794,4211.281948,4199.999897,4228.205025,4232.307589,4232.820409,4217.435794,4207.179384,4207.692205,4227.179384,4213.33323,4123.589643
98,0,4229.743486,4196.410154,4213.33323,4201.025538,4207.692205,4227.179384,4230.256307,4231.794768,4217.435794,4206.153743,4207.692205,4224.615281,4207.692205,4118.461438
99,0,4218.461435,4191.794769,4204.102461,4194.871692,4202.051179,4225.128102,4221.538358,4224.615281,4215.384512,4198.461436,4199.999897,4211.281948,4201.538359,4104.615284
100,0,4209.743487,4185.640923,4195.897333,4199.487077,4192.30759,4224.102461,4215.384512,4218.974256,4210.256307,4191.794769,4190.256308,4205.640923,4194.871692,4097.435797
101,0,4214.871692,4190.256308,4194.871692,4203.07682,4190.256308,4219.999897,4215.384512,4218.974256,4203.589641,4190.769128,4188.205026,4209.230666,4190.769128,4103.589643
102,0,4219.999897,4196.410154,4202.564,4195.897333,4192.30759,4218.974256,4218.974256,4219.999897,4206.666564,4197.435795,4192.30759,4212.307589,4193.333231,4110.25631
103,0,4215.897333,4188.205026,4203.589641,4188.205026,4192.30759,4217.435794,4215.897333,4216.410153,4210.256307,4199.487077,4188.717846,4208.205025,4192.30759,4104.615284
104,0,4222.051179,4190.769128,4205.640923,4202.564,4201.025538,4218.974256,4218.974256,4222.051179,4214.871692,4204.615282,4194.358872,4214.871692,4197.435795,4111.281951
105,0,4234.358871,4206.666564,4216.410153,4227.692204,4206.153743,4224.615281,4226.666563,4229.743486,4220.512717,4209.230666,4207.179384,4228.717845,4206.666564,4128.205027
106,0,4237.435794,4213.846051,4224.102461,4233.84605,4211.281948,4231.794768,4229.743486,4229.743486,4224.615281,4214.358871,4212.307589,4231.794768,4210.769128,4136.410155
107,0,4228.205025,4205.128102,4215.384512,4219.487076,4212.82041,4227.179384,4221.025538,4219.999897,4219.999897,4210.256307,4205.640923,4222.563999,4203.589641,4129.743489
108,0,4224.615281,4203.07682,4207.692205,4215.897333,4208.205025,4218.974256,4215.897333,4217.948615,4212.82041,4201.025538,4203.07682,4217.948615,4199.487077,4127.692207
109,0,4227.179384,4206.153743,4206.153743,4219.999897,4206.153743,4217.435794,4218.974256,4222.051179,4212.82041,4202.564,4204.615282,4221.025538,4202.564,4131.794771
110,0,4223.07682,4205.640923,4202.051179,4216.922974,4209.230666,4218.461435,4218.974256,4219.999897,4213.846051,4207.179384,4204.615282,4221.538358,4202.564,4130.256309
111,0,4219.487076,4204.615282,4205.128102,4210.769128,4210.256307,4220.512717,4215.384512,4218.974256,4214.871692,4203.07682,4203.589641,4219.487076,4200.512718,4125.128104
112,0,4224.102461,4206.666564,4212.82041,4206.153743,4209.230666,4221.538358,4217.948615,4222.051179,4217.435794,4201.538359,4201.025538,4219.999897,4201.538359,4123.589643
113,0,4229.743486,4209.230666,4210.256307,4209.743487,4210.769128,4221.025538,4221.025538,4222.051179,4217.435794,4208.205025,4202.051179,4223.58964,4206.666564,4134.358873
114,0,4227.692204,4208.205025,4208.717846,4220.512717,4204.102461,4219.487076,4217.435794,4216.410153,4215.384512,4208.717846,4207.179384,4225.128102,4208.205025,4142.564001
115,0,4229.230666,4210.256307,4216.922974,4225.128102,4199.487077,4220.512717,4215.897333,4220.512717,4215.897333,4210.769128,4212.307589,4225.128102,4209.230666,4144.102463
116,0,4235.384512,4214.871692,4218.461435,4224.615281,4207.179384,4220.512717,4215.897333,4225.128102,4216.922974,4217.435794,4211.794769,4227.179384,4212.307589,4150.769129
117,0,4234.358871,4215.897333,4214.358871,4228.205025,4214.871692,4221.538358,4218.974256,4223.58964,4215.384512,4215.897333,4212.307589,4230.769127,4213.33323,4156.410155
118,0,4227.179384,4205.128102,4212.307589,4215.384512,4211.281948,4219.999897,4223.07682,4224.615281,4214.358871,4209.743487,4212.307589,4228.717845,4207.179384,4147.692206
119,0,4223.07682,4198.974256,4211.794769,4202.564,4208.717846,4221.538358,4223.07682,4227.179384,4218.974256,4209.230666,4211.794769,4227.179384,4204.615282,4143.589642
120,0,4220.512717,4201.538359,4209.230666,4210.256307,4206.666564,4225.640922,4219.999897,4223.07682,4222.563999,4207.692205,4208.205025,4225.128102,4204.102461,4148.717847
121,0,4217.948615,4206.153743,4211.794769,4217.435794,4204.102461,4225.128102,4223.58964,4223.58964,4223.58964,4207.179384,4211.281948,4224.102461,4203.07682,4150.256309
122,0,4218.461435,4205.640923,4215.897333,4207.179384,4209.230666,4225.128102,4228.205025,4233.33323,4223.07682,4211.794769,4216.922974,4227.692204,4207.692205,4149.743488
123,0,4219.487076,4202.564,4213.846051,4201.025538,4217.435794,4226.153743,4225.128102,4235.897332,4224.102461,4214.871692,4217.948615,4229.230666,4211.794769,4152.307591
124,0,4216.410153,4198.461436,4206.153743,4207.179384,4208.717846,4218.461435,4216.922974,4222.563999,4218.461435,4206.666564,4210.769128,4218.461435,4198.974256,4144.615283
125,0,4218.461435,4197.435795,4209.230666,4217.948615,4197.435795,4215.384512,4215.897333,4214.358871,4218.461435,4205.128102,4206.666564,4214.871692,4189.743487,4141.02554
126,0,4219.999897,4192.30759,4213.33323,4213.846051,4197.948615,4219.999897,4216.410153,4217.948615,4219.487076,4207.692205,4205.128102,4219.999897,4194.871692,4147.692206
127,0,4219.487076,4194.871692,4210.256307,4205.640923,4207.692205,4222.563999,4216.922974,4223.07682,4215.897333,4206.666564,4206.666564,4221.025538,4201.025538,4153.846052
128,0,4221.538358,4203.589641,4210.769128,4212.307589,4207.692205,4217.948615,4215.384512,4218.974256,4214.358871,4202.051179,4208.717846,4218.461435,4197.948615,4154.871693
0,0,4221.538358,4205.640923,4215.897333,4218.974256,4198.974256,4213.846051,4212.307589,4214.871692,4216.922974,4203.589641,4209.230666,4220.512717,4197.435795,4156.922975
1,0,4218.461435,4202.564,4215.384512,4212.307589,4198.974256,4210.256307,4210.769128,4219.487076,4218.461435,4208.205025,4210.256307,4224.102461,4204.102461,4158.974257
2,0,4218.974256,4201.025538,4212.82041,4207.179384,4207.179384,4212.82041,4213.33323,4224.615281,4216.922974,4210.769128,4214.871692,4228.717845,4208.205025,4161.025539
3,0,4221.538358,4201.025538,4210.256307,4207.692205,4207.692205,4218.461435,4214.358871,4225.640922,4215.897333,4212.82041,4213.33323,4228.205025,4206.153743,4162.564001
4,0,4225.128102,4208.205025,4214.871692,4211.794769,4206.666564,4218.461435,4216.410153,4227.179384,4222.563999,4215.384512,4213.33323,4227.692204,4208.717846,4165.640924
5,0,4229.230666,4215.384512,4218.974256,4215.384512,4211.794769,4221.538358,4222.051179,4230.256307,4226.666563,4219.487076,4218.974256,4232.307589,4217.435794,4171.79477
6,0,4225.640922,4205.640923,4212.82041,4205.640923,4204.615282,4225.128102,4221.538358,4228.205025,4216.922974,4214.871692,4214.358871,4231.794768,4212.307589,4170.256308
7,0,4222.563999,4203.589641,4212.82041,4204.615282,4195.897333,4222.563999,4219.487076,4226.666563,4217.948615,4210.769128,4211.794769,4231.794768,4205.640923,4170.769129
8,0,4226.153743,4208.717846,4219.487076,4217.435794,4201.025538,4213.846051,4217.948615,4226.666563,4225.640922,4211.794769,4216.922974,4232.820409,4210.256307,4177.435795
9,0,4228.205025,4206.666564,4220.512717,4219.999897,4212.307589,4218.461435,4217.435794,4227.692204,4226.153743,4218.974256,4223.58964,4235.384512,4219.999897,4180.512718
10,0,4222.051179,4203.589641,4213.846051,4206.666564,4207.692205,4225.128102,4216.922974,4230.256307,4226.666563,4223.58964,4223.07682,4236.410153,4221.025538,4173.846052
11,0,4217.435794,4211.281948,4209.230666,4207.179384,4204.615282,4226.153743,4219.999897,4234.871691,4233.84605,4226.666563,4221.025538,4238.461435,4218.974256,4175.384513
12,0,4216.410153,4206.153743,4206.153743,4209.230666,4206.666564,4222.563999,4216.922974,4233.33323,4229.743486,4221.025538,4212.82041,4228.717845,4210.769128,4170.769129
13,0,4217.948615,4197.948615,4206.666564,4205.640923,4203.07682,4221.538358,4215.897333,4230.769127,4222.563999,4215.897333,4207.692205,4220.512717,4202.051179,4161.025539
14,0,4210.769128,4192.82041,4204.102461,4198.461436,4197.435795,4221.025538,4215.384512,4228.205025,4214.871692,4209.743487,4201.025538,4218.461435,4195.384513,4156.922975
15,0,4202.051179,4186.153744,4198.974256,4196.410154,4203.07682,4222.051179,4214.871692,4231.281948,4207.692205,4201.538359,4192.82041,4210.769128,4191.794769,4152.820411
16,0,4205.640923,4183.076821,4196.410154,4200.512718,4212.307589,4227.692204,4218.461435,4234.871691,4213.33323,4206.666564,4196.410154,4207.179384,4195.384513,4150.769129
17,0,4215.384512,4188.717846,4200.512718,4191.794769,4214.358871,4231.794768,4221.025538,4234.871691,4225.128102,4217.948615,4207.179384,4216.922974,4202.564,4159.999898
18,0,4223.07682,4202.051179,4210.769128,4189.230667,4217.948615,4230.769127,4219.999897,4237.435794,4230.769127,4224.102461,4216.922974,4228.205025,4209.743487,4174.358872
