title:K                                                                               , recorded:02.07.20 11.31.20, sampling:128, subject:K                                                                               , labels:COUNTER INTERPOLATED AF3 F7 F3 FC5 T7 P7 O1 O2 P8 T8 FC6 F4 F8 AF4,, units:emotiv,,,,,,,,,
16,0,4208.717846,4235.384512,4202.051179,4237.435794,4277.435793,4254.871691,4232.820409,4230.256307,4226.666563,4225.640922,4252.307588,4261.025537,4269.230665,4270.769126
17,0,4208.717846,4232.820409,4203.589641,4232.820409,4276.410152,4219.999897,4221.538358,4218.461435,4222.563999,4230.769127,4249.230665,4259.999896,4266.153742,4281.025536
18,0,4209.743487,4234.358871,4201.025538,4247.179383,4262.563998,4215.897333,4218.461435,4216.410153,4217.435794,4237.948614,4237.435794,4245.640922,4262.563998,4271.794767
19,0,4207.692205,4232.820409,4196.922974,4246.153742,4264.10246,4230.256307,4222.563999,4217.435794,4217.435794,4230.256307,4235.384512,4238.461435,4257.435793,4259.999896
20,0,4211.281948,4235.897332,4203.07682,4244.615281,4276.922972,4241.538358,4229.230666,4218.974256,4232.307589,4236.922973,4250.769127,4259.999896,4265.128101,4273.846049
21,0,4210.769128,4232.820409,4202.051179,4242.563999,4272.820408,4223.07682,4223.58964,4221.025538,4233.84605,4236.922973,4255.384511,4270.769126,4267.179383,4279.487075
22,0,4194.871692,4214.358871,4182.05118,4218.461435,4259.487075,4186.153744,4209.230666,4214.871692,4212.307589,4199.487077,4237.948614,4247.692204,4243.076819,4254.35887
23,0,4194.871692,4216.922974,4179.999898,4215.897333,4253.333229,4209.743487,4216.410153,4216.922974,4215.897333,4204.615282,4233.33323,4241.538358,4238.461435,4247.692204
24,0,4208.205025,4230.256307,4192.82041,4232.820409,4259.487075,4237.948614,4225.640922,4223.58964,4223.07682,4248.717845,4238.974255,4254.35887,4250.256306,4260.512716
25,0,4199.999897,4216.410153,4184.615282,4222.563999,4261.538357,4188.205026,4208.205025,4211.281948,4199.487077,4240.512717,4228.717845,4237.948614,4236.410153,4249.743486
26,0,4189.230667,4210.256307,4176.410154,4215.384512,4249.230665,4179.999898,4206.153743,4209.743487,4198.974256,4217.435794,4227.179384,4224.615281,4229.743486,4241.025537
27,0,4197.435795,4233.33323,4185.128103,4236.410153,4241.538358,4254.35887,4230.256307,4231.281948,4235.384512,4231.794768,4242.051178,4241.538358,4250.256306,4254.871691
28,0,4201.025538,4238.461435,4187.692205,4234.358871,4249.743486,4263.589639,4232.307589,4232.820409,4239.487076,4232.820409,4241.025537,4243.58964,4253.333229,4255.384511
29,0,4193.333231,4223.58964,4182.564,4212.307589,4264.10246,4204.615282,4210.256307,4211.794769,4214.358871,4212.307589,4231.281948,4230.256307,4243.076819,4246.666563
30,0,4194.358872,4226.666563,4180.512718,4217.948615,4270.769126,4212.82041,4209.230666,4213.846051,4222.051179,4223.07682,4239.999896,4237.435794,4252.307588,4257.435793
31,0,4194.358872,4231.281948,4173.846052,4226.666563,4269.230665,4247.179383,4224.615281,4229.743486,4236.922973,4240.512717,4243.076819,4240.512717,4258.974255,4259.487075
32,0,4189.743487,4223.07682,4169.230667,4216.410153,4263.589639,4233.33323,4225.128102,4227.179384,4228.717845,4235.384512,4232.307589,4229.743486,4254.35887,4245.128101
33,0,4193.846051,4223.07682,4179.999898,4213.33323,4263.076819,4222.051179,4222.563999,4219.487076,4224.102461,4232.820409,4235.897332,4238.461435,4261.025537,4251.281947
34,0,4197.948615,4231.281948,4183.589641,4219.999897,4264.61528,4225.128102,4223.58964,4219.999897,4227.179384,4233.33323,4246.666563,4246.666563,4267.692203,4264.10246
35,0,4196.922974,4227.692204,4173.333231,4211.281948,4260.512716,4210.769128,4218.974256,4215.384512,4218.461435,4221.538358,4241.025537,4231.794768,4265.128101,4259.999896
36,0,4206.153743,4222.563999,4175.897334,4206.666564,4256.410152,4211.794769,4216.922974,4212.82041,4212.307589,4217.948615,4239.999896,4234.871691,4273.846049,4266.153742
37,0,4230.769127,4244.615281,4199.487077,4227.692204,4263.076819,4242.051178,4224.102461,4223.07682,4227.179384,4234.871691,4258.461434,4262.051178,4301.538356,4296.410151
38,0,4239.999896,4255.897332,4200.512718,4231.794768,4265.640921,4210.256307,4215.897333,4216.922974,4220.512717,4225.640922,4258.461434,4258.461434,4306.666561,4305.1281
39,0,4239.999896,4240.512717,4185.640923,4214.871692,4249.230665,4150.769129,4202.564,4198.461436,4194.871692,4197.435795,4242.563999,4241.538358,4296.410151,4300.512715
40,0,4265.640921,4251.794768,4206.153743,4227.692204,4238.461435,4200.512718,4221.538358,4211.281948,4206.666564,4213.846051,4254.35887,4264.61528,4316.922971,4329.743484
41,0,4296.410151,4288.205023,4239.999896,4253.84605,4254.35887,4278.974254,4241.538358,4238.974255,4238.974255,4251.281947,4280.512716,4296.410151,4346.66656,4361.025534
42,0,4290.769126,4283.076818,4232.820409,4242.051178,4262.563998,4235.384512,4224.102461,4233.84605,4227.692204,4243.076819,4272.820408,4286.666562,4335.89733,4353.333227
43,0,4266.666562,4250.769127,4200.512718,4219.487076,4237.435794,4181.538359,4210.769128,4209.230666,4194.358872,4199.999897,4238.461435,4253.333229,4301.538356,4325.128099
44,0,4254.35887,4241.025537,4184.615282,4219.487076,4229.230666,4221.538358,4224.102461,4202.051179,4190.256308,4180.512718,4219.999897,4232.820409,4281.025536,4302.563997
45,0,4254.35887,4246.153742,4192.82041,4217.435794,4258.461434,4252.820409,4227.692204,4211.281948,4207.179384,4193.846051,4226.666563,4235.384512,4281.025536,4298.461433
46,0,4263.589639,4251.794768,4218.974256,4212.82041,4267.692203,4235.384512,4220.512717,4222.051179,4217.948615,4203.589641,4236.410153,4251.281947,4288.717844,4308.717843
47,0,4259.999896,4246.666563,4219.487076,4222.051179,4249.743486,4216.410153,4214.871692,4217.435794,4205.128102,4196.922974,4224.615281,4247.692204,4272.307588,4295.38451
48,0,4237.435794,4232.820409,4188.717846,4224.102461,4242.051178,4204.615282,4209.230666,4202.564,4190.769128,4198.461436,4211.794769,4223.58964,4250.769127,4261.538357
49,0,4224.615281,4226.153743,4177.435795,4209.230666,4234.358871,4198.974256,4209.743487,4204.102461,4203.589641,4201.538359,4213.846051,4213.33323,4251.794768,4250.256306
50,0,4224.615281,4229.230666,4185.640923,4201.025538,4233.84605,4209.230666,4216.922974,4214.871692,4218.461435,4190.769128,4214.358871,4216.922974,4252.820409,4251.794768
51,0,4225.640922,4233.33323,4187.692205,4214.871692,4258.974255,4234.358871,4226.666563,4219.487076,4216.922974,4195.384513,4215.897333,4223.58964,4251.281947,4249.743486
52,0,4221.538358,4226.666563,4186.666564,4218.974256,4262.051178,4244.615281,4230.769127,4218.461435,4213.33323,4208.205025,4216.410153,4221.538358,4248.205024,4242.051178
53,0,4207.692205,4205.640923,4180.512718,4199.999897,4244.615281,4230.256307,4227.179384,4215.384512,4212.82041,4199.999897,4206.666564,4204.102461,4233.84605,4227.179384
54,0,4192.82041,4191.281949,4167.692206,4192.82041,4254.871691,4221.025538,4229.743486,4215.897333,4213.846051,4198.461436,4198.461436,4195.384513,4224.615281,4211.794769
55,0,4191.281949,4208.717846,4170.256308,4201.025538,4264.10246,4238.974255,4236.410153,4227.692204,4220.512717,4219.487076,4202.051179,4204.615282,4230.256307,4205.128102
56,0,4191.794769,4218.974256,4176.410154,4193.846051,4250.769127,4239.999896,4224.102461,4228.717845,4222.563999,4223.07682,4200.512718,4205.640923,4223.07682,4201.025538
57,0,4183.589641,4196.922974,4166.666565,4184.615282,4244.10246,4212.307589,4212.307589,4210.769128,4213.846051,4212.307589,4198.461436,4202.051179,4209.743487,4194.358872
58,0,4187.692205,4196.410154,4172.30759,4198.461436,4246.666563,4220.512717,4227.179384,4215.897333,4221.025538,4222.563999,4213.33323,4219.487076,4223.58964,4205.128102
59,0,4193.846051,4218.461435,4191.794769,4212.307589,4246.153742,4246.666563,4236.410153,4231.794768,4234.871691,4229.743486,4219.999897,4228.717845,4234.871691,4217.435794
60,0,4178.461436,4210.769128,4186.666564,4201.538359,4248.717845,4233.84605,4223.58964,4221.538358,4221.538358,4215.897333,4204.102461,4210.769128,4217.435794,4206.153743
61,0,4162.05118,4184.615282,4167.179385,4183.076821,4249.743486,4214.358871,4217.435794,4209.743487,4206.666564,4198.974256,4191.281949,4197.435795,4200.512718,4185.128103
62,0,4162.564001,4182.05118,4167.179385,4181.538359,4244.615281,4229.230666,4225.640922,4216.922974,4223.07682,4196.410154,4197.435795,4202.051179,4201.538359,4182.564
63,0,4159.487078,4188.205026,4173.333231,4193.333231,4249.743486,4244.615281,4233.33323,4223.58964,4238.461435,4212.307589,4202.564,4202.564,4203.589641,4186.153744
64,0,4147.692206,4184.615282,4164.615283,4191.794769,4267.179383,4230.769127,4229.230666,4218.461435,4223.58964,4227.179384,4196.922974,4193.333231,4196.410154,4179.487077
65,0,4146.153745,4183.076821,4158.974257,4181.538359,4267.692203,4215.384512,4221.025538,4215.384512,4212.82041,4222.051179,4196.410154,4187.179385,4196.922974,4176.410154
66,0,4154.358873,4184.615282,4166.666565,4183.589641,4246.153742,4225.128102,4226.153743,4219.999897,4218.461435,4213.846051,4197.948615,4187.692205,4201.538359,4176.410154
67,0,4158.461437,4183.589641,4171.281949,4183.076821,4235.384512,4247.179383,4235.384512,4223.07682,4218.974256,4212.307589,4193.846051,4187.179385,4199.999897,4173.846052
68,0,4158.461437,4183.076821,4163.076821,4179.487077,4241.538358,4242.563999,4228.717845,4217.948615,4211.281948,4197.948615,4185.128103,4184.102462,4197.435795,4168.205026
69,0,4159.487078,4184.615282,4155.897334,4191.281949,4250.256306,4228.205025,4223.07682,4213.846051,4214.358871,4189.230667,4185.128103,4188.205026,4196.922974,4167.692206
70,0,4162.564001,4185.640923,4159.487078,4198.461436,4255.384511,4239.999896,4231.281948,4226.153743,4227.179384,4218.461435,4194.358872,4196.410154,4199.487077,4177.435795
71,0,4164.102462,4184.615282,4160.512719,4187.179385,4250.769127,4242.563999,4235.384512,4233.84605,4225.128102,4242.051178,4192.82041,4192.82041,4200.512718,4183.589641
72,0,4158.974257,4183.589641,4156.922975,4181.025539,4243.076819,4227.692204,4227.179384,4220.512717,4215.384512,4226.666563,4185.640923,4185.640923,4198.974256,4182.05118
73,0,4157.948616,4181.538359,4152.307591,4184.102462,4245.640922,4227.692204,4222.051179,4212.82041,4215.384512,4209.743487,4189.230667,4183.076821,4197.435795,4179.999898
74,0,4168.205026,4186.666564,4151.79477,4183.589641,4248.205024,4235.897332,4224.615281,4222.563999,4218.461435,4214.871692,4194.871692,4178.461436,4204.102461,4188.717846
75,0,4187.179385,4203.589641,4162.564001,4191.794769,4244.10246,4236.922973,4230.256307,4232.307589,4223.58964,4224.615281,4204.102461,4185.640923,4222.051179,4210.256307
76,0,4203.07682,4213.33323,4173.846052,4201.025538,4246.666563,4229.743486,4226.666563,4230.256307,4226.666563,4219.487076,4214.358871,4199.487077,4231.794768,4229.743486
77,0,4219.999897,4214.871692,4176.922975,4201.538359,4248.717845,4216.922974,4216.922974,4222.051179,4222.051179,4203.07682,4215.384512,4201.025538,4231.794768,4242.563999
78,0,4242.563999,4225.640922,4186.666564,4205.640923,4245.128101,4213.33323,4220.512717,4217.435794,4213.33323,4202.564,4216.922974,4208.205025,4244.615281,4263.589639
79,0,4258.974255,4237.948614,4202.564,4213.33323,4247.179383,4226.153743,4227.692204,4217.948615,4213.846051,4225.128102,4231.794768,4228.205025,4265.640921,4287.179382
80,0,4263.076819,4237.948614,4204.615282,4219.487076,4246.153742,4236.922973,4220.512717,4217.948615,4218.974256,4234.358871,4238.974255,4235.384512,4269.743485,4290.256305
81,0,4258.974255,4234.358871,4194.871692,4213.33323,4228.205025,4227.179384,4212.307589,4211.281948,4216.410153,4220.512717,4228.205025,4223.07682,4261.025537,4281.025536
82,0,4254.871691,4233.33323,4192.30759,4200.512718,4226.153743,4219.487076,4215.384512,4206.666564,4213.33323,4207.692205,4224.102461,4219.999897,4261.025537,4280.512716
83,0,4251.794768,4230.256307,4193.846051,4201.538359,4244.615281,4219.487076,4216.410153,4204.615282,4213.846051,4198.974256,4228.717845,4226.666563,4261.538357,4280.512716
84,0,4249.743486,4230.769127,4191.281949,4215.384512,4244.10246,4222.563999,4214.871692,4209.230666,4214.871692,4204.102461,4234.871691,4230.769127,4264.10246,4283.589639
85,0,4246.666563,4233.84605,4189.743487,4214.871692,4232.820409,4231.794768,4221.538358,4226.666563,4223.58964,4228.205025,4238.974255,4229.743486,4266.153742,4280.512716
86,0,4236.410153,4224.615281,4185.640923,4192.82041,4230.769127,4226.666563,4224.615281,4232.307589,4229.230666,4234.358871,4230.256307,4217.948615,4253.333229,4256.410152
87,0,4225.640922,4212.82041,4181.025539,4193.333231,4231.794768,4217.948615,4224.102461,4226.666563,4227.179384,4222.563999,4224.102461,4209.230666,4239.999896,4245.128101
88,0,4227.692204,4221.025538,4189.743487,4219.487076,4241.025537,4236.922973,4235.897332,4238.974255,4238.974255,4229.743486,4236.922973,4222.051179,4246.666563,4264.10246
89,0,4232.307589,4232.307589,4200.512718,4221.025538,4255.897332,4262.051178,4247.179383,4256.410152,4257.948614,4264.61528,4252.307588,4241.538358,4264.10246,4271.281947
90,0,4222.563999,4211.794769,4189.230667,4196.922974,4250.256306,4246.153742,4239.487076,4241.538358,4253.333229,4282.051177,4249.230665,4236.410153,4262.563998,4251.281947
91,0,4209.743487,4195.384513,4177.435795,4191.794769,4245.128101,4223.07682,4226.666563,4226.153743,4242.563999,4266.153742,4238.461435,4226.666563,4248.717845,4242.563999
92,0,4213.33323,4214.871692,4191.794769,4206.153743,4259.999896,4243.076819,4232.820409,4244.615281,4249.230665,4258.974255,4239.487076,4232.307589,4245.640922,4247.692204
93,0,4212.307589,4225.128102,4194.358872,4208.205025,4265.128101,4257.948614,4239.999896,4246.153742,4243.076819,4259.487075,4234.871691,4225.640922,4237.435794,4235.897332
94,0,4189.743487,4200.512718,4166.153744,4195.384513,4249.230665,4226.153743,4224.615281,4216.922974,4220.512717,4234.358871,4211.794769,4200.512718,4211.794769,4208.205025
95,0,4170.769129,4181.025539,4150.256309,4179.487077,4236.410153,4197.948615,4205.128102,4202.564,4215.897333,4213.846051,4198.974256,4190.256308,4200.512718,4193.846051
96,0,4176.922975,4186.666564,4165.128103,4185.128103,4238.974255,4226.666563,4211.281948,4216.410153,4230.769127,4233.33323,4211.794769,4199.999897,4214.358871,4201.025538
97,0,4185.128103,4201.025538,4179.999898,4201.025538,4249.230665,4258.461434,4230.769127,4229.230666,4237.948614,4257.435793,4225.128102,4206.666564,4223.07682,4207.179384
98,0,4173.846052,4205.128102,4176.922975,4194.358872,4251.794768,4241.025537,4232.820409,4230.256307,4233.84605,4248.717845,4219.999897,4202.051179,4215.897333,4201.025538
99,0,4161.025539,4188.205026,4167.692206,4180.512718,4238.461435,4212.307589,4219.487076,4226.666563,4230.769127,4224.102461,4210.769128,4197.435795,4202.051179,4189.230667
100,0,4163.076821,4184.615282,4168.205026,4185.128103,4233.33323,4222.051179,4218.974256,4226.666563,4231.281948,4218.461435,4209.230666,4200.512718,4198.461436,4185.128103
101,0,4168.717847,4201.025538,4179.487077,4190.256308,4247.179383,4250.769127,4231.794768,4233.33323,4236.922973,4232.307589,4216.410153,4207.692205,4208.717846,4189.743487
102,0,4163.076821,4195.384513,4179.999898,4186.666564,4247.692204,4241.538358,4233.33323,4231.794768,4235.384512,4236.410153,4219.487076,4203.07682,4208.717846,4188.205026
103,0,4157.948616,4184.615282,4169.743488,4191.794769,4245.128101,4226.666563,4228.205025,4228.717845,4231.281948,4226.666563,4210.769128,4193.846051,4198.461436,4178.461436
104,0,4165.128103,4198.461436,4172.30759,4205.128102,4261.538357,4256.922973,4235.384512,4238.461435,4239.487076,4234.358871,4213.846051,4201.538359,4202.564,4183.076821
105,0,4165.640924,4201.538359,4174.871693,4201.025538,4263.076819,4260.512716,4236.922973,4240.512717,4242.051178,4242.563999,4214.871692,4204.102461,4205.128102,4188.205026
106,0,4154.358873,4183.589641,4165.640924,4187.179385,4244.615281,4217.948615,4229.743486,4226.666563,4229.230666,4234.358871,4204.102461,4186.153744,4196.410154,4173.333231
107,0,4155.384514,4184.102462,4163.589642,4192.30759,4248.205024,4220.512717,4231.281948,4228.205025,4229.230666,4236.410153,4208.717846,4183.589641,4196.410154,4170.256308
108,0,4163.589642,4193.846051,4171.79477,4199.487077,4252.820409,4249.743486,4235.384512,4243.076819,4244.10246,4241.025537,4215.384512,4197.435795,4202.564,4183.589641
109,0,4163.076821,4196.922974,4178.461436,4193.846051,4242.563999,4248.205024,4234.358871,4239.487076,4248.717845,4239.487076,4211.281948,4200.512718,4206.666564,4188.205026
110,0,4168.205026,4206.666564,4187.179385,4197.948615,4249.230665,4251.794768,4233.33323,4234.358871,4246.666563,4246.153742,4213.846051,4206.666564,4214.871692,4193.333231
111,0,4180.512718,4210.256307,4193.333231,4206.666564,4259.487075,4259.999896,4232.820409,4244.10246,4253.84605,4253.84605,4224.102461,4219.999897,4222.563999,4206.666564
112,0,4174.871693,4199.487077,4183.589641,4201.025538,4247.692204,4234.871691,4226.666563,4238.461435,4251.794768,4246.666563,4218.974256,4216.410153,4218.974256,4201.538359
113,0,4166.153744,4191.794769,4172.820411,4192.30759,4238.461435,4218.461435,4226.153743,4228.205025,4233.84605,4244.615281,4216.410153,4208.205025,4214.358871,4189.230667
114,0,4177.435795,4202.564,4183.076821,4198.974256,4245.640922,4248.717845,4233.84605,4240.512717,4235.897332,4248.717845,4228.717845,4222.051179,4218.461435,4196.410154
115,0,4179.999898,4205.128102,4193.846051,4206.153743,4255.384511,4262.563998,4232.820409,4245.640922,4251.794768,4236.410153,4225.128102,4230.256307,4219.999897,4203.07682
116,0,4162.05118,4186.666564,4185.128103,4194.871692,4247.692204,4224.615281,4221.538358,4228.205025,4237.948614,4232.820409,4214.358871,4216.410153,4214.358871,4196.410154
117,0,4162.564001,4185.640923,4181.538359,4185.640923,4229.743486,4214.871692,4223.58964,4231.794768,4234.358871,4244.10246,4223.07682,4210.769128,4215.897333,4196.922974
118,0,4175.384513,4204.615282,4190.769128,4198.461436,4233.33323,4254.871691,4237.948614,4253.333229,4259.999896,4250.769127,4234.871691,4219.999897,4221.538358,4205.640923
119,0,4168.717847,4206.666564,4187.179385,4207.692205,4252.307588,4255.384511,4232.820409,4249.743486,4258.974255,4251.281947,4223.58964,4219.999897,4215.897333,4199.487077
120,0,4158.461437,4192.82041,4179.999898,4200.512718,4251.281947,4224.102461,4219.487076,4233.33323,4238.461435,4244.10246,4211.794769,4211.281948,4210.769128,4186.153744
121,0,4168.717847,4199.487077,4187.179385,4199.487077,4244.10246,4235.897332,4225.128102,4238.974255,4244.10246,4235.384512,4217.435794,4213.33323,4215.384512,4186.153744
122,0,4174.358872,4209.230666,4191.794769,4207.179384,4248.205024,4253.84605,4233.84605,4245.640922,4249.743486,4231.281948,4217.435794,4216.410153,4215.384512,4187.692205
123,0,4164.615283,4199.999897,4186.153744,4204.102461,4249.230665,4232.307589,4229.743486,4236.410153,4241.538358,4229.743486,4214.358871,4212.82041,4211.281948,4185.640923
124,0,4161.53836,4194.871692,4192.82041,4186.153744,4247.692204,4228.717845,4229.743486,4234.358871,4244.615281,4237.948614,4220.512717,4214.871692,4218.461435,4190.256308
125,0,4164.102462,4199.487077,4201.025538,4180.512718,4244.615281,4255.897332,4236.922973,4243.076819,4247.692204,4249.230665,4218.974256,4217.435794,4218.461435,4191.794769
126,0,4157.948616,4200.512718,4187.692205,4202.051179,4240.512717,4258.461434,4236.410153,4239.487076,4236.922973,4239.487076,4206.153743,4206.666564,4203.589641,4184.102462
127,0,4154.358873,4201.025538,4176.922975,4218.974256,4243.58964,4242.563999,4236.410153,4231.794768,4230.769127,4227.692204,4204.615282,4195.384513,4203.07682,4183.076821
128,0,4165.128103,4202.564,4186.153744,4208.717846,4245.640922,4242.563999,4238.974255,4233.33323,4233.33323,4229.230666,4212.307589,4197.948615,4214.358871,4190.769128
0,0,4172.820411,4199.487077,4191.794769,4191.281949,4247.692204,4255.897332,4234.871691,4235.384512,4237.435794,4223.07682,4210.256307,4207.179384,4216.410153,4193.333231
0,0,4172.820411,4199.487077,4191.794769,4191.281949,4247.692204,4255.897332,4234.871691,4235.384512,4237.435794,4223.07682,4210.256307,4207.179384,4216.410153,4193.333231
1,0,4165.128103,4197.435795,4187.692205,4191.281949,4248.205024,4247.692204,4229.743486,4234.358871,4233.33323,4220.512717,4203.589641,4207.692205,4213.33323,4192.82041
2,0,4162.05118,4200.512718,4194.358872,4208.717846,4236.922973,4229.743486,4230.256307,4234.358871,4229.743486,4238.461435,4208.205025,4204.615282,4213.33323,4197.435795
3,0,4181.025539,4204.102461,4204.102461,4226.153743,4239.999896,4238.974255,4234.871691,4239.487076,4241.538358,4253.333229,4217.435794,4209.743487,4215.897333,4199.487077
4,0,4193.846051,4204.102461,4202.564,4214.358871,4263.076819,4248.717845,4232.820409,4238.461435,4247.692204,4239.487076,4217.948615,4212.307589,4216.922974,4189.743487
5,0,4182.564,4198.974256,4198.461436,4190.256308,4256.922973,4244.10246,4228.717845,4232.307589,4232.307589,4214.358871,4213.33323,4211.281948,4211.281948,4188.205026
6,0,4176.922975,4202.051179,4200.512718,4202.051179,4229.743486,4251.281947,4233.84605,4232.307589,4227.179384,4215.897333,4214.358871,4211.281948,4209.230666,4202.051179
7,0,4179.999898,4210.769128,4200.512718,4217.948615,4228.205025,4254.35887,4235.384512,4235.384512,4241.538358,4234.871691,4215.384512,4206.153743,4215.897333,4200.512718
8,0,4175.897334,4203.589641,4196.922974,4203.07682,4242.051178,4237.948614,4227.179384,4231.794768,4238.974255,4234.358871,4210.769128,4201.538359,4211.794769,4191.794769
9,0,4172.30759,4193.846051,4199.999897,4194.871692,4246.666563,4244.10246,4230.769127,4231.281948,4230.256307,4230.769127,4208.717846,4212.307589,4205.128102,4193.846051
10,0,4176.410154,4206.666564,4202.564,4215.897333,4246.153742,4256.410152,4239.487076,4236.410153,4236.410153,4229.230666,4213.33323,4221.025538,4213.33323,4197.948615
11,0,4179.999898,4219.999897,4194.358872,4226.666563,4249.743486,4229.743486,4227.179384,4230.769127,4230.256307,4208.717846,4215.897333,4211.794769,4217.435794,4194.871692
12,0,4178.461436,4212.82041,4195.384513,4211.794769,4255.384511,4225.640922,4222.051179,4227.179384,4226.153743,4210.769128,4214.358871,4214.358871,4212.307589,4196.410154
13,0,4178.974257,4210.256307,4211.281948,4205.640923,4255.384511,4262.051178,4235.897332,4239.999896,4243.58964,4247.179383,4219.999897,4229.230666,4219.999897,4213.33323
14,0,4191.794769,4222.051179,4213.33323,4216.410153,4251.794768,4270.256306,4238.461435,4251.281947,4254.35887,4259.999896,4232.820409,4233.84605,4235.384512,4227.692204
15,0,4201.025538,4228.205025,4201.538359,4223.07682,4244.10246,4251.794768,4230.256307,4248.205024,4250.256306,4251.794768,4235.384512,4234.358871,4236.922973,4224.615281
16,0,4190.256308,4216.410153,4201.025538,4217.435794,4235.897332,4238.461435,4231.794768,4241.025537,4242.051178,4241.025537,4223.07682,4234.871691,4221.025538,4210.769128
17,0,4172.820411,4202.564,4200.512718,4212.82041,4242.051178,4229.230666,4230.769127,4235.897332,4231.281948,4215.384512,4211.281948,4219.999897,4205.640923,4199.487077
18,0,4173.333231,4206.153743,4193.333231,4212.307589,4253.84605,4238.974255,4229.743486,4237.948614,4232.820409,4212.307589,4211.281948,4207.692205,4208.205025,4196.922974
19,0,4190.769128,4218.974256,4198.974256,4204.615282,4249.743486,4264.10246,4239.999896,4249.743486,4253.333229,4251.794768,4224.102461,4224.102461,4225.128102,4208.205025
20,0,4195.897333,4213.846051,4206.153743,4205.640923,4241.538358,4257.948614,4239.487076,4253.333229,4253.84605,4261.025537,4231.281948,4234.871691,4229.230666,4213.33323
21,0,4183.589641,4207.692205,4199.487077,4213.846051,4244.615281,4237.948614,4227.179384,4246.153742,4233.84605,4235.384512,4221.025538,4220.512717,4220.512717,4200.512718
22,0,4186.153744,4217.948615,4199.999897,4214.358871,4247.179383,4241.538358,4225.128102,4241.538358,4234.871691,4230.256307,4213.846051,4214.358871,4225.640922,4204.615282
23,0,4195.897333,4215.897333,4202.051179,4212.82041,4248.717845,4258.461434,4233.84605,4244.10246,4249.230665,4231.281948,4225.128102,4220.512717,4235.897332,4214.871692
24,0,4185.640923,4203.07682,4189.743487,4218.461435,4247.179383,4265.128101,4236.410153,4247.692204,4250.769127,4234.871691,4234.871691,4221.538358,4231.281948,4206.666564
25,0,4173.846052,4208.205025,4180.512718,4211.794769,4227.692204,4234.871691,4222.051179,4239.999896,4238.974255,4243.076819,4226.666563,4217.435794,4223.58964,4201.538359
26,0,4173.846052,4203.07682,4186.153744,4186.666564,4209.743487,4206.666564,4213.33323,4229.230666,4228.205025,4237.948614,4217.435794,4210.769128,4225.640922,4207.692205
27,0,4172.820411,4182.564,4184.615282,4183.589641,4228.205025,4236.922973,4227.692204,4231.794768,4230.769127,4241.025537,4220.512717,4206.153743,4229.230666,4201.025538
28,0,4176.410154,4189.743487,4178.974257,4206.153743,4251.794768,4259.487075,4233.33323,4235.897332,4241.538358,4247.692204,4219.999897,4211.794769,4226.666563,4197.948615
29,0,4187.692205,4212.82041,4189.230667,4224.102461,4237.948614,4227.692204,4222.563999,4232.820409,4239.487076,4237.948614,4216.410153,4217.435794,4229.743486,4209.230666
30,0,4196.410154,4226.153743,4204.102461,4228.717845,4226.666563,4226.153743,4223.58964,4233.33323,4230.256307,4240.512717,4225.128102,4221.538358,4240.512717,4214.871692
31,0,4196.410154,4231.794768,4203.589641,4227.692204,4243.076819,4261.538357,4230.256307,4233.84605,4232.307589,4240.512717,4227.179384,4223.07682,4240.512717,4211.794769
32,0,4190.769128,4227.692204,4194.358872,4227.179384,4253.333229,4263.589639,4228.205025,4229.230666,4231.794768,4215.384512,4216.922974,4214.871692,4232.307589,4213.33323
33,0,4190.256308,4216.410153,4193.846051,4213.33323,4235.384512,4230.769127,4223.07682,4226.666563,4223.07682,4221.025538,4215.897333,4206.666564,4230.769127,4215.384512
34,0,4190.769128,4210.769128,4199.999897,4196.410154,4212.82041,4209.230666,4219.999897,4225.640922,4215.384512,4237.435794,4219.487076,4211.281948,4229.743486,4214.871692
35,0,4191.281949,4218.461435,4204.102461,4211.281948,4219.999897,4231.281948,4226.666563,4230.769127,4222.051179,4212.307589,4217.948615,4218.974256,4232.820409,4217.435794
36,0,4195.897333,4218.461435,4204.102461,4230.769127,4249.743486,4266.666562,4234.358871,4240.512717,4238.461435,4216.922974,4221.538358,4219.999897,4242.563999,4217.435794
37,0,4198.974256,4214.871692,4202.051179,4226.153743,4258.974255,4274.87169,4233.33323,4245.128101,4247.692204,4259.487075,4229.230666,4222.563999,4249.743486,4215.384512
38,0,4197.948615,4228.205025,4202.564,4227.692204,4253.333229,4261.025537,4232.307589,4245.128101,4246.666563,4259.999896,4233.84605,4228.205025,4255.897332,4218.974256
39,0,4197.435795,4228.717845,4205.640923,4228.205025,4248.717845,4242.051178,4228.717845,4237.948614,4235.384512,4238.974255,4237.435794,4226.666563,4257.948614,4221.538358
40,0,4194.871692,4201.538359,4202.051179,4211.281948,4236.922973,4231.794768,4219.999897,4221.538358,4218.461435,4226.666563,4228.205025,4210.769128,4245.640922,4215.897333
41,0,4194.871692,4204.102461,4198.974256,4216.410153,4228.205025,4244.615281,4225.640922,4218.974256,4222.563999,4222.051179,4215.384512,4205.640923,4241.538358,4221.538358
42,0,4199.487077,4234.358871,4207.692205,4227.179384,4229.743486,4248.717845,4233.33323,4231.281948,4234.358871,4235.384512,4221.538358,4220.512717,4251.794768,4230.256307
43,0,4193.846051,4223.07682,4205.128102,4216.410153,4227.692204,4224.102461,4227.179384,4231.794768,4221.538358,4235.897332,4228.717845,4217.948615,4247.179383,4220.512717
44,0,4187.692205,4208.717846,4197.948615,4224.615281,4231.281948,4228.717845,4224.615281,4226.666563,4219.999897,4216.410153,4221.538358,4204.102461,4239.487076,4213.33323
45,0,4195.384513,4233.33323,4207.692205,4238.974255,4236.922973,4258.461434,4233.33323,4233.33323,4234.871691,4219.999897,4215.897333,4213.33323,4243.58964,4221.025538
46,0,4196.410154,4230.769127,4204.615282,4230.256307,4231.281948,4252.820409,4236.410153,4234.871691,4218.461435,4222.051179,4214.871692,4217.435794,4236.410153,4215.384512
47,0,4192.30759,4209.230666,4196.410154,4234.358871,4231.281948,4237.435794,4227.692204,4229.230666,4203.589641,4200.512718,4214.358871,4210.256307,4227.692204,4210.256307
48,0,4206.153743,4217.948615,4209.230666,4247.179383,4235.384512,4244.615281,4226.666563,4233.33323,4228.205025,4216.922974,4219.999897,4217.948615,4235.384512,4225.128102
49,0,4231.794768,4226.153743,4206.666564,4234.871691,4219.487076,4253.333229,4229.743486,4235.384512,4235.897332,4249.743486,4222.051179,4217.948615,4238.974255,4221.538358
50,0,4249.230665,4211.794769,4184.102462,4218.974256,4210.769128,4243.58964,4222.563999,4223.07682,4212.82041,4234.358871,4209.743487,4206.153743,4229.230666,4204.615282
51,0,4252.820409,4210.769128,4192.30759,4228.205025,4224.102461,4232.820409,4221.025538,4217.948615,4209.230666,4213.33323,4209.743487,4208.717846,4228.717845,4214.358871
52,0,4242.051178,4216.922974,4203.589641,4231.794768,4222.563999,4232.307589,4226.666563,4222.563999,4218.974256,4215.897333,4215.897333,4218.974256,4237.948614,4226.153743
53,0,4219.999897,4199.487077,4187.692205,4209.743487,4211.794769,4228.717845,4216.922974,4219.487076,4213.846051,4214.358871,4204.102461,4222.051179,4236.922973,4214.358871
54,0,4203.589641,4185.640923,4185.640923,4203.589641,4217.948615,4230.769127,4211.794769,4222.051179,4217.948615,4223.58964,4211.281948,4227.179384,4243.076819,4214.871692
55,0,4205.128102,4203.07682,4201.025538,4225.640922,4224.102461,4245.128101,4226.666563,4233.84605,4234.358871,4244.615281,4244.615281,4231.794768,4259.999896,4232.307589
56,0,4209.230666,4220.512717,4204.615282,4238.461435,4223.07682,4251.794768,4228.717845,4232.820409,4233.33323,4242.051178,4250.256306,4234.358871,4257.948614,4237.948614
57,0,4201.025538,4206.666564,4197.948615,4233.33323,4219.487076,4233.84605,4217.948615,4227.692204,4223.07682,4229.230666,4225.640922,4234.358871,4247.179383,4234.358871
58,0,4197.948615,4195.384513,4198.461436,4226.153743,4202.564,4223.58964,4221.025538,4230.769127,4225.128102,4227.692204,4220.512717,4231.281948,4255.384511,4232.820409
59,0,4201.538359,4211.794769,4203.07682,4225.128102,4195.384513,4242.563999,4229.743486,4230.256307,4229.743486,4229.230666,4234.871691,4238.974255,4267.179383,4231.794768
60,0,4199.999897,4220.512717,4203.07682,4232.307589,4226.666563,4259.999896,4232.820409,4231.281948,4229.743486,4239.999896,4234.871691,4247.692204,4264.61528,4232.307589
61,0,4194.358872,4204.615282,4198.974256,4224.102461,4238.461435,4239.487076,4227.692204,4233.84605,4225.640922,4249.743486,4221.025538,4229.230666,4254.871691,4228.717845
62,0,4187.179385,4191.794769,4197.948615,4201.025538,4205.128102,4206.153743,4220.512717,4228.717845,4220.512717,4235.384512,4210.769128,4207.179384,4244.615281,4214.358871
63,0,4191.281949,4208.717846,4203.07682,4220.512717,4198.461436,4223.07682,4226.666563,4229.230666,4226.153743,4229.230666,4222.563999,4221.025538,4248.205024,4211.794769
64,0,4204.102461,4230.256307,4200.512718,4252.307588,4226.666563,4257.948614,4233.33323,4237.948614,4233.33323,4241.538358,4233.84605,4234.871691,4263.076819,4223.58964
65,0,4206.666564,4224.102461,4196.410154,4237.948614,4234.358871,4252.307588,4223.58964,4232.820409,4231.281948,4239.999896,4223.58964,4221.538358,4263.589639,4222.051179
66,0,4204.615282,4212.82041,4209.230666,4223.58964,4216.410153,4239.999896,4217.948615,4219.999897,4229.230666,4238.461435,4213.33323,4222.051179,4261.025537,4213.33323
67,0,4209.743487,4212.82041,4216.922974,4235.384512,4207.179384,4234.871691,4219.487076,4214.871692,4221.025538,4243.58964,4214.358871,4233.84605,4264.61528,4213.846051
68,0,4208.717846,4210.769128,4208.205025,4236.922973,4210.256307,4220.512717,4215.384512,4215.897333,4211.281948,4230.769127,4217.435794,4229.230666,4263.076819,4222.563999
69,0,4203.589641,4209.743487,4205.640923,4230.769127,4216.922974,4230.769127,4218.461435,4225.128102,4219.999897,4224.102461,4221.538358,4227.692204,4267.692203,4230.256307
70,0,4206.153743,4214.871692,4212.307589,4232.820409,4222.051179,4252.307588,4229.743486,4230.769127,4231.794768,4242.051178,4223.07682,4234.358871,4277.948613,4225.128102
71,0,4206.666564,4216.410153,4217.948615,4230.769127,4216.922974,4242.563999,4232.307589,4224.615281,4231.794768,4248.205024,4218.974256,4228.205025,4282.563998,4214.871692
72,0,4197.435795,4218.461435,4215.897333,4227.692204,4210.769128,4235.897332,4229.743486,4223.58964,4229.743486,4241.025537,4213.846051,4219.999897,4277.435793,4218.974256
73,0,4188.717846,4209.743487,4202.051179,4231.281948,4214.358871,4238.974255,4227.692204,4225.640922,4224.615281,4239.487076,4207.179384,4218.461435,4267.179383,4223.07682
74,0,4190.769128,4198.461436,4194.358872,4237.435794,4223.58964,4228.205025,4224.615281,4220.512717,4215.897333,4237.948614,4206.153743,4215.897333,4264.61528,4214.358871
75,0,4199.999897,4211.794769,4205.128102,4232.820409,4215.897333,4234.871691,4226.153743,4219.487076,4215.384512,4235.897332,4213.33323,4216.922974,4276.922972,4215.897333
76,0,4194.871692,4226.153743,4208.205025,4220.512717,4196.922974,4246.666563,4227.179384,4222.051179,4219.999897,4228.205025,4214.871692,4217.435794,4285.1281,4222.563999
77,0,4186.666564,4213.846051,4200.512718,4221.538358,4202.564,4234.871691,4223.58964,4218.461435,4219.487076,4219.999897,4212.307589,4212.82041,4281.025536,4214.871692
78,0,4194.358872,4208.205025,4199.487077,4236.410153,4221.025538,4229.743486,4222.563999,4217.948615,4216.922974,4234.871691,4216.410153,4216.922974,4278.974254,4214.358871
79,0,4201.025538,4212.82041,4197.948615,4237.435794,4223.07682,4227.179384,4221.025538,4219.999897,4214.358871,4247.179383,4208.205025,4222.051179,4277.435793,4228.205025
80,0,4197.435795,4213.846051,4203.589641,4211.281948,4212.82041,4221.538358,4221.025538,4222.051179,4218.974256,4230.769127,4205.640923,4218.974256,4278.974254,4234.358871
81,0,4201.538359,4223.07682,4216.410153,4205.128102,4212.307589,4251.281947,4232.307589,4233.84605,4235.897332,4237.435794,4224.615281,4225.128102,4293.333228,4233.84605
82,0,4205.128102,4230.769127,4208.205025,4239.487076,4219.487076,4274.35887,4238.461435,4232.820409,4238.974255,4258.974255,4228.717845,4237.435794,4297.948613,4235.897332
83,0,4201.025538,4218.974256,4194.871692,4255.897332,4218.974256,4246.666563,4226.666563,4216.922974,4224.102461,4235.897332,4211.281948,4231.281948,4281.025536,4228.717845
84,0,4201.538359,4209.230666,4207.179384,4235.897332,4216.410153,4233.84605,4218.461435,4219.487076,4220.512717,4226.666563,4212.82041,4226.153743,4276.922972,4218.974256
85,0,4205.640923,4215.897333,4219.487076,4225.640922,4216.410153,4247.692204,4224.102461,4228.205025,4227.179384,4255.384511,4225.128102,4236.410153,4292.307587,4218.974256
86,0,4201.025538,4215.897333,4202.051179,4229.743486,4207.179384,4223.07682,4219.487076,4216.410153,4215.384512,4247.692204,4207.692205,4230.769127,4289.230664,4217.435794
87,0,4203.07682,4212.307589,4196.410154,4227.179384,4202.564,4206.153743,4209.743487,4205.128102,4205.128102,4226.666563,4200.512718,4221.538358,4283.589639,4222.563999
88,0,4218.461435,4219.487076,4218.461435,4233.84605,4215.384512,4244.615281,4223.07682,4219.999897,4224.615281,4245.128101,4226.153743,4239.487076,4299.487074,4242.051178
89,0,4216.410153,4221.025538,4218.461435,4237.948614,4224.102461,4254.871691,4235.897332,4229.230666,4235.897332,4248.717845,4230.256307,4250.769127,4304.102459,4248.205024
90,0,4203.589641,4213.33323,4206.153743,4223.07682,4214.871692,4222.051179,4225.128102,4219.487076,4222.563999,4223.58964,4215.897333,4243.076819,4289.743485,4237.435794
91,0,4208.717846,4218.461435,4221.538358,4212.307589,4207.179384,4228.205025,4222.051179,4222.051179,4221.025538,4217.435794,4225.640922,4243.58964,4289.743485,4230.256307
92,0,4222.563999,4230.769127,4234.358871,4225.128102,4219.999897,4253.333229,4237.435794,4233.33323,4233.84605,4234.358871,4241.538358,4251.794768,4305.64092,4236.410153
93,0,4217.948615,4229.230666,4217.435794,4248.205024,4233.84605,4233.33323,4233.33323,4226.153743,4230.769127,4258.461434,4234.871691,4248.205024,4310.256305,4244.615281
94,0,4212.307589,4221.025538,4208.717846,4252.307588,4219.999897,4217.948615,4216.410153,4210.769128,4216.410153,4265.640921,4227.179384,4242.051178,4298.974254,4247.179383
95,0,4223.58964,4231.281948,4225.128102,4245.128101,4209.230666,4245.640922,4222.563999,4215.384512,4215.897333,4245.640922,4231.281948,4246.666563,4302.051177,4250.769127
96,0,4228.717845,4247.692204,4235.384512,4244.10246,4232.307589,4247.179383,4229.230666,4222.563999,4221.025538,4235.384512,4231.794768,4245.640922,4311.794766,4248.205024
97,0,4217.948615,4238.974255,4227.179384,4250.769127,4236.410153,4212.307589,4218.461435,4214.358871,4216.922974,4231.794768,4223.58964,4230.256307,4297.948613,4229.230666
98,0,4210.256307,4225.128102,4213.846051,4247.179383,4215.384512,4213.846051,4214.358871,4212.82041,4212.82041,4216.410153,4222.563999,4223.07682,4288.717844,4226.666563
99,0,4218.461435,4235.384512,4223.07682,4224.615281,4222.051179,4252.307588,4229.230666,4223.58964,4223.07682,4234.358871,4230.256307,4239.999896,4306.666561,4250.256306
100,0,4225.128102,4233.33323,4234.871691,4220.512717,4233.33323,4248.205024,4231.794768,4225.640922,4226.666563,4263.589639,4223.58964,4244.615281,4304.615279,4241.025537
101,0,4222.051179,4218.461435,4219.999897,4251.794768,4228.205025,4219.487076,4219.487076,4215.897333,4217.435794,4251.794768,4216.922974,4226.666563,4283.589639,4214.871692
102,0,4228.205025,4226.666563,4218.974256,4263.589639,4227.692204,4230.769127,4223.07682,4218.461435,4221.025538,4239.999896,4225.640922,4230.256307,4289.230664,4229.230666
103,0,4238.461435,4238.461435,4237.948614,4237.435794,4230.256307,4250.256306,4234.871691,4230.769127,4232.820409,4250.256306,4230.256307,4251.281947,4300.512715,4253.333229
104,0,4235.384512,4235.897332,4241.025537,4237.948614,4234.358871,4250.769127,4236.922973,4236.410153,4237.435794,4250.769127,4233.33323,4252.820409,4299.487074,4250.769127
105,0,4220.512717,4230.769127,4231.794768,4246.153742,4235.384512,4239.999896,4231.794768,4230.256307,4230.256307,4241.538358,4230.769127,4234.871691,4291.794767,4232.820409
106,0,4208.205025,4219.487076,4223.58964,4227.179384,4223.07682,4216.410153,4226.153743,4217.435794,4213.846051,4234.358871,4211.281948,4222.563999,4275.897331,4216.410153
107,0,4216.922974,4217.435794,4222.563999,4223.58964,4210.256307,4207.692205,4226.666563,4218.461435,4213.33323,4224.615281,4208.717846,4231.794768,4271.794767,4220.512717
108,0,4238.461435,4233.84605,4239.999896,4251.794768,4214.358871,4243.58964,4236.922973,4236.410153,4238.974255,4238.461435,4238.461435,4256.922973,4294.87169,4242.051178
109,0,4245.640922,4238.974255,4252.820409,4264.61528,4228.717845,4271.794767,4243.076819,4248.205024,4255.897332,4266.153742,4253.333229,4269.743485,4312.307587,4254.871691
110,0,4229.230666,4229.743486,4234.871691,4236.410153,4230.256307,4234.358871,4232.307589,4243.076819,4242.563999,4259.487075,4235.384512,4256.410152,4303.589638,4247.692204
111,0,4219.999897,4225.640922,4227.179384,4229.230666,4216.410153,4204.615282,4229.230666,4243.076819,4233.84605,4242.051178,4235.384512,4255.384511,4296.922972,4241.538358
112,0,4235.897332,4236.922973,4246.666563,4260.512716,4219.487076,4245.128101,4245.128101,4255.897332,4247.692204,4253.333229,4261.025537,4274.87169,4313.846048,4257.435793
113,0,4254.35887,4249.230665,4254.871691,4269.743485,4246.153742,4273.846049,4248.717845,4251.794768,4256.410152,4265.640921,4267.692203,4270.769126,4324.615279,4270.256306
114,0,4251.281947,4243.076819,4243.58964,4255.384511,4251.281947,4246.666563,4233.33323,4234.358871,4241.025537,4254.871691,4248.205024,4250.256306,4308.205023,4255.897332
115,0,4239.487076,4238.461435,4232.820409,4264.10246,4235.384512,4238.974255,4229.743486,4228.205025,4226.666563,4247.179383,4235.897332,4244.10246,4292.820408,4245.128101
116,0,4233.33323,4246.153742,4230.256307,4252.820409,4231.281948,4242.051178,4233.84605,4224.102461,4228.205025,4246.666563,4235.384512,4241.025537,4293.846049,4244.615281
117,0,4226.153743,4239.487076,4235.384512,4213.33323,4228.717845,4218.461435,4225.640922,4214.358871,4228.205025,4247.692204,4229.743486,4232.307589,4292.820408,4235.384512
118,0,4223.58964,4227.179384,4230.256307,4226.666563,4232.820409,4225.640922,4223.07682,4222.051179,4226.153743,4259.487075,4230.256307,4231.281948,4291.281946,4234.358871
119,0,4227.179384,4236.922973,4222.563999,4265.128101,4245.128101,4266.666562,4231.794768,4238.461435,4234.871691,4265.128101,4237.435794,4235.384512,4297.435792,4244.10246
120,0,4222.563999,4245.640922,4221.025538,4267.179383,4245.640922,4275.897331,4236.922973,4237.435794,4245.128101,4249.743486,4235.897332,4230.769127,4293.333228,4234.871691
121,0,4219.999897,4245.640922,4222.051179,4246.666563,4243.58964,4256.922973,4236.410153,4229.743486,4247.179383,4243.076819,4230.769127,4225.128102,4286.153741,4225.128102
122,0,4233.33323,4251.794768,4227.179384,4233.84605,4250.769127,4251.794768,4235.897332,4233.84605,4247.692204,4259.487075,4239.999896,4229.743486,4293.333228,4240.512717
123,0,4241.538358,4248.205024,4229.743486,4238.974255,4243.076819,4250.769127,4236.410153,4243.076819,4252.307588,4267.692203,4251.281947,4236.922973,4301.538356,4248.205024
124,0,4229.743486,4232.820409,4223.07682,4245.128101,4217.948615,4237.435794,4236.410153,4241.025537,4248.717845,4245.640922,4245.128101,4233.33323,4297.435792,4232.820409
125,0,4224.102461,4227.179384,4226.153743,4236.922973,4219.487076,4238.461435,4234.358871,4229.743486,4236.922973,4225.640922,4231.281948,4235.897332,4291.794767,4229.743486
126,0,4236.410153,4239.999896,4234.871691,4237.948614,4244.10246,4254.35887,4232.820409,4232.307589,4233.84605,4242.051178,4236.410153,4251.281947,4295.897331,4248.717845
127,0,4235.897332,4247.179383,4223.07682,4253.84605,4253.84605,4241.025537,4229.230666,4230.769127,4228.205025,4253.84605,4248.717845,4244.615281,4293.333228,4252.820409
128,0,4218.974256,4244.10246,4213.846051,4252.820409,4248.205024,4226.666563,4227.179384,4218.974256,4224.615281,4232.307589,4240.512717,4225.640922,4282.051177,4242.051178
0,0,4222.051179,4243.076819,4229.230666,4238.461435,4247.179383,4247.179383,4231.281948,4222.051179,4230.256307,4215.897333,4228.205025,4234.871691,4275.897331,4243.076819
1,0,4247.179383,4243.58964,4236.410153,4244.10246,4245.128101,4249.230665,4232.307589,4232.307589,4233.33323,4224.615281,4236.410153,4251.281947,4282.563998,4253.84605
2,0,4258.974255,4246.666563,4231.281948,4256.410152,4236.410153,4235.897332,4229.743486,4232.820409,4239.487076,4247.692204,4249.743486,4250.256306,4291.281946,4262.051178
3,0,4253.333229,4243.58964,4235.384512,4246.153742,4235.897332,4248.205024,4234.358871,4232.820409,4246.153742,4266.666562,4249.230665,4249.743486,4286.153741,4258.974255
4,0,4247.692204,4232.307589,4233.84605,4236.922973,4225.128102,4247.179383,4233.33323,4231.281948,4238.461435,4262.563998,4241.538358,4246.153742,4274.87169,4248.205024
5,0,4249.743486,4226.666563,4218.974256,4241.538358,4202.564,4221.538358,4224.102461,4224.615281,4227.692204,4241.025537,4236.410153,4235.384512,4273.333229,4244.615281
6,0,4247.692204,4231.281948,4219.487076,4233.33323,4202.564,4227.179384,4225.128102,4223.07682,4230.769127,4230.769127,4239.999896,4236.922973,4272.820408,4247.692204
7,0,4248.205024,4230.769127,4237.948614,4226.666563,4227.179384,4255.897332,4230.256307,4225.640922,4233.33323,4231.281948,4244.10246,4245.128101,4266.153742,4251.281947
8,0,4252.307588,4228.717845,4235.384512,4239.999896,4235.384512,4239.999896,4225.128102,4216.410153,4224.615281,4218.461435,4234.871691,4237.435794,4261.538357,4253.333229
9,0,4245.128101,4238.461435,4214.871692,4247.692204,4229.230666,4208.717846,4218.461435,4210.256307,4214.871692,4209.743487,4225.128102,4223.58964,4258.974255,4244.615281
10,0,4239.999896,4252.820409,4213.846051,4252.820409,4241.538358,4237.948614,4231.281948,4221.538358,4222.563999,4229.230666,4237.948614,4229.743486,4263.076819,4242.563999
11,0,4243.076819,4256.410152,4234.871691,4257.435793,4254.871691,4272.307588,4245.640922,4235.897332,4245.640922,4249.230665,4253.333229,4243.58964,4274.87169,4256.410152
12,0,4237.948614,4244.10246,4246.153742,4239.999896,4243.076819,4242.563999,4238.461435,4242.051178,4252.307588,4246.666563,4250.256306,4244.10246,4276.922972,4252.820409
13,0,4234.871691,4238.974255,4241.025537,4230.769127,4224.615281,4226.666563,4231.281948,4240.512717,4244.10246,4249.230665,4249.743486,4243.58964,4277.435793,4245.640922
14,0,4248.205024,4247.692204,4243.58964,4247.692204,4228.717845,4253.84605,4236.922973,4236.922973,4250.256306,4266.153742,4262.563998,4250.769127,4286.153741,4264.10246
15,0,4251.794768,4249.743486,4248.205024,4254.35887,4234.358871,4252.820409,4237.435794,4235.384512,4257.435793,4269.230665,4269.743485,4256.410152,4290.256305,4276.922972
16,0,4241.538358,4242.051178,4234.358871,4249.743486,4221.025538,4233.84605,4230.769127,4230.256307,4241.538358,4248.205024,4258.461434,4243.076819,4276.922972,4264.10246
17,0,4237.948614,4231.281948,4225.128102,4238.974255,4211.281948,4235.384512,4229.230666,4223.07682,4224.102461,4220.512717,4245.128101,4230.256307,4263.076819,4255.384511
18,0,4235.384512,4223.07682,4238.461435,4224.102461,4211.281948,4234.871691,4236.410153,4229.743486,4227.692204,4217.435794,4243.58964,4234.871691,4260.512716,4253.333229
19,0,4231.794768,4230.256307,4241.025537,4229.230666,4210.769128,4228.717845,4242.563999,4240.512717,4234.358871,4232.307589,4245.640922,4245.640922,4256.922973,4245.128101
20,0,4236.922973,4249.230665,4227.692204,4249.743486,4211.794769,4238.974255,4241.538358,4230.256307,4229.743486,4233.84605,4243.58964,4245.640922,4251.281947,4249.230665
21,0,4246.153742,4255.384511,4237.948614,4259.999896,4221.538358,4263.076819,4241.025537,4228.717845,4236.922973,4233.33323,4245.640922,4247.179383,4258.461434,4264.61528
22,0,4248.205024,4245.128101,4251.794768,4261.025537,4230.256307,4267.179383,4248.205024,4244.10246,4248.717845,4243.58964,4252.307588,4252.820409,4265.128101,4269.743485
23,0,4243.076819,4239.487076,4244.615281,4258.974255,4228.717845,4242.563999,4248.717845,4242.563999,4243.076819,4243.58964,4247.179383,4248.205024,4250.256306,4263.076819
24,0,4242.051178,4249.230665,4241.538358,4256.410152,4223.58964,4243.58964,4244.10246,4231.794768,4236.922973,4242.051178,4244.10246,4246.153742,4243.076819,4254.35887
25,0,4237.948614,4249.743486,4246.153742,4247.692204,4216.922974,4250.769127,4238.974255,4232.820409,4237.435794,4251.794768,4249.230665,4247.692204,4250.769127,4256.922973
26,0,4231.281948,4237.435794,4242.051178,4232.820409,4217.435794,4233.84605,4231.281948,4232.820409,4234.358871,4246.666563,4249.230665,4244.615281,4249.230665,4262.051178
27,0,4233.33323,4238.974255,4244.615281,4234.358871,4227.179384,4237.435794,4238.461435,4232.820409,4232.820409,4236.410153,4244.615281,4244.10246,4245.128101,4254.35887
28,0,4234.358871,4242.563999,4245.640922,4243.076819,4227.179384,4253.84605,4247.692204,4235.897332,4232.307589,4233.84605,4237.435794,4242.563999,4240.512717,4243.58964
29,0,4221.538358,4232.307589,4228.205025,4241.025537,4209.743487,4246.666563,4238.461435,4227.692204,4228.717845,4223.07682,4232.307589,4230.769127,4232.820409,4246.153742
30,0,4211.794769,4226.153743,4213.33323,4245.128101,4204.615282,4226.153743,4227.179384,4212.82041,4227.179384,4214.871692,4231.281948,4216.922974,4228.717845,4247.692204
31,0,4215.897333,4233.33323,4215.897333,4243.58964,4217.948615,4215.897333,4226.153743,4212.307589,4229.230666,4225.128102,4235.897332,4217.435794,4229.743486,4239.487076
32,0,4223.58964,4241.538358,4227.179384,4233.33323,4218.974256,4231.794768,4235.384512,4226.153743,4237.948614,4246.153742,4241.025537,4233.33323,4238.461435,4244.615281
33,0,4224.615281,4240.512717,4233.84605,4239.999896,4211.794769,4257.948614,4246.153742,4235.384512,4246.666563,4252.820409,4248.717845,4247.692204,4248.717845,4259.999896
34,0,4218.974256,4241.538358,4231.794768,4254.35887,4217.948615,4250.769127,4242.051178,4232.820409,4245.128101,4238.461435,4258.461434,4248.205024,4250.256306,4264.61528
35,0,4217.435794,4246.153742,4233.33323,4248.717845,4223.07682,4235.384512,4238.974255,4234.871691,4246.666563,4232.307589,4257.948614,4247.692204,4249.230665,4263.076819
36,0,4219.999897,4239.999896,4234.358871,4243.076819,4224.102461,4235.384512,4244.10246,4236.410153,4246.153742,4250.769127,4249.743486,4247.179383,4250.256306,4259.999896
37,0,4223.07682,4230.769127,4232.307589,4240.512717,4235.384512,4226.153743,4238.461435,4230.769127,4235.897332,4268.205024,4252.307588,4245.128101,4246.153742,4260.512716
38,0,4229.230666,4242.563999,4242.051178,4236.410153,4237.435794,4244.615281,4242.051178,4239.487076,4248.205024,4260.512716,4266.666562,4257.435793,4254.35887,4270.256306
39,0,4228.717845,4245.128101,4249.743486,4239.487076,4221.025538,4276.922972,4255.897332,4253.84605,4270.256306,4249.230665,4267.692203,4258.974255,4263.589639,4275.384511
40,0,4218.974256,4232.307589,4237.435794,4249.230665,4210.769128,4256.922973,4249.230665,4242.563999,4257.435793,4249.230665,4252.307588,4236.922973,4248.717845,4259.487075
41,0,4217.948615,4234.871691,4224.102461,4252.307588,4211.281948,4221.025538,4233.84605,4222.051179,4232.307589,4246.153742,4238.461435,4223.58964,4233.33323,4245.128101
42,0,4219.999897,4231.794768,4225.128102,4239.999896,4200.512718,4223.58964,4231.794768,4221.538358,4230.256307,4231.281948,4232.820409,4229.743486,4233.84605,4247.179383
43,0,4216.410153,4223.07682,4229.230666,4238.461435,4190.256308,4247.692204,4235.384512,4228.205025,4237.435794,4216.922974,4233.84605,4231.281948,4231.281948,4245.128101
44,0,4215.897333,4233.33323,4232.820409,4251.794768,4207.692205,4253.333229,4236.922973,4225.640922,4233.84605,4219.487076,4236.410153,4225.640922,4226.666563,4237.948614
45,0,4217.435794,4232.820409,4231.281948,4239.999896,4229.743486,4219.999897,4231.794768,4213.846051,4216.410153,4219.999897,4230.769127,4212.82041,4222.563999,4231.281948
46,0,4219.999897,4223.58964,4225.640922,4228.717845,4225.128102,4210.769128,4230.769127,4212.82041,4214.871692,4214.871692,4226.666563,4209.230666,4221.538358,4231.794768
47,0,4229.230666,4241.025537,4236.410153,4259.999896,4214.871692,4259.999896,4247.179383,4233.84605,4239.487076,4224.615281,4242.563999,4236.410153,4234.871691,4242.563999
48,0,4229.230666,4248.205024,4240.512717,4267.692203,4218.461435,4258.461434,4244.10246,4234.358871,4244.615281,4229.743486,4248.205024,4245.128101,4234.871691,4242.563999
49,0,4218.461435,4225.128102,4231.281948,4224.615281,4217.948615,4212.82041,4229.743486,4215.897333,4227.179384,4210.769128,4230.256307,4219.487076,4214.871692,4230.769127
50,0,4222.051179,4230.769127,4235.897332,4226.153743,4210.769128,4228.717845,4235.897332,4224.615281,4228.717845,4201.538359,4230.769127,4219.487076,4218.461435,4232.820409
51,0,4233.33323,4254.35887,4243.076819,4263.076819,4211.794769,4254.871691,4232.307589,4238.461435,4239.487076,4223.58964,4250.769127,4244.10246,4239.999896,4247.179383
52,0,4225.128102,4241.538358,4233.33323,4257.435793,4214.358871,4225.128102,4218.461435,4222.051179,4235.897332,4236.922973,4249.743486,4242.051178,4238.461435,4254.871691
53,0,4211.281948,4226.666563,4226.666563,4236.410153,4200.512718,4210.769128,4224.102461,4209.743487,4229.743486,4226.666563,4237.948614,4227.179384,4227.692204,4256.922973
54,0,4217.948615,4236.922973,4241.538358,4239.999896,4180.512718,4238.974255,4234.358871,4227.692204,4232.820409,4231.281948,4239.999896,4238.974255,4235.384512,4258.974255
55,0,4220.512717,4238.461435,4252.307588,4236.410153,4186.153744,4242.051178,4232.307589,4236.922973,4233.84605,4241.538358,4238.974255,4247.179383,4234.358871,4252.820409
56,0,4205.128102,4222.563999,4243.58964,4224.102461,4208.717846,4214.358871,4225.640922,4218.461435,4219.999897,4223.58964,4228.205025,4230.769127,4216.922974,4238.974255
57,0,4205.128102,4230.769127,4233.33323,4245.128101,4216.922974,4210.769128,4220.512717,4210.256307,4216.410153,4211.794769,4228.717845,4225.640922,4221.025538,4238.974255
58,0,4218.461435,4244.615281,4232.307589,4266.153742,4216.922974,4240.512717,4227.692204,4222.563999,4230.256307,4222.563999,4235.384512,4237.435794,4238.461435,4252.307588
59,0,4217.948615,4235.897332,4238.461435,4249.230665,4220.512717,4244.615281,4233.33323,4223.07682,4230.256307,4217.435794,4235.897332,4233.33323,4230.769127,4251.794768
60,0,4215.897333,4238.974255,4246.666563,4243.076819,4217.435794,4216.410153,4217.948615,4212.82041,4216.410153,4221.025538,4236.410153,4225.640922,4219.999897,4246.153742
61,0,4212.307589,4239.487076,4248.205024,4251.794768,4217.948615,4211.794769,4218.461435,4210.769128,4210.769128,4239.999896,4232.820409,4226.666563,4218.974256,4244.615281
62,0,4198.461436,4216.922974,4237.948614,4237.948614,4214.358871,4229.743486,4233.84605,4211.281948,4213.33323,4227.692204,4219.487076,4210.769128,4204.615282,4234.871691
63,0,4200.512718,4221.538358,4228.717845,4231.794768,4204.615282,4235.897332,4227.179384,4211.281948,4218.974256,4204.615282,4217.435794,4195.897333,4198.461436,4227.692204
64,0,4222.051179,4255.897332,4235.384512,4252.307588,4218.461435,4232.820409,4220.512717,4218.461435,4231.281948,4217.948615,4231.281948,4205.128102,4217.948615,4234.871691
65,0,4227.692204,4253.84605,4242.051178,4251.281947,4233.84605,4234.871691,4231.281948,4227.179384,4236.922973,4226.153743,4231.794768,4215.384512,4224.102461,4236.410153
66,0,4212.307589,4231.281948,4232.820409,4227.692204,4225.128102,4225.128102,4232.307589,4227.692204,4225.640922,4209.230666,4216.922974,4211.281948,4211.281948,4228.717845
67,0,4206.666564,4233.33323,4225.640922,4226.153743,4219.487076,4218.461435,4225.640922,4220.512717,4218.461435,4218.461435,4218.974256,4212.307589,4212.307589,4233.33323
68,0,4211.794769,4236.922973,4234.871691,4246.153742,4223.07682,4247.692204,4233.33323,4218.461435,4231.281948,4236.410153,4236.922973,4226.666563,4223.07682,4247.179383
69,0,4205.640923,4227.692204,4238.974255,4250.256306,4215.384512,4249.230665,4236.410153,4218.974256,4229.743486,4219.487076,4232.307589,4228.717845,4210.256307,4242.051178
70,0,4198.461436,4229.230666,4229.230666,4239.999896,4209.230666,4211.281948,4229.230666,4213.33323,4205.128102,4194.358872,4216.922974,4222.051179,4196.922974,4227.692204
71,0,4212.82041,4241.538358,4239.999896,4244.10246,4213.33323,4221.538358,4233.33323,4219.999897,4215.897333,4212.82041,4237.435794,4237.948614,4218.974256,4239.487076
72,0,4223.58964,4239.487076,4262.051178,4253.84605,4217.948615,4249.743486,4237.435794,4232.307589,4241.538358,4251.794768,4258.974255,4257.435793,4233.84605,4256.410152
73,0,4207.692205,4230.256307,4256.410152,4247.692204,4224.102461,4224.102461,4231.281948,4227.179384,4230.769127,4253.84605,4242.563999,4249.230665,4214.358871,4249.743486
74,0,4194.871692,4231.281948,4244.10246,4238.461435,4227.179384,4215.897333,4229.743486,4227.179384,4225.640922,4235.384512,4232.820409,4245.128101,4208.717846,4243.58964
75,0,4201.538359,4229.230666,4248.205024,4243.076819,4230.256307,4249.743486,4233.84605,4233.33323,4239.487076,4226.153743,4245.128101,4253.333229,4223.07682,4251.281947
76,0,4202.564,4227.692204,4244.615281,4248.717845,4229.230666,4237.948614,4227.692204,4223.07682,4228.717845,4218.974256,4242.563999,4242.051178,4215.897333,4252.820409
77,0,4197.435795,4233.84605,4227.692204,4234.871691,4217.948615,4202.564,4219.487076,4209.743487,4207.692205,4206.153743,4225.640922,4224.102461,4198.974256,4240.512717
78,0,4200.512718,4233.33323,4230.256307,4222.051179,4217.948615,4221.538358,4228.717845,4214.358871,4217.948615,4218.974256,4228.717845,4225.128102,4205.640923,4238.461435
79,0,4201.025538,4226.153743,4242.563999,4228.205025,4214.871692,4243.58964,4238.461435,4221.025538,4230.769127,4238.461435,4233.84605,4230.769127,4213.846051,4246.153742
80,0,4188.717846,4226.666563,4234.358871,4237.435794,4199.487077,4228.717845,4233.84605,4215.897333,4218.974256,4213.846051,4223.07682,4220.512717,4202.564,4238.461435
81,0,4187.692205,4231.794768,4227.179384,4243.58964,4210.769128,4231.281948,4229.743486,4213.33323,4212.82041,4198.461436,4220.512717,4214.871692,4194.871692,4230.256307
82,0,4198.461436,4231.794768,4232.820409,4237.948614,4228.717845,4241.538358,4233.33323,4215.384512,4222.563999,4226.153743,4231.794768,4220.512717,4202.564,4235.384512
83,0,4199.487077,4225.128102,4234.358871,4217.948615,4214.358871,4228.717845,4228.205025,4214.358871,4219.487076,4237.435794,4232.820409,4221.538358,4208.205025,4232.820409
84,0,4206.153743,4233.33323,4239.999896,4230.256307,4215.384512,4227.692204,4222.051179,4214.358871,4214.871692,4225.128102,4232.820409,4229.230666,4216.410153,4240.512717
85,0,4213.33323,4246.666563,4250.256306,4257.948614,4239.999896,4224.615281,4224.615281,4214.871692,4218.974256,4228.717845,4237.948614,4237.948614,4220.512717,4253.333229
86,0,4203.07682,4234.871691,4245.640922,4239.487076,4226.666563,4202.051179,4221.025538,4211.794769,4214.871692,4232.820409,4230.769127,4228.205025,4211.794769,4238.461435
87,0,4197.948615,4232.307589,4242.051178,4232.307589,4212.307589,4225.640922,4222.563999,4213.846051,4219.487076,4230.256307,4232.307589,4230.769127,4221.025538,4236.922973
88,0,4210.769128,4253.84605,4252.307588,4261.538357,4229.743486,4271.281947,4236.922973,4222.563999,4238.974255,4234.358871,4250.769127,4250.256306,4238.461435,4264.10246
89,0,4201.538359,4236.922973,4241.538358,4234.871691,4224.615281,4225.640922,4227.179384,4210.769128,4222.051179,4215.897333,4235.384512,4232.820409,4216.922974,4245.640922
90,0,4178.974257,4195.897333,4224.102461,4195.384513,4208.205025,4178.461436,4214.358871,4201.025538,4191.794769,4194.358872,4207.179384,4208.205025,4191.281949,4210.769128
91,0,4185.640923,4203.07682,4235.384512,4228.717845,4210.769128,4237.435794,4236.410153,4225.640922,4213.33323,4206.666564,4217.948615,4222.051179,4205.640923,4230.256307
92,0,4199.487077,4228.205025,4250.256306,4254.35887,4216.922974,4276.410152,4249.230665,4236.410153,4239.999896,4225.640922,4233.33323,4235.384512,4219.487076,4254.35887
93,0,4203.589641,4232.820409,4248.205024,4233.84605,4226.666563,4242.051178,4237.948614,4223.07682,4228.205025,4229.743486,4231.281948,4237.435794,4218.974256,4245.128101
94,0,4212.307589,4229.230666,4246.153742,4223.58964,4229.230666,4224.615281,4236.922973,4222.051179,4222.051179,4232.820409,4237.435794,4244.10246,4228.717845,4246.153742
95,0,4211.794769,4219.999897,4242.051178,4227.692204,4213.33323,4222.051179,4237.435794,4224.615281,4229.743486,4233.33323,4237.948614,4236.410153,4229.743486,4251.794768
96,0,4202.051179,4222.051179,4241.025537,4235.384512,4215.897333,4214.871692,4232.307589,4222.051179,4230.256307,4227.179384,4228.717845,4228.205025,4217.948615,4242.051178
97,0,4207.179384,4235.384512,4248.205024,4249.743486,4231.794768,4224.615281,4237.435794,4228.717845,4223.58964,4228.717845,4229.230666,4236.922973,4216.410153,4242.051178
98,0,4213.33323,4229.743486,4247.692204,4253.333229,4225.128102,4226.153743,4247.179383,4232.307589,4216.922974,4226.153743,4234.358871,4236.410153,4224.615281,4253.333229
99,0,4211.281948,4228.717845,4249.230665,4242.563999,4216.410153,4225.640922,4246.153742,4228.717845,4222.051179,4211.281948,4233.33323,4233.84605,4231.281948,4252.820409
100,0,4214.358871,4250.256306,4262.051178,4243.58964,4213.33323,4250.256306,4236.922973,4230.769127,4238.461435,4215.897333,4234.358871,4248.717845,4236.410153,4247.692204
101,0,4211.794769,4251.281947,4263.589639,4244.615281,4212.82041,4254.35887,4231.794768,4232.307589,4235.897332,4237.435794,4239.487076,4250.256306,4230.256307,4251.794768
102,0,4198.461436,4230.256307,4246.666563,4236.922973,4222.563999,4225.128102,4233.84605,4230.256307,4219.487076,4235.384512,4234.871691,4231.281948,4214.871692,4244.615281
103,0,4192.30759,4217.435794,4225.128102,4228.205025,4223.07682,4190.769128,4222.051179,4217.948615,4211.281948,4199.999897,4220.512717,4213.846051,4204.102461,4222.051179
104,0,4196.410154,4216.410153,4215.897333,4229.743486,4218.461435,4185.640923,4211.794769,4202.564,4211.281948,4195.897333,4222.051179,4212.307589,4207.179384,4216.410153
105,0,4207.179384,4225.128102,4232.307589,4233.33323,4225.128102,4222.563999,4229.230666,4217.435794,4221.538358,4238.461435,4234.871691,4226.153743,4218.461435,4235.384512
106,0,4216.410153,4233.33323,4248.205024,4222.051179,4228.717845,4242.563999,4240.512717,4235.897332,4232.307589,4255.897332,4227.692204,4235.384512,4224.615281,4245.640922
107,0,4216.922974,4234.871691,4237.948614,4229.743486,4225.128102,4227.692204,4231.794768,4224.102461,4229.743486,4231.794768,4221.538358,4226.153743,4225.640922,4235.897332
108,0,4217.435794,4233.84605,4228.205025,4256.410152,4227.179384,4230.769127,4228.717845,4214.871692,4223.58964,4222.051179,4234.871691,4217.948615,4224.102461,4233.33323
109,0,4211.794769,4216.922974,4224.102461,4237.435794,4211.281948,4228.717845,4234.871691,4218.974256,4216.410153,4215.897333,4230.256307,4219.487076,4216.922974,4231.281948
110,0,4195.384513,4192.30759,4212.82041,4190.256308,4194.871692,4184.615282,4228.717845,4210.769128,4203.589641,4195.897333,4210.256307,4213.33323,4207.692205,4214.358871
111,0,4193.333231,4198.974256,4216.410153,4193.846051,4209.230666,4174.358872,4223.58964,4214.358871,4208.717846,4213.33323,4217.948615,4209.230666,4214.871692,4211.281948
112,0,4204.615282,4225.640922,4231.794768,4229.230666,4221.025538,4225.128102,4236.922973,4242.051178,4234.358871,4246.153742,4235.897332,4222.563999,4231.281948,4231.794768
113,0,4204.102461,4229.230666,4234.871691,4238.974255,4216.410153,4248.717845,4241.538358,4249.230665,4245.640922,4239.999896,4235.384512,4234.358871,4238.461435,4241.538358
114,0,4202.564,4217.948615,4233.84605,4229.743486,4216.922974,4219.487076,4224.615281,4231.794768,4234.871691,4231.794768,4231.794768,4231.281948,4235.384512,4234.871691
115,0,4211.281948,4214.871692,4236.410153,4222.051179,4218.974256,4192.30759,4213.33323,4223.58964,4220.512717,4224.102461,4236.410153,4222.563999,4233.33323,4233.84605
116,0,4212.82041,4214.358871,4231.281948,4229.743486,4204.102461,4197.435795,4226.666563,4224.615281,4215.384512,4202.564,4234.871691,4221.025538,4238.461435,4235.384512
117,0,4213.33323,4216.410153,4238.974255,4235.897332,4202.564,4224.615281,4239.999896,4228.717845,4225.128102,4221.025538,4230.769127,4231.281948,4245.128101,4241.025537
118,0,4224.615281,4232.307589,4253.333229,4233.33323,4212.307589,4242.563999,4240.512717,4235.897332,4237.435794,4255.897332,4236.410153,4240.512717,4246.153742,4249.230665
119,0,4218.974256,4229.743486,4235.897332,4234.358871,4202.564,4214.358871,4232.820409,4223.07682,4215.384512,4223.07682,4229.743486,4219.487076,4229.743486,4233.33323
120,0,4201.025538,4201.025538,4220.512717,4231.794768,4199.999897,4193.846051,4224.102461,4206.666564,4191.281949,4187.179385,4214.358871,4202.564,4217.435794,4216.410153
121,0,4203.589641,4198.461436,4230.256307,4221.025538,4216.410153,4204.615282,4221.025538,4209.743487,4202.051179,4209.743487,4213.33323,4215.384512,4224.102461,4227.179384
122,0,4218.974256,4222.051179,4227.692204,4223.07682,4219.487076,4210.769128,4227.179384,4217.435794,4218.974256,4226.666563,4221.025538,4219.999897,4229.230666,4237.948614
123,0,4213.33323,4216.922974,4210.769128,4230.256307,4209.743487,4214.358871,4237.435794,4222.051179,4219.999897,4222.563999,4223.58964,4210.256307,4225.640922,4225.640922
124,0,4202.051179,4206.666564,4210.256307,4228.717845,4218.974256,4222.563999,4238.461435,4225.128102,4222.563999,4230.256307,4227.179384,4211.281948,4230.769127,4221.538358
125,0,4214.871692,4228.717845,4225.640922,4229.230666,4219.487076,4229.230666,4232.820409,4227.179384,4230.769127,4229.230666,4235.897332,4221.538358,4249.743486,4236.922973
126,0,4219.487076,4229.743486,4230.256307,4214.871692,4184.615282,4215.384512,4227.692204,4222.563999,4223.58964,4214.871692,4233.84605,4214.358871,4248.717845,4235.384512
127,0,4207.692205,4208.205025,4218.974256,4201.538359,4177.435795,4206.153743,4227.179384,4215.384512,4210.256307,4210.769128,4216.410153,4202.051179,4231.281948,4223.58964
128,0,4212.82041,4211.281948,4211.281948,4219.487076,4218.974256,4216.410153,4228.717845,4213.33323,4210.256307,4217.435794,4207.692205,4205.128102,4228.205025,4223.58964
0,0,4222.563999,4218.974256,4219.487076,4234.358871,4233.33323,4213.33323,4225.128102,4216.410153,4218.974256,4231.281948,4222.563999,4213.33323,4235.384512,4225.128102
1,0,4215.384512,4211.281948,4220.512717,4230.256307,4198.974256,4196.922974,4225.128102,4215.384512,4214.871692,4236.410153,4232.307589,4206.666564,4234.871691,4215.897333
2,0,4216.922974,4213.846051,4210.769128,4221.538358,4188.205026,4205.128102,4229.743486,4208.205025,4205.128102,4221.025538,4214.871692,4194.871692,4226.666563,4212.307589
3,0,4233.33323,4229.230666,4225.640922,4206.153743,4216.410153,4224.615281,4228.205025,4208.717846,4214.358871,4207.692205,4211.281948,4205.128102,4232.307589,4227.179384
4,0,4234.358871,4229.230666,4241.025537,4206.153743,4222.051179,4206.153743,4217.948615,4211.281948,4221.538358,4216.410153,4229.743486,4219.487076,4247.692204,4237.948614
5,0,4231.281948,4224.615281,4227.179384,4232.307589,4202.051179,4190.256308,4215.384512,4213.846051,4214.871692,4225.128102,4232.820409,4217.435794,4253.333229,4234.871691
6,0,4237.948614,4231.794768,4216.410153,4241.538358,4199.487077,4210.256307,4222.051179,4214.358871,4217.948615,4218.461435,4218.974256,4214.358871,4246.153742,4231.794768
7,0,4244.615281,4231.281948,4231.281948,4220.512717,4222.051179,4245.128101,4231.281948,4217.948615,4226.153743,4217.948615,4213.846051,4214.358871,4246.153742,4232.820409
8,0,4242.051178,4218.461435,4236.922973,4212.307589,4235.897332,4241.025537,4234.871691,4222.563999,4222.563999,4228.717845,4223.07682,4209.230666,4247.179383,4230.769127
9,0,4229.230666,4221.025538,4222.051179,4224.102461,4228.205025,4197.948615,4225.128102,4216.410153,4211.281948,4233.33323,4230.256307,4202.564,4237.948614,4228.205025
10,0,4221.538358,4233.84605,4221.025538,4229.230666,4214.871692,4191.281949,4222.051179,4213.33323,4211.281948,4227.179384,4227.692204,4210.256307,4238.461435,4233.84605
11,0,4231.794768,4233.33323,4232.820409,4232.307589,4210.256307,4227.692204,4230.769127,4224.615281,4229.230666,4229.230666,4232.307589,4226.153743,4253.333229,4241.025537
12,0,4241.025537,4231.794768,4231.281948,4233.84605,4219.999897,4226.153743,4233.84605,4234.871691,4243.58964,4242.051178,4237.435794,4227.179384,4258.461434,4237.948614
13,0,4232.307589,4229.743486,4224.102461,4215.897333,4216.410153,4201.538359,4232.820409,4230.256307,4230.256307,4224.102461,4221.538358,4222.051179,4247.179383,4230.769127
14,0,4227.179384,4216.410153,4234.871691,4203.589641,4192.82041,4216.922974,4234.871691,4227.692204,4219.487076,4195.897333,4220.512717,4234.871691,4247.179383,4238.461435
15,0,4237.435794,4212.82041,4245.640922,4222.563999,4193.333231,4226.153743,4230.769127,4229.230666,4231.281948,4219.999897,4248.717845,4252.820409,4256.410152,4253.333229
16,0,4247.692204,4227.179384,4239.999896,4241.025537,4217.948615,4220.512717,4228.717845,4232.307589,4238.974255,4261.025537,4253.333229,4247.692204,4254.35887,4256.922973
17,0,4250.769127,4233.84605,4237.435794,4232.307589,4220.512717,4225.128102,4235.897332,4235.897332,4232.820409,4245.128101,4234.358871,4235.897332,4248.205024,4247.179383
18,0,4249.230665,4219.487076,4233.33323,4210.256307,4199.487077,4201.538359,4233.33323,4229.230666,4222.051179,4209.743487,4224.102461,4229.743486,4242.563999,4230.256307
19,0,4248.717845,4208.205025,4229.230666,4201.538359,4200.512718,4191.794769,4224.102461,4219.487076,4219.999897,4217.948615,4228.717845,4228.205025,4245.128101,4227.179384
20,0,4257.948614,4226.666563,4237.948614,4225.640922,4225.128102,4240.512717,4231.281948,4230.256307,4235.384512,4241.025537,4244.615281,4241.538358,4262.051178,4249.743486
21,0,4258.461434,4236.922973,4240.512717,4230.769127,4227.179384,4234.871691,4232.307589,4235.897332,4237.435794,4231.794768,4239.999896,4238.461435,4265.128101,4255.897332
22,0,4245.128101,4217.435794,4230.769127,4205.128102,4197.948615,4177.435795,4217.948615,4217.948615,4213.846051,4211.794769,4211.794769,4215.384512,4244.615281,4228.717845
23,0,4244.10246,4216.922974,4228.717845,4214.871692,4190.256308,4204.615282,4222.563999,4210.256307,4211.794769,4222.051179,4212.307589,4212.307589,4244.615281,4223.58964
24,0,4254.35887,4236.922973,4225.640922,4238.974255,4220.512717,4246.153742,4235.897332,4220.512717,4227.179384,4235.897332,4236.922973,4220.512717,4261.025537,4246.153742
25,0,4252.820409,4239.487076,4220.512717,4229.230666,4231.794768,4223.58964,4233.84605,4221.538358,4221.538358,4219.999897,4238.974255,4223.58964,4262.051178,4246.666563
26,0,4245.128101,4230.769127,4229.230666,4222.563999,4217.435794,4218.974256,4230.256307,4216.922974,4216.922974,4215.384512,4229.743486,4226.666563,4259.999896,4233.33323
27,0,4251.281947,4232.307589,4234.358871,4231.794768,4213.33323,4234.358871,4228.205025,4214.871692,4222.051179,4235.897332,4231.281948,4223.07682,4261.538357,4241.025537
28,0,4258.461434,4234.358871,4228.717845,4229.230666,4221.025538,4226.153743,4225.128102,4213.33323,4219.999897,4235.384512,4233.84605,4219.487076,4261.538357,4254.35887
29,0,4250.769127,4231.794768,4230.256307,4227.179384,4218.461435,4213.846051,4231.794768,4219.999897,4221.538358,4220.512717,4233.33323,4227.692204,4263.589639,4247.692204
30,0,4242.051178,4232.307589,4233.33323,4231.281948,4212.82041,4211.281948,4238.974255,4232.307589,4232.307589,4219.999897,4240.512717,4233.33323,4264.10246,4241.538358
31,0,4244.615281,4233.84605,4230.769127,4230.769127,4213.33323,4213.846051,4236.410153,4233.84605,4233.33323,4221.538358,4247.692204,4236.410153,4262.051178,4248.717845
32,0,4248.717845,4231.794768,4236.922973,4230.769127,4205.640923,4218.974256,4233.84605,4231.281948,4228.717845,4223.07682,4240.512717,4245.128101,4261.538357,4253.333229
33,0,4249.743486,4226.666563,4249.743486,4223.07682,4199.999897,4214.871692,4232.307589,4231.281948,4232.820409,4227.692204,4235.897332,4246.666563,4262.051178,4250.769127
34,0,4249.743486,4229.743486,4253.333229,4215.384512,4221.538358,4223.07682,4232.820409,4235.384512,4237.435794,4234.358871,4246.666563,4247.179383,4263.589639,4245.640922
35,0,4242.563999,4229.743486,4246.153742,4211.794769,4233.84605,4236.410153,4231.281948,4235.897332,4230.769127,4237.435794,4246.666563,4250.769127,4260.512716,4242.563999
36,0,4233.84605,4218.461435,4241.025537,4214.871692,4218.461435,4219.999897,4219.487076,4222.563999,4220.512717,4225.640922,4232.820409,4243.58964,4251.794768,4244.10246
37,0,4238.974255,4222.051179,4243.076819,4229.743486,4217.948615,4208.717846,4213.33323,4212.82041,4216.922974,4212.307589,4229.743486,4238.461435,4248.717845,4252.307588
38,0,4245.640922,4235.897332,4247.692204,4233.33323,4223.07682,4214.871692,4218.974256,4220.512717,4214.871692,4214.871692,4235.384512,4245.128101,4250.256306,4253.333229
39,0,4245.640922,4232.820409,4247.692204,4223.07682,4204.615282,4205.640923,4223.58964,4229.743486,4216.922974,4218.974256,4239.999896,4248.205024,4248.717845,4243.58964
40,0,4252.307588,4229.230666,4248.717845,4228.205025,4201.538359,4205.128102,4228.717845,4229.743486,4227.179384,4213.846051,4247.692204,4248.717845,4253.333229,4245.640922
41,0,4257.435793,4229.230666,4248.717845,4232.820409,4217.948615,4214.358871,4227.179384,4227.692204,4224.615281,4213.33323,4249.230665,4249.230665,4261.025537,4255.897332
42,0,4253.333229,4216.922974,4238.461435,4214.358871,4217.435794,4213.33323,4221.538358,4219.487076,4210.769128,4206.666564,4238.974255,4239.487076,4255.384511,4254.35887
43,0,4252.820409,4215.384512,4229.230666,4214.358871,4212.307589,4228.205025,4227.692204,4213.846051,4215.897333,4202.051179,4229.230666,4229.743486,4244.615281,4243.076819
44,0,4255.897332,4233.84605,4232.820409,4231.281948,4219.487076,4248.717845,4238.461435,4229.743486,4236.410153,4224.615281,4233.33323,4231.794768,4247.179383,4236.922973
45,0,4244.10246,4233.33323,4229.743486,4224.615281,4218.974256,4225.128102,4229.743486,4237.435794,4231.281948,4235.384512,4231.281948,4221.025538,4245.640922,4233.33323
46,0,4225.640922,4212.307589,4212.307589,4209.743487,4206.153743,4188.205026,4214.358871,4217.435794,4202.564,4214.871692,4215.897333,4197.948615,4227.692204,4222.051179
47,0,4232.820409,4217.435794,4216.410153,4214.358871,4201.025538,4210.769128,4222.563999,4209.743487,4199.999897,4210.256307,4222.051179,4204.102461,4228.717845,4221.538358
48,0,4253.333229,4229.230666,4237.435794,4219.999897,4207.179384,4235.897332,4236.410153,4221.538358,4221.025538,4223.07682,4235.897332,4224.102461,4243.076819,4229.743486
49,0,4249.743486,4218.974256,4234.871691,4216.922974,4205.640923,4205.640923,4229.230666,4218.974256,4216.922974,4219.999897,4221.025538,4217.435794,4235.897332,4227.179384
50,0,4245.128101,4223.58964,4223.58964,4222.051179,4198.461436,4198.974256,4225.640922,4215.897333,4208.717846,4213.33323,4216.410153,4212.82041,4232.307589,4230.256307
51,0,4266.153742,4241.025537,4234.358871,4232.307589,4210.256307,4242.051178,4237.435794,4231.794768,4229.743486,4216.922974,4230.256307,4230.769127,4246.153742,4245.640922
52,0,4282.563998,4237.435794,4250.769127,4236.410153,4235.384512,4253.84605,4240.512717,4234.871691,4236.410153,4221.025538,4227.179384,4236.922973,4241.538358,4242.051178
53,0,4275.897331,4231.794768,4248.717845,4230.769127,4232.307589,4227.692204,4228.717845,4221.538358,4218.461435,4218.461435,4222.563999,4224.102461,4228.717845,4224.102461
54,0,4264.10246,4230.769127,4231.281948,4219.487076,4214.358871,4205.128102,4221.025538,4209.743487,4205.640923,4204.615282,4226.153743,4216.922974,4232.307589,4228.205025
55,0,4252.820409,4223.58964,4219.999897,4211.281948,4223.07682,4193.846051,4224.615281,4203.07682,4199.999897,4198.461436,4217.948615,4217.435794,4230.769127,4239.999896
56,0,4258.461434,4227.692204,4234.358871,4221.538358,4238.461435,4222.051179,4234.358871,4213.846051,4208.717846,4215.897333,4222.051179,4223.07682,4231.281948,4245.640922
57,0,4273.846049,4237.948614,4252.820409,4242.051178,4225.640922,4244.615281,4232.820409,4231.281948,4229.230666,4221.025538,4236.922973,4234.358871,4247.179383,4249.743486
58,0,4264.61528,4235.384512,4247.692204,4231.281948,4204.615282,4212.82041,4224.615281,4231.794768,4232.820409,4203.07682,4231.281948,4234.358871,4246.153742,4241.025537
59,0,4254.35887,4232.820409,4237.948614,4222.563999,4214.358871,4224.615281,4233.84605,4233.33323,4232.820409,4218.461435,4228.205025,4223.58964,4234.358871,4230.769127
60,0,4253.333229,4232.307589,4231.281948,4233.84605,4236.410153,4262.051178,4239.487076,4236.410153,4233.33323,4243.58964,4230.256307,4216.410153,4228.717845,4229.743486
61,0,4237.435794,4225.640922,4222.563999,4211.794769,4239.487076,4230.256307,4227.692204,4223.58964,4220.512717,4222.563999,4217.435794,4212.307589,4217.948615,4228.205025
62,0,4231.794768,4219.999897,4237.948614,4188.717846,4223.58964,4207.179384,4226.153743,4220.512717,4222.051179,4210.256307,4215.897333,4214.871692,4222.051179,4230.256307
63,0,4247.692204,4215.384512,4253.84605,4223.07682,4212.307589,4241.025537,4236.410153,4232.820409,4233.84605,4229.230666,4221.538358,4221.538358,4237.435794,4236.922973
64,0,4245.128101,4217.948615,4233.33323,4243.58964,4218.461435,4235.897332,4236.922973,4233.33323,4220.512717,4218.461435,4209.230666,4215.897333,4225.640922,4229.230666
65,0,4232.307589,4233.33323,4211.794769,4217.948615,4213.846051,4197.948615,4229.743486,4226.666563,4208.205025,4196.922974,4208.205025,4205.640923,4212.307589,4219.999897
66,0,4234.358871,4233.33323,4221.025538,4210.256307,4199.487077,4213.33323,4231.281948,4228.717845,4217.435794,4210.256307,4227.179384,4210.769128,4228.717845,4227.692204
67,0,4238.461435,4214.871692,4233.33323,4223.07682,4201.025538,4241.025537,4236.922973,4231.794768,4223.58964,4225.640922,4229.743486,4223.07682,4235.897332,4235.384512
68,0,4242.051178,4222.051179,4233.84605,4228.205025,4221.025538,4232.307589,4234.358871,4236.922973,4230.256307,4228.205025,4222.563999,4232.307589,4230.256307,4237.948614
69,0,4249.230665,4244.10246,4233.84605,4223.58964,4233.33323,4228.717845,4232.307589,4241.538358,4234.358871,4221.025538,4224.102461,4233.33323,4229.743486,4238.461435
70,0,4247.179383,4242.051178,4231.794768,4226.666563,4232.820409,4242.051178,4234.358871,4232.820409,4222.563999,4204.102461,4223.58964,4225.128102,4225.128102,4231.281948
71,0,4243.58964,4228.205025,4226.153743,4226.666563,4233.33323,4218.974256,4223.07682,4217.435794,4211.794769,4202.564,4219.487076,4219.487076,4218.461435,4227.692204
72,0,4246.153742,4227.179384,4223.58964,4213.846051,4227.692204,4179.487077,4210.769128,4209.743487,4210.256307,4210.769128,4215.897333,4225.640922,4216.922974,4239.487076
73,0,4251.794768,4244.10246,4242.051178,4229.743486,4222.563999,4212.307589,4225.640922,4226.153743,4226.666563,4221.025538,4223.07682,4243.076819,4229.743486,4258.461434
74,0,4258.461434,4251.794768,4266.666562,4253.333229,4223.07682,4261.538357,4240.512717,4245.128101,4244.10246,4238.461435,4239.487076,4257.948614,4248.205024,4267.692203
75,0,4258.461434,4235.897332,4255.384511,4225.128102,4217.948615,4237.948614,4233.33323,4238.461435,4232.820409,4238.974255,4235.897332,4247.692204,4237.948614,4253.84605
76,0,4248.205024,4229.230666,4227.692204,4204.615282,4217.948615,4211.794769,4230.256307,4225.640922,4219.999897,4225.640922,4221.025538,4228.717845,4213.33323,4235.897332
77,0,4247.179383,4242.051178,4233.84605,4239.487076,4235.897332,4239.487076,4233.84605,4234.358871,4234.871691,4229.230666,4227.179384,4233.33323,4217.435794,4238.461435
78,0,4250.256306,4230.256307,4248.717845,4241.538358,4236.922973,4239.999896,4227.692204,4236.410153,4234.871691,4224.102461,4227.692204,4235.897332,4218.461435,4233.33323
79,0,4244.10246,4215.897333,4233.33323,4220.512717,4214.358871,4208.717846,4224.102461,4218.974256,4210.256307,4200.512718,4209.230666,4214.871692,4197.948615,4212.82041
80,0,4249.230665,4236.922973,4225.640922,4234.358871,4216.922974,4215.384512,4233.33323,4217.435794,4212.307589,4199.487077,4212.82041,4210.256307,4200.512718,4218.974256
81,0,4251.281947,4235.384512,4236.410153,4226.666563,4230.256307,4218.974256,4227.179384,4222.051179,4217.948615,4196.410154,4216.410153,4213.33323,4207.179384,4233.84605
82,0,4238.461435,4213.846051,4232.820409,4201.538359,4218.461435,4193.846051,4216.410153,4217.435794,4203.589641,4189.743487,4201.025538,4205.640923,4198.461436,4225.640922
83,0,4233.84605,4227.692204,4222.051179,4221.025538,4210.769128,4206.153743,4228.205025,4220.512717,4203.07682,4207.692205,4203.589641,4205.640923,4206.153743,4222.051179
84,0,4245.640922,4251.281947,4234.871691,4254.871691,4216.922974,4248.205024,4244.10246,4232.820409,4225.640922,4222.563999,4221.025538,4221.538358,4225.128102,4235.897332
85,0,4245.640922,4242.051178,4246.153742,4248.205024,4220.512717,4245.128101,4236.410153,4235.897332,4236.922973,4218.461435,4221.538358,4226.666563,4224.102461,4236.922973
86,0,4239.999896,4227.692204,4236.410153,4219.999897,4222.051179,4213.846051,4224.615281,4230.769127,4225.128102,4217.948615,4212.82041,4219.999897,4214.358871,4231.281948
87,0,4244.10246,4234.871691,4231.794768,4221.538358,4223.07682,4212.82041,4225.128102,4231.794768,4217.435794,4218.974256,4214.871692,4219.487076,4214.871692,4236.922973
88,0,4244.10246,4236.922973,4233.33323,4237.948614,4216.410153,4223.58964,4224.615281,4229.743486,4217.948615,4212.307589,4217.948615,4218.461435,4215.384512,4232.307589
89,0,4239.487076,4234.871691,4224.615281,4242.563999,4215.384512,4218.461435,4225.128102,4224.102461,4216.922974,4214.358871,4214.358871,4214.871692,4216.922974,4225.128102
90,0,4239.999896,4238.974255,4214.871692,4230.769127,4213.33323,4211.281948,4228.205025,4223.07682,4214.871692,4215.384512,4212.82041,4212.307589,4215.384512,4227.692204
91,0,4242.563999,4241.025537,4223.07682,4217.435794,4210.769128,4224.615281,4231.281948,4226.153743,4218.461435,4213.33323,4211.794769,4213.846051,4212.307589,4228.205025
92,0,4242.563999,4242.051178,4233.33323,4219.487076,4220.512717,4238.974255,4233.84605,4234.358871,4224.102461,4219.999897,4208.717846,4218.461435,4212.307589,4229.230666
93,0,4231.794768,4230.769127,4215.384512,4223.07682,4211.794769,4217.948615,4228.717845,4229.743486,4215.384512,4202.564,4199.999897,4209.743487,4205.128102,4225.640922
94,0,4219.999897,4220.512717,4196.410154,4221.025538,4193.333231,4208.205025,4230.256307,4217.435794,4208.717846,4180.512718,4195.384513,4195.384513,4196.410154,4217.948615
95,0,4222.563999,4232.820409,4207.179384,4215.897333,4217.948615,4225.640922,4236.922973,4221.538358,4221.538358,4195.384513,4203.07682,4198.461436,4197.435795,4218.461435
96,0,4233.84605,4240.512717,4222.051179,4216.922974,4248.205024,4224.102461,4230.256307,4235.897332,4232.820409,4219.487076,4216.410153,4212.82041,4204.102461,4226.153743
97,0,4237.435794,4226.153743,4219.999897,4224.102461,4230.256307,4226.153743,4232.820409,4243.076819,4231.794768,4224.615281,4217.435794,4218.461435,4204.615282,4231.794768
98,0,4230.769127,4212.82041,4211.794769,4215.897333,4209.743487,4226.666563,4241.025537,4239.487076,4230.769127,4213.33323,4201.538359,4210.256307,4198.461436,4226.666563
99,0,4224.615281,4225.128102,4211.281948,4211.281948,4217.435794,4214.358871,4228.205025,4231.794768,4231.794768,4204.615282,4203.07682,4208.717846,4201.025538,4222.051179
100,0,4229.743486,4247.179383,4224.102461,4237.435794,4223.07682,4230.769127,4224.102461,4231.281948,4237.435794,4222.563999,4225.640922,4224.102461,4217.435794,4229.743486
101,0,4238.974255,4251.281947,4233.33323,4249.743486,4217.948615,4255.897332,4239.487076,4237.435794,4247.179383,4239.999896,4230.769127,4233.33323,4221.538358,4240.512717
102,0,4231.794768,4236.410153,4225.128102,4216.922974,4209.230666,4227.179384,4230.769127,4224.102461,4234.871691,4214.871692,4214.358871,4221.025538,4204.615282,4230.256307
103,0,4218.974256,4224.615281,4211.281948,4205.128102,4208.205025,4195.897333,4211.794769,4199.999897,4205.640923,4190.256308,4203.07682,4204.102461,4194.871692,4216.410153
104,0,4214.871692,4221.025538,4203.589641,4223.58964,4213.33323,4210.256307,4213.846051,4205.128102,4203.07682,4205.640923,4205.640923,4202.051179,4200.512718,4216.922974
105,0,4210.256307,4213.33323,4201.538359,4217.948615,4197.948615,4210.256307,4220.512717,4218.974256,4212.307589,4203.07682,4209.743487,4204.102461,4199.487077,4212.307589
106,0,4208.717846,4213.33323,4202.564,4206.153743,4183.076821,4201.538359,4221.025538,4218.461435,4210.769128,4187.692205,4211.281948,4200.512718,4196.922974,4208.205025
107,0,4215.384512,4217.435794,4201.538359,4214.358871,4209.230666,4213.33323,4222.563999,4216.922974,4213.33323,4201.538359,4211.281948,4196.922974,4199.487077,4211.794769
108,0,4217.435794,4219.487076,4202.051179,4221.538358,4232.307589,4219.999897,4223.07682,4216.922974,4218.461435,4210.256307,4207.692205,4196.922974,4199.487077,4213.33323
109,0,4221.025538,4230.256307,4209.743487,4221.538358,4216.922974,4214.871692,4227.692204,4214.358871,4216.922974,4198.461436,4213.846051,4203.589641,4205.640923,4220.512717
110,0,4235.384512,4235.384512,4221.025538,4216.922974,4209.743487,4218.461435,4229.743486,4219.487076,4218.461435,4197.435795,4224.102461,4213.33323,4227.179384,4241.025537
111,0,4247.179383,4232.307589,4229.230666,4213.846051,4216.410153,4217.435794,4219.999897,4217.435794,4215.384512,4201.025538,4224.102461,4224.615281,4244.10246,4261.025537
112,0,4251.794768,4239.999896,4225.640922,4225.128102,4206.153743,4187.179385,4210.256307,4201.538359,4195.897333,4188.205026,4221.025538,4227.179384,4245.128101,4265.640921
113,0,4269.743485,4252.820409,4228.717845,4237.948614,4201.025538,4182.564,4214.871692,4206.666564,4194.871692,4190.769128,4233.84605,4231.794768,4258.461434,4281.538357
114,0,4287.179382,4260.512716,4244.615281,4233.84605,4214.358871,4197.948615,4217.948615,4217.435794,4214.358871,4215.384512,4242.563999,4241.538358,4283.589639,4305.1281
115,0,4295.38451,4271.794767,4252.307588,4229.230666,4225.640922,4199.487077,4210.769128,4212.82041,4217.435794,4233.33323,4246.153742,4248.717845,4301.538356,4314.871689
116,0,4314.871689,4284.102459,4255.897332,4243.076819,4224.615281,4214.358871,4214.358871,4219.487076,4219.999897,4238.974255,4259.999896,4257.948614,4314.871689,4327.692202
117,0,4328.205022,4285.1281,4261.025537,4251.794768,4217.435794,4224.615281,4223.58964,4229.230666,4230.256307,4226.153743,4255.897332,4261.025537,4311.794766,4332.820407
118,0,4313.333228,4277.948613,4248.717845,4244.10246,4210.256307,4199.487077,4220.512717,4217.948615,4220.512717,4203.589641,4239.487076,4247.179383,4288.205023,4317.435792
119,0,4298.974254,4272.307588,4238.461435,4245.128101,4202.564,4189.230667,4216.410153,4211.281948,4205.640923,4204.615282,4241.025537,4239.999896,4275.897331,4306.666561
120,0,4303.076818,4274.87169,4251.281947,4252.820409,4207.179384,4216.922974,4223.58964,4222.563999,4213.33323,4221.025538,4249.743486,4246.153742,4284.102459,4306.153741
121,0,4297.435792,4280.512716,4252.307588,4243.076819,4229.230666,4230.256307,4228.717845,4224.102461,4222.051179,4213.33323,4248.717845,4239.487076,4278.974254,4294.87169
122,0,4280.512716,4270.256306,4235.384512,4228.205025,4236.922973,4217.948615,4227.179384,4218.461435,4218.974256,4200.512718,4235.384512,4229.230666,4258.461434,4285.640921
123,0,4271.281947,4243.58964,4227.692204,4233.33323,4221.025538,4192.30759,4221.025538,4214.358871,4215.384512,4211.281948,4218.974256,4226.666563,4242.563999,4282.051177
124,0,4263.589639,4231.281948,4229.743486,4233.84605,4214.358871,4171.79477,4216.922974,4211.281948,4215.384512,4222.051179,4212.307589,4216.922974,4228.205025,4262.051178
125,0,4249.230665,4239.487076,4232.820409,4218.461435,4223.07682,4193.846051,4225.128102,4220.512717,4219.487076,4216.922974,4218.974256,4212.82041,4218.461435,4246.666563
126,0,4238.461435,4245.640922,4227.692204,4218.461435,4218.461435,4223.07682,4228.717845,4228.205025,4217.435794,4209.230666,4217.435794,4215.897333,4215.384512,4242.563999
127,0,4238.974255,4246.666563,4224.102461,4233.84605,4212.82041,4231.281948,4224.615281,4221.025538,4213.846051,4216.410153,4212.82041,4218.461435,4215.384512,4235.384512
128,0,4241.025537,4246.153742,4229.743486,4232.820409,4222.563999,4234.871691,4230.769127,4216.410153,4218.461435,4221.538358,4218.974256,4221.538358,4215.384512,4232.307589
0,0,4233.33323,4240.512717,4228.717845,4218.974256,4233.33323,4225.128102,4229.743486,4217.948615,4218.461435,4208.205025,4218.974256,4223.07682,4211.794769,4235.384512
1,0,4226.666563,4226.666563,4223.58964,4214.358871,4234.358871,4202.564,4215.897333,4211.794769,4211.281948,4201.025538,4204.102461,4214.871692,4200.512718,4228.205025
2,0,4225.640922,4216.922974,4227.692204,4218.974256,4242.051178,4205.128102,4219.999897,4209.230666,4213.33323,4212.82041,4199.999897,4215.897333,4195.384513,4219.999897
3,0,4226.666563,4223.07682,4234.871691,4218.974256,4244.615281,4230.769127,4235.384512,4221.025538,4222.051179,4210.256307,4216.922974,4227.179384,4202.051179,4226.666563
4,0,4217.948615,4231.794768,4224.615281,4216.410153,4215.384512,4217.948615,4222.051179,4219.487076,4215.897333,4191.794769,4219.487076,4222.563999,4193.333231,4224.615281
5,0,4210.256307,4232.307589,4216.922974,4217.948615,4206.666564,4195.897333,4210.256307,4211.281948,4209.743487,4202.051179,4209.230666,4213.846051,4184.102462,4213.846051
6,0,4215.384512,4227.179384,4228.205025,4216.922974,4239.999896,4214.871692,4224.615281,4220.512717,4216.410153,4232.307589,4213.33323,4224.615281,4197.948615,4215.897333
7,0,4215.384512,4218.974256,4233.84605,4213.846051,4250.769127,4222.051179,4231.281948,4227.692204,4222.051179,4235.897332,4219.487076,4234.358871,4207.179384,4223.07682
8,0,4208.205025,4212.82041,4219.487076,4218.974256,4235.384512,4198.974256,4219.487076,4219.487076,4215.897333,4217.948615,4216.922974,4226.153743,4198.461436,4216.922974
9,0,4214.871692,4223.07682,4213.33323,4221.025538,4243.076819,4202.051179,4215.384512,4219.487076,4215.897333,4212.307589,4222.563999,4222.563999,4198.461436,4215.897333
10,0,4221.025538,4235.897332,4226.666563,4218.974256,4256.410152,4240.512717,4229.743486,4232.820409,4229.230666,4227.179384,4229.230666,4230.256307,4207.692205,4223.07682
11,0,4203.07682,4228.205025,4228.717845,4213.33323,4252.307588,4245.128101,4236.922973,4237.435794,4236.922973,4239.487076,4223.58964,4225.128102,4206.666564,4218.461435
12,0,4190.256308,4217.948615,4215.384512,4210.256307,4247.179383,4211.794769,4225.640922,4228.205025,4228.205025,4233.84605,4216.410153,4213.33323,4198.974256,4209.230666
13,0,4202.051179,4228.205025,4212.307589,4225.640922,4239.999896,4215.897333,4216.410153,4222.051179,4227.692204,4230.769127,4221.538358,4215.384512,4200.512718,4213.846051
14,0,4208.717846,4236.410153,4220.512717,4231.794768,4235.897332,4236.922973,4219.487076,4219.487076,4228.717845,4232.820409,4222.051179,4221.025538,4203.07682,4219.487076
15,0,4200.512718,4221.538358,4216.922974,4214.358871,4238.974255,4207.179384,4216.922974,4212.82041,4208.205025,4210.769128,4205.128102,4210.256307,4186.153744,4206.666564
16,0,4201.538359,4211.281948,4207.179384,4213.846051,4248.205024,4186.666564,4212.82041,4214.871692,4206.666564,4198.461436,4204.102461,4205.128102,4176.410154,4197.948615
17,0,4203.07682,4213.846051,4206.153743,4213.846051,4254.35887,4211.794769,4219.999897,4226.153743,4230.769127,4218.461435,4219.487076,4211.281948,4183.589641,4201.025538
18,0,4192.82041,4215.384512,4217.948615,4206.153743,4255.897332,4227.692204,4229.230666,4233.33323,4236.922973,4229.230666,4219.999897,4213.846051,4187.692205,4207.179384
19,0,4196.922974,4227.179384,4231.794768,4230.256307,4257.435793,4239.999896,4230.769127,4239.999896,4239.999896,4236.410153,4222.051179,4225.128102,4194.871692,4220.512717
20,0,4214.871692,4237.948614,4231.794768,4251.794768,4250.256306,4250.769127,4227.692204,4244.10246,4251.281947,4255.897332,4235.897332,4234.358871,4201.538359,4225.640922
21,0,4210.769128,4226.153743,4222.563999,4224.102461,4244.10246,4216.410153,4218.974256,4233.84605,4239.487076,4242.563999,4230.256307,4222.051179,4190.256308,4206.153743
22,0,4199.487077,4221.025538,4223.07682,4211.281948,4249.230665,4195.384513,4214.358871,4224.102461,4221.538358,4214.871692,4218.461435,4215.897333,4182.05118,4198.461436
23,0,4216.410153,4234.358871,4244.615281,4233.84605,4261.538357,4227.179384,4219.487076,4230.769127,4230.256307,4233.33323,4231.281948,4237.948614,4200.512718,4222.563999
24,0,4230.256307,4232.820409,4259.999896,4235.384512,4265.640921,4240.512717,4223.58964,4235.384512,4242.563999,4258.974255,4239.999896,4248.717845,4214.871692,4237.948614
25,0,4214.871692,4227.179384,4249.230665,4229.230666,4257.435793,4229.230666,4223.07682,4229.230666,4240.512717,4239.999896,4233.84605,4242.563999,4208.205025,4230.256307
26,0,4208.717846,4242.563999,4235.897332,4245.640922,4256.922973,4219.999897,4214.358871,4222.563999,4233.84605,4215.897333,4235.384512,4243.58964,4201.538359,4221.538358
27,0,4219.487076,4247.179383,4236.922973,4250.256306,4262.051178,4205.128102,4203.589641,4216.922974,4225.640922,4222.563999,4235.384512,4241.538358,4202.564,4218.461435
28,0,4214.871692,4232.307589,4233.84605,4234.358871,4253.333229,4191.794769,4206.153743,4214.871692,4218.974256,4234.358871,4225.128102,4227.692204,4198.461436,4217.948615
29,0,4206.666564,4233.33323,4230.256307,4239.487076,4242.051178,4207.179384,4216.410153,4219.487076,4223.07682,4236.410153,4231.281948,4226.153743,4195.897333,4223.58964
30,0,4211.794769,4243.076819,4240.512717,4249.743486,4253.333229,4235.897332,4215.897333,4225.640922,4227.179384,4245.128101,4248.205024,4239.487076,4205.640923,4230.256307
31,0,4211.281948,4231.794768,4236.410153,4233.84605,4267.692203,4240.512717,4215.384512,4222.563999,4219.999897,4247.692204,4243.58964,4236.922973,4206.153743,4226.153743
32,0,4200.512718,4229.230666,4222.051179,4230.769127,4272.307588,4232.820409,4221.538358,4221.538358,4221.025538,4234.358871,4223.07682,4223.07682,4191.794769,4215.384512
33,0,4191.794769,4232.820409,4218.461435,4231.794768,4273.846049,4235.384512,4224.615281,4231.794768,4231.794768,4215.384512,4216.922974,4211.794769,4175.897334,4205.128102
34,0,4180.512718,4206.153743,4206.666564,4212.82041,4265.128101,4238.461435,4223.58964,4233.33323,4226.666563,4201.025538,4213.846051,4198.461436,4165.128103,4191.281949
35,0,4183.076821,4190.769128,4196.410154,4209.743487,4257.948614,4225.128102,4221.025538,4227.692204,4230.769127,4215.384512,4210.769128,4202.564,4172.820411,4188.717846
36,0,4197.435795,4224.102461,4206.153743,4232.820409,4265.128101,4221.538358,4221.538358,4239.999896,4250.256306,4251.281947,4223.58964,4221.025538,4191.281949,4207.179384
37,0,4198.974256,4242.051178,4215.384512,4230.256307,4267.179383,4224.102461,4225.128102,4250.256306,4240.512717,4252.307588,4232.820409,4223.07682,4189.743487,4212.82041
38,0,4194.358872,4217.435794,4217.948615,4209.230666,4258.974255,4214.871692,4218.461435,4237.948614,4226.153743,4226.153743,4228.205025,4217.948615,4178.974257,4202.051179
39,0,4201.538359,4213.33323,4227.179384,4219.487076,4262.051178,4224.102461,4212.307589,4229.230666,4240.512717,4228.717845,4229.230666,4228.717845,4187.179385,4205.640923
40,0,4213.33323,4236.410153,4236.922973,4250.769127,4276.922972,4256.922973,4225.128102,4239.487076,4256.922973,4245.128101,4238.461435,4246.666563,4204.102461,4221.025538
41,0,4213.846051,4236.922973,4236.410153,4249.230665,4277.435793,4257.435793,4232.820409,4242.563999,4247.692204,4238.974255,4236.410153,4247.692204,4197.948615,4224.102461
42,0,4208.717846,4228.205025,4232.820409,4230.256307,4266.153742,4227.692204,4218.461435,4226.666563,4225.128102,4230.769127,4228.205025,4232.820409,4180.512718,4216.922974
43,0,4208.205025,4236.410153,4232.820409,4227.179384,4263.589639,4225.640922,4213.33323,4214.871692,4220.512717,4233.33323,4232.307589,4227.179384,4190.769128,4216.410153
44,0,4214.358871,4231.794768,4234.871691,4225.640922,4258.461434,4234.358871,4216.410153,4216.922974,4226.153743,4229.230666,4235.897332,4235.897332,4203.589641,4216.922974
45,0,4220.512717,4218.461435,4233.33323,4221.025538,4247.179383,4227.692204,4215.897333,4219.999897,4220.512717,4228.205025,4230.769127,4235.384512,4190.256308,4211.794769
46,0,4224.102461,4217.948615,4230.769127,4230.769127,4246.666563,4227.179384,4215.384512,4214.871692,4217.948615,4230.769127,4226.153743,4224.615281,4186.153744,4210.769128
47,0,4221.025538,4218.974256,4229.230666,4236.922973,4250.769127,4230.769127,4218.461435,4218.974256,4233.84605,4224.102461,4230.769127,4224.102461,4200.512718,4219.999897
48,0,4212.82041,4223.07682,4219.999897,4229.743486,4251.794768,4213.846051,4219.487076,4231.794768,4238.461435,4221.538358,4227.692204,4225.640922,4197.948615,4218.974256
49,0,4211.281948,4227.692204,4219.487076,4222.051179,4260.512716,4201.025538,4214.358871,4233.84605,4229.743486,4227.179384,4220.512717,4225.128102,4192.30759,4210.256307
50,0,4216.410153,4224.102461,4233.33323,4229.743486,4274.87169,4236.922973,4219.487076,4233.33323,4240.512717,4229.230666,4224.615281,4230.769127,4199.487077,4219.999897
51,0,4224.615281,4230.256307,4245.640922,4243.58964,4283.589639,4281.025536,4233.33323,4247.692204,4261.025537,4243.58964,4235.897332,4243.58964,4204.615282,4236.410153
52,0,4236.410153,4241.025537,4248.205024,4236.410153,4272.820408,4262.051178,4229.743486,4251.281947,4254.871691,4252.820409,4244.615281,4250.769127,4207.179384,4238.461435
53,0,4239.487076,4223.58964,4247.179383,4227.179384,4258.461434,4227.179384,4216.410153,4235.384512,4231.794768,4238.974255,4245.128101,4247.692204,4212.82041,4232.307589
54,0,4234.871691,4213.846051,4245.640922,4243.076819,4267.179383,4244.10246,4221.538358,4231.794768,4232.307589,4241.538358,4239.999896,4251.281947,4217.948615,4236.922973
55,0,4227.692204,4226.666563,4236.922973,4240.512717,4265.640921,4243.076819,4226.666563,4236.410153,4235.897332,4243.58964,4229.743486,4246.666563,4208.717846,4233.84605
56,0,4229.743486,4227.692204,4236.922973,4227.179384,4247.179383,4213.33323,4218.461435,4232.307589,4230.769127,4227.179384,4224.102461,4235.897332,4196.410154,4222.563999
57,0,4239.487076,4229.230666,4250.256306,4242.051178,4254.35887,4228.717845,4216.410153,4231.794768,4236.922973,4234.871691,4230.769127,4244.615281,4203.589641,4234.358871
58,0,4241.538358,4234.358871,4248.717845,4238.461435,4270.256306,4257.948614,4218.461435,4236.922973,4241.538358,4247.179383,4235.384512,4250.769127,4210.256307,4245.128101
59,0,4234.358871,4222.051179,4232.307589,4218.461435,4266.153742,4248.205024,4219.999897,4231.794768,4229.230666,4222.051179,4227.692204,4233.84605,4199.487077,4226.666563
60,0,4227.692204,4211.794769,4226.666563,4239.487076,4261.025537,4237.435794,4221.538358,4227.179384,4226.666563,4209.743487,4218.974256,4224.615281,4195.897333,4219.487076
61,0,4225.640922,4219.487076,4225.640922,4256.410152,4269.230665,4242.563999,4221.025538,4231.794768,4234.358871,4221.025538,4218.461435,4228.717845,4204.102461,4234.358871
62,0,4222.051179,4217.435794,4212.307589,4228.205025,4269.230665,4236.922973,4220.512717,4226.153743,4225.640922,4214.358871,4213.846051,4218.461435,4195.897333,4225.128102
63,0,4218.974256,4211.281948,4212.82041,4214.871692,4250.769127,4239.999896,4222.051179,4223.58964,4222.051179,4221.538358,4215.384512,4211.281948,4187.692205,4210.256307
64,0,4223.58964,4216.922974,4224.102461,4230.256307,4243.58964,4232.820409,4220.512717,4229.230666,4228.205025,4237.948614,4216.922974,4217.948615,4188.717846,4218.974256
65,0,4229.743486,4217.948615,4218.461435,4237.948614,4257.435793,4229.743486,4223.07682,4232.820409,4230.769127,4222.563999,4211.794769,4216.922974,4184.615282,4220.512717
66,0,4228.717845,4215.384512,4212.82041,4235.384512,4258.974255,4256.410152,4231.794768,4239.487076,4241.538358,4208.205025,4219.487076,4213.846051,4190.256308,4213.846051
67,0,4230.256307,4219.487076,4217.948615,4221.538358,4244.615281,4254.871691,4224.102461,4244.10246,4251.281947,4216.410153,4226.666563,4217.435794,4197.948615,4216.922974
68,0,4234.358871,4213.846051,4217.435794,4215.897333,4246.153742,4233.33323,4211.794769,4234.358871,4243.076819,4218.974256,4217.435794,4216.410153,4190.256308,4215.384512
69,0,4230.769127,4201.025538,4216.410153,4224.615281,4252.307588,4243.58964,4216.922974,4227.692204,4231.794768,4218.461435,4212.307589,4206.666564,4185.128103,4206.666564
70,0,4225.128102,4204.102461,4217.435794,4226.666563,4245.128101,4242.051178,4219.999897,4232.307589,4232.307589,4228.717845,4215.384512,4202.051179,4186.153744,4203.589641
71,0,4225.640922,4217.435794,4216.410153,4223.58964,4246.666563,4210.256307,4212.307589,4228.205025,4230.256307,4233.33323,4213.846051,4209.743487,4183.589641,4210.769128
72,0,4228.205025,4223.07682,4228.205025,4236.922973,4249.230665,4227.179384,4217.435794,4227.692204,4231.281948,4236.922973,4216.410153,4228.717845,4196.410154,4222.563999
73,0,4235.897332,4218.461435,4242.563999,4234.358871,4233.33323,4257.948614,4228.205025,4235.897332,4236.922973,4233.33323,4223.07682,4234.358871,4206.666564,4223.07682
74,0,4241.538358,4215.384512,4233.84605,4213.33323,4234.358871,4237.435794,4225.640922,4235.897332,4232.820409,4218.974256,4227.179384,4222.051179,4195.384513,4217.435794
75,0,4238.974255,4218.974256,4219.487076,4223.07682,4249.230665,4223.07682,4223.58964,4232.820409,4231.281948,4216.922974,4229.230666,4217.948615,4191.281949,4218.461435
76,0,4231.281948,4215.897333,4217.435794,4239.487076,4238.974255,4229.743486,4221.538358,4228.205025,4231.794768,4214.358871,4220.512717,4222.051179,4191.281949,4219.999897
77,0,4229.743486,4207.179384,4224.102461,4229.230666,4233.84605,4232.820409,4217.435794,4229.743486,4231.281948,4210.769128,4216.410153,4224.102461,4188.205026,4219.999897
78,0,4237.435794,4210.256307,4227.692204,4226.153743,4254.871691,4241.025537,4222.051179,4239.999896,4239.999896,4228.717845,4227.692204,4230.769127,4196.922974,4226.153743
79,0,4238.974255,4224.615281,4229.743486,4236.922973,4258.461434,4255.897332,4227.692204,4243.076819,4245.128101,4238.974255,4232.820409,4237.435794,4204.615282,4231.794768
80,0,4227.179384,4221.025538,4233.33323,4230.256307,4244.10246,4242.563999,4224.102461,4233.33323,4235.897332,4217.435794,4229.230666,4233.84605,4198.974256,4228.205025
81,0,4224.102461,4204.102461,4230.256307,4216.410153,4245.128101,4213.33323,4219.487076,4229.230666,4232.307589,4211.281948,4231.281948,4229.230666,4197.948615,4220.512717
82,0,4238.974255,4209.743487,4225.128102,4227.692204,4241.025537,4225.128102,4223.58964,4239.999896,4242.051178,4243.076819,4233.84605,4228.717845,4203.07682,4222.051179
83,0,4245.640922,4234.358871,4229.230666,4245.128101,4227.179384,4256.922973,4229.743486,4248.717845,4249.230665,4255.897332,4231.281948,4232.307589,4203.589641,4229.230666
84,0,4240.512717,4239.487076,4232.820409,4243.076819,4239.999896,4256.922973,4230.256307,4243.076819,4247.179383,4229.743486,4230.256307,4235.384512,4203.07682,4225.128102
85,0,4235.384512,4226.153743,4232.820409,4231.281948,4269.230665,4243.076819,4224.615281,4234.358871,4241.025537,4208.205025,4227.692204,4224.615281,4202.564,4217.435794
86,0,4230.256307,4223.07682,4231.794768,4232.307589,4267.692203,4246.666563,4223.58964,4233.84605,4232.820409,4209.743487,4218.974256,4215.384512,4198.461436,4211.794769
87,0,4226.153743,4222.563999,4218.974256,4236.922973,4243.58964,4245.128101,4225.640922,4228.205025,4227.179384,4218.461435,4213.33323,4216.410153,4189.743487,4202.564
88,0,4231.281948,4219.487076,4209.743487,4237.435794,4244.10246,4241.025537,4224.615281,4218.974256,4228.717845,4218.461435,4215.384512,4212.82041,4187.692205,4206.666564
89,0,4240.512717,4218.974256,4216.410153,4229.743486,4257.435793,4228.717845,4216.410153,4216.410153,4226.666563,4209.230666,4212.82041,4208.717846,4191.281949,4217.435794
90,0,4234.871691,4215.384512,4218.974256,4217.435794,4245.640922,4209.230666,4212.82041,4218.974256,4214.358871,4216.410153,4211.794769,4212.82041,4195.384513,4208.717846
91,0,4226.153743,4221.025538,4221.538358,4223.58964,4233.84605,4234.358871,4222.051179,4225.128102,4222.563999,4232.307589,4224.615281,4216.410153,4208.205025,4206.153743
92,0,4231.281948,4234.358871,4229.230666,4241.538358,4241.538358,4274.35887,4231.281948,4231.281948,4246.153742,4218.974256,4235.384512,4215.897333,4220.512717,4226.153743
93,0,4243.076819,4231.281948,4228.717845,4240.512717,4253.333229,4262.563998,4229.230666,4234.358871,4249.230665,4214.871692,4232.820409,4222.563999,4219.999897,4230.256307
94,0,4238.974255,4213.33323,4224.615281,4227.692204,4251.281947,4221.538358,4218.461435,4229.743486,4231.794768,4242.051178,4227.179384,4229.743486,4213.846051,4218.974256
95,0,4223.07682,4211.281948,4224.615281,4226.666563,4237.948614,4212.82041,4212.82041,4222.051179,4224.102461,4242.563999,4226.153743,4229.743486,4214.358871,4220.512717
96,0,4227.692204,4226.666563,4229.743486,4232.307589,4241.025537,4239.487076,4224.615281,4234.871691,4239.487076,4232.820409,4232.820409,4239.999896,4229.230666,4232.307589
97,0,4244.615281,4228.205025,4237.435794,4229.230666,4246.666563,4247.692204,4234.358871,4250.769127,4250.256306,4229.743486,4238.461435,4250.256306,4237.435794,4237.948614
98,0,4247.692204,4217.948615,4231.281948,4227.692204,4238.974255,4238.974255,4226.666563,4235.897332,4240.512717,4209.743487,4232.820409,4236.922973,4225.640922,4231.281948
99,0,4238.461435,4216.410153,4213.846051,4229.230666,4229.743486,4229.743486,4217.948615,4217.948615,4223.07682,4210.256307,4220.512717,4216.922974,4213.846051,4218.461435
100,0,4231.794768,4208.205025,4206.153743,4221.538358,4219.999897,4214.358871,4216.922974,4226.666563,4216.410153,4233.84605,4211.281948,4211.794769,4213.846051,4211.281948
101,0,4233.84605,4199.487077,4217.948615,4214.358871,4214.871692,4211.794769,4219.999897,4230.256307,4222.051179,4224.102461,4210.769128,4217.948615,4219.999897,4215.384512
102,0,4237.948614,4219.487076,4236.410153,4221.025538,4227.179384,4240.512717,4223.07682,4224.615281,4231.794768,4204.102461,4222.051179,4227.692204,4229.230666,4223.58964
103,0,4241.025537,4239.999896,4243.076819,4236.410153,4244.10246,4257.435793,4225.128102,4230.256307,4237.948614,4222.051179,4232.307589,4241.538358,4234.358871,4236.922973
104,0,4238.461435,4226.666563,4232.820409,4243.58964,4247.179383,4239.999896,4224.102461,4231.794768,4235.897332,4245.640922,4231.281948,4244.615281,4232.307589,4243.58964
105,0,4236.922973,4220.512717,4223.58964,4238.974255,4245.640922,4233.33323,4226.153743,4226.153743,4234.358871,4250.769127,4229.230666,4236.922973,4232.820409,4235.384512
106,0,4241.538358,4234.871691,4232.820409,4230.769127,4243.58964,4236.922973,4224.102461,4221.538358,4228.717845,4238.461435,4233.33323,4237.948614,4234.871691,4236.410153
107,0,4253.333229,4232.307589,4252.307588,4232.820409,4231.281948,4234.358871,4219.487076,4216.410153,4218.974256,4221.538358,4235.897332,4249.230665,4237.435794,4248.717845
108,0,4258.461434,4220.512717,4252.820409,4237.435794,4214.871692,4224.615281,4215.897333,4212.307589,4205.640923,4223.58964,4231.794768,4247.692204,4238.461435,4245.128101
109,0,4250.256306,4215.897333,4230.769127,4228.205025,4211.794769,4204.615282,4209.743487,4209.743487,4188.717846,4224.615281,4226.666563,4229.743486,4229.743486,4223.58964
110,0,4254.871691,4222.563999,4228.205025,4229.230666,4225.640922,4213.33323,4212.307589,4218.974256,4198.461436,4215.897333,4230.256307,4234.871691,4228.205025,4225.640922
111,0,4266.153742,4240.512717,4248.717845,4247.179383,4232.307589,4236.922973,4221.538358,4231.281948,4226.153743,4209.743487,4235.384512,4252.820409,4233.33323,4247.179383
112,0,4261.538357,4245.128101,4252.307588,4249.743486,4230.256307,4228.717845,4219.487076,4225.640922,4233.33323,4210.769128,4231.794768,4248.717845,4232.307589,4250.256306
113,0,4253.333229,4230.769127,4245.640922,4235.897332,4232.307589,4209.743487,4214.871692,4216.410153,4227.692204,4225.640922,4231.281948,4238.974255,4237.435794,4235.897332
114,0,4249.743486,4229.230666,4247.692204,4230.769127,4231.281948,4223.58964,4218.974256,4225.640922,4235.384512,4239.999896,4234.871691,4241.538358,4248.205024,4227.179384
115,0,4243.076819,4241.538358,4247.179383,4236.410153,4233.33323,4236.410153,4218.974256,4232.307589,4238.461435,4237.948614,4238.461435,4248.205024,4249.743486,4237.948614
116,0,4239.999896,4235.897332,4243.076819,4238.461435,4236.410153,4219.999897,4213.33323,4220.512717,4230.769127,4230.256307,4240.512717,4253.333229,4246.666563,4251.281947
117,0,4243.58964,4227.179384,4247.692204,4243.58964,4229.743486,4217.435794,4218.461435,4214.871692,4227.692204,4228.205025,4241.025537,4258.974255,4244.615281,4249.230665
118,0,4245.128101,4240.512717,4256.410152,4247.179383,4235.384512,4234.871691,4221.538358,4219.487076,4229.743486,4231.281948,4244.615281,4265.128101,4250.769127,4249.743486
119,0,4246.666563,4247.179383,4256.410152,4236.410153,4248.205024,4233.84605,4214.358871,4218.974256,4232.307589,4239.999896,4250.256306,4266.153742,4258.974255,4265.128101
120,0,4247.179383,4229.230666,4243.58964,4229.743486,4245.640922,4212.82041,4216.410153,4213.33323,4228.717845,4241.538358,4243.58964,4255.897332,4254.871691,4266.153742
121,0,4259.999896,4224.102461,4239.999896,4241.538358,4243.076819,4213.33323,4223.58964,4224.615281,4232.820409,4232.307589,4243.58964,4252.820409,4253.84605,4255.897332
122,0,4291.281946,4251.281947,4259.487075,4253.84605,4252.307588,4244.615281,4226.666563,4249.743486,4259.999896,4246.666563,4270.769126,4275.384511,4280.512716,4269.743485
123,0,4304.615279,4264.10246,4269.743485,4248.717845,4252.307588,4255.384511,4226.153743,4256.410152,4273.333229,4267.179383,4283.589639,4284.61528,4300.512715,4279.487075
124,0,4279.999895,4244.615281,4253.84605,4243.076819,4235.384512,4227.179384,4222.563999,4245.128101,4255.384511,4250.769127,4256.922973,4257.948614,4277.435793,4256.922973
125,0,4252.307588,4229.743486,4239.999896,4245.128101,4226.666563,4208.205025,4215.897333,4237.948614,4242.051178,4228.717845,4237.435794,4239.487076,4255.384511,4239.487076
126,0,4247.692204,4233.84605,4240.512717,4237.435794,4228.205025,4221.538358,4217.435794,4231.794768,4239.487076,4229.230666,4248.205024,4246.153742,4263.076819,4245.128101
127,0,4246.153742,4237.435794,4242.563999,4236.922973,4227.179384,4229.743486,4221.025538,4221.025538,4229.230666,4228.205025,4251.281947,4247.179383,4264.10246,4244.615281
128,0,4238.974255,4230.769127,4246.153742,4245.640922,4224.615281,4222.051179,4216.410153,4213.846051,4220.512717,4215.384512,4232.820409,4237.948614,4244.615281,4231.794768
0,0,4238.974255,4231.281948,4254.871691,4238.974255,4225.640922,4222.051179,4216.410153,4212.82041,4216.410153,4198.974256,4224.102461,4236.410153,4237.948614,4235.384512
1,0,4239.999896,4238.461435,4261.538357,4233.33323,4228.205025,4232.820409,4231.281948,4221.025538,4216.410153,4197.948615,4230.769127,4250.769127,4248.205024,4249.743486
2,0,4233.84605,4234.871691,4262.563998,4246.153742,4238.461435,4234.358871,4236.922973,4230.256307,4228.717845,4212.307589,4235.897332,4265.640921,4247.692204,4250.256306
3,0,4237.948614,4226.153743,4260.512716,4256.410152,4248.205024,4232.820409,4229.230666,4231.794768,4237.948614,4227.692204,4236.922973,4263.076819,4241.538358,4246.666563
4,0,4241.538358,4223.07682,4259.999896,4242.051178,4238.974255,4230.256307,4227.692204,4231.281948,4229.743486,4236.922973,4238.974255,4251.281947,4244.10246,4250.256306
5,0,4228.717845,4224.102461,4262.563998,4233.33323,4230.769127,4225.128102,4224.615281,4230.256307,4223.07682,4232.307589,4239.999896,4251.794768,4247.692204,4248.205024
6,0,4227.179384,4233.33323,4262.563998,4249.230665,4243.076819,4239.999896,4224.615281,4230.769127,4238.461435,4218.974256,4240.512717,4265.128101,4249.230665,4250.769127
7,0,4238.974255,4245.128101,4265.128101,4260.512716,4242.051178,4253.84605,4229.743486,4235.897332,4250.769127,4221.538358,4250.769127,4277.435793,4259.999896,4265.640921
8,0,4238.461435,4242.563999,4262.563998,4249.230665,4227.692204,4232.307589,4224.102461,4236.410153,4241.025537,4234.871691,4260.512716,4276.922972,4270.256306,4267.692203
9,0,4228.205025,4230.769127,4250.769127,4233.33323,4231.794768,4217.948615,4215.384512,4228.717845,4230.256307,4223.07682,4255.384511,4263.076819,4263.076819,4253.84605
10,0,4218.974256,4218.974256,4243.58964,4226.153743,4228.717845,4221.025538,4221.025538,4226.666563,4230.256307,4205.640923,4240.512717,4250.769127,4250.256306,4243.076819
11,0,4220.512717,4216.410153,4250.256306,4229.230666,4218.461435,4216.410153,4224.102461,4233.33323,4241.025537,4228.205025,4247.692204,4256.922973,4259.999896,4249.743486
12,0,4226.153743,4225.128102,4251.281947,4243.58964,4229.230666,4217.948615,4217.948615,4235.897332,4248.205024,4254.35887,4263.589639,4266.666562,4274.35887,4260.512716
13,0,4218.974256,4232.307589,4242.051178,4249.743486,4241.025537,4231.281948,4216.922974,4233.84605,4239.999896,4244.10246,4255.897332,4265.128101,4269.743485,4257.435793
14,0,4214.871692,4228.717845,4246.666563,4238.461435,4230.256307,4236.922973,4222.051179,4236.410153,4236.410153,4228.717845,4246.666563,4257.948614,4259.999896,4249.230665
15,0,4216.922974,4220.512717,4253.84605,4233.84605,4229.743486,4214.871692,4221.025538,4228.205025,4231.794768,4216.922974,4241.538358,4244.10246,4252.820409,4243.076819
16,0,4210.769128,4219.487076,4243.076819,4239.487076,4245.128101,4198.461436,4218.461435,4217.948615,4218.974256,4203.589641,4234.358871,4233.84605,4247.179383,4235.897332
17,0,4204.615282,4218.974256,4236.410153,4230.769127,4241.025537,4227.179384,4225.640922,4222.051179,4216.410153,4204.615282,4232.307589,4232.820409,4246.666563,4230.769127
18,0,4206.666564,4213.33323,4242.563999,4224.615281,4227.179384,4264.10246,4232.820409,4222.051179,4221.025538,4216.922974,4230.256307,4232.820409,4245.640922,4228.717845
19,0,4208.205025,4219.999897,4247.179383,4248.717845,4230.769127,4252.820409,4227.179384,4218.974256,4224.102461,4222.051179,4230.769127,4239.999896,4245.128101,4229.743486
20,0,4216.410153,4235.384512,4247.692204,4261.538357,4243.076819,4220.512717,4219.999897,4223.07682,4229.230666,4219.487076,4237.435794,4245.128101,4247.179383,4232.820409
21,0,4222.563999,4229.743486,4244.10246,4235.897332,4245.128101,4216.410153,4222.051179,4224.102461,4228.205025,4213.846051,4238.974255,4237.435794,4246.153742,4234.358871
22,0,4210.256307,4221.538358,4234.871691,4225.640922,4246.153742,4231.281948,4225.640922,4223.58964,4227.179384,4215.897333,4237.435794,4237.435794,4251.794768,4237.948614
23,0,4209.743487,4232.307589,4237.948614,4247.179383,4248.717845,4242.051178,4226.153743,4233.84605,4243.58964,4228.717845,4246.666563,4249.230665,4265.640921,4243.58964
24,0,4230.256307,4233.84605,4251.281947,4248.205024,4245.128101,4228.205025,4222.051179,4241.538358,4251.794768,4233.84605,4251.281947,4248.717845,4264.10246,4244.615281
25,0,4239.999896,4232.307589,4252.820409,4239.487076,4248.717845,4228.205025,4224.615281,4243.076819,4245.128101,4237.948614,4251.794768,4248.717845,4261.025537,4245.128101
26,0,4232.307589,4235.384512,4246.666563,4246.666563,4252.820409,4257.948614,4235.897332,4244.615281,4249.230665,4245.640922,4250.256306,4251.794768,4267.179383,4246.153742
27,0,4221.025538,4221.025538,4234.358871,4232.307589,4250.256306,4253.333229,4238.461435,4235.897332,4247.179383,4235.897332,4234.871691,4233.33323,4253.333229,4230.256307
28,0,4214.871692,4205.128102,4217.435794,4209.743487,4248.205024,4231.794768,4231.281948,4229.230666,4233.33323,4219.487076,4225.640922,4214.871692,4230.769127,4206.153743
29,0,4214.871692,4208.205025,4216.922974,4219.487076,4240.512717,4235.384512,4225.640922,4229.743486,4226.666563,4208.205025,4227.692204,4212.82041,4226.666563,4206.666564
30,0,4219.999897,4217.948615,4229.743486,4233.33323,4229.230666,4228.205025,4221.538358,4229.230666,4228.205025,4203.589641,4217.435794,4212.307589,4229.743486,4217.435794
31,0,4218.461435,4216.922974,4221.538358,4228.205025,4229.230666,4219.487076,4227.692204,4228.717845,4226.666563,4210.256307,4211.794769,4212.307589,4230.769127,4217.948615
32,0,4207.179384,4207.179384,4201.538359,4221.025538,4234.871691,4246.666563,4242.563999,4234.871691,4233.33323,4215.897333,4228.205025,4221.538358,4233.33323,4221.025538
33,0,4206.153743,4204.615282,4207.179384,4210.769128,4234.358871,4262.563998,4245.128101,4246.666563,4245.128101,4217.948615,4238.974255,4231.281948,4232.820409,4232.307589
34,0,4215.897333,4214.871692,4224.615281,4209.743487,4233.33323,4233.33323,4229.743486,4239.999896,4237.435794,4226.666563,4231.794768,4230.769127,4232.307589,4234.358871
35,0,4227.179384,4224.615281,4231.794768,4233.84605,4236.410153,4224.102461,4225.640922,4229.230666,4230.256307,4233.84605,4231.281948,4234.871691,4236.410153,4235.384512
36,0,4226.153743,4212.82041,4231.281948,4239.487076,4231.794768,4243.58964,4231.794768,4238.461435,4237.948614,4227.179384,4234.871691,4241.025537,4235.384512,4233.84605
37,0,4213.33323,4199.999897,4222.051179,4216.922974,4232.307589,4242.051178,4225.128102,4234.871691,4228.717845,4213.846051,4228.205025,4235.897332,4229.230666,4220.512717
38,0,4210.256307,4205.128102,4219.487076,4221.025538,4239.487076,4225.128102,4216.410153,4216.410153,4214.358871,4206.666564,4227.179384,4232.307589,4231.281948,4222.563999
39,0,4215.897333,4210.256307,4230.769127,4233.33323,4229.743486,4224.102461,4226.153743,4218.974256,4216.922974,4211.794769,4233.33323,4234.871691,4231.281948,4228.717845
40,0,4215.384512,4208.717846,4233.84605,4219.487076,4221.538358,4239.487076,4233.84605,4230.256307,4221.025538,4218.974256,4232.820409,4232.820409,4229.230666,4217.435794
41,0,4217.948615,4213.846051,4232.820409,4219.487076,4235.384512,4253.84605,4231.281948,4232.307589,4226.153743,4217.435794,4233.33323,4237.948614,4239.487076,4222.051179
42,0,4222.051179,4224.615281,4235.897332,4245.640922,4231.794768,4247.179383,4228.205025,4233.33323,4234.871691,4220.512717,4235.897332,4249.743486,4248.717845,4236.922973
43,0,4218.974256,4222.563999,4238.461435,4245.128101,4213.846051,4229.743486,4228.205025,4233.33323,4232.820409,4231.281948,4240.512717,4250.256306,4247.179383,4232.820409
44,0,4222.051179,4214.358871,4244.10246,4222.563999,4225.128102,4232.307589,4233.33323,4232.820409,4229.230666,4236.922973,4243.076819,4246.153742,4246.153742,4228.717845
45,0,4225.640922,4217.435794,4248.717845,4231.281948,4239.487076,4236.410153,4231.794768,4233.33323,4232.820409,4232.820409,4237.435794,4242.563999,4248.717845,4234.871691
46,0,4213.846051,4216.922974,4244.10246,4238.461435,4229.743486,4213.846051,4219.999897,4227.179384,4228.205025,4222.051179,4230.769127,4232.820409,4247.692204,4233.33323
47,0,4210.769128,4204.615282,4237.948614,4216.922974,4226.153743,4212.82041,4219.487076,4225.128102,4227.692204,4211.281948,4231.794768,4230.256307,4246.153742,4230.256307
48,0,4222.051179,4206.153743,4232.820409,4221.025538,4234.871691,4242.563999,4228.717845,4231.794768,4236.410153,4218.974256,4235.384512,4241.025537,4247.179383,4233.33323
49,0,4227.692204,4226.666563,4233.84605,4242.051178,4235.384512,4233.33323,4222.563999,4230.769127,4227.179384,4233.84605,4233.33323,4241.025537,4246.666563,4230.256307
50,0,4232.307589,4235.897332,4246.666563,4239.487076,4227.179384,4212.307589,4214.871692,4226.666563,4217.948615,4230.256307,4231.794768,4234.358871,4243.58964,4224.615281
51,0,4237.435794,4234.871691,4252.307588,4235.384512,4231.794768,4238.974255,4223.07682,4233.33323,4231.281948,4227.692204,4242.051178,4241.025537,4246.666563,4233.33323
52,0,4232.307589,4234.358871,4245.640922,4242.051178,4243.58964,4259.487075,4227.692204,4235.384512,4239.487076,4233.33323,4251.281947,4248.717845,4255.384511,4244.615281
53,0,4222.563999,4227.692204,4243.076819,4235.384512,4237.435794,4239.487076,4222.051179,4229.743486,4232.820409,4232.307589,4240.512717,4245.128101,4254.35887,4238.974255
54,0,4218.974256,4230.256307,4241.025537,4230.256307,4230.256307,4222.051179,4217.948615,4230.256307,4231.281948,4229.743486,4229.743486,4240.512717,4246.666563,4229.743486
55,0,4229.230666,4248.717845,4248.205024,4246.666563,4247.179383,4229.743486,4219.487076,4230.769127,4232.307589,4232.307589,4238.974255,4244.615281,4247.179383,4238.461435
56,0,4243.076819,4252.820409,4261.538357,4254.871691,4251.794768,4238.461435,4221.025538,4229.743486,4230.769127,4233.84605,4248.717845,4253.84605,4253.84605,4250.256306
57,0,4238.974255,4235.384512,4258.461434,4241.025537,4233.33323,4229.230666,4218.974256,4232.307589,4234.871691,4233.33323,4246.153742,4258.461434,4256.410152,4252.307588
58,0,4221.025538,4214.358871,4241.538358,4221.025538,4218.461435,4202.051179,4211.281948,4227.179384,4224.615281,4221.538358,4235.384512,4244.615281,4247.179383,4239.999896
59,0,4210.256307,4206.153743,4233.84605,4217.435794,4215.897333,4189.230667,4207.692205,4208.717846,4199.487077,4198.461436,4219.487076,4224.615281,4226.666563,4215.897333
60,0,4215.384512,4221.538358,4241.025537,4234.358871,4224.102461,4217.435794,4218.974256,4210.769128,4201.025538,4198.974256,4219.999897,4226.153743,4225.128102,4215.897333
61,0,4229.743486,4233.84605,4248.717845,4243.58964,4231.281948,4238.974255,4226.153743,4228.717845,4223.58964,4217.435794,4237.435794,4244.615281,4242.051178,4245.128101
62,0,4238.974255,4230.769127,4256.410152,4242.051178,4230.769127,4227.179384,4217.948615,4225.128102,4225.640922,4218.461435,4246.153742,4258.461434,4250.256306,4264.10246
63,0,4244.10246,4237.948614,4266.666562,4246.153742,4231.281948,4218.974256,4218.974256,4218.461435,4212.307589,4215.897333,4246.153742,4263.589639,4254.871691,4262.051178
64,0,4253.333229,4249.230665,4273.333229,4249.230665,4231.794768,4220.512717,4227.179384,4227.692204,4216.410153,4228.205025,4254.871691,4265.640921,4267.179383,4262.563998
65,0,4258.974255,4245.640922,4268.717844,4249.743486,4230.769127,4221.538358,4223.58964,4233.84605,4230.769127,4234.358871,4263.076819,4265.128101,4275.897331,4271.281947
66,0,4264.61528,4256.922973,4261.025537,4259.487075,4237.948614,4224.615281,4216.922974,4230.769127,4235.897332,4233.84605,4262.563998,4261.025537,4280.512716,4282.563998
