title:K                                                                               , recorded:02.07.20 11.38.28, sampling:128, subject:K                                                                               , labels:COUNTER INTERPOLATED AF3 F7 F3 FC5 T7 P7 O1 O2 P8 T8 FC6 F4 F8 AF4,, units:emotiv,,,,,,,,,
54,0,4150.769129,4226.666563,4215.897333,4188.717846,4103.589643,4169.743488,4194.358872,4207.692205,4178.974257,4142.051181,4195.897333,4186.153744,3960.512724,4112.307592
55,0,4142.564001,4204.615282,4190.769128,4151.79477,4072.307593,4106.153746,4169.230667,4193.333231,4153.333232,4090.25631,4174.358872,4163.589642,3929.230673,4095.384515
56,0,4135.897335,4149.743488,4156.922975,4177.435795,4057.435798,4064.102465,4160.512719,4182.564,4126.666566,4066.153747,4172.30759,4155.897334,3904.102469,4088.205028
57,0,4147.692206,4187.692205,4186.153744,4223.58964,4084.102464,4165.640924,4193.846051,4211.794769,4155.384514,4111.794771,4209.743487,4184.102462,3944.615288,4114.358874
58,0,4156.410155,4237.435794,4253.333229,4169.743488,4120.51272,4222.051179,4207.692205,4230.769127,4198.461436,4156.922975,4218.461435,4204.102461,3977.948621,4127.692207
59,0,4143.589642,4196.410154,4226.153743,4141.53836,4108.717848,4128.205027,4176.922975,4204.102461,4176.922975,4146.666565,4184.102462,4180.512718,3947.179391,4101.025541
60,0,4122.051181,4163.076821,4144.615283,4208.717846,4067.692208,4081.538362,4158.974257,4180.512718,4133.846053,4089.74349,4175.384513,4151.28195,3929.230673,4080.512721
61,0,4123.076822,4180.512718,4158.461437,4221.538358,4066.666567,4146.666565,4177.948616,4193.846051,4145.128104,4069.74349,4197.948615,4160.512719,3958.974262,4090.769131
62,0,4128.717848,4186.153744,4205.640923,4175.384513,4094.358874,4159.487078,4186.153744,4204.102461,4167.692206,4114.871694,4196.922974,4173.846052,3954.871698,4093.333233
63,0,4128.205027,4170.256308,4203.589641,4172.30759,4102.051182,4123.076822,4178.974257,4198.974256,4159.999898,4154.358873,4188.717846,4177.435795,3935.384519,4096.922977
64,0,4137.948617,4168.205026,4205.128102,4194.871692,4102.051182,4127.692207,4175.897334,4195.897333,4149.230668,4135.897335,4206.153743,4185.128103,3956.92298,4112.820412
65,0,4159.999898,4186.153744,4215.897333,4210.769128,4109.230669,4154.871693,4178.974257,4203.07682,4160.512719,4116.922976,4223.58964,4193.333231,3977.4358,4122.564002
66,0,4155.897334,4200.512718,4190.769128,4211.794769,4105.640925,4150.256309,4176.410154,4201.025538,4166.666565,4134.358873,4210.256307,4190.256308,3964.615288,4123.589643
67,0,4137.948617,4174.358872,4195.384513,4181.538359,4096.922977,4137.948617,4171.79477,4192.82041,4159.487078,4151.28195,4191.281949,4185.128103,3956.41016,4123.589643
68,0,4139.999899,4145.640924,4236.922973,4164.102462,4115.897335,4109.743489,4160.512719,4185.640923,4147.692206,4126.666566,4188.205026,4184.102462,3955.897339,4117.948617
69,0,4136.410155,4174.871693,4201.025538,4205.640923,4122.051181,4091.794772,4154.871693,4175.384513,4131.794771,4081.025541,4189.230667,4171.281949,3935.384519,4102.051182
70,0,4146.666565,4205.128102,4161.53836,4240.512717,4106.153746,4153.333232,4174.871693,4190.256308,4150.256309,4113.846053,4206.153743,4177.948616,3947.692211,4106.666566
71,0,4177.435795,4191.281949,4224.102461,4215.384512,4110.76913,4188.717846,4183.589641,4206.666564,4172.30759,4178.974257,4217.948615,4198.974256,3984.102467,4133.333232
72,0,4162.564001,4194.871692,4248.717845,4207.179384,4115.384515,4163.589642,4174.871693,4198.974256,4164.615283,4158.974257,4203.07682,4189.743487,3979.487082,4138.461437
73,0,4135.897335,4216.922974,4190.769128,4237.435794,4115.897335,4158.974257,4178.974257,4194.358872,4159.999898,4117.435797,4192.82041,4171.79477,3955.384519,4122.051181
74,0,4144.102463,4200.512718,4188.205026,4224.615281,4121.538361,4136.922976,4171.79477,4193.333231,4159.487078,4123.589643,4187.179385,4170.769129,3945.128109,4118.461438
75,0,4153.333232,4181.025539,4223.07682,4198.974256,4132.820412,4124.615284,4164.615283,4193.846051,4156.410155,4141.53836,4188.717846,4174.871693,3947.179391,4121.02554
76,0,4138.974258,4198.974256,4211.794769,4208.205025,4145.640924,4170.256308,4187.692205,4214.358871,4175.384513,4145.128104,4217.948615,4183.589641,3969.230672,4118.974258
77,0,4147.692206,4192.30759,4207.179384,4211.281948,4149.743488,4186.153744,4201.025538,4224.615281,4193.846051,4150.769129,4232.307589,4195.384513,3978.974262,4131.28195
78,0,4168.717847,4171.79477,4215.384512,4219.999897,4139.487078,4160.512719,4189.743487,4209.230666,4179.487077,4158.461437,4208.717846,4197.948615,3958.461442,4142.564001
79,0,4163.076821,4183.589641,4204.102461,4252.307588,4130.256309,4179.487077,4192.82041,4211.794769,4170.256308,4169.230667,4205.128102,4202.564,3963.076826,4129.230668
80,0,4138.461437,4185.128103,4193.333231,4234.358871,4127.692207,4164.615283,4191.794769,4213.846051,4169.743488,4147.692206,4213.846051,4200.512718,3974.871698,4118.461438
81,0,4137.435796,4152.820411,4209.743487,4189.230667,4114.871694,4125.128104,4177.948616,4203.589641,4164.615283,4112.820412,4205.128102,4189.230667,3957.948621,4123.589643
82,0,4152.307591,4129.230668,4210.769128,4203.589641,4123.589643,4159.999898,4186.153744,4215.384512,4181.025539,4145.640924,4209.743487,4195.384513,3954.358878,4124.102463
83,0,4142.051181,4141.02554,4192.82041,4235.384512,4154.358873,4191.794769,4196.410154,4225.128102,4194.358872,4194.871692,4221.538358,4203.589641,3969.743493,4125.128104
84,0,4153.846052,4166.666565,4211.794769,4247.179383,4155.384514,4187.692205,4193.846051,4216.922974,4184.615282,4184.615282,4218.974256,4203.589641,3972.820416,4137.948617
85,0,4171.79477,4172.820411,4222.051179,4240.512717,4134.871694,4161.53836,4189.743487,4211.794769,4168.717847,4151.28195,4215.384512,4201.025538,3960.512724,4141.02554
86,0,4146.666565,4137.435796,4203.589641,4206.666564,4141.02554,4124.102463,4188.717846,4212.82041,4168.205026,4154.871693,4210.256307,4197.948615,3958.974262,4125.640925
87,0,4131.794771,4108.205028,4228.205025,4190.256308,4158.461437,4144.615283,4197.948615,4223.58964,4193.846051,4185.128103,4218.974256,4210.256307,3968.205031,4124.615284
88,0,4147.692206,4155.897334,4234.358871,4239.487076,4152.820411,4208.717846,4210.769128,4234.871691,4206.153743,4178.974257,4241.538358,4223.07682,3973.333236,4141.02554
89,0,4148.717847,4206.153743,4183.589641,4286.666562,4152.820411,4220.512717,4205.128102,4225.640922,4193.333231,4168.717847,4243.076819,4217.948615,3975.897339,4151.79477
90,0,4151.79477,4186.666564,4186.153744,4274.35887,4168.205026,4184.102462,4189.230667,4211.281948,4191.281949,4194.358872,4225.640922,4214.871692,3973.846057,4157.948616
91,0,4170.769129,4165.640924,4224.615281,4263.076819,4171.79477,4180.512718,4195.384513,4217.948615,4201.538359,4202.051179,4225.640922,4225.640922,3971.281954,4158.974257
92,0,4165.640924,4155.384514,4192.82041,4263.589639,4168.205026,4191.794769,4205.640923,4223.58964,4191.281949,4173.333231,4228.717845,4213.33323,3968.717852,4144.102463
93,0,4139.999899,4138.461437,4187.179385,4221.538358,4172.820411,4170.769129,4196.410154,4211.281948,4174.871693,4182.05118,4207.179384,4183.076821,3962.051185,4124.615284
94,0,4144.615283,4153.846052,4245.640922,4190.769128,4169.743488,4134.871694,4183.589641,4204.615282,4170.256308,4193.846051,4196.922974,4184.615282,3950.256314,4118.461438
95,0,4178.461436,4159.999898,4245.640922,4238.974255,4163.076821,4148.205027,4192.82041,4217.435794,4177.435795,4161.53836,4216.410153,4210.256307,3953.333237,4122.051181
96,0,4176.410154,4159.487078,4190.256308,4306.666561,4163.076821,4218.461435,4216.922974,4236.922973,4201.025538,4167.692206,4225.128102,4221.025538,3963.589647,4134.871694
97,0,4139.487078,4186.666564,4196.410154,4288.205023,4155.384514,4229.743486,4220.512717,4235.897332,4202.564,4203.07682,4210.769128,4208.717846,3955.384519,4147.179386
98,0,4144.102463,4178.461436,4207.692205,4241.538358,4162.564001,4179.487077,4205.640923,4228.205025,4183.076821,4210.769128,4211.794769,4199.487077,3951.281955,4144.102463
99,0,4162.05118,4150.256309,4164.102462,4255.897332,4182.564,4178.461436,4206.666564,4238.461435,4198.974256,4213.846051,4226.666563,4205.128102,3963.076826,4139.999899
100,0,4164.102462,4157.435796,4194.871692,4253.333229,4176.922975,4208.205025,4216.922974,4247.179383,4223.58964,4207.179384,4226.153743,4216.410153,3971.794775,4155.384514
101,0,4171.281949,4163.076821,4249.743486,4218.974256,4161.025539,4193.333231,4215.897333,4240.512717,4211.281948,4186.153744,4225.128102,4217.948615,3965.128108,4159.999898
102,0,4156.410155,4152.820411,4186.666564,4237.948614,4162.564001,4165.640924,4208.205025,4231.281948,4190.769128,4186.666564,4222.051179,4211.281948,3944.615288,4137.948617
103,0,4147.692206,4138.974258,4172.30759,4256.410152,4158.974257,4178.974257,4210.256307,4233.33323,4196.922974,4202.051179,4216.922974,4218.974256,3935.89734,4138.461437
104,0,4175.384513,4134.871694,4247.179383,4257.435793,4148.717847,4203.07682,4220.512717,4241.538358,4210.769128,4207.179384,4232.307589,4231.794768,3948.717852,4168.717847
105,0,4169.743488,4175.897334,4221.025538,4272.307588,4172.820411,4208.205025,4227.692204,4246.666563,4214.871692,4196.410154,4235.897332,4220.512717,3958.461442,4173.846052
106,0,4153.333232,4194.358872,4178.461436,4251.794768,4198.974256,4208.717846,4222.563999,4249.743486,4217.435794,4205.128102,4222.051179,4214.358871,3962.051185,4167.692206
107,0,4187.179385,4164.615283,4229.743486,4229.743486,4167.692206,4193.333231,4211.281948,4247.692204,4217.435794,4237.948614,4230.769127,4232.307589,3980.512723,4179.999898
108,0,4198.461436,4187.692205,4240.512717,4275.897331,4140.512719,4187.692205,4208.717846,4246.666563,4213.846051,4240.512717,4247.692204,4248.205024,3998.974261,4191.794769
109,0,4193.333231,4217.435794,4214.871692,4290.769126,4168.717847,4210.769128,4219.999897,4254.871691,4214.358871,4220.512717,4250.769127,4255.384511,4007.179389,4211.281948
110,0,4215.384512,4192.30759,4224.102461,4259.487075,4196.410154,4190.769128,4217.435794,4255.384511,4214.871692,4222.051179,4258.461434,4256.922973,4014.871697,4230.769127
111,0,4230.256307,4195.897333,4235.384512,4273.333229,4170.769129,4157.435796,4203.07682,4245.640922,4208.205025,4229.230666,4268.205024,4255.897332,4016.410158,4232.307589
112,0,4240.512717,4232.307589,4259.999896,4305.1281,4144.102463,4196.410154,4205.640923,4245.128101,4211.794769,4238.974255,4270.256306,4265.128101,4030.256312,4245.640922
113,0,4257.948614,4225.128102,4274.35887,4290.769126,4165.640924,4221.538358,4213.33323,4245.640922,4219.487076,4251.794768,4268.717844,4270.256306,4047.179388,4266.153742
114,0,4244.615281,4191.794769,4245.640922,4263.589639,4193.846051,4177.435795,4203.589641,4233.33323,4204.615282,4228.717845,4258.461434,4252.307588,4014.871697,4254.871691
115,0,4213.846051,4190.256308,4226.153743,4270.769126,4187.692205,4158.974257,4197.948615,4223.58964,4186.153744,4196.410154,4243.076819,4235.384512,3972.820416,4231.794768
116,0,4224.102461,4212.82041,4255.897332,4279.487075,4152.820411,4192.82041,4209.743487,4229.230666,4193.333231,4195.384513,4241.538358,4247.179383,3988.205031,4231.281948
117,0,4259.999896,4235.897332,4277.435793,4285.640921,4159.487078,4215.384512,4217.948615,4242.051178,4207.692205,4207.179384,4250.256306,4269.743485,4009.230671,4242.051178
118,0,4257.435793,4231.281948,4263.589639,4290.769126,4189.230667,4200.512718,4210.769128,4242.563999,4202.564,4219.999897,4248.205024,4262.563998,3991.794774,4246.153742
119,0,4219.999897,4198.974256,4231.794768,4269.230665,4171.79477,4169.743488,4195.897333,4227.179384,4189.230667,4218.974256,4234.358871,4231.281948,3983.589646,4237.948614
120,0,4213.33323,4189.743487,4225.128102,4244.615281,4161.53836,4163.076821,4193.333231,4222.051179,4187.692205,4222.051179,4233.84605,4232.307589,3987.69221,4226.666563
121,0,4239.999896,4218.974256,4270.769126,4263.076819,4188.717846,4195.897333,4214.358871,4238.974255,4207.692205,4239.999896,4246.153742,4258.974255,3983.589646,4219.999897
122,0,4235.897332,4225.128102,4251.281947,4305.1281,4193.333231,4203.589641,4219.487076,4239.487076,4211.794769,4215.384512,4232.307589,4242.563999,3975.384518,4206.666564
123,0,4201.538359,4199.487077,4183.076821,4294.87169,4181.538359,4168.205026,4194.871692,4216.410153,4188.717846,4181.538359,4209.230666,4205.640923,3956.92298,4194.871692
124,0,4196.410154,4198.974256,4208.717846,4242.051178,4175.384513,4173.333231,4200.512718,4217.435794,4186.153744,4201.538359,4227.179384,4222.051179,3947.692211,4201.538359
125,0,4201.025538,4210.769128,4249.230665,4235.897332,4175.384513,4201.538359,4224.102461,4233.84605,4201.538359,4216.922974,4251.794768,4251.794768,3960.512724,4199.999897
126,0,4191.794769,4176.410154,4220.512717,4264.10246,4187.692205,4189.230667,4217.435794,4236.922973,4205.128102,4230.769127,4237.435794,4237.435794,3959.487083,4173.333231
127,0,4174.871693,4153.846052,4201.025538,4251.281947,4176.922975,4176.922975,4210.256307,4235.897332,4211.794769,4269.743485,4223.58964,4223.07682,3950.256314,4162.564001
128,0,4181.025539,4190.256308,4223.07682,4225.128102,4157.948616,4211.281948,4222.563999,4242.563999,4219.487076,4254.35887,4233.84605,4235.897332,3963.076826,4185.128103
0,0,4196.410154,4198.461436,4225.640922,4232.307589,4194.358872,4213.33323,4213.33323,4233.33323,4206.666564,4200.512718,4233.33323,4230.769127,3971.281954,4191.281949
1,0,4186.153744,4166.666565,4211.281948,4246.153742,4222.051179,4179.999898,4201.025538,4218.461435,4197.948615,4221.025538,4224.615281,4212.307589,3954.871698,4174.358872
2,0,4162.564001,4177.948616,4181.025539,4275.384511,4175.384513,4178.974257,4207.692205,4221.025538,4202.564,4254.871691,4229.230666,4214.358871,3941.025545,4172.30759
3,0,4152.307591,4186.666564,4167.692206,4282.563998,4153.846052,4177.948616,4207.692205,4223.58964,4192.82041,4205.640923,4229.230666,4217.435794,3939.487083,4167.692206
4,0,4171.281949,4159.999898,4213.846051,4221.025538,4185.640923,4186.153744,4210.256307,4220.512717,4192.30759,4191.794769,4229.743486,4217.435794,3953.333237,4156.410155
5,0,4188.205026,4168.717847,4218.974256,4208.205025,4198.974256,4195.384513,4211.794769,4216.922974,4197.435795,4251.794768,4229.230666,4216.922974,3948.717852,4157.948616
6,0,4170.256308,4192.30759,4174.358872,4269.230665,4193.333231,4196.922974,4203.589641,4222.563999,4195.384513,4252.820409,4222.563999,4213.846051,3932.820417,4159.487078
7,0,4152.820411,4177.435795,4176.410154,4277.948613,4179.999898,4209.743487,4208.717846,4228.205025,4201.025538,4207.179384,4216.922974,4215.384512,3939.999904,4155.897334
8,0,4157.948616,4171.79477,4190.769128,4249.743486,4183.589641,4205.640923,4213.33323,4219.999897,4202.564,4216.410153,4207.692205,4208.205025,3934.871699,4151.28195
9,0,4165.128103,4183.589641,4172.820411,4245.640922,4208.717846,4198.461436,4207.179384,4220.512717,4203.07682,4243.076819,4205.640923,4195.897333,3923.076827,4145.640924
10,0,4164.615283,4165.640924,4186.153744,4236.922973,4198.461436,4202.564,4209.743487,4230.769127,4204.102461,4222.051179,4217.435794,4194.871692,3936.41016,4145.128104
11,0,4167.179385,4147.692206,4231.281948,4223.58964,4181.538359,4180.512718,4208.717846,4227.179384,4190.769128,4199.487077,4221.538358,4199.487077,3932.307596,4144.102463
12,0,4169.743488,4174.358872,4217.948615,4248.205024,4209.230666,4175.384513,4208.205025,4224.615281,4193.846051,4211.281948,4209.743487,4205.640923,3923.589648,4137.435796
13,0,4161.025539,4191.794769,4174.871693,4271.794767,4212.82041,4201.025538,4214.871692,4231.794768,4213.33323,4219.999897,4204.102461,4206.153743,3942.051186,4137.435796
14,0,4159.487078,4177.948616,4169.230667,4254.871691,4176.410154,4191.281949,4211.281948,4228.717845,4205.640923,4217.435794,4202.051179,4195.897333,3935.89734,4135.384514
15,0,4170.256308,4186.666564,4195.384513,4246.666563,4177.435795,4197.435795,4213.33323,4234.358871,4204.102461,4242.051178,4216.410153,4205.128102,3920.512725,4142.051181
16,0,4193.333231,4181.025539,4222.563999,4244.615281,4193.846051,4213.33323,4221.025538,4242.051178,4216.922974,4253.333229,4229.230666,4223.58964,3941.025545,4165.640924
17,0,4189.230667,4153.846052,4221.538358,4229.743486,4189.230667,4172.820411,4212.307589,4230.769127,4203.589641,4224.615281,4211.794769,4216.922974,3948.717852,4165.640924
18,0,4170.769129,4173.333231,4197.948615,4233.33323,4199.487077,4176.410154,4210.769128,4226.666563,4203.07682,4232.820409,4201.538359,4210.769128,3936.41016,4140.512719
19,0,4172.30759,4210.769128,4185.128103,4257.435793,4211.281948,4232.307589,4221.025538,4239.487076,4224.615281,4270.256306,4216.922974,4218.974256,3946.15375,4139.999899
20,0,4171.281949,4187.179385,4194.871692,4248.205024,4195.897333,4219.487076,4214.871692,4236.410153,4213.846051,4239.487076,4221.538358,4214.871692,3948.717852,4146.153745
21,0,4165.128103,4136.410155,4207.692205,4225.640922,4184.102462,4181.025539,4205.640923,4217.948615,4190.256308,4186.666564,4210.256307,4211.281948,3930.769135,4134.358873
22,0,4176.922975,4141.02554,4231.794768,4238.974255,4196.410154,4185.640923,4206.666564,4215.897333,4196.922974,4218.461435,4214.871692,4225.128102,3936.41016,4139.487078
23,0,4181.538359,4190.769128,4225.640922,4251.281947,4216.922974,4194.871692,4202.564,4225.128102,4211.794769,4265.640921,4229.230666,4232.307589,3960.512724,4164.615283
24,0,4173.846052,4209.743487,4189.743487,4246.666563,4227.179384,4207.692205,4206.666564,4233.33323,4217.948615,4254.35887,4229.230666,4234.358871,3972.820416,4173.846052
25,0,4174.871693,4181.538359,4179.999898,4247.179383,4223.58964,4199.487077,4209.230666,4229.230666,4215.897333,4250.256306,4215.897333,4230.256307,3953.846057,4163.076821
26,0,4171.281949,4159.999898,4192.30759,4239.487076,4218.461435,4165.128103,4197.435795,4218.461435,4201.538359,4259.999896,4208.205025,4216.922974,3929.230673,4147.179386
27,0,4172.820411,4171.79477,4208.717846,4231.281948,4207.179384,4166.666565,4199.999897,4224.102461,4194.358872,4227.692204,4223.07682,4218.461435,3942.051186,4147.692206
28,0,4190.256308,4179.999898,4223.07682,4241.025537,4204.102461,4213.846051,4219.999897,4242.051178,4212.82041,4223.07682,4237.948614,4237.948614,3976.92298,4169.230667
29,0,4188.717846,4175.384513,4218.974256,4250.256306,4226.153743,4243.076819,4230.769127,4252.307588,4234.358871,4267.179383,4234.358871,4241.025537,3976.410159,4173.333231
30,0,4166.153744,4172.30759,4192.82041,4248.205024,4253.333229,4205.640923,4214.871692,4245.128101,4226.666563,4264.61528,4221.538358,4222.051179,3952.307596,4150.256309
31,0,4172.30759,4171.79477,4191.281949,4245.128101,4239.487076,4176.922975,4203.589641,4233.84605,4211.794769,4244.615281,4214.871692,4215.384512,3957.948621,4149.230668
32,0,4188.205026,4171.281949,4212.82041,4248.717845,4190.256308,4208.717846,4217.435794,4229.743486,4213.33323,4238.974255,4215.384512,4219.487076,3968.205031,4170.256308
33,0,4185.640923,4169.230667,4205.128102,4254.871691,4194.358872,4211.794769,4221.025538,4226.666563,4207.179384,4210.256307,4218.461435,4214.358871,3968.205031,4170.256308
34,0,4180.512718,4177.948616,4195.384513,4238.974255,4238.461435,4182.05118,4207.692205,4222.051179,4198.461436,4219.999897,4219.487076,4215.384512,3976.410159,4167.179385
35,0,4180.512718,4173.333231,4209.230666,4208.205025,4243.58964,4189.230667,4204.102461,4215.897333,4200.512718,4255.384511,4206.153743,4216.410153,3974.358877,4168.205026
36,0,4173.333231,4157.948616,4214.358871,4214.871692,4241.538358,4210.769128,4210.256307,4215.384512,4200.512718,4236.410153,4198.974256,4210.256307,3967.692211,4156.922975
37,0,4171.281949,4166.153744,4205.640923,4246.666563,4251.281947,4210.256307,4216.922974,4223.07682,4201.025538,4214.871692,4214.358871,4209.230666,3976.410159,4154.871693
38,0,4168.205026,4159.487078,4191.281949,4233.33323,4239.999896,4183.076821,4210.256307,4217.435794,4197.435795,4213.846051,4204.102461,4202.564,3963.076826,4151.28195
39,0,4163.076821,4133.333232,4169.230667,4208.205025,4229.743486,4173.846052,4197.435795,4203.589641,4184.615282,4211.794769,4179.487077,4192.30759,3935.384519,4140.512719
40,0,4163.589642,4137.435796,4168.717847,4228.205025,4249.743486,4201.025538,4201.025538,4207.179384,4182.05118,4209.230666,4198.974256,4205.128102,3947.179391,4148.205027
41,0,4161.53836,4155.897334,4196.410154,4233.33323,4245.128101,4195.897333,4204.102461,4217.435794,4185.640923,4204.102461,4220.512717,4219.487076,3965.128108,4156.410155
42,0,4165.640924,4162.05118,4209.743487,4209.230666,4215.897333,4173.846052,4196.410154,4214.871692,4187.179385,4221.025538,4205.640923,4213.33323,3963.076826,4156.922975
43,0,4188.205026,4167.692206,4198.974256,4218.974256,4221.538358,4215.897333,4206.153743,4214.871692,4202.051179,4258.974255,4205.640923,4217.948615,3971.794775,4169.230667
44,0,4185.640923,4153.846052,4184.615282,4241.538358,4256.922973,4228.717845,4211.794769,4215.897333,4210.769128,4257.948614,4214.871692,4218.461435,3976.410159,4171.79477
45,0,4158.974257,4136.410155,4182.05118,4229.743486,4276.410152,4168.205026,4195.897333,4209.743487,4199.487077,4219.999897,4200.512718,4197.435795,3965.128108,4150.256309
46,0,4166.666565,4154.358873,4188.205026,4216.410153,4246.666563,4174.358872,4201.025538,4214.358871,4199.999897,4212.82041,4203.589641,4195.384513,3974.871698,4145.128104
47,0,4183.589641,4159.999898,4187.692205,4209.230666,4227.179384,4210.769128,4213.33323,4221.538358,4206.666564,4229.230666,4220.512717,4204.615282,3988.717851,4159.487078
48,0,4173.846052,4130.76913,4190.769128,4193.333231,4262.051178,4208.717846,4211.794769,4223.07682,4207.179384,4247.692204,4212.82041,4203.07682,3986.153749,4168.205026
49,0,4167.179385,4127.692207,4194.871692,4216.922974,4295.897331,4216.410153,4213.33323,4228.717845,4208.205025,4269.230665,4210.769128,4207.179384,3995.897338,4170.769129
50,0,4179.487077,4154.871693,4192.30759,4244.615281,4291.281946,4217.948615,4214.871692,4231.281948,4205.640923,4259.487075,4223.58964,4216.922974,4010.256312,4169.230667
51,0,4186.666564,4166.153744,4194.871692,4220.512717,4251.281947,4201.538359,4211.281948,4227.692204,4208.205025,4223.58964,4225.128102,4215.384512,4008.20503,4171.281949
52,0,4190.769128,4147.179386,4204.615282,4205.640923,4224.102461,4206.153743,4210.769128,4224.615281,4217.948615,4211.794769,4213.846051,4211.794769,3996.410159,4171.79477
53,0,4193.846051,4134.871694,4213.846051,4236.922973,4259.487075,4219.999897,4214.871692,4226.153743,4216.922974,4253.333229,4211.281948,4220.512717,3998.461441,4167.692206
54,0,4198.461436,4152.820411,4222.051179,4236.410153,4316.410151,4222.051179,4221.538358,4231.794768,4213.33323,4288.205023,4225.128102,4231.794768,4014.358876,4178.461436
55,0,4197.948615,4156.922975,4223.07682,4193.333231,4305.1281,4224.615281,4223.07682,4231.794768,4218.461435,4270.769126,4234.358871,4234.871691,4019.487081,4190.256308
56,0,4185.640923,4128.717848,4204.102461,4188.717846,4243.076819,4198.974256,4210.769128,4217.948615,4205.128102,4237.948614,4224.615281,4227.179384,4004.102466,4176.922975
57,0,4176.922975,4123.076822,4191.281949,4221.025538,4227.179384,4169.230667,4203.589641,4211.281948,4189.743487,4221.538358,4214.871692,4225.128102,3997.94862,4163.076821
58,0,4189.743487,4159.487078,4205.640923,4228.205025,4260.512716,4206.153743,4213.846051,4224.102461,4208.717846,4237.948614,4221.025538,4232.820409,4009.230671,4172.820411
59,0,4196.410154,4171.79477,4213.846051,4201.025538,4299.999895,4232.820409,4217.435794,4224.102461,4217.948615,4252.820409,4221.538358,4226.666563,4005.640928,4173.333231
60,0,4187.692205,4157.948616,4210.256307,4187.692205,4302.051177,4201.025538,4209.743487,4215.384512,4202.051179,4234.358871,4212.82041,4217.435794,3998.974261,4164.102462
61,0,4188.205026,4170.256308,4222.563999,4213.33323,4258.974255,4196.410154,4208.717846,4224.615281,4202.051179,4228.717845,4221.025538,4228.205025,4006.153748,4175.897334
62,0,4194.871692,4183.076821,4227.692204,4238.461435,4237.435794,4226.666563,4213.33323,4229.743486,4214.871692,4246.666563,4231.794768,4236.410153,4010.769133,4186.153744
63,0,4191.281949,4170.769129,4205.128102,4218.461435,4272.307588,4216.922974,4209.230666,4216.922974,4206.153743,4255.897332,4222.563999,4222.563999,4006.666569,4173.333231
64,0,4184.615282,4158.974257,4195.897333,4188.717846,4296.922972,4185.640923,4200.512718,4212.307589,4196.410154,4248.717845,4203.589641,4207.179384,3997.4358,4157.435796
65,0,4184.102462,4157.948616,4201.538359,4204.102461,4271.281947,4189.230667,4205.128102,4215.384512,4196.922974,4233.84605,4200.512718,4204.102461,3991.281954,4149.230668
66,0,4186.666564,4163.589642,4206.153743,4219.487076,4253.84605,4203.07682,4212.82041,4218.461435,4198.461436,4232.307589,4219.999897,4219.999897,4010.769133,4165.128103
67,0,4191.281949,4178.974257,4226.666563,4198.974256,4277.948613,4211.281948,4213.33323,4229.743486,4213.33323,4251.794768,4235.897332,4250.769127,4040.512722,4201.538359
68,0,4185.128103,4166.666565,4231.794768,4192.82041,4284.102459,4197.435795,4204.102461,4225.128102,4218.461435,4245.640922,4233.33323,4250.769127,4032.820414,4199.999897
69,0,4180.512718,4146.666565,4202.564,4219.999897,4268.717844,4171.79477,4199.999897,4208.205025,4198.974256,4225.640922,4229.743486,4227.692204,4013.333235,4171.281949
70,0,4190.769128,4177.435795,4199.487077,4231.281948,4282.563998,4191.281949,4212.307589,4219.999897,4202.051179,4258.461434,4236.410153,4232.307589,4026.153748,4178.461436
71,0,4200.512718,4193.846051,4228.717845,4221.025538,4294.87169,4234.871691,4227.179384,4241.025537,4220.512717,4294.358869,4236.922973,4251.281947,4036.410158,4196.922974
72,0,4198.974256,4169.230667,4239.999896,4212.82041,4284.61528,4237.435794,4227.179384,4235.384512,4213.33323,4267.179383,4235.384512,4248.717845,4025.128107,4192.30759
73,0,4198.461436,4161.025539,4228.717845,4207.692205,4284.102459,4205.640923,4215.897333,4218.461435,4196.410154,4229.230666,4233.84605,4229.743486,4017.94862,4188.717846
74,0,4191.281949,4166.666565,4219.487076,4213.33323,4274.87169,4201.025538,4208.205025,4209.230666,4192.30759,4229.230666,4222.563999,4215.897333,4019.487081,4187.179385
75,0,4185.128103,4158.461437,4215.384512,4213.846051,4269.743485,4199.999897,4207.692205,4206.666564,4188.717846,4244.615281,4211.281948,4213.846051,4014.358876,4172.820411
76,0,4192.82041,4162.564001,4216.410153,4201.025538,4305.1281,4179.487077,4212.82041,4210.769128,4192.82041,4263.589639,4214.871692,4221.538358,4015.384517,4172.820411
77,0,4204.615282,4184.615282,4228.717845,4204.615282,4322.563997,4205.128102,4224.102461,4224.615281,4214.358871,4281.538357,4229.743486,4234.358871,4030.256312,4193.846051
78,0,4199.999897,4168.205026,4233.84605,4213.846051,4277.948613,4241.025537,4227.692204,4232.820409,4218.974256,4266.666562,4228.717845,4237.948614,4034.871696,4196.922974
79,0,4191.794769,4141.02554,4229.743486,4214.358871,4261.025537,4227.692204,4221.538358,4229.230666,4204.102461,4235.897332,4222.051179,4232.307589,4032.820414,4184.102462
80,0,4201.025538,4168.717847,4229.743486,4223.58964,4279.999895,4211.794769,4217.435794,4222.051179,4202.051179,4231.281948,4231.794768,4231.794768,4035.897337,4183.076821
81,0,4208.205025,4199.487077,4231.281948,4224.615281,4282.563998,4211.794769,4212.307589,4213.33323,4205.640923,4240.512717,4236.410153,4236.410153,4035.384517,4193.846051
82,0,4199.487077,4169.743488,4224.102461,4199.487077,4309.743484,4183.076821,4201.025538,4206.153743,4193.846051,4245.128101,4221.538358,4228.717845,4027.179389,4195.897333
83,0,4198.974256,4151.79477,4224.102461,4192.82041,4332.820407,4174.358872,4206.153743,4212.82041,4190.256308,4268.205024,4221.538358,4228.717845,4032.820414,4198.974256
84,0,4215.897333,4190.769128,4241.025537,4222.051179,4294.87169,4231.281948,4228.717845,4230.256307,4212.307589,4277.948613,4248.205024,4253.84605,4048.205029,4210.769128
85,0,4218.461435,4194.871692,4249.743486,4225.640922,4266.666562,4260.512716,4231.281948,4236.410153,4230.256307,4264.10246,4251.281947,4265.640921,4050.769132,4217.948615
86,0,4215.384512,4159.487078,4244.10246,4194.358872,4293.846049,4234.871691,4218.974256,4228.717845,4229.743486,4270.256306,4230.256307,4252.307588,4049.743491,4215.384512
87,0,4214.871692,4167.692206,4231.281948,4189.743487,4315.38451,4212.307589,4214.871692,4223.07682,4219.999897,4276.410152,4231.281948,4239.487076,4051.794773,4202.564
88,0,4197.435795,4179.487077,4212.82041,4214.871692,4305.64092,4182.05118,4206.153743,4208.717846,4188.205026,4243.076819,4229.743486,4219.487076,4032.307594,4185.640923
89,0,4188.205026,4157.435796,4210.769128,4225.640922,4295.897331,4176.922975,4203.07682,4197.948615,4176.410154,4227.692204,4217.435794,4209.230666,4016.922979,4187.179385
90,0,4215.384512,4160.512719,4238.974255,4212.82041,4289.743485,4242.563999,4229.743486,4222.563999,4224.615281,4271.794767,4233.84605,4237.948614,4049.743491,4211.281948
91,0,4227.179384,4185.128103,4254.871691,4194.358872,4307.179382,4269.743485,4238.974255,4247.692204,4254.871691,4301.025536,4250.769127,4254.35887,4066.153747,4218.974256
92,0,4213.33323,4174.871693,4235.384512,4193.333231,4318.974253,4212.82041,4221.025538,4232.307589,4223.07682,4266.666562,4232.307589,4230.769127,4034.358876,4198.461436
93,0,4211.281948,4158.461437,4222.051179,4217.435794,4293.333228,4195.897333,4219.487076,4218.974256,4207.179384,4236.922973,4225.640922,4225.640922,4037.435799,4198.461436
94,0,4219.487076,4163.589642,4232.820409,4223.58964,4286.153741,4228.205025,4226.666563,4223.58964,4225.128102,4257.948614,4239.487076,4242.051178,4069.74349,4219.999897
95,0,4217.948615,4159.487078,4233.84605,4199.999897,4304.615279,4224.102461,4221.538358,4218.974256,4220.512717,4285.640921,4232.820409,4236.410153,4054.871696,4216.410153
96,0,4216.922974,4151.79477,4228.717845,4186.153744,4312.307587,4212.82041,4223.07682,4220.512717,4212.82041,4272.307588,4227.692204,4228.205025,4037.435799,4198.461436
97,0,4221.538358,4159.999898,4238.974255,4192.30759,4304.102459,4219.487076,4228.205025,4228.717845,4216.922974,4251.281947,4235.897332,4241.538358,4056.410157,4207.692205
98,0,4222.051179,4151.28195,4243.076819,4204.615282,4292.820408,4213.33323,4222.051179,4218.461435,4207.692205,4253.84605,4229.230666,4249.230665,4057.948619,4219.487076
99,0,4217.948615,4134.871694,4229.743486,4218.461435,4295.897331,4217.948615,4220.512717,4211.281948,4208.717846,4247.692204,4226.666563,4243.58964,4050.769132,4217.948615
100,0,4213.33323,4138.461437,4227.179384,4210.256307,4297.435792,4231.794768,4223.07682,4221.538358,4221.538358,4230.769127,4245.128101,4241.025537,4062.564003,4218.461435
101,0,4212.82041,4140.512719,4235.384512,4182.564,4287.179382,4213.33323,4215.384512,4214.358871,4208.717846,4243.58964,4244.10246,4236.922973,4059.48708,4208.205025
102,0,4214.358871,4134.871694,4233.33323,4183.589641,4295.38451,4190.769128,4207.179384,4203.07682,4196.922974,4273.333229,4224.615281,4230.769127,4048.71785,4195.897333
103,0,4223.58964,4141.53836,4237.435794,4217.948615,4307.179382,4211.281948,4213.846051,4215.897333,4215.384512,4267.179383,4233.84605,4240.512717,4062.564003,4209.230666
104,0,4228.717845,4148.205027,4248.717845,4223.07682,4296.410151,4238.461435,4219.487076,4230.769127,4227.692204,4246.153742,4250.256306,4253.333229,4072.820413,4220.512717
105,0,4214.871692,4134.871694,4238.974255,4187.179385,4300.512715,4217.435794,4213.33323,4218.974256,4216.922974,4259.487075,4235.384512,4236.922973,4051.794773,4198.461436
106,0,4202.051179,4117.435797,4221.025538,4181.538359,4314.871689,4190.769128,4208.717846,4198.974256,4210.256307,4270.256306,4222.563999,4214.871692,4036.922978,4189.230667
107,0,4216.410153,4118.974258,4227.692204,4202.564,4303.589638,4198.974256,4209.743487,4202.564,4210.256307,4253.333229,4235.897332,4228.717845,4053.333234,4210.769128
108,0,4231.281948,4136.410155,4245.128101,4217.435794,4288.205023,4207.692205,4210.256307,4216.410153,4209.743487,4250.256306,4247.692204,4255.897332,4074.871695,4222.051179
109,0,4233.84605,4143.076822,4247.692204,4231.281948,4290.769126,4222.563999,4216.922974,4220.512717,4222.563999,4270.256306,4251.794768,4261.025537,4085.128105,4219.487076
110,0,4228.205025,4131.28195,4241.025537,4216.410153,4312.307587,4246.666563,4223.07682,4216.410153,4227.179384,4271.281947,4249.743486,4250.769127,4075.897336,4217.435794
111,0,4222.051179,4122.564002,4235.384512,4187.179385,4334.358868,4239.487076,4219.487076,4215.384512,4211.281948,4238.974255,4237.948614,4239.487076,4051.794773,4207.692205
112,0,4212.307589,4108.717848,4228.717845,4192.30759,4322.563997,4199.487077,4214.358871,4212.307589,4195.384513,4210.769128,4225.128102,4231.281948,4044.102465,4195.384513
113,0,4212.82041,4093.333233,4231.281948,4210.769128,4286.666562,4197.435795,4219.487076,4213.33323,4199.999897,4226.153743,4225.640922,4232.307589,4056.410157,4203.07682
114,0,4225.640922,4107.692207,4246.153742,4202.564,4276.410152,4229.743486,4228.205025,4223.07682,4221.538358,4253.333229,4231.794768,4242.563999,4060.512721,4217.435794
115,0,4236.410153,4126.153745,4250.256306,4196.410154,4312.820407,4239.487076,4229.230666,4226.153743,4232.307589,4251.281947,4232.307589,4246.153742,4063.076824,4218.461435
116,0,4236.922973,4122.051181,4243.58964,4206.153743,4334.358868,4225.128102,4223.58964,4223.07682,4224.615281,4268.205024,4234.358871,4245.640922,4075.384516,4213.846051
117,0,4232.307589,4119.999899,4250.256306,4214.358871,4303.589638,4217.435794,4219.487076,4223.58964,4224.102461,4290.769126,4237.435794,4250.256306,4072.307593,4216.922974
118,0,4229.230666,4120.51272,4255.897332,4221.025538,4284.61528,4227.692204,4225.128102,4224.615281,4228.717845,4261.538357,4234.871691,4250.769127,4062.051183,4221.538358
119,0,4222.563999,4112.820412,4238.974255,4210.256307,4317.948612,4223.07682,4224.615281,4219.487076,4214.871692,4214.358871,4230.769127,4235.897332,4069.23067,4215.897333
120,0,4223.58964,4108.205028,4220.512717,4198.461436,4330.256304,4206.666564,4213.846051,4212.82041,4203.589641,4214.358871,4228.205025,4223.58964,4073.333234,4207.692205
121,0,4232.307589,4109.230669,4234.871691,4208.205025,4297.948613,4222.051179,4214.358871,4216.410153,4218.974256,4259.487075,4231.281948,4238.461435,4070.769131,4217.435794
122,0,4227.692204,4105.640925,4252.820409,4211.794769,4296.922972,4246.666563,4223.58964,4220.512717,4229.230666,4286.153741,4241.025537,4248.717845,4077.435798,4225.128102
123,0,4213.33323,4098.974259,4238.461435,4201.025538,4316.922971,4234.358871,4219.487076,4215.897333,4221.538358,4263.076819,4240.512717,4235.897332,4077.948618,4205.640923
124,0,4217.948615,4090.25631,4226.153743,4194.871692,4302.563997,4216.922974,4216.922974,4215.897333,4217.948615,4238.974255,4232.307589,4232.307589,4073.846054,4201.025538
125,0,4225.640922,4086.153746,4231.281948,4196.410154,4284.102459,4213.33323,4222.563999,4221.538358,4212.307589,4234.358871,4227.179384,4233.33323,4072.307593,4215.384512
126,0,4218.461435,4095.384515,4231.794768,4204.102461,4291.281946,4211.794769,4222.563999,4214.871692,4206.666564,4233.84605,4226.666563,4227.692204,4066.666567,4207.692205
127,0,4219.487076,4115.384515,4237.435794,4218.974256,4296.410151,4245.128101,4227.692204,4215.384512,4223.58964,4253.84605,4234.358871,4238.974255,4071.794772,4201.538359
128,0,4226.666563,4111.281951,4248.205024,4213.33323,4304.615279,4271.794767,4233.84605,4223.58964,4236.922973,4275.384511,4231.794768,4245.128101,4080.512721,4217.948615
0,0,4212.82041,4084.615285,4238.974255,4195.384513,4303.076818,4234.871691,4220.512717,4214.871692,4210.256307,4244.615281,4217.435794,4224.615281,4076.410157,4214.358871
1,0,4201.025538,4083.589644,4218.974256,4197.435795,4277.435793,4188.717846,4204.102461,4195.384513,4175.897334,4194.871692,4210.256307,4208.717846,4061.025542,4184.102462
2,0,4208.717846,4104.615284,4214.871692,4205.640923,4292.820408,4195.384513,4204.615282,4193.333231,4186.666564,4198.461436,4213.33323,4214.358871,4064.102465,4185.640923
3,0,4225.128102,4115.897335,4223.58964,4202.564,4319.487074,4240.512717,4223.07682,4211.794769,4219.487076,4255.897332,4221.538358,4225.128102,4085.640926,4216.410153
4,0,4230.256307,4113.846053,4233.33323,4194.871692,4284.61528,4259.999896,4238.461435,4230.256307,4231.281948,4288.205023,4231.794768,4231.794768,4090.769131,4225.640922
5,0,4224.102461,4103.589643,4235.384512,4199.487077,4271.794767,4232.820409,4229.743486,4229.230666,4221.025538,4261.025537,4229.743486,4229.230666,4076.922977,4211.281948
6,0,4220.512717,4086.666567,4234.358871,4208.205025,4310.769125,4218.461435,4221.025538,4220.512717,4212.82041,4243.076819,4228.205025,4225.640922,4081.025541,4211.281948
7,0,4227.179384,4088.205028,4229.230666,4206.666564,4310.256305,4251.281947,4233.33323,4221.538358,4220.512717,4249.743486,4237.435794,4234.358871,4092.820413,4221.538358
8,0,4225.128102,4101.025541,4217.948615,4199.487077,4282.563998,4254.871691,4229.743486,4221.025538,4230.769127,4248.717845,4223.58964,4232.820409,4073.333234,4211.281948
9,0,4212.82041,4097.435797,4222.051179,4194.358872,4287.179382,4213.846051,4210.769128,4217.948615,4225.128102,4253.333229,4209.230666,4224.102461,4072.307593,4208.205025
10,0,4216.410153,4083.076823,4231.794768,4194.358872,4288.205023,4200.512718,4211.281948,4217.435794,4211.794769,4252.307588,4227.179384,4226.153743,4097.948618,4221.538358
11,0,4224.615281,4073.333234,4229.743486,4202.051179,4282.051177,4234.871691,4229.230666,4217.435794,4213.33323,4253.84605,4241.025537,4231.794768,4103.076823,4222.563999
12,0,4224.615281,4082.564003,4232.307589,4201.025538,4297.948613,4262.051178,4239.487076,4220.512717,4225.128102,4273.333229,4235.897332,4235.897332,4100.51272,4222.051179
13,0,4219.999897,4099.9999,4229.230666,4193.333231,4303.589638,4254.871691,4232.820409,4226.153743,4229.743486,4275.897331,4237.948614,4238.974255,4104.102464,4231.281948
14,0,4216.922974,4094.871695,4210.769128,4205.640923,4295.38451,4252.820409,4230.256307,4225.128102,4230.256307,4260.512716,4238.974255,4230.769127,4097.948618,4230.256307
15,0,4208.205025,4071.281952,4195.384513,4197.948615,4290.256305,4234.358871,4225.128102,4210.256307,4223.07682,4248.717845,4224.102461,4212.307589,4088.205028,4209.743487
16,0,4206.153743,4066.153747,4200.512718,4162.564001,4274.87169,4196.410154,4211.281948,4197.948615,4211.794769,4237.948614,4217.948615,4209.230666,4091.281951,4203.589641
17,0,4210.256307,4079.9999,4212.82041,4185.640923,4275.897331,4214.358871,4212.307589,4208.717846,4217.948615,4248.717845,4233.33323,4222.051179,4106.153746,4220.512717
18,0,4207.692205,4081.538362,4208.717846,4236.410153,4300.512715,4254.35887,4228.717845,4220.512717,4222.563999,4268.717844,4238.974255,4217.435794,4110.76913,4215.384512
19,0,4204.615282,4083.076823,4201.538359,4215.384512,4290.256305,4246.153742,4229.743486,4218.461435,4220.512717,4270.256306,4234.871691,4212.82041,4107.692207,4203.07682
20,0,4216.410153,4093.846054,4215.384512,4175.897334,4278.974254,4234.358871,4219.999897,4215.897333,4229.230666,4278.461434,4239.487076,4229.230666,4116.410156,4220.512717
21,0,4225.640922,4092.820413,4231.281948,4199.999897,4313.846048,4242.051178,4221.538358,4217.435794,4232.307589,4292.820408,4238.461435,4236.922973,4122.564002,4240.512717
22,0,4225.640922,4081.538362,4227.692204,4228.717845,4312.307587,4233.33323,4224.615281,4214.871692,4220.512717,4265.640921,4231.281948,4226.666563,4113.846053,4230.769127
23,0,4225.640922,4082.564003,4227.692204,4206.666564,4263.589639,4223.58964,4222.051179,4209.743487,4213.846051,4222.051179,4237.948614,4232.307589,4112.307592,4225.128102
24,0,4230.256307,4103.076823,4237.948614,4196.922974,4265.128101,4236.922973,4222.051179,4210.256307,4214.358871,4241.538358,4244.10246,4250.256306,4116.410156,4242.051178
25,0,4232.820409,4105.128105,4233.84605,4224.102461,4294.87169,4250.256306,4226.666563,4214.871692,4217.435794,4291.794767,4234.871691,4250.769127,4114.871694,4247.179383
26,0,4229.230666,4073.846054,4226.153743,4233.33323,4291.794767,4239.487076,4224.615281,4217.435794,4219.487076,4285.1281,4231.281948,4243.076819,4121.538361,4238.461435
27,0,4232.820409,4050.769132,4236.410153,4209.230666,4288.205023,4219.999897,4217.948615,4214.871692,4215.384512,4250.256306,4239.999896,4246.666563,4124.102463,4228.205025
28,0,4236.410153,4055.897337,4248.205024,4198.974256,4291.281946,4225.128102,4221.025538,4216.410153,4221.025538,4255.384511,4245.128101,4251.281947,4118.461438,4231.794768
29,0,4230.769127,4064.102465,4242.051178,4217.435794,4278.974254,4243.58964,4228.717845,4221.538358,4233.33323,4276.410152,4247.179383,4247.179383,4127.179386,4250.256306
30,0,4228.717845,4071.794772,4230.256307,4239.487076,4275.384511,4248.717845,4234.358871,4230.769127,4235.384512,4290.769126,4246.666563,4248.205024,4140.512719,4256.922973
31,0,4244.10246,4079.9999,4233.33323,4237.435794,4287.692203,4261.025537,4242.051178,4236.922973,4238.974255,4290.769126,4250.769127,4262.051178,4144.615283,4254.35887
32,0,4241.538358,4065.640926,4238.461435,4211.281948,4291.281946,4262.051178,4239.999896,4222.563999,4236.922973,4266.153742,4252.820409,4257.948614,4142.564001,4250.256306
33,0,4218.974256,4047.692209,4230.256307,4200.512718,4289.743485,4236.922973,4228.205025,4208.717846,4224.102461,4264.61528,4237.435794,4234.358871,4137.948617,4237.435794
34,0,4217.435794,4053.846055,4217.948615,4223.07682,4295.38451,4228.205025,4228.205025,4221.025538,4227.179384,4283.076818,4228.717845,4233.33323,4133.333232,4229.743486
35,0,4228.205025,4069.74349,4215.897333,4223.58964,4286.153741,4247.692204,4239.487076,4233.84605,4244.615281,4285.1281,4242.051178,4248.205024,4137.948617,4244.10246
36,0,4225.128102,4077.948618,4219.999897,4197.948615,4273.333229,4260.512716,4241.025537,4232.307589,4249.743486,4297.435792,4255.897332,4242.563999,4146.153745,4249.230665
37,0,4219.487076,4078.461439,4218.461435,4208.205025,4276.922972,4249.743486,4235.384512,4231.794768,4243.58964,4295.897331,4250.256306,4231.794768,4142.051181,4234.358871
38,0,4219.487076,4090.769131,4221.025538,4237.948614,4293.846049,4249.230665,4237.435794,4228.717845,4245.128101,4275.384511,4245.640922,4244.10246,4138.974258,4237.435794
39,0,4228.205025,4099.9999,4234.358871,4230.769127,4315.38451,4261.538357,4241.025537,4224.615281,4251.281947,4282.051177,4248.205024,4254.871691,4144.102463,4246.153742
40,0,4219.487076,4075.384516,4230.769127,4198.461436,4301.025536,4233.33323,4228.205025,4218.461435,4235.897332,4271.794767,4232.820409,4234.871691,4137.948617,4228.717845
41,0,4205.640923,4061.538362,4214.871692,4190.256308,4252.820409,4214.871692,4223.07682,4211.281948,4213.33323,4243.58964,4218.461435,4222.563999,4131.28195,4223.07682
42,0,4225.640922,4102.051182,4224.102461,4225.128102,4248.205024,4258.461434,4238.974255,4217.435794,4219.999897,4267.692203,4231.794768,4241.025537,4145.128104,4244.10246
43,0,4253.84605,4135.897335,4247.179383,4248.717845,4290.769126,4272.307588,4242.051178,4225.128102,4232.820409,4295.897331,4249.743486,4253.84605,4150.769129,4248.205024
44,0,4248.205024,4110.76913,4250.256306,4226.153743,4296.922972,4239.999896,4235.897332,4217.435794,4228.205025,4278.974254,4244.615281,4246.666563,4141.02554,4239.487076
45,0,4231.794768,4090.769131,4242.051178,4217.435794,4275.897331,4229.230666,4232.307589,4209.743487,4226.666563,4262.563998,4231.794768,4243.076819,4141.02554,4245.128101
46,0,4236.410153,4117.948617,4250.256306,4246.666563,4273.333229,4229.230666,4225.640922,4219.999897,4237.948614,4268.717844,4239.487076,4250.256306,4155.897334,4256.410152
47,0,4247.692204,4150.256309,4271.281947,4250.769127,4266.666562,4241.538358,4235.897332,4236.922973,4252.307588,4283.589639,4260.512716,4267.179383,4171.79477,4267.179383
48,0,4245.640922,4139.487078,4264.10246,4223.58964,4264.10246,4261.025537,4248.205024,4234.358871,4246.666563,4282.563998,4255.897332,4270.256306,4157.435796,4265.640921
49,0,4230.769127,4106.666566,4232.307589,4214.358871,4284.102459,4241.538358,4234.871691,4219.999897,4224.615281,4259.487075,4233.84605,4245.640922,4136.922976,4245.640922
50,0,4233.33323,4115.897335,4233.33323,4233.84605,4287.179382,4234.358871,4230.256307,4222.563999,4231.794768,4269.230665,4238.461435,4240.512717,4154.358873,4238.974255
51,0,4248.717845,4152.820411,4258.974255,4246.153742,4285.1281,4267.692203,4248.205024,4238.461435,4255.897332,4301.538356,4255.384511,4267.692203,4181.025539,4256.410152
52,0,4241.538358,4132.307591,4251.794768,4213.33323,4286.153741,4244.615281,4244.615281,4234.358871,4242.563999,4283.589639,4245.640922,4266.666562,4158.461437,4246.666563
53,0,4223.07682,4088.717849,4235.897332,4191.281949,4257.948614,4214.871692,4233.33323,4225.640922,4222.051179,4254.871691,4234.358871,4245.128101,4132.307591,4224.102461
54,0,4227.179384,4109.230669,4244.10246,4226.153743,4258.974255,4253.84605,4246.153742,4232.307589,4234.871691,4267.692203,4244.10246,4246.153742,4153.333232,4238.974255
55,0,4234.871691,4144.102463,4241.538358,4253.333229,4306.666561,4275.897331,4248.717845,4237.435794,4248.717845,4285.1281,4248.717845,4251.794768,4172.820411,4258.974255
56,0,4238.461435,4138.461437,4228.205025,4241.025537,4290.769126,4248.205024,4239.487076,4233.84605,4245.640922,4284.61528,4253.84605,4250.769127,4172.820411,4253.333229
57,0,4238.461435,4124.615284,4233.84605,4223.58964,4249.230665,4233.84605,4242.051178,4231.281948,4245.128101,4292.820408,4266.666562,4261.538357,4183.076821,4247.692204
58,0,4230.256307,4112.820412,4239.999896,4211.281948,4280.512716,4230.769127,4240.512717,4229.743486,4242.051178,4297.435792,4257.435793,4268.717844,4186.153744,4252.820409
59,0,4230.769127,4108.717848,4242.563999,4216.922974,4307.692202,4225.128102,4234.358871,4229.230666,4232.307589,4280.512716,4242.563999,4264.10246,4173.333231,4257.948614
60,0,4246.153742,4128.205027,4251.794768,4239.999896,4281.538357,4247.179383,4241.025537,4232.820409,4235.897332,4276.922972,4257.435793,4263.589639,4173.333231,4265.640921
61,0,4245.128101,4143.589642,4244.10246,4234.358871,4265.128101,4263.076819,4243.58964,4230.769127,4249.743486,4290.256305,4270.256306,4256.922973,4183.076821,4266.666562
62,0,4226.666563,4133.846053,4217.435794,4223.07682,4271.794767,4252.307588,4232.820409,4221.025538,4250.256306,4290.256305,4250.256306,4243.076819,4181.025539,4253.84605
63,0,4228.717845,4117.948617,4219.999897,4234.358871,4282.051177,4244.615281,4234.358871,4217.948615,4242.051178,4280.512716,4239.999896,4242.051178,4179.999898,4248.205024
64,0,4237.948614,4112.820412,4244.615281,4222.563999,4276.410152,4233.33323,4236.410153,4216.922974,4229.743486,4263.589639,4251.794768,4249.743486,4177.948616,4253.333229
65,0,4230.769127,4116.410156,4243.076819,4204.615282,4251.794768,4221.025538,4227.179384,4209.230666,4218.461435,4259.999896,4246.666563,4247.692204,4165.128103,4251.281947
66,0,4223.58964,4124.615284,4226.153743,4229.743486,4265.128101,4214.358871,4226.153743,4206.153743,4217.435794,4277.948613,4230.256307,4241.025537,4162.05118,4243.076819
67,0,4239.999896,4141.53836,4234.871691,4257.435793,4295.38451,4231.794768,4239.999896,4221.538358,4232.307589,4290.256305,4241.025537,4254.871691,4184.102462,4252.820409
68,0,4255.384511,4158.974257,4253.84605,4248.717845,4289.743485,4262.563998,4245.640922,4232.307589,4247.179383,4285.1281,4262.051178,4277.948613,4201.538359,4270.769126
69,0,4248.205024,4148.205027,4249.230665,4228.717845,4279.487075,4258.461434,4233.33323,4221.025538,4238.461435,4268.717844,4254.35887,4265.640921,4183.076821,4256.922973
70,0,4236.410153,4129.230668,4240.512717,4226.666563,4262.563998,4229.230666,4224.102461,4212.82041,4225.640922,4258.461434,4242.051178,4245.128101,4169.230667,4244.10246
71,0,4239.487076,4124.615284,4252.820409,4221.025538,4248.717845,4221.025538,4227.179384,4217.948615,4229.743486,4267.692203,4247.692204,4254.871691,4183.589641,4258.461434
72,0,4240.512717,4121.02554,4251.281947,4206.666564,4278.461434,4217.948615,4228.205025,4215.384512,4232.307589,4271.281947,4246.153742,4256.410152,4186.153744,4255.897332
73,0,4241.025537,4133.333232,4228.717845,4233.84605,4305.64092,4239.999896,4237.948614,4216.410153,4236.922973,4268.205024,4244.615281,4249.230665,4187.692205,4246.666563
74,0,4244.615281,4150.769129,4237.435794,4265.128101,4294.87169,4281.538357,4252.820409,4232.307589,4253.84605,4287.692203,4252.307588,4260.512716,4197.948615,4258.461434
75,0,4248.717845,4147.179386,4261.538357,4248.717845,4284.61528,4262.051178,4246.153742,4232.307589,4255.897332,4308.717843,4248.717845,4259.487075,4190.256308,4262.563998
76,0,4241.538358,4132.820412,4246.153742,4229.230666,4269.743485,4217.948615,4231.281948,4222.563999,4234.871691,4292.307587,4244.10246,4241.025537,4183.076821,4244.615281
77,0,4231.794768,4114.871694,4223.58964,4223.58964,4247.179383,4225.640922,4237.435794,4227.692204,4228.717845,4258.461434,4245.640922,4241.538358,4189.743487,4235.897332
78,0,4230.769127,4106.666566,4229.230666,4217.435794,4261.538357,4234.358871,4243.076819,4230.769127,4238.974255,4248.717845,4240.512717,4248.717845,4182.05118,4241.025537
79,0,4239.999896,4121.538361,4235.897332,4237.435794,4298.974254,4246.666563,4242.563999,4228.717845,4249.230665,4288.205023,4242.051178,4249.743486,4184.615282,4249.743486
80,0,4242.051178,4129.743489,4232.307589,4249.230665,4310.769125,4269.743485,4244.615281,4232.820409,4257.435793,4318.974253,4252.307588,4255.897332,4202.051179,4255.384511
81,0,4232.820409,4115.897335,4234.871691,4213.846051,4276.410152,4250.256306,4239.999896,4231.281948,4249.743486,4281.025536,4248.205024,4252.820409,4193.333231,4245.640922
82,0,4231.281948,4112.307592,4228.205025,4206.666564,4250.256306,4232.307589,4239.999896,4221.538358,4232.820409,4251.794768,4240.512717,4245.640922,4179.999898,4243.58964
83,0,4233.84605,4109.230669,4214.871692,4233.84605,4266.666562,4244.615281,4238.974255,4218.974256,4229.230666,4269.230665,4249.230665,4248.717845,4190.769128,4257.948614
84,0,4229.743486,4101.538361,4219.999897,4227.692204,4281.538357,4230.256307,4229.743486,4216.922974,4231.281948,4265.640921,4250.769127,4248.205024,4191.281949,4256.410152
85,0,4226.153743,4106.666566,4230.769127,4203.589641,4282.563998,4205.128102,4225.128102,4215.384512,4232.307589,4263.589639,4243.076819,4242.563999,4185.128103,4241.538358
86,0,4235.897332,4107.692207,4234.871691,4199.487077,4275.897331,4235.384512,4238.461435,4226.153743,4247.179383,4309.743484,4254.871691,4253.333229,4202.051179,4249.230665
87,0,4241.538358,4108.717848,4236.922973,4228.205025,4267.179383,4280.512716,4250.769127,4241.025537,4265.640921,4333.333227,4267.179383,4265.640921,4212.307589,4267.692203
88,0,4227.692204,4111.281951,4223.07682,4252.820409,4273.846049,4269.230665,4244.615281,4233.84605,4248.205024,4286.153741,4250.256306,4246.666563,4189.230667,4253.333229
89,0,4221.538358,4106.666566,4216.922974,4227.692204,4286.153741,4237.435794,4235.897332,4216.410153,4224.102461,4247.179383,4237.948614,4235.384512,4179.999898,4239.487076
90,0,4239.487076,4112.307592,4243.58964,4204.102461,4282.051177,4236.410153,4237.948614,4224.615281,4241.025537,4267.179383,4248.717845,4256.410152,4199.487077,4249.230665
91,0,4246.666563,4115.384515,4252.307588,4221.025538,4286.666562,4235.897332,4236.410153,4235.897332,4256.922973,4278.974254,4249.230665,4257.948614,4200.512718,4243.58964
92,0,4233.33323,4104.615284,4228.717845,4237.948614,4288.205023,4212.82041,4227.179384,4219.487076,4231.794768,4263.589639,4233.33323,4229.230666,4183.589641,4233.84605
93,0,4225.640922,4105.640925,4228.717845,4243.076819,4262.051178,4215.384512,4230.769127,4208.205025,4221.538358,4270.256306,4231.794768,4225.128102,4179.487077,4244.615281
94,0,4233.33323,4112.820412,4242.051178,4229.230666,4265.128101,4258.461434,4244.615281,4225.128102,4241.025537,4284.61528,4242.051178,4241.025537,4187.179385,4249.230665
95,0,4235.384512,4105.128105,4233.33323,4211.281948,4293.333228,4272.820408,4244.10246,4233.33323,4239.487076,4276.922972,4242.563999,4239.999896,4190.769128,4238.461435
96,0,4239.487076,4108.717848,4231.794768,4225.128102,4292.307587,4251.281947,4236.922973,4227.692204,4234.358871,4277.435793,4242.563999,4237.948614,4187.692205,4244.615281
97,0,4243.58964,4122.051181,4240.512717,4241.025537,4286.153741,4241.538358,4238.461435,4227.692204,4243.58964,4284.102459,4243.076819,4243.58964,4184.102462,4248.717845
98,0,4231.794768,4112.307592,4222.051179,4227.692204,4284.61528,4235.897332,4236.922973,4224.102461,4242.051178,4271.281947,4232.820409,4233.84605,4182.564,4237.435794
99,0,4223.58964,4095.897336,4212.82041,4212.307589,4264.61528,4222.563999,4233.84605,4225.640922,4237.948614,4255.384511,4229.230666,4227.692204,4187.692205,4236.410153
100,0,4227.179384,4087.692208,4230.769127,4216.410153,4263.076819,4228.717845,4237.948614,4232.307589,4238.461435,4257.948614,4237.948614,4242.051178,4189.743487,4235.384512
101,0,4225.128102,4097.948618,4224.615281,4228.205025,4302.051177,4243.58964,4243.076819,4229.230666,4238.461435,4276.922972,4235.384512,4244.615281,4183.076821,4231.794768
102,0,4221.538358,4112.307592,4213.846051,4229.230666,4314.358869,4244.10246,4241.025537,4230.769127,4249.230665,4306.153741,4236.922973,4235.384512,4190.769128,4247.179383
103,0,4230.256307,4098.974259,4233.33323,4212.82041,4292.307587,4248.717845,4240.512717,4234.871691,4255.897332,4302.563997,4250.769127,4240.512717,4209.230666,4261.025537
104,0,4227.692204,4091.794772,4230.256307,4212.82041,4273.333229,4256.922973,4239.999896,4224.102461,4241.025537,4265.640921,4253.333229,4241.538358,4207.692205,4245.640922
105,0,4224.102461,4104.102464,4210.769128,4226.666563,4255.897332,4255.897332,4238.974255,4218.461435,4237.948614,4261.025537,4245.640922,4232.820409,4189.743487,4232.820409
106,0,4228.717845,4102.564002,4219.487076,4226.666563,4258.974255,4249.230665,4237.435794,4225.640922,4245.640922,4290.769126,4239.999896,4232.820409,4184.615282,4233.84605
107,0,4221.025538,4081.538362,4219.999897,4217.435794,4285.640921,4237.435794,4237.435794,4225.128102,4238.974255,4288.205023,4236.922973,4234.871691,4192.82041,4229.743486
108,0,4213.846051,4076.410157,4219.487076,4197.948615,4298.461433,4241.538358,4245.640922,4227.692204,4239.999896,4257.948614,4245.640922,4240.512717,4198.974256,4240.512717
109,0,4226.153743,4090.25631,4237.435794,4198.974256,4285.640921,4256.922973,4249.230665,4238.461435,4253.84605,4263.589639,4249.743486,4251.794768,4194.871692,4250.769127
110,0,4229.230666,4096.922977,4222.051179,4231.281948,4262.563998,4241.538358,4234.871691,4230.769127,4251.281947,4282.051177,4235.897332,4243.076819,4183.589641,4235.384512
111,0,4217.948615,4081.025541,4202.051179,4227.692204,4249.230665,4216.410153,4230.256307,4216.922974,4230.256307,4271.794767,4231.794768,4226.666563,4183.589641,4226.666563
112,0,4222.563999,4075.897336,4234.358871,4209.230666,4265.128101,4242.563999,4246.153742,4224.102461,4228.205025,4275.384511,4246.666563,4238.461435,4198.974256,4244.615281
113,0,4241.538358,4108.205028,4256.410152,4230.769127,4298.461433,4273.333229,4250.256306,4237.948614,4241.538358,4284.61528,4250.769127,4259.999896,4207.179384,4258.974255
114,0,4241.538358,4107.179387,4231.281948,4235.897332,4297.948613,4240.512717,4232.820409,4227.692204,4228.717845,4263.589639,4236.922973,4252.307588,4196.410154,4245.128101
115,0,4230.769127,4074.871695,4224.102461,4216.410153,4259.487075,4219.487076,4228.205025,4209.230666,4215.384512,4249.743486,4227.179384,4231.281948,4180.512718,4228.205025
116,0,4235.384512,4089.74349,4247.179383,4227.179384,4246.666563,4256.922973,4242.051178,4216.922974,4233.33323,4266.153742,4232.820409,4239.487076,4186.153744,4236.410153
117,0,4231.281948,4106.666566,4242.563999,4230.769127,4269.743485,4249.743486,4235.384512,4220.512717,4230.769127,4258.974255,4234.871691,4251.794768,4193.846051,4243.58964
118,0,4217.948615,4080.512721,4222.563999,4206.153743,4277.948613,4203.07682,4215.897333,4202.564,4205.640923,4241.538358,4227.692204,4241.025537,4184.615282,4228.717845
119,0,4234.358871,4079.9999,4242.051178,4218.461435,4270.769126,4241.025537,4233.84605,4211.281948,4229.230666,4266.666562,4232.820409,4249.743486,4194.358872,4238.974255
120,0,4248.205024,4102.564002,4253.333229,4246.153742,4271.281947,4275.384511,4249.230665,4229.743486,4247.692204,4280.512716,4245.128101,4265.640921,4206.153743,4264.61528
121,0,4227.692204,4092.820413,4231.281948,4223.58964,4267.692203,4224.102461,4229.743486,4217.435794,4221.538358,4261.025537,4247.692204,4250.256306,4193.846051,4252.820409
122,0,4230.256307,4088.205028,4238.461435,4198.461436,4269.230665,4221.538358,4228.717845,4213.846051,4224.102461,4256.922973,4245.640922,4247.179383,4196.410154,4243.58964
123,0,4245.128101,4095.897336,4252.307588,4221.538358,4290.769126,4262.563998,4242.563999,4228.205025,4239.487076,4265.640921,4242.563999,4262.051178,4214.871692,4256.410152
124,0,4231.794768,4087.692208,4226.153743,4252.820409,4286.153741,4244.10246,4236.410153,4221.025538,4220.512717,4276.410152,4240.512717,4252.820409,4206.153743,4250.256306
125,0,4224.102461,4089.74349,4216.410153,4244.615281,4261.538357,4220.512717,4232.307589,4209.230666,4217.435794,4270.769126,4237.948614,4237.948614,4193.846051,4238.974255
126,0,4234.871691,4101.538361,4239.487076,4220.512717,4271.794767,4244.615281,4245.640922,4217.435794,4236.410153,4239.487076,4236.410153,4245.128101,4205.128102,4246.153742
127,0,4231.281948,4095.897336,4236.410153,4211.794769,4280.512716,4241.538358,4239.487076,4218.974256,4228.205025,4229.230666,4231.794768,4245.640922,4196.410154,4244.615281
128,0,4226.153743,4081.538362,4224.102461,4210.256307,4254.35887,4207.692205,4223.07682,4204.102461,4210.769128,4261.025537,4222.563999,4229.230666,4172.30759,4229.230666
0,0,4224.102461,4079.48708,4227.692204,4219.487076,4252.820409,4223.07682,4230.256307,4202.564,4213.33323,4271.281947,4224.102461,4223.07682,4172.820411,4225.128102
1,0,4222.563999,4086.666567,4225.640922,4234.871691,4294.87169,4264.10246,4245.128101,4212.82041,4221.538358,4245.640922,4226.666563,4228.717845,4182.564,4228.717845
2,0,4228.205025,4093.846054,4226.666563,4227.692204,4307.179382,4257.435793,4245.640922,4216.922974,4220.512717,4235.384512,4218.461435,4235.384512,4182.564,4233.84605
3,0,4231.281948,4088.205028,4232.820409,4210.769128,4267.179383,4225.128102,4233.84605,4214.871692,4209.230666,4227.692204,4217.948615,4232.307589,4183.589641,4232.820409
4,0,4224.615281,4076.922977,4229.230666,4222.051179,4245.640922,4227.692204,4228.717845,4215.384512,4215.897333,4225.640922,4230.256307,4230.256307,4191.794769,4227.179384
5,0,4226.153743,4083.076823,4230.256307,4233.33323,4264.61528,4244.10246,4232.820409,4216.922974,4236.922973,4267.692203,4232.307589,4236.922973,4196.410154,4231.794768
6,0,4239.487076,4102.564002,4247.179383,4229.230666,4278.974254,4244.10246,4239.999896,4222.051179,4243.076819,4307.179382,4234.871691,4248.717845,4201.025538,4248.717845
7,0,4252.820409,4111.281951,4253.84605,4234.871691,4277.435793,4238.461435,4242.563999,4234.871691,4245.640922,4295.38451,4252.307588,4263.589639,4215.897333,4267.179383
8,0,4249.743486,4102.564002,4241.025537,4227.179384,4280.512716,4219.999897,4234.358871,4234.358871,4246.153742,4267.692203,4254.871691,4268.205024,4229.743486,4271.794767
9,0,4234.358871,4100.51272,4242.563999,4215.897333,4269.230665,4207.179384,4230.769127,4221.538358,4232.820409,4270.256306,4253.84605,4265.640921,4231.794768,4266.153742
10,0,4234.871691,4095.384515,4250.769127,4234.871691,4246.666563,4221.538358,4231.794768,4218.974256,4229.230666,4281.025536,4256.922973,4261.025537,4228.205025,4261.538357
11,0,4237.948614,4091.281951,4236.922973,4255.897332,4267.179383,4258.974255,4237.435794,4229.230666,4248.717845,4291.794767,4249.743486,4261.025537,4228.717845,4262.563998
12,0,4233.84605,4110.76913,4230.769127,4232.820409,4295.38451,4274.87169,4247.692204,4233.33323,4249.230665,4303.076818,4251.794768,4267.179383,4231.281948,4268.717844
13,0,4231.281948,4110.76913,4246.153742,4203.07682,4284.61528,4238.461435,4241.025537,4221.025538,4232.820409,4282.563998,4258.974255,4260.512716,4231.281948,4264.61528
14,0,4232.307589,4096.922977,4245.128101,4218.974256,4274.87169,4225.640922,4234.871691,4215.897333,4237.948614,4249.743486,4252.820409,4249.230665,4229.230666,4258.461434
15,0,4232.307589,4113.333233,4228.205025,4240.512717,4280.512716,4251.281947,4239.487076,4219.999897,4250.769127,4256.410152,4243.58964,4246.666563,4223.58964,4261.538357
16,0,4237.948614,4121.538361,4228.205025,4231.281948,4270.769126,4246.153742,4235.897332,4219.999897,4249.230665,4277.435793,4238.974255,4244.615281,4216.410153,4258.461434
17,0,4236.922973,4093.333233,4232.307589,4221.538358,4258.974255,4226.153743,4227.179384,4224.102461,4242.563999,4253.84605,4233.84605,4237.948614,4215.384512,4247.179383
18,0,4231.794768,4081.538362,4227.179384,4228.205025,4272.820408,4241.025537,4234.358871,4226.153743,4234.358871,4239.487076,4231.794768,4231.281948,4216.922974,4244.10246
19,0,4232.820409,4106.666566,4232.820409,4237.948614,4290.769126,4259.487075,4243.076819,4218.974256,4232.820409,4280.512716,4234.358871,4232.820409,4212.307589,4248.205024
20,0,4231.281948,4124.102463,4239.487076,4233.84605,4290.256305,4250.256306,4238.461435,4219.999897,4236.410153,4295.38451,4231.281948,4239.487076,4203.07682,4248.205024
21,0,4225.640922,4109.743489,4242.051178,4202.051179,4277.435793,4245.640922,4243.076819,4230.256307,4234.358871,4267.179383,4233.84605,4243.58964,4203.07682,4246.153742
22,0,4225.640922,4090.769131,4234.871691,4197.435795,4276.922972,4233.33323,4245.128101,4225.128102,4231.794768,4254.35887,4231.281948,4234.871691,4202.051179,4231.281948
23,0,4225.128102,4099.487079,4220.512717,4250.769127,4261.538357,4218.974256,4232.820409,4212.307589,4230.769127,4252.820409,4218.974256,4224.102461,4194.358872,4215.897333
24,0,4226.666563,4112.307592,4217.435794,4265.128101,4231.281948,4241.025537,4232.307589,4210.256307,4226.153743,4244.10246,4221.538358,4226.153743,4197.948615,4234.358871
25,0,4233.84605,4106.153746,4232.307589,4221.025538,4253.84605,4278.461434,4249.743486,4215.384512,4229.230666,4243.076819,4234.871691,4231.794768,4199.999897,4256.410152
26,0,4235.897332,4102.564002,4245.640922,4211.281948,4289.743485,4265.128101,4252.820409,4223.58964,4237.435794,4249.230665,4231.281948,4234.358871,4187.179385,4243.076819
27,0,4226.153743,4110.76913,4236.410153,4231.794768,4270.769126,4217.948615,4238.974255,4226.666563,4231.794768,4254.871691,4221.025538,4231.794768,4184.102462,4223.58964
28,0,4223.58964,4109.743489,4224.615281,4226.666563,4245.640922,4223.07682,4235.384512,4227.179384,4227.179384,4264.10246,4225.640922,4227.179384,4199.487077,4236.410153
29,0,4240.512717,4108.205028,4232.307589,4227.179384,4247.692204,4255.897332,4242.563999,4232.307589,4236.922973,4272.307588,4239.487076,4233.84605,4214.358871,4256.410152
30,0,4244.615281,4117.948617,4236.922973,4241.538358,4246.666563,4245.640922,4241.025537,4231.794768,4242.051178,4273.846049,4246.153742,4245.640922,4217.948615,4249.230665
31,0,4238.974255,4122.564002,4232.307589,4227.692204,4258.461434,4233.84605,4240.512717,4225.640922,4242.563999,4268.205024,4242.563999,4254.871691,4215.384512,4249.230665
32,0,4247.692204,4122.051181,4237.948614,4219.487076,4274.35887,4251.794768,4244.10246,4227.692204,4248.205024,4257.435793,4248.717845,4261.025537,4224.102461,4272.820408
33,0,4256.410152,4134.871694,4250.769127,4250.256306,4256.922973,4259.999896,4243.58964,4234.358871,4250.256306,4264.10246,4264.10246,4262.051178,4239.487076,4278.461434
34,0,4247.692204,4151.79477,4245.128101,4262.563998,4251.794768,4254.35887,4243.076819,4232.820409,4250.769127,4289.743485,4261.538357,4256.410152,4236.922973,4265.128101
35,0,4244.615281,4136.922976,4231.281948,4231.794768,4265.640921,4252.307588,4242.051178,4224.102461,4251.794768,4296.922972,4246.153742,4245.640922,4222.051179,4265.128101
36,0,4246.666563,4118.461438,4225.640922,4223.07682,4258.974255,4240.512717,4231.794768,4213.33323,4238.461435,4274.35887,4242.563999,4237.435794,4218.461435,4266.666562
37,0,4246.153742,4126.666566,4229.230666,4234.358871,4230.769127,4231.794768,4227.692204,4209.743487,4224.615281,4249.230665,4242.051178,4234.358871,4220.512717,4261.538357
38,0,4243.076819,4122.051181,4221.538358,4218.461435,4226.153743,4228.717845,4232.307589,4211.794769,4226.153743,4245.640922,4225.128102,4230.256307,4208.717846,4255.897332
39,0,4245.640922,4110.25631,4210.769128,4216.410153,4255.897332,4229.230666,4234.871691,4211.794769,4226.153743,4248.717845,4221.538358,4228.717845,4205.640923,4255.897332
40,0,4257.948614,4118.974258,4224.102461,4233.33323,4265.640921,4238.974255,4239.999896,4216.410153,4228.717845,4249.743486,4244.615281,4239.487076,4228.717845,4271.281947
41,0,4268.205024,4128.205027,4239.487076,4223.58964,4233.33323,4231.794768,4244.10246,4220.512717,4234.871691,4244.615281,4253.84605,4250.256306,4244.10246,4287.692203
42,0,4271.281947,4129.743489,4234.871691,4216.922974,4218.461435,4215.384512,4237.435794,4214.871692,4227.692204,4237.948614,4243.58964,4253.333229,4245.640922,4298.974254
43,0,4287.179382,4143.076822,4239.487076,4241.025537,4246.666563,4230.256307,4233.33323,4221.538358,4228.717845,4265.128101,4252.307588,4267.179383,4265.128101,4328.205022
44,0,4305.64092,4157.435796,4265.640921,4245.640922,4248.205024,4248.205024,4239.487076,4233.84605,4244.615281,4293.846049,4274.35887,4282.563998,4284.61528,4346.66656
45,0,4303.589638,4154.358873,4269.743485,4229.743486,4235.384512,4240.512717,4242.051178,4221.025538,4241.538358,4276.410152,4268.717844,4279.487075,4277.435793,4336.922971
46,0,4297.435792,4160.512719,4249.743486,4247.692204,4248.205024,4228.205025,4236.922973,4209.230666,4223.07682,4246.666563,4257.948614,4272.820408,4271.281947,4338.461432
47,0,4306.153741,4174.871693,4249.230665,4269.743485,4245.640922,4234.358871,4239.999896,4228.205025,4230.256307,4252.820409,4264.61528,4283.076818,4279.999895,4351.281945
48,0,4318.974253,4163.076821,4268.717844,4257.948614,4238.974255,4253.84605,4252.307588,4238.974255,4249.230665,4276.922972,4270.256306,4296.922972,4292.307587,4356.41015
49,0,4304.615279,4126.666566,4266.666562,4227.179384,4262.051178,4236.410153,4247.692204,4215.897333,4234.871691,4282.051177,4262.563998,4284.61528,4286.153741,4351.794765
50,0,4284.61528,4123.076822,4249.230665,4219.487076,4269.230665,4204.102461,4235.384512,4206.666564,4211.281948,4261.538357,4258.461434,4258.974255,4266.666562,4328.205022
51,0,4290.256305,4156.410155,4247.692204,4245.640922,4228.205025,4224.615281,4239.999896,4223.58964,4222.051179,4245.640922,4264.10246,4258.974255,4268.717844,4310.769125
52,0,4299.487074,4164.615283,4250.769127,4259.487075,4224.615281,4256.922973,4244.10246,4226.153743,4238.974255,4257.948614,4255.384511,4269.230665,4273.846049,4323.076817
53,0,4289.743485,4147.692206,4246.153742,4244.615281,4276.922972,4250.256306,4242.051178,4218.461435,4235.897332,4269.743485,4246.666563,4265.640921,4264.61528,4331.794766
54,0,4284.102459,4141.02554,4249.743486,4232.820409,4273.846049,4246.153742,4252.820409,4230.769127,4243.076819,4264.10246,4255.897332,4258.974255,4260.512716,4321.025535
55,0,4278.974254,4145.640924,4249.230665,4235.384512,4236.410153,4264.10246,4257.948614,4241.025537,4256.922973,4270.256306,4260.512716,4257.948614,4263.589639,4311.794766
56,0,4261.025537,4139.999899,4221.538358,4224.102461,4248.717845,4234.358871,4235.384512,4223.58964,4235.897332,4268.205024,4240.512717,4244.10246,4239.999896,4285.640921
57,0,4247.179383,4111.794771,4205.128102,4210.769128,4247.692204,4197.948615,4222.051179,4205.640923,4209.743487,4249.743486,4220.512717,4231.794768,4206.153743,4257.948614
58,0,4253.84605,4106.666566,4235.384512,4220.512717,4228.205025,4243.58964,4243.58964,4218.974256,4227.692204,4261.025537,4234.358871,4250.256306,4217.435794,4274.35887
59,0,4259.999896,4130.256309,4254.35887,4234.358871,4258.974255,4279.487075,4256.410152,4231.281948,4249.743486,4272.820408,4256.410152,4266.153742,4248.205024,4294.358869
60,0,4255.897332,4124.615284,4236.410153,4231.281948,4273.333229,4244.615281,4244.615281,4226.666563,4243.076819,4256.410152,4253.84605,4259.999896,4243.076819,4279.487075
61,0,4244.615281,4101.538361,4221.538358,4226.666563,4239.999896,4208.717846,4237.435794,4224.615281,4233.33323,4256.410152,4242.051178,4256.922973,4220.512717,4265.640921
62,0,4243.076819,4102.564002,4230.256307,4228.205025,4243.076819,4225.128102,4246.153742,4233.84605,4246.153742,4274.35887,4245.128101,4269.743485,4226.666563,4267.692203
63,0,4251.794768,4108.717848,4247.692204,4232.307589,4256.922973,4263.076819,4257.435793,4241.538358,4260.512716,4267.179383,4251.794768,4279.999895,4237.435794,4268.205024
64,0,4243.58964,4108.205028,4249.230665,4236.410153,4236.410153,4261.538357,4254.35887,4239.487076,4252.820409,4261.538357,4246.153742,4271.794767,4226.666563,4263.589639
65,0,4228.205025,4097.435797,4226.666563,4215.384512,4237.435794,4227.692204,4244.10246,4231.794768,4238.974255,4277.435793,4241.025537,4252.820409,4213.846051,4247.692204
66,0,4229.230666,4083.076823,4212.307589,4202.051179,4257.435793,4233.33323,4244.10246,4225.640922,4242.563999,4268.205024,4242.051178,4241.025537,4213.846051,4233.84605
67,0,4239.487076,4105.128105,4224.615281,4230.256307,4254.871691,4261.025537,4248.205024,4227.179384,4252.820409,4250.769127,4240.512717,4246.666563,4221.025538,4245.640922
68,0,4241.538358,4127.179386,4233.33323,4245.128101,4250.256306,4249.743486,4243.58964,4231.794768,4251.281947,4266.666562,4242.563999,4251.281947,4225.128102,4261.025537
69,0,4241.538358,4107.179387,4230.256307,4229.230666,4262.563998,4238.461435,4247.179383,4230.256307,4246.666563,4275.897331,4246.666563,4246.153742,4221.538358,4251.281947
70,0,4236.410153,4100.51272,4224.102461,4223.07682,4268.205024,4242.563999,4247.692204,4224.102461,4248.205024,4255.897332,4241.538358,4236.922973,4212.307589,4233.33323
71,0,4228.717845,4102.051182,4217.435794,4221.025538,4255.897332,4230.769127,4234.871691,4213.846051,4237.435794,4249.743486,4232.820409,4227.179384,4204.615282,4229.230666
72,0,4231.281948,4086.153746,4218.461435,4211.794769,4260.512716,4244.10246,4238.461435,4216.410153,4232.820409,4273.846049,4238.974255,4233.84605,4213.33323,4234.871691
73,0,4234.358871,4079.48708,4213.33323,4215.384512,4266.153742,4258.974255,4251.794768,4226.666563,4240.512717,4284.61528,4241.538358,4242.563999,4218.974256,4226.153743
74,0,4216.410153,4076.922977,4197.435795,4217.948615,4248.205024,4222.051179,4243.076819,4222.563999,4235.384512,4258.461434,4224.615281,4224.615281,4201.025538,4209.743487
75,0,4209.230666,4081.025541,4195.384513,4216.410153,4246.666563,4209.743487,4236.922973,4223.58964,4237.435794,4239.487076,4229.230666,4214.358871,4198.974256,4216.922974
76,0,4226.666563,4106.153746,4219.999897,4214.871692,4262.051178,4265.640921,4254.871691,4242.051178,4266.666562,4269.743485,4256.922973,4246.666563,4229.230666,4236.410153
77,0,4243.58964,4107.179387,4245.128101,4214.871692,4265.640921,4299.999895,4271.281947,4258.461434,4286.666562,4309.743484,4265.640921,4275.897331,4243.58964,4248.717845
78,0,4236.922973,4082.564003,4236.922973,4225.128102,4258.461434,4248.205024,4256.922973,4250.256306,4261.538357,4294.358869,4242.051178,4256.410152,4222.051179,4246.153742
79,0,4219.999897,4075.897336,4213.33323,4219.487076,4255.897332,4212.307589,4238.461435,4234.871691,4236.410153,4249.230665,4228.717845,4233.33323,4204.102461,4228.205025
80,0,4217.435794,4075.384516,4209.743487,4197.435795,4259.999896,4241.025537,4242.563999,4231.281948,4237.948614,4245.640922,4238.974255,4242.563999,4207.692205,4217.948615
81,0,4225.128102,4074.871695,4223.07682,4202.051179,4253.84605,4242.563999,4248.717845,4231.281948,4237.948614,4268.205024,4239.999896,4250.256306,4213.846051,4229.230666
82,0,4236.410153,4100.51272,4228.717845,4236.410153,4254.35887,4238.461435,4250.769127,4237.948614,4244.10246,4275.384511,4241.538358,4252.307588,4223.58964,4245.640922
83,0,4239.999896,4111.281951,4231.281948,4240.512717,4268.717844,4245.128101,4248.717845,4241.538358,4250.256306,4278.461434,4250.256306,4255.897332,4221.538358,4246.153742
84,0,4236.922973,4090.25631,4238.974255,4219.487076,4254.35887,4232.307589,4243.076819,4234.871691,4238.461435,4267.179383,4248.205024,4254.35887,4206.153743,4236.922973
85,0,4230.769127,4080.512721,4234.871691,4215.897333,4228.717845,4229.743486,4237.948614,4230.256307,4228.717845,4229.230666,4244.10246,4246.666563,4204.615282,4231.794768
86,0,4225.128102,4082.564003,4221.538358,4210.256307,4253.333229,4245.128101,4238.974255,4227.692204,4230.769127,4235.897332,4241.025537,4236.410153,4205.128102,4230.769127
87,0,4220.512717,4086.153746,4217.948615,4211.794769,4284.102459,4238.974255,4240.512717,4224.102461,4227.692204,4293.846049,4234.358871,4227.692204,4199.487077,4230.256307
88,0,4217.435794,4095.384515,4217.435794,4233.84605,4259.999896,4219.999897,4236.410153,4221.025538,4222.563999,4291.281946,4228.717845,4225.128102,4201.025538,4230.769127
89,0,4219.487076,4102.564002,4212.307589,4242.563999,4238.974255,4235.897332,4236.410153,4221.025538,4231.794768,4244.615281,4233.33323,4232.820409,4209.743487,4231.281948
90,0,4223.58964,4091.281951,4217.435794,4222.563999,4249.230665,4252.820409,4240.512717,4216.922974,4229.230666,4246.153742,4232.307589,4230.256307,4205.128102,4218.974256
91,0,4215.897333,4078.461439,4221.025538,4199.999897,4247.179383,4224.102461,4234.358871,4209.743487,4211.794769,4250.256306,4217.948615,4217.435794,4191.794769,4208.717846
92,0,4211.281948,4086.153746,4206.153743,4202.051179,4239.487076,4198.461436,4227.692204,4213.846051,4211.281948,4226.153743,4215.897333,4218.461435,4191.794769,4218.461435
93,0,4215.384512,4091.794772,4202.564,4212.307589,4254.871691,4218.461435,4231.794768,4222.563999,4219.487076,4225.640922,4228.205025,4228.205025,4204.102461,4228.205025
94,0,4219.999897,4086.153746,4218.974256,4222.563999,4265.640921,4253.84605,4244.10246,4223.58964,4221.025538,4253.84605,4236.410153,4234.358871,4211.794769,4233.33323
95,0,4214.358871,4083.076823,4222.051179,4224.615281,4266.666562,4244.615281,4245.128101,4221.025538,4222.563999,4258.974255,4227.692204,4229.230666,4203.589641,4231.794768
96,0,4204.615282,4063.589644,4207.692205,4210.256307,4249.743486,4206.666564,4231.794768,4214.871692,4219.999897,4241.538358,4212.82041,4215.384512,4191.281949,4209.743487
97,0,4207.179384,4043.589645,4204.102461,4197.435795,4210.769128,4212.82041,4231.281948,4213.33323,4221.025538,4235.897332,4216.922974,4214.358871,4195.384513,4201.538359
98,0,4219.487076,4068.717849,4212.307589,4212.307589,4222.563999,4247.179383,4244.615281,4225.128102,4228.205025,4231.281948,4234.871691,4231.794768,4211.794769,4224.615281
99,0,4227.179384,4103.076823,4220.512717,4225.640922,4276.922972,4256.410152,4249.743486,4238.461435,4238.461435,4232.307589,4241.538358,4243.076819,4218.974256,4238.461435
100,0,4217.435794,4089.74349,4217.948615,4206.666564,4274.35887,4235.384512,4238.461435,4229.743486,4234.871691,4253.84605,4221.538358,4228.717845,4206.666564,4226.666563
101,0,4205.128102,4063.076824,4202.051179,4201.538359,4235.384512,4203.07682,4224.102461,4206.153743,4210.256307,4261.538357,4199.487077,4201.538359,4189.230667,4205.128102
102,0,4199.999897,4062.564003,4201.538359,4213.846051,4244.615281,4197.435795,4220.512717,4204.615282,4201.025538,4242.051178,4204.102461,4198.461436,4187.692205,4197.435795
103,0,4209.743487,4079.48708,4218.974256,4216.410153,4264.10246,4237.435794,4234.871691,4224.102461,4227.692204,4243.58964,4227.692204,4225.640922,4208.717846,4218.974256
104,0,4219.999897,4089.74349,4219.487076,4217.435794,4240.512717,4262.051178,4246.666563,4230.256307,4237.948614,4252.820409,4232.307589,4230.769127,4223.07682,4234.871691
105,0,4214.871692,4074.358875,4203.589641,4203.589641,4223.07682,4212.307589,4229.743486,4208.717846,4198.974256,4219.999897,4209.743487,4206.153743,4201.025538,4214.871692
106,0,4205.640923,4065.128106,4206.153743,4197.948615,4238.974255,4183.589641,4221.025538,4204.615282,4193.333231,4206.666564,4205.128102,4208.205025,4188.717846,4205.640923
107,0,4211.794769,4086.153746,4218.974256,4224.615281,4255.384511,4233.33323,4242.563999,4230.769127,4233.84605,4234.871691,4228.205025,4230.769127,4217.948615,4228.205025
108,0,4222.051179,4097.948618,4224.615281,4232.307589,4259.999896,4275.897331,4253.84605,4242.051178,4248.205024,4265.640921,4241.538358,4237.435794,4234.358871,4236.410153
109,0,4216.922974,4090.769131,4223.07682,4217.948615,4271.794767,4255.897332,4239.487076,4228.205025,4233.84605,4268.717844,4230.769127,4228.205025,4220.512717,4227.179384
110,0,4201.025538,4088.205028,4209.230666,4222.563999,4264.61528,4213.33323,4228.717845,4217.948615,4226.666563,4236.922973,4223.07682,4217.435794,4217.948615,4223.58964
111,0,4213.33323,4091.281951,4217.948615,4221.025538,4247.179383,4231.794768,4242.051178,4230.256307,4241.025537,4235.384512,4241.025537,4227.692204,4234.358871,4234.871691
112,0,4231.794768,4097.435797,4233.84605,4217.435794,4266.666562,4259.487075,4248.205024,4240.512717,4249.230665,4274.87169,4252.820409,4244.10246,4242.563999,4240.512717
113,0,4221.025538,4098.461438,4217.435794,4231.281948,4258.461434,4222.051179,4235.384512,4228.205025,4235.384512,4276.410152,4232.820409,4233.33323,4228.205025,4224.102461
114,0,4216.410153,4090.769131,4216.410153,4227.179384,4231.281948,4206.153743,4237.948614,4227.179384,4234.871691,4252.820409,4224.615281,4229.230666,4225.128102,4224.102461
115,0,4230.769127,4094.358874,4238.461435,4212.82041,4256.410152,4243.58964,4250.769127,4242.563999,4250.256306,4263.589639,4244.615281,4251.281947,4242.051178,4245.128101
116,0,4228.205025,4110.25631,4240.512717,4227.692204,4283.076818,4253.333229,4244.615281,4241.025537,4250.769127,4268.717844,4251.794768,4254.35887,4242.051178,4245.128101
117,0,4217.435794,4108.205028,4226.666563,4236.922973,4267.692203,4238.461435,4235.384512,4231.794768,4245.640922,4263.589639,4239.999896,4231.281948,4225.128102,4232.307589
118,0,4213.33323,4085.640926,4214.871692,4222.563999,4253.333229,4241.538358,4241.025537,4233.84605,4244.615281,4282.051177,4227.179384,4218.461435,4219.487076,4225.128102
119,0,4204.615282,4078.974259,4206.666564,4215.384512,4250.256306,4233.33323,4237.948614,4231.281948,4233.84605,4265.640921,4216.922974,4216.922974,4223.07682,4217.948615
120,0,4212.307589,4081.538362,4213.846051,4204.102461,4242.563999,4228.717845,4237.435794,4231.281948,4228.717845,4219.487076,4224.102461,4217.435794,4225.640922,4221.025538
121,0,4224.102461,4082.051182,4218.461435,4199.999897,4249.230665,4241.538358,4244.615281,4234.358871,4233.84605,4220.512717,4227.179384,4216.922974,4223.58964,4225.128102
122,0,4207.692205,4081.538362,4199.999897,4208.717846,4247.692204,4212.82041,4232.307589,4219.487076,4224.615281,4240.512717,4204.102461,4205.128102,4203.07682,4199.999897
123,0,4190.769128,4077.435798,4192.30759,4213.33323,4242.563999,4179.999898,4222.051179,4214.358871,4214.358871,4235.897332,4199.487077,4195.897333,4198.461436,4188.205026
124,0,4204.615282,4085.128105,4208.717846,4223.07682,4264.10246,4219.999897,4243.076819,4236.410153,4219.999897,4227.692204,4226.666563,4211.281948,4226.666563,4221.538358
125,0,4224.615281,4108.717848,4233.33323,4233.33323,4274.35887,4287.692203,4268.205024,4250.256306,4242.563999,4248.205024,4240.512717,4236.410153,4246.666563,4249.743486
126,0,4227.179384,4106.666566,4228.717845,4223.58964,4258.461434,4281.538357,4262.563998,4241.538358,4254.871691,4270.769126,4229.230666,4233.84605,4237.948614,4237.435794
127,0,4212.82041,4076.410157,4197.948615,4203.589641,4245.128101,4218.974256,4239.487076,4220.512717,4227.179384,4248.717845,4214.358871,4207.179384,4216.922974,4210.256307
128,0,4214.358871,4083.589644,4203.07682,4207.692205,4250.256306,4215.384512,4242.051178,4215.384512,4215.897333,4228.205025,4218.461435,4208.205025,4215.384512,4209.743487
0,0,4221.025538,4103.589643,4223.58964,4223.58964,4262.563998,4254.35887,4254.871691,4230.769127,4238.974255,4243.076819,4228.205025,4227.179384,4222.563999,4218.461435
1,0,4213.33323,4086.666567,4207.692205,4232.820409,4263.589639,4254.871691,4247.692204,4231.281948,4236.410153,4249.230665,4220.512717,4217.435794,4215.384512,4212.307589
2,0,4203.589641,4076.922977,4193.846051,4221.025538,4248.205024,4223.07682,4228.717845,4211.794769,4214.871692,4233.84605,4207.692205,4197.435795,4205.640923,4202.051179
3,0,4205.640923,4083.076823,4201.538359,4189.230667,4235.384512,4203.589641,4226.153743,4206.666564,4211.281948,4224.615281,4204.102461,4196.410154,4203.589641,4199.487077
4,0,4206.153743,4074.358875,4198.974256,4187.692205,4244.615281,4217.948615,4238.974255,4214.871692,4216.922974,4227.179384,4205.640923,4206.666564,4208.205025,4208.205025
5,0,4209.743487,4076.410157,4209.230666,4212.82041,4258.461434,4258.461434,4250.769127,4221.025538,4229.230666,4244.10246,4215.384512,4224.102461,4219.999897,4221.538358
6,0,4215.897333,4092.307592,4222.051179,4215.384512,4263.589639,4252.820409,4244.615281,4221.025538,4234.358871,4251.281947,4222.563999,4233.84605,4221.538358,4216.922974
7,0,4209.230666,4087.692208,4204.615282,4214.358871,4264.61528,4210.256307,4232.820409,4214.358871,4223.07682,4233.33323,4220.512717,4223.07682,4213.846051,4207.692205
8,0,4211.281948,4088.717849,4206.153743,4224.615281,4259.487075,4232.820409,4247.179383,4224.102461,4234.358871,4246.153742,4230.769127,4222.563999,4231.281948,4226.153743
9,0,4214.871692,4093.333233,4225.128102,4209.743487,4252.307588,4266.666562,4256.922973,4237.948614,4248.717845,4274.35887,4235.897332,4229.230666,4238.461435,4233.84605
10,0,4207.179384,4073.333234,4208.717846,4190.256308,4253.84605,4231.281948,4242.051178,4225.128102,4230.256307,4252.820409,4218.974256,4216.922974,4213.33323,4212.82041
11,0,4203.589641,4070.769131,4195.384513,4213.846051,4256.410152,4218.461435,4235.897332,4212.307589,4225.128102,4231.794768,4217.948615,4216.922974,4218.461435,4213.846051
12,0,4209.743487,4100.51272,4211.794769,4227.179384,4246.666563,4237.948614,4241.538358,4217.948615,4235.384512,4249.743486,4223.07682,4226.666563,4235.384512,4223.58964
13,0,4211.281948,4105.640925,4216.410153,4199.487077,4241.025537,4217.435794,4235.384512,4214.358871,4223.58964,4247.692204,4214.871692,4217.948615,4220.512717,4212.307589
14,0,4217.948615,4086.153746,4213.846051,4202.564,4255.384511,4208.205025,4233.33323,4206.666564,4210.769128,4223.07682,4216.410153,4215.897333,4215.897333,4214.871692
15,0,4219.487076,4088.205028,4220.512717,4227.179384,4270.256306,4241.025537,4240.512717,4209.743487,4213.846051,4227.179384,4224.102461,4226.153743,4230.769127,4226.666563
16,0,4212.307589,4098.461438,4219.487076,4223.58964,4265.640921,4255.897332,4241.025537,4210.256307,4220.512717,4245.128101,4213.846051,4217.435794,4221.025538,4212.82041
17,0,4211.281948,4096.410156,4214.871692,4215.897333,4261.538357,4258.974255,4244.10246,4212.307589,4229.230666,4242.563999,4204.615282,4207.692205,4205.128102,4198.461436
18,0,4213.33323,4094.871695,4217.435794,4215.897333,4273.846049,4264.10246,4250.256306,4219.487076,4232.820409,4233.84605,4208.717846,4211.794769,4213.846051,4204.102461
19,0,4208.717846,4101.538361,4213.846051,4208.717846,4274.35887,4234.871691,4242.051178,4217.435794,4230.256307,4224.615281,4210.769128,4212.82041,4225.640922,4212.307589
20,0,4215.384512,4115.897335,4214.871692,4217.435794,4259.999896,4218.974256,4235.897332,4215.897333,4230.256307,4221.538358,4220.512717,4222.563999,4238.461435,4222.051179
21,0,4228.205025,4115.897335,4228.205025,4234.871691,4265.640921,4253.333229,4245.128101,4224.102461,4234.871691,4244.615281,4233.84605,4243.076819,4253.333229,4233.84605
22,0,4231.794768,4106.666566,4235.897332,4221.538358,4279.487075,4248.205024,4244.615281,4221.025538,4234.871691,4258.461434,4228.717845,4244.615281,4255.897332,4236.922973
23,0,4234.358871,4119.999899,4237.948614,4224.102461,4262.051178,4216.410153,4236.410153,4210.769128,4229.230666,4246.666563,4230.256307,4238.974255,4257.948614,4239.999896
24,0,4237.948614,4134.358873,4243.076819,4249.743486,4249.743486,4240.512717,4246.666563,4217.948615,4232.820409,4253.333229,4247.692204,4248.717845,4269.743485,4250.256306
25,0,4237.435794,4124.102463,4241.025537,4244.615281,4270.769126,4266.153742,4255.384511,4230.769127,4245.640922,4267.692203,4245.128101,4254.871691,4274.35887,4254.35887
26,0,4234.358871,4119.487079,4232.307589,4229.743486,4273.333229,4240.512717,4245.640922,4225.640922,4243.58964,4249.230665,4230.256307,4243.58964,4267.179383,4249.743486
27,0,4233.33323,4121.02554,4229.743486,4228.205025,4253.333229,4226.666563,4238.461435,4214.871692,4231.281948,4238.461435,4236.922973,4237.948614,4269.230665,4249.230665
28,0,4233.84605,4110.76913,4232.820409,4221.538358,4263.076819,4231.794768,4241.025537,4214.358871,4229.230666,4255.384511,4241.025537,4247.692204,4279.487075,4257.948614
29,0,4245.128101,4117.435797,4237.435794,4223.07682,4281.025536,4235.384512,4246.666563,4222.563999,4236.410153,4242.563999,4235.384512,4256.922973,4280.512716,4270.769126
30,0,4259.999896,4142.564001,4249.230665,4243.076819,4262.563998,4251.281947,4254.871691,4231.281948,4246.153742,4230.769127,4250.769127,4265.640921,4288.205023,4287.179382
31,0,4274.87169,4149.743488,4260.512716,4247.179383,4249.230665,4258.461434,4257.948614,4234.871691,4250.769127,4272.307588,4266.666562,4273.846049,4312.307587,4306.153741
32,0,4282.563998,4145.640924,4257.435793,4234.871691,4265.640921,4250.256306,4247.692204,4228.717845,4241.025537,4292.307587,4268.205024,4272.820408,4333.846048,4319.999894
33,0,4283.076818,4139.487078,4250.256306,4228.717845,4256.922973,4235.384512,4238.461435,4217.435794,4222.563999,4248.205024,4267.179383,4265.128101,4331.281945,4324.102458
34,0,4280.512716,4135.897335,4251.794768,4236.410153,4239.487076,4209.230666,4234.871691,4210.256307,4215.384512,4230.769127,4257.948614,4261.025537,4312.820407,4320.512715
35,0,4285.640921,4150.256309,4255.897332,4256.410152,4261.538357,4211.794769,4235.897332,4212.82041,4225.640922,4251.794768,4251.794768,4263.589639,4318.974253,4329.743484
36,0,4288.205023,4146.153745,4260.512716,4251.281947,4272.820408,4246.153742,4244.10246,4219.487076,4231.794768,4240.512717,4265.128101,4272.820408,4341.025535,4346.15374
37,0,4281.025536,4115.384515,4258.974255,4224.102461,4247.179383,4248.205024,4249.230665,4218.461435,4222.563999,4226.666563,4268.717844,4278.461434,4334.358868,4338.974253
38,0,4281.538357,4127.179386,4259.999896,4232.820409,4241.025537,4244.10246,4250.769127,4224.615281,4232.820409,4255.384511,4262.563998,4277.435793,4326.15374,4330.769125
39,0,4289.743485,4163.589642,4278.974254,4263.589639,4255.384511,4271.794767,4255.897332,4237.435794,4256.922973,4287.692203,4268.717844,4281.025536,4339.999894,4339.487073
40,0,4283.589639,4151.28195,4285.640921,4261.025537,4257.948614,4267.692203,4253.333229,4233.84605,4246.153742,4280.512716,4265.128101,4284.102459,4334.358868,4339.487073
41,0,4271.281947,4123.076822,4254.871691,4245.640922,4267.692203,4219.999897,4232.820409,4216.410153,4214.358871,4244.615281,4245.128101,4266.666562,4305.1281,4318.461433
42,0,4271.281947,4133.333232,4243.58964,4243.076819,4268.717844,4219.487076,4228.205025,4214.358871,4213.33323,4223.58964,4244.615281,4252.307588,4293.846049,4302.051177
43,0,4264.61528,4133.333232,4251.281947,4235.897332,4234.358871,4252.307588,4240.512717,4224.102461,4225.640922,4241.025537,4253.84605,4248.205024,4290.769126,4293.846049
44,0,4246.153742,4117.435797,4229.743486,4231.281948,4228.205025,4233.84605,4233.84605,4213.33323,4214.358871,4252.307588,4233.33323,4231.794768,4267.692203,4277.435793
45,0,4231.794768,4132.307591,4217.948615,4230.256307,4261.025537,4218.974256,4227.179384,4203.07682,4207.179384,4236.410153,4215.897333,4227.179384,4248.205024,4265.128101
46,0,4217.435794,4141.02554,4233.84605,4225.640922,4271.281947,4235.384512,4234.871691,4207.692205,4215.897333,4230.769127,4225.640922,4239.999896,4248.717845,4262.563998
47,0,4198.974256,4127.692207,4235.897332,4244.10246,4257.435793,4234.358871,4232.820409,4209.743487,4216.922974,4250.256306,4229.743486,4235.384512,4260.512716,4259.487075
48,0,4190.256308,4122.564002,4224.615281,4255.384511,4252.820409,4235.897332,4228.717845,4207.179384,4213.846051,4253.84605,4222.051179,4219.999897,4258.974255,4246.153742
49,0,4183.076821,4123.076822,4218.461435,4230.256307,4248.205024,4244.615281,4234.358871,4207.179384,4213.33323,4223.58964,4222.563999,4217.948615,4241.025537,4230.256307
50,0,4182.564,4114.358874,4214.358871,4216.410153,4235.897332,4232.820409,4235.897332,4209.743487,4212.82041,4225.128102,4225.640922,4220.512717,4235.384512,4224.615281
51,0,4190.769128,4103.076823,4218.461435,4221.538358,4249.230665,4241.538358,4238.974255,4219.487076,4221.538358,4262.563998,4229.230666,4231.281948,4243.58964,4231.281948
52,0,4194.871692,4108.717848,4221.025538,4225.128102,4271.281947,4279.999895,4253.333229,4233.33323,4244.615281,4276.410152,4242.051178,4251.794768,4247.692204,4245.640922
53,0,4185.128103,4124.615284,4212.82041,4231.281948,4272.820408,4269.230665,4254.35887,4235.897332,4248.717845,4276.410152,4240.512717,4246.666563,4242.051178,4246.666563
54,0,4181.025539,4123.589643,4217.435794,4225.128102,4262.563998,4238.461435,4246.153742,4227.179384,4234.871691,4276.922972,4230.769127,4233.84605,4245.640922,4236.922973
55,0,4182.05118,4104.102464,4222.051179,4207.692205,4252.307588,4233.33323,4243.58964,4219.487076,4228.205025,4248.717845,4228.717845,4237.435794,4249.230665,4228.717845
56,0,4183.589641,4106.666566,4216.922974,4223.58964,4247.179383,4228.205025,4244.615281,4217.948615,4232.820409,4228.717845,4229.743486,4241.025537,4245.640922,4228.205025
57,0,4193.333231,4131.794771,4233.33323,4254.35887,4253.84605,4249.743486,4257.435793,4238.461435,4253.333229,4269.743485,4245.128101,4253.333229,4257.948614,4244.10246
58,0,4209.743487,4126.153745,4255.384511,4245.640922,4269.230665,4274.87169,4267.179383,4256.410152,4265.128101,4293.333228,4258.974255,4269.230665,4269.230665,4253.84605
59,0,4174.871693,4100.51272,4236.410153,4220.512717,4261.025537,4246.153742,4253.333229,4245.128101,4248.717845,4268.717844,4244.10246,4254.871691,4252.307588,4235.384512
60,0,4099.9999,4112.820412,4213.846051,4223.58964,4249.743486,4226.153743,4240.512717,4230.256307,4237.435794,4273.846049,4230.769127,4236.922973,4237.948614,4227.179384
61,0,4069.74349,4143.076822,4225.640922,4245.128101,4251.794768,4256.410152,4251.281947,4234.358871,4243.58964,4294.358869,4240.512717,4245.128101,4251.794768,4243.58964
62,0,4079.48708,4127.692207,4227.692204,4232.820409,4239.999896,4253.333229,4253.333229,4232.820409,4234.871691,4268.205024,4231.281948,4241.025537,4251.794768,4234.358871
63,0,4082.051182,4097.948618,4214.871692,4197.435795,4236.410153,4226.153743,4245.128101,4223.58964,4228.205025,4246.666563,4211.794769,4226.666563,4229.230666,4215.384512
64,0,4079.48708,4098.974259,4211.794769,4204.102461,4251.281947,4231.794768,4252.820409,4233.33323,4244.10246,4270.256306,4219.999897,4232.307589,4231.281948,4224.615281
65,0,4083.589644,4109.743489,4210.256307,4238.974255,4250.256306,4244.10246,4258.974255,4247.692204,4251.794768,4278.974254,4238.974255,4242.051178,4252.820409,4235.384512
66,0,4094.358874,4131.28195,4216.410153,4249.230665,4248.205024,4261.025537,4255.384511,4249.743486,4255.384511,4261.538357,4248.205024,4254.35887,4264.61528,4240.512717
67,0,4119.999899,4153.333232,4235.384512,4230.256307,4270.256306,4280.512716,4259.999896,4250.256306,4266.153742,4264.10246,4252.820409,4265.128101,4265.128101,4250.256306
68,0,4111.794771,4129.230668,4232.307589,4211.794769,4263.076819,4247.692204,4252.820409,4239.487076,4255.897332,4284.61528,4241.538358,4242.051178,4253.333229,4241.538358
69,0,4084.102464,4105.128105,4212.307589,4225.640922,4234.871691,4219.999897,4237.948614,4226.666563,4233.84605,4294.358869,4228.205025,4222.563999,4243.076819,4226.153743
70,0,4100.51272,4134.871694,4214.871692,4252.820409,4253.84605,4256.922973,4245.128101,4237.435794,4245.640922,4297.435792,4243.076819,4247.179383,4258.461434,4233.33323
71,0,4119.487079,4143.589642,4219.999897,4242.051178,4276.410152,4275.384511,4253.333229,4245.640922,4262.563998,4283.589639,4251.281947,4256.922973,4264.61528,4237.948614
72,0,4104.102464,4105.640925,4217.435794,4210.769128,4253.84605,4251.281947,4246.153742,4232.307589,4247.692204,4261.538357,4232.307589,4232.820409,4244.10246,4233.84605
73,0,4100.51272,4091.794772,4217.435794,4202.564,4229.230666,4224.102461,4234.358871,4217.435794,4227.179384,4244.615281,4219.487076,4223.07682,4230.256307,4227.692204
74,0,4105.128105,4108.717848,4209.743487,4213.33323,4226.666563,4196.922974,4224.615281,4212.307589,4220.512717,4237.435794,4214.871692,4228.717845,4227.179384,4213.846051
75,0,4109.230669,4128.205027,4215.384512,4235.897332,4233.84605,4215.384512,4235.897332,4221.538358,4231.281948,4261.538357,4221.538358,4237.948614,4234.871691,4223.07682
76,0,4123.076822,4136.410155,4235.384512,4252.820409,4246.153742,4261.538357,4254.35887,4234.871691,4244.10246,4275.897331,4242.051178,4249.743486,4252.820409,4245.640922
77,0,4127.179386,4124.615284,4237.435794,4243.076819,4254.35887,4251.794768,4249.230665,4233.84605,4234.871691,4251.794768,4243.58964,4248.717845,4255.897332,4238.974255
78,0,4122.051181,4121.538361,4234.871691,4231.794768,4259.487075,4231.281948,4239.999896,4227.692204,4226.666563,4250.769127,4227.692204,4243.076819,4243.58964,4227.179384
79,0,4131.28195,4141.02554,4245.640922,4230.256307,4263.589639,4245.640922,4245.128101,4231.281948,4232.820409,4270.769126,4230.769127,4245.128101,4247.179383,4237.948614
80,0,4136.922976,4147.179386,4239.999896,4242.051178,4259.487075,4242.051178,4246.666563,4233.84605,4235.384512,4266.666562,4236.410153,4241.025537,4252.820409,4236.410153
81,0,4127.692207,4135.897335,4223.58964,4249.743486,4248.205024,4227.179384,4242.563999,4229.743486,4237.435794,4259.999896,4228.205025,4230.256307,4234.871691,4223.58964
82,0,4130.256309,4132.307591,4231.794768,4224.102461,4239.999896,4248.205024,4247.692204,4232.307589,4249.230665,4276.922972,4226.666563,4227.692204,4227.692204,4231.281948
83,0,4137.948617,4131.28195,4236.922973,4216.922974,4244.615281,4263.076819,4251.281947,4233.84605,4242.563999,4277.435793,4224.102461,4229.230666,4241.025537,4232.820409
84,0,4132.307591,4123.076822,4215.897333,4239.487076,4256.410152,4229.230666,4242.563999,4223.07682,4218.461435,4243.58964,4212.82041,4218.974256,4236.410153,4215.384512
85,0,4121.538361,4128.717848,4203.07682,4241.025537,4264.10246,4212.307589,4236.922973,4219.487076,4217.435794,4222.563999,4215.384512,4210.256307,4228.717845,4214.871692
86,0,4128.205027,4137.948617,4219.487076,4236.410153,4267.179383,4253.333229,4249.230665,4233.84605,4245.128101,4245.128101,4232.307589,4225.128102,4247.179383,4236.410153
87,0,4139.487078,4128.205027,4238.461435,4242.051178,4263.589639,4278.461434,4259.999896,4238.974255,4255.897332,4274.87169,4237.948614,4243.58964,4262.051178,4246.666563
88,0,4135.384514,4119.487079,4226.666563,4233.84605,4242.051178,4240.512717,4245.640922,4231.281948,4232.820409,4268.717844,4225.640922,4232.820409,4246.666563,4233.33323
89,0,4135.897335,4137.435796,4222.051179,4236.410153,4244.10246,4229.743486,4241.025537,4238.974255,4237.435794,4271.281947,4229.743486,4228.205025,4245.128101,4233.33323
90,0,4150.256309,4143.076822,4234.871691,4248.205024,4266.153742,4252.307588,4249.743486,4244.10246,4255.384511,4279.487075,4245.128101,4243.076819,4259.487075,4246.153742
91,0,4142.564001,4115.897335,4225.640922,4227.692204,4247.692204,4225.640922,4239.999896,4226.666563,4234.871691,4242.563999,4236.410153,4237.435794,4252.307588,4235.897332
92,0,4131.28195,4114.871694,4216.922974,4216.922974,4233.33323,4216.922974,4237.948614,4227.179384,4232.307589,4234.358871,4221.538358,4232.307589,4247.179383,4228.205025
93,0,4141.02554,4135.897335,4228.717845,4237.948614,4259.999896,4257.435793,4251.281947,4241.538358,4258.461434,4278.461434,4231.794768,4248.205024,4255.384511,4241.538358
94,0,4148.717847,4130.76913,4224.615281,4233.33323,4258.461434,4262.051178,4248.717845,4237.435794,4254.871691,4288.205023,4245.640922,4250.769127,4249.230665,4242.563999
95,0,4141.53836,4117.435797,4210.256307,4211.281948,4236.410153,4243.076819,4241.538358,4232.820409,4239.487076,4262.051178,4243.076819,4243.076819,4243.076819,4233.33323
96,0,4142.564001,4119.487079,4222.563999,4215.384512,4251.281947,4254.35887,4250.769127,4239.487076,4246.666563,4253.84605,4241.025537,4247.692204,4255.384511,4242.563999
97,0,4138.974258,4108.717848,4218.974256,4220.512717,4247.692204,4227.692204,4243.58964,4223.58964,4230.256307,4255.384511,4228.205025,4236.410153,4237.435794,4233.33323
98,0,4133.333232,4103.589643,4203.589641,4215.384512,4224.615281,4200.512718,4229.230666,4214.871692,4216.410153,4260.512716,4221.025538,4229.743486,4219.999897,4210.769128
99,0,4149.230668,4128.205027,4224.102461,4229.230666,4251.794768,4246.666563,4242.051178,4236.922973,4248.205024,4274.35887,4241.025537,4253.333229,4254.35887,4225.128102
100,0,4158.461437,4137.435796,4235.384512,4239.999896,4266.666562,4264.10246,4248.205024,4243.58964,4264.61528,4275.897331,4250.769127,4255.897332,4268.717844,4250.769127
101,0,4155.384514,4125.640925,4221.538358,4229.230666,4245.128101,4233.33323,4237.435794,4229.743486,4247.179383,4269.743485,4243.58964,4238.461435,4249.230665,4249.743486
102,0,4156.922975,4134.358873,4224.615281,4230.256307,4253.333229,4241.025537,4235.897332,4229.743486,4243.58964,4269.230665,4241.538358,4238.461435,4256.922973,4241.025537
103,0,4157.948616,4147.179386,4237.948614,4233.84605,4259.487075,4256.410152,4240.512717,4233.84605,4250.256306,4266.153742,4238.461435,4238.461435,4264.61528,4236.922973
104,0,4153.846052,4132.307591,4230.769127,4230.769127,4241.025537,4236.410153,4238.974255,4231.794768,4249.230665,4274.35887,4230.256307,4230.769127,4248.205024,4233.33323
105,0,4157.948616,4122.051181,4217.948615,4232.307589,4255.384511,4230.769127,4243.58964,4232.307589,4245.640922,4271.281947,4233.84605,4233.33323,4244.615281,4231.281948
106,0,4157.435796,4148.717847,4215.897333,4238.461435,4271.281947,4238.974255,4245.640922,4230.769127,4235.384512,4247.692204,4236.410153,4228.205025,4246.153742,4230.256307
107,0,4159.487078,4161.025539,4222.563999,4243.58964,4249.230665,4240.512717,4241.538358,4230.256307,4233.33323,4248.205024,4231.281948,4224.102461,4236.410153,4231.281948
108,0,4165.128103,4126.153745,4231.281948,4230.256307,4245.640922,4241.538358,4240.512717,4228.717845,4241.025537,4256.922973,4231.281948,4235.384512,4232.820409,4232.307589
109,0,4160.512719,4109.230669,4227.692204,4213.33323,4253.84605,4228.205025,4237.435794,4222.563999,4233.84605,4238.461435,4229.230666,4233.33323,4228.205025,4230.256307
110,0,4160.512719,4152.820411,4228.205025,4242.051178,4243.076819,4236.922973,4237.948614,4227.179384,4230.769127,4246.666563,4229.743486,4229.743486,4231.281948,4238.461435
111,0,4172.820411,4175.384513,4235.384512,4265.128101,4251.794768,4246.666563,4237.948614,4227.692204,4236.922973,4271.281947,4233.33323,4237.948614,4238.461435,4244.615281
112,0,4167.692206,4139.487078,4229.743486,4225.128102,4263.589639,4221.025538,4230.769127,4214.871692,4231.281948,4246.153742,4225.128102,4231.281948,4230.769127,4232.307589
113,0,4158.974257,4121.538361,4222.563999,4205.128102,4241.538358,4225.640922,4233.84605,4219.999897,4228.717845,4227.692204,4220.512717,4227.692204,4229.230666,4226.153743
114,0,4166.666565,4138.461437,4226.666563,4242.051178,4232.307589,4261.025537,4247.692204,4233.84605,4236.922973,4250.769127,4227.179384,4241.025537,4236.410153,4241.025537
115,0,4170.256308,4134.358873,4227.692204,4245.640922,4246.666563,4243.58964,4244.615281,4226.153743,4228.717845,4244.615281,4228.205025,4237.435794,4226.153743,4241.538358
116,0,4162.564001,4114.358874,4227.179384,4207.179384,4249.230665,4213.846051,4235.384512,4219.999897,4224.615281,4229.743486,4221.538358,4228.205025,4211.794769,4218.974256
117,0,4167.692206,4125.640925,4234.871691,4210.256307,4253.333229,4245.128101,4249.230665,4235.897332,4247.692204,4267.179383,4231.281948,4246.153742,4231.281948,4219.999897
118,0,4178.974257,4146.153745,4235.897332,4245.640922,4244.10246,4248.205024,4255.384511,4242.563999,4249.743486,4281.025536,4242.563999,4256.410152,4250.769127,4245.128101
119,0,4174.358872,4137.435796,4229.743486,4238.461435,4224.615281,4213.846051,4242.051178,4230.769127,4228.717845,4222.563999,4233.33323,4243.076819,4234.871691,4250.256306
120,0,4179.487077,4135.897335,4233.33323,4224.615281,4253.84605,4241.025537,4247.692204,4232.820409,4238.974255,4209.743487,4232.820409,4248.717845,4233.33323,4247.179383
121,0,4189.230667,4149.230668,4235.384512,4235.897332,4282.051177,4273.333229,4253.333229,4242.563999,4259.487075,4262.051178,4248.205024,4264.61528,4252.307588,4249.230665
122,0,4185.128103,4137.948617,4231.281948,4224.102461,4246.666563,4251.794768,4239.999896,4237.435794,4250.256306,4273.333229,4250.769127,4258.974255,4247.692204,4237.435794
123,0,4183.076821,4136.922976,4238.461435,4219.487076,4242.051178,4231.794768,4237.435794,4231.794768,4244.615281,4251.281947,4237.948614,4252.820409,4237.435794,4238.461435
124,0,4191.794769,4160.512719,4250.769127,4250.769127,4278.461434,4237.948614,4246.666563,4234.871691,4249.230665,4258.974255,4236.410153,4254.871691,4246.666563,4262.563998
125,0,4190.769128,4162.05118,4244.10246,4256.410152,4259.487075,4241.025537,4243.58964,4231.794768,4240.512717,4271.794767,4243.076819,4247.179383,4251.794768,4261.025537
126,0,4184.615282,4149.230668,4231.794768,4245.128101,4227.179384,4244.615281,4241.025537,4230.256307,4238.974255,4259.487075,4240.512717,4238.974255,4250.256306,4239.487076
127,0,4181.025539,4144.102463,4225.128102,4233.84605,4243.58964,4234.871691,4236.922973,4226.666563,4241.538358,4241.025537,4231.794768,4240.512717,4248.717845,4231.794768
128,0,4177.948616,4134.871694,4218.974256,4203.07682,4254.871691,4217.435794,4227.179384,4213.846051,4227.179384,4223.58964,4224.102461,4232.307589,4234.871691,4220.512717
0,0,4174.358872,4129.230668,4214.871692,4214.871692,4238.974255,4219.999897,4230.256307,4210.769128,4212.82041,4210.256307,4218.461435,4222.051179,4222.051179,4210.769128
1,0,4176.410154,4136.922976,4215.384512,4259.487075,4235.897332,4234.871691,4235.384512,4216.922974,4217.948615,4212.82041,4213.846051,4223.58964,4226.153743,4222.051179
2,0,4184.102462,4149.230668,4224.102461,4246.666563,4250.769127,4250.256306,4234.871691,4223.07682,4234.358871,4235.384512,4224.615281,4228.717845,4234.871691,4233.33323
3,0,4192.30759,4159.487078,4238.461435,4227.179384,4265.640921,4254.35887,4242.051178,4230.769127,4244.615281,4261.538357,4239.487076,4233.84605,4237.948614,4235.384512
4,0,4187.179385,4157.948616,4234.358871,4250.256306,4264.10246,4244.615281,4242.563999,4230.769127,4235.897332,4249.743486,4231.794768,4232.820409,4236.410153,4230.769127
5,0,4177.948616,4142.051181,4212.307589,4243.58964,4249.230665,4223.07682,4225.640922,4214.358871,4216.922974,4217.435794,4204.615282,4216.410153,4224.102461,4218.461435
6,0,4178.974257,4134.871694,4211.794769,4210.769128,4244.10246,4214.358871,4221.025538,4201.538359,4215.384512,4211.794769,4194.871692,4209.230666,4212.307589,4213.33323
7,0,4179.487077,4136.922976,4224.615281,4213.33323,4244.10246,4235.897332,4231.281948,4204.615282,4217.948615,4206.153743,4209.743487,4218.461435,4216.922974,4214.358871
8,0,4175.384513,4140.512719,4214.871692,4227.692204,4231.281948,4214.358871,4225.640922,4205.128102,4199.999897,4188.205026,4213.33323,4216.410153,4217.435794,4206.153743
9,0,4181.025539,4151.28195,4216.410153,4234.871691,4227.179384,4176.410154,4215.384512,4207.179384,4197.435795,4201.025538,4217.435794,4218.461435,4216.410153,4210.769128
10,0,4202.051179,4168.205026,4245.640922,4255.897332,4250.256306,4233.33323,4236.922973,4223.07682,4231.794768,4246.666563,4236.410153,4247.692204,4240.512717,4242.563999
11,0,4210.769128,4171.79477,4248.717845,4259.487075,4258.461434,4292.820408,4257.948614,4236.922973,4255.384511,4267.179383,4242.051178,4260.512716,4257.435793,4256.922973
12,0,4196.410154,4153.846052,4229.230666,4218.974256,4252.307588,4243.076819,4244.10246,4231.281948,4244.10246,4254.35887,4230.769127,4239.487076,4233.84605,4232.820409
13,0,4185.128103,4148.717847,4227.692204,4210.256307,4250.769127,4204.615282,4229.743486,4225.128102,4230.769127,4240.512717,4227.692204,4228.205025,4216.410153,4212.82041
14,0,4189.743487,4157.948616,4225.640922,4256.410152,4233.84605,4231.281948,4234.358871,4226.666563,4222.563999,4208.205025,4222.563999,4227.179384,4224.102461,4217.435794
15,0,4195.384513,4156.410155,4225.128102,4258.461434,4232.820409,4249.230665,4244.615281,4228.717845,4227.179384,4202.051179,4215.897333,4225.128102,4232.820409,4232.820409
16,0,4196.410154,4151.28195,4230.256307,4216.922974,4260.512716,4245.128101,4249.230665,4232.307589,4242.563999,4245.128101,4220.512717,4223.07682,4231.281948,4235.384512
17,0,4189.230667,4150.256309,4222.051179,4216.922974,4253.333229,4222.563999,4242.563999,4227.692204,4230.256307,4250.769127,4216.410153,4217.435794,4223.58964,4222.051179
18,0,4189.743487,4144.615283,4227.692204,4237.948614,4220.512717,4217.435794,4238.974255,4222.563999,4214.871692,4225.128102,4215.897333,4226.666563,4224.615281,4219.999897
19,0,4197.948615,4150.256309,4245.640922,4236.922973,4243.076819,4246.666563,4244.10246,4229.743486,4236.410153,4228.205025,4230.769127,4242.563999,4232.820409,4229.743486
20,0,4198.974256,4168.717847,4229.230666,4235.384512,4263.589639,4231.281948,4239.999896,4232.820409,4250.256306,4222.051179,4231.281948,4234.358871,4232.820409,4231.794768
21,0,4198.974256,4163.589642,4214.871692,4229.230666,4228.205025,4207.692205,4236.410153,4228.717845,4238.974255,4216.922974,4231.794768,4234.871691,4239.487076,4239.999896
22,0,4206.666564,4151.79477,4237.948614,4226.153743,4219.999897,4247.692204,4246.153742,4232.820409,4246.153742,4260.512716,4250.769127,4260.512716,4258.461434,4255.384511
23,0,4202.564,4158.974257,4236.922973,4238.461435,4258.974255,4255.897332,4245.128101,4235.384512,4252.307588,4277.435793,4247.692204,4254.35887,4250.769127,4243.58964
24,0,4190.769128,4158.974257,4217.948615,4241.025537,4271.794767,4222.563999,4239.999896,4228.717845,4239.999896,4252.307588,4225.640922,4228.717845,4230.769127,4225.128102
25,0,4196.922974,4156.410155,4231.281948,4231.794768,4254.35887,4239.487076,4251.281947,4230.769127,4245.128101,4242.563999,4228.717845,4238.974255,4243.076819,4234.871691
26,0,4199.487077,4164.615283,4234.871691,4222.563999,4255.384511,4248.717845,4244.615281,4229.743486,4249.230665,4240.512717,4241.538358,4249.743486,4253.333229,4242.051178
27,0,4188.205026,4162.564001,4205.128102,4216.410153,4241.025537,4204.102461,4221.538358,4212.307589,4227.179384,4235.384512,4231.281948,4232.307589,4234.871691,4230.256307
28,0,4186.666564,4149.743488,4199.999897,4228.205025,4218.974256,4209.743487,4226.153743,4208.717846,4219.487076,4232.307589,4216.410153,4229.743486,4227.692204,4225.128102
29,0,4197.948615,4152.307591,4227.179384,4251.794768,4241.538358,4263.589639,4246.666563,4226.666563,4233.84605,4223.58964,4214.358871,4245.128101,4231.281948,4231.281948
30,0,4195.897333,4159.487078,4233.84605,4243.58964,4267.179383,4252.820409,4238.461435,4227.179384,4232.307589,4224.615281,4217.435794,4238.974255,4219.999897,4232.307589
31,0,4196.410154,4159.999898,4232.820409,4215.897333,4266.153742,4229.230666,4228.717845,4214.871692,4228.717845,4243.58964,4226.153743,4234.358871,4225.128102,4232.820409
32,0,4204.615282,4159.487078,4236.410153,4223.07682,4253.333229,4236.410153,4233.84605,4214.358871,4232.820409,4234.358871,4225.128102,4243.076819,4236.410153,4230.769127
33,0,4203.589641,4148.717847,4226.153743,4243.58964,4235.897332,4214.871692,4228.205025,4214.358871,4219.487076,4204.102461,4208.717846,4229.743486,4219.487076,4219.999897
34,0,4196.922974,4150.769129,4215.897333,4241.025537,4224.102461,4205.128102,4228.205025,4210.769128,4212.307589,4205.640923,4201.025538,4212.307589,4205.128102,4211.794769
35,0,4198.974256,4163.076821,4223.07682,4226.666563,4222.051179,4236.410153,4237.948614,4217.435794,4227.179384,4232.820409,4205.640923,4222.051179,4213.33323,4216.410153
36,0,4199.487077,4157.948616,4241.025537,4224.615281,4226.666563,4231.794768,4231.794768,4225.128102,4237.435794,4246.153742,4208.717846,4236.410153,4225.128102,4228.717845
37,0,4204.102461,4160.512719,4243.58964,4238.461435,4250.256306,4206.153743,4227.179384,4221.025538,4234.871691,4234.358871,4215.897333,4239.999896,4234.358871,4238.974255
38,0,4207.692205,4171.281949,4222.051179,4239.999896,4264.10246,4221.025538,4237.948614,4211.281948,4226.153743,4215.384512,4215.897333,4236.922973,4230.256307,4231.794768
39,0,4203.589641,4162.564001,4211.281948,4234.358871,4242.563999,4232.307589,4237.948614,4207.692205,4218.974256,4210.769128,4201.025538,4229.743486,4215.897333,4218.974256
40,0,4209.743487,4162.05118,4234.358871,4239.999896,4247.179383,4228.205025,4236.410153,4221.025538,4228.717845,4229.743486,4209.230666,4242.051178,4223.07682,4231.281948
41,0,4219.487076,4178.974257,4238.974255,4237.948614,4250.769127,4229.743486,4242.051178,4225.128102,4235.897332,4232.307589,4223.58964,4256.922973,4234.358871,4242.051178
42,0,4211.281948,4167.179385,4215.897333,4221.538358,4215.897333,4226.153743,4237.435794,4209.743487,4225.640922,4218.461435,4214.871692,4241.025537,4223.07682,4230.769127
43,0,4202.564,4148.205027,4225.640922,4221.538358,4218.974256,4242.563999,4238.974255,4213.33323,4231.281948,4236.410153,4215.384512,4233.33323,4226.153743,4231.794768
44,0,4203.07682,4161.025539,4230.769127,4241.538358,4250.769127,4235.384512,4241.025537,4224.615281,4234.358871,4236.922973,4212.82041,4241.025537,4230.769127,4229.230666
45,0,4201.025538,4176.410154,4207.692205,4231.794768,4247.692204,4198.461436,4230.256307,4218.461435,4221.538358,4214.871692,4201.025538,4234.871691,4215.897333,4216.410153
46,0,4205.640923,4166.153744,4216.922974,4206.666564,4223.07682,4206.153743,4231.794768,4215.384512,4228.205025,4230.256307,4211.281948,4230.769127,4211.794769,4229.230666
47,0,4213.33323,4159.999898,4241.025537,4224.102461,4220.512717,4251.794768,4247.692204,4226.153743,4246.153742,4253.84605,4225.128102,4241.025537,4225.128102,4244.10246
48,0,4206.666564,4162.564001,4222.051179,4241.538358,4235.384512,4242.051178,4244.10246,4223.58964,4241.025537,4239.999896,4211.281948,4235.384512,4219.487076,4225.640922
49,0,4187.692205,4151.28195,4192.82041,4211.794769,4224.102461,4190.256308,4223.07682,4204.615282,4215.384512,4214.358871,4191.794769,4211.794769,4196.410154,4201.538359
50,0,4197.948615,4154.358873,4206.666564,4212.307589,4203.07682,4215.384512,4228.717845,4206.153743,4205.640923,4197.435795,4196.922974,4217.948615,4205.128102,4210.769128
51,0,4222.563999,4180.512718,4236.410153,4259.487075,4221.538358,4265.128101,4246.153742,4225.640922,4222.051179,4202.564,4216.410153,4245.128101,4226.153743,4231.794768
52,0,4214.871692,4173.333231,4236.410153,4231.794768,4247.692204,4225.640922,4235.384512,4224.102461,4223.58964,4222.563999,4216.410153,4239.999896,4209.230666,4226.666563
53,0,4193.333231,4142.051181,4214.871692,4189.230667,4233.33323,4184.615282,4217.948615,4209.230666,4204.615282,4235.897332,4199.487077,4223.07682,4196.922974,4216.922974
54,0,4209.743487,4162.564001,4218.461435,4234.871691,4226.153743,4225.640922,4232.307589,4214.871692,4211.794769,4246.666563,4205.640923,4240.512717,4226.153743,4242.051178
55,0,4227.692204,4194.871692,4235.384512,4254.35887,4224.615281,4236.922973,4237.948614,4222.563999,4226.666563,4241.538358,4221.025538,4254.871691,4235.384512,4252.307588
56,0,4218.974256,4175.384513,4225.640922,4224.102461,4202.051179,4202.051179,4222.051179,4210.769128,4212.307589,4207.692205,4202.051179,4238.461435,4208.717846,4222.563999
57,0,4216.410153,4164.102462,4217.435794,4235.897332,4216.922974,4229.230666,4232.307589,4216.410153,4216.410153,4210.256307,4198.461436,4240.512717,4213.33323,4227.692204
58,0,4219.487076,4175.897334,4219.487076,4245.640922,4254.871691,4255.897332,4247.692204,4234.871691,4239.999896,4250.256306,4230.256307,4259.999896,4239.999896,4255.897332
59,0,4212.307589,4159.999898,4213.33323,4208.717846,4253.84605,4228.205025,4239.999896,4227.692204,4232.307589,4249.230665,4231.794768,4257.435793,4238.461435,4248.717845
60,0,4212.307589,4147.692206,4217.435794,4208.205025,4232.307589,4227.179384,4235.897332,4218.974256,4216.922974,4226.153743,4211.281948,4250.769127,4225.640922,4237.948614
61,0,4213.846051,4168.717847,4217.435794,4245.128101,4222.051179,4231.794768,4233.33323,4219.999897,4214.871692,4210.769128,4210.256307,4243.076819,4218.974256,4232.307589
62,0,4197.435795,4165.128103,4198.974256,4225.128102,4198.461436,4191.281949,4217.948615,4209.743487,4200.512718,4185.128103,4205.640923,4225.640922,4202.564,4210.256307
63,0,4194.871692,4141.02554,4199.999897,4189.230667,4181.538359,4191.794769,4222.051179,4205.640923,4196.410154,4182.564,4191.794769,4226.153743,4196.410154,4210.256307
64,0,4216.922974,4152.820411,4223.58964,4222.051179,4217.948615,4258.974255,4245.640922,4225.640922,4227.179384,4233.84605,4205.640923,4244.10246,4221.538358,4239.999896
65,0,4220.512717,4164.615283,4220.512717,4245.128101,4248.717845,4263.076819,4247.692204,4228.717845,4233.33323,4255.384511,4219.487076,4239.487076,4231.794768,4240.512717
66,0,4192.82041,4140.512719,4192.30759,4202.564,4217.948615,4184.102462,4226.153743,4202.051179,4192.82041,4204.102461,4197.948615,4211.281948,4199.487077,4208.717846
67,0,4184.615282,4132.820412,4185.640923,4198.974256,4197.435795,4185.640923,4228.717845,4203.07682,4184.615282,4195.384513,4187.692205,4206.153743,4190.256308,4195.897333
68,0,4202.051179,4155.897334,4207.179384,4236.922973,4223.58964,4256.410152,4249.743486,4228.717845,4223.07682,4248.717845,4210.256307,4227.692204,4224.102461,4215.384512
69,0,4212.307589,4156.410155,4225.128102,4228.205025,4216.922974,4236.922973,4237.948614,4228.205025,4235.897332,4255.897332,4219.487076,4242.051178,4237.948614,4233.33323
70,0,4211.794769,4144.102463,4216.922974,4220.512717,4187.692205,4174.358872,4214.358871,4211.794769,4216.922974,4222.051179,4210.769128,4236.410153,4228.205025,4233.33323
71,0,4218.974256,4165.128103,4208.205025,4239.999896,4207.179384,4196.410154,4222.051179,4215.897333,4212.307589,4224.615281,4219.999897,4234.871691,4236.410153,4230.256307
72,0,4221.025538,4187.692205,4225.128102,4227.179384,4231.281948,4233.33323,4231.794768,4226.666563,4225.128102,4236.410153,4225.128102,4249.743486,4251.281947,4236.922973
73,0,4218.461435,4177.435795,4234.871691,4227.692204,4213.33323,4222.563999,4230.256307,4223.58964,4230.769127,4230.769127,4213.33323,4251.794768,4246.153742,4235.897332
74,0,4223.07682,4167.179385,4223.07682,4258.461434,4204.102461,4222.051179,4237.948614,4221.025538,4229.743486,4248.205024,4208.205025,4238.461435,4239.487076,4226.153743
75,0,4223.58964,4161.53836,4208.717846,4249.743486,4225.128102,4221.025538,4236.410153,4219.999897,4217.435794,4249.230665,4208.205025,4228.717845,4239.999896,4224.615281
76,0,4211.281948,4151.28195,4208.205025,4214.358871,4217.435794,4204.102461,4230.769127,4215.897333,4201.025538,4208.717846,4205.128102,4227.692204,4229.230666,4228.717845
77,0,4205.640923,4157.948616,4214.871692,4205.128102,4189.743487,4214.871692,4237.948614,4217.948615,4206.153743,4203.589641,4206.666564,4232.820409,4221.538358,4226.666563
78,0,4214.358871,4170.769129,4214.358871,4222.051179,4207.179384,4237.435794,4238.461435,4224.615281,4221.025538,4240.512717,4205.640923,4229.743486,4228.717845,4221.025538
79,0,4216.922974,4166.666565,4203.589641,4242.051178,4244.10246,4224.102461,4225.128102,4223.07682,4219.999897,4244.615281,4197.435795,4219.999897,4225.128102,4215.897333
80,0,4213.846051,4159.999898,4198.461436,4246.153742,4234.358871,4198.461436,4224.615281,4217.435794,4214.871692,4237.435794,4196.922974,4218.974256,4211.281948,4213.846051
81,0,4218.461435,4165.128103,4218.461435,4230.256307,4213.846051,4213.846051,4236.410153,4225.640922,4225.128102,4254.35887,4203.589641,4232.307589,4220.512717,4226.666563
82,0,4228.717845,4172.820411,4231.794768,4228.717845,4226.666563,4242.563999,4242.051178,4235.897332,4234.358871,4245.128101,4209.743487,4242.051178,4238.974255,4244.10246
83,0,4229.230666,4176.922975,4218.974256,4238.974255,4227.692204,4231.794768,4240.512717,4232.307589,4229.743486,4224.615281,4213.33323,4237.948614,4233.33323,4244.615281
84,0,4222.051179,4171.281949,4210.769128,4231.794768,4209.743487,4211.794769,4238.461435,4225.640922,4229.230666,4237.948614,4207.692205,4230.256307,4222.051179,4226.153743
85,0,4212.82041,4168.205026,4214.358871,4230.256307,4222.051179,4227.179384,4236.922973,4229.230666,4230.769127,4253.333229,4196.922974,4231.794768,4231.794768,4215.384512
86,0,4211.794769,4168.717847,4207.692205,4236.922973,4239.487076,4235.384512,4232.307589,4228.205025,4221.538358,4245.640922,4191.794769,4229.230666,4232.820409,4224.615281
87,0,4213.33323,4158.461437,4196.922974,4227.179384,4224.102461,4208.717846,4229.743486,4218.974256,4214.871692,4236.410153,4197.948615,4216.410153,4218.461435,4234.871691
88,0,4213.846051,4158.461437,4197.948615,4214.871692,4219.487076,4201.025538,4234.871691,4216.410153,4214.871692,4231.281948,4201.538359,4214.871692,4220.512717,4224.102461
89,0,4215.384512,4170.256308,4206.153743,4223.58964,4235.384512,4239.487076,4242.051178,4221.025538,4217.948615,4229.230666,4202.564,4229.230666,4236.922973,4213.846051
90,0,4217.948615,4167.179385,4204.102461,4238.461435,4225.640922,4256.922973,4243.076819,4221.025538,4226.666563,4233.33323,4209.743487,4233.33323,4235.384512,4227.179384
91,0,4212.307589,4165.128103,4196.410154,4234.358871,4213.846051,4222.563999,4232.307589,4215.897333,4228.205025,4231.281948,4214.358871,4227.692204,4230.256307,4245.128101
92,0,4216.410153,4176.922975,4211.281948,4215.897333,4230.769127,4213.33323,4231.794768,4223.58964,4228.205025,4233.84605,4215.897333,4230.769127,4244.615281,4252.820409
93,0,4228.717845,4171.281949,4229.230666,4217.948615,4239.487076,4220.512717,4234.871691,4227.692204,4227.179384,4241.538358,4216.922974,4233.33323,4244.615281,4243.076819
94,0,4229.230666,4166.153744,4218.974256,4254.871691,4221.538358,4210.256307,4225.640922,4218.461435,4220.512717,4242.563999,4214.358871,4230.769127,4230.769127,4228.205025
95,0,4229.743486,4199.487077,4219.999897,4266.153742,4218.461435,4238.461435,4229.230666,4222.563999,4222.051179,4257.948614,4218.461435,4243.58964,4244.615281,4242.051178
96,0,4236.410153,4205.640923,4236.922973,4238.461435,4235.897332,4258.974255,4240.512717,4229.743486,4227.179384,4259.999896,4223.58964,4252.307588,4260.512716,4263.589639
97,0,4230.256307,4166.153744,4220.512717,4233.33323,4224.102461,4199.999897,4224.615281,4212.82041,4213.33323,4216.922974,4212.307589,4232.307589,4238.461435,4249.230665
98,0,4223.58964,4166.666565,4210.769128,4237.435794,4194.871692,4178.974257,4211.794769,4207.179384,4208.205025,4203.07682,4209.743487,4225.128102,4225.640922,4228.205025
99,0,4231.281948,4188.717846,4233.84605,4232.820409,4207.692205,4241.538358,4232.307589,4226.153743,4227.179384,4248.717845,4224.102461,4244.615281,4244.615281,4239.999896
100,0,4224.615281,4171.79477,4221.025538,4235.384512,4231.794768,4237.435794,4234.358871,4224.615281,4225.640922,4258.461434,4216.410153,4237.948614,4242.051178,4249.743486
101,0,4210.769128,4164.615283,4194.358872,4236.922973,4205.640923,4183.589641,4213.846051,4208.205025,4203.589641,4217.948615,4200.512718,4215.384512,4224.102461,4240.512717
102,0,4219.487076,4189.743487,4217.948615,4240.512717,4186.153744,4211.794769,4222.051179,4212.82041,4201.538359,4214.871692,4212.82041,4228.205025,4232.307589,4242.051178
103,0,4235.897332,4193.846051,4239.487076,4248.205024,4219.487076,4257.948614,4243.076819,4223.07682,4217.948615,4238.461435,4228.717845,4249.743486,4246.666563,4249.743486
104,0,4229.230666,4177.948616,4221.538358,4233.84605,4223.07682,4226.666563,4232.307589,4216.410153,4221.025538,4230.769127,4221.025538,4240.512717,4237.948614,4238.461435
105,0,4221.025538,4177.435795,4206.153743,4228.717845,4198.461436,4189.743487,4216.410153,4206.153743,4202.051179,4210.256307,4202.051179,4224.102461,4225.640922,4228.717845
