title:K                                                                               , recorded:02.07.20 11.26.20, sampling:128, subject:K                                                                               , labels:COUNTER INTERPOLATED AF3 F7 F3 FC5 T7 P7 O1 O2 P8 T8 FC6 F4 F8 AF4,, units:emotiv,,,,,,,,,
123,0,4210.769128,4226.666563,4216.922974,4226.666563,4225.128102,4234.358871,4233.33323,4242.051178,4232.820409,4240.512717,4233.84605,4234.871691,4246.666563,4232.820409
124,0,4201.538359,4214.358871,4215.384512,4210.256307,4234.358871,4198.974256,4216.410153,4228.717845,4221.025538,4238.974255,4229.230666,4225.128102,4236.410153,4221.025538
125,0,4192.82041,4199.487077,4208.205025,4211.281948,4228.205025,4188.717846,4213.846051,4216.410153,4213.33323,4215.384512,4217.948615,4213.846051,4228.717845,4212.82041
126,0,4192.30759,4200.512718,4204.102461,4218.974256,4211.281948,4205.128102,4221.538358,4216.410153,4212.82041,4215.897333,4216.410153,4216.410153,4230.769127,4218.461435
127,0,4206.153743,4215.384512,4214.871692,4218.461435,4228.205025,4232.820409,4227.179384,4233.33323,4232.307589,4244.10246,4232.307589,4231.794768,4246.153742,4232.820409
128,0,4208.717846,4212.307589,4218.461435,4212.307589,4235.384512,4212.307589,4222.563999,4233.84605,4236.922973,4237.435794,4235.384512,4232.820409,4247.179383,4231.794768
0,0,4200.512718,4204.615282,4221.538358,4214.358871,4203.07682,4184.615282,4217.435794,4224.615281,4224.102461,4236.410153,4232.820409,4231.281948,4242.563999,4232.820409
1,0,4212.307589,4228.717845,4238.974255,4228.205025,4194.871692,4225.640922,4227.179384,4238.461435,4229.230666,4254.35887,4244.615281,4249.230665,4256.410152,4253.333229
2,0,4232.307589,4253.333229,4246.153742,4249.743486,4223.58964,4266.153742,4234.358871,4251.794768,4242.563999,4229.743486,4254.871691,4257.948614,4266.153742,4261.025537
3,0,4228.205025,4238.974255,4237.435794,4251.794768,4242.051178,4234.358871,4227.179384,4241.538358,4237.435794,4214.871692,4245.640922,4244.10246,4252.307588,4247.179383
4,0,4206.153743,4207.179384,4223.58964,4223.07682,4224.615281,4175.897334,4217.948615,4226.153743,4213.33323,4237.948614,4219.999897,4227.692204,4227.179384,4224.615281
5,0,4202.051179,4203.07682,4218.461435,4208.205025,4192.82041,4173.846052,4220.512717,4225.640922,4206.153743,4239.999896,4212.82041,4227.692204,4220.512717,4218.974256
6,0,4213.846051,4218.974256,4231.794768,4226.666563,4199.487077,4217.435794,4227.692204,4235.384512,4219.487076,4227.692204,4232.820409,4235.897332,4233.33323,4238.461435
7,0,4214.358871,4218.461435,4237.948614,4238.461435,4237.948614,4236.410153,4228.717845,4236.410153,4222.051179,4231.794768,4239.999896,4235.897332,4233.33323,4245.128101
8,0,4194.358872,4202.051179,4218.974256,4213.33323,4229.230666,4214.358871,4225.640922,4230.769127,4214.358871,4223.58964,4219.487076,4227.692204,4215.897333,4222.563999
9,0,4189.230667,4193.846051,4210.256307,4190.256308,4194.358872,4193.333231,4222.563999,4232.820409,4212.82041,4212.307589,4210.256307,4223.58964,4214.871692,4211.281948
10,0,4206.666564,4199.487077,4225.640922,4210.256307,4214.871692,4199.999897,4223.58964,4242.051178,4212.82041,4222.051179,4225.640922,4229.230666,4231.281948,4231.281948
11,0,4212.82041,4210.256307,4234.358871,4230.769127,4244.615281,4225.128102,4231.281948,4249.743486,4223.07682,4226.666563,4238.461435,4240.512717,4236.410153,4244.10246
12,0,4208.717846,4228.717845,4235.384512,4223.07682,4236.922973,4247.179383,4233.84605,4256.922973,4244.615281,4231.281948,4235.897332,4250.769127,4234.358871,4236.410153
13,0,4210.256307,4228.717845,4233.33323,4217.435794,4226.153743,4226.153743,4226.666563,4249.743486,4236.922973,4235.384512,4227.179384,4246.153742,4228.717845,4234.871691
14,0,4213.846051,4212.82041,4231.281948,4235.897332,4231.794768,4212.307589,4224.102461,4245.128101,4223.58964,4237.435794,4237.435794,4240.512717,4230.769127,4248.717845
15,0,4210.256307,4211.794769,4233.84605,4235.897332,4237.948614,4234.871691,4229.743486,4258.974255,4243.58964,4234.358871,4250.256306,4251.281947,4245.128101,4253.84605
16,0,4203.589641,4207.692205,4229.743486,4203.589641,4227.692204,4217.948615,4227.179384,4256.922973,4244.10246,4214.871692,4231.794768,4248.717845,4236.922973,4235.897332
17,0,4206.153743,4197.435795,4227.179384,4202.564,4220.512717,4182.564,4222.051179,4241.025537,4219.487076,4219.487076,4218.974256,4236.922973,4214.871692,4224.615281
18,0,4214.871692,4206.666564,4246.153742,4228.717845,4227.179384,4201.538359,4227.692204,4251.281947,4228.205025,4252.820409,4241.025537,4251.281947,4223.58964,4238.461435
19,0,4214.871692,4219.487076,4258.461434,4238.461435,4224.615281,4233.33323,4235.897332,4268.717844,4252.820409,4258.974255,4252.820409,4267.179383,4247.179383,4247.692204
20,0,4210.256307,4218.974256,4245.128101,4238.974255,4219.487076,4237.948614,4237.435794,4265.640921,4251.794768,4246.666563,4245.128101,4264.10246,4250.769127,4236.922973
21,0,4212.307589,4217.948615,4240.512717,4230.256307,4233.33323,4231.281948,4229.230666,4256.922973,4238.461435,4250.769127,4251.281947,4259.487075,4241.538358,4227.179384
22,0,4213.33323,4220.512717,4246.666563,4217.435794,4233.33323,4217.435794,4223.07682,4252.307588,4233.84605,4253.84605,4249.743486,4257.435793,4234.358871,4231.281948
23,0,4209.230666,4213.33323,4234.871691,4216.410153,4214.871692,4202.564,4224.102461,4246.153742,4227.692204,4236.922973,4228.205025,4249.230665,4229.230666,4232.307589
24,0,4214.871692,4210.256307,4226.153743,4225.128102,4216.922974,4215.384512,4224.102461,4243.58964,4226.666563,4229.230666,4237.435794,4247.692204,4232.307589,4232.820409
25,0,4219.487076,4220.512717,4234.871691,4228.717845,4230.256307,4217.435794,4218.461435,4240.512717,4233.33323,4242.563999,4253.84605,4248.205024,4242.563999,4240.512717
26,0,4220.512717,4224.615281,4242.051178,4233.84605,4225.128102,4193.846051,4220.512717,4237.435794,4227.692204,4246.666563,4233.84605,4246.153742,4246.153742,4242.563999
27,0,4236.410153,4231.281948,4261.025537,4237.948614,4217.948615,4214.871692,4230.256307,4248.717845,4229.743486,4240.512717,4240.512717,4262.051178,4251.794768,4249.230665
28,0,4242.563999,4238.461435,4267.692203,4233.84605,4225.640922,4246.666563,4230.256307,4254.35887,4240.512717,4241.538358,4274.35887,4270.256306,4258.461434,4258.974255
29,0,4218.974256,4230.256307,4237.948614,4230.769127,4235.897332,4221.538358,4219.487076,4235.384512,4233.33323,4250.256306,4258.974255,4251.281947,4252.307588,4252.307588
30,0,4213.33323,4223.07682,4233.84605,4243.076819,4239.487076,4207.179384,4219.487076,4225.640922,4223.58964,4248.717845,4233.33323,4250.256306,4247.179383,4245.640922
31,0,4235.897332,4236.922973,4264.10246,4254.871691,4246.153742,4239.999896,4227.692204,4237.435794,4230.256307,4238.461435,4251.794768,4268.205024,4256.922973,4255.384511
32,0,4234.871691,4235.897332,4263.076819,4227.692204,4238.461435,4231.281948,4221.025538,4237.948614,4226.153743,4236.410153,4255.897332,4262.051178,4252.820409,4249.743486
33,0,4212.82041,4212.82041,4239.999896,4208.717846,4207.692205,4194.871692,4213.846051,4225.640922,4213.33323,4230.256307,4231.281948,4241.538358,4233.84605,4229.230666
34,0,4212.82041,4216.410153,4237.435794,4243.076819,4205.128102,4225.640922,4225.128102,4232.307589,4225.640922,4218.461435,4234.358871,4243.58964,4235.384512,4233.33323
35,0,4216.410153,4221.538358,4232.820409,4247.692204,4230.769127,4230.769127,4224.615281,4238.461435,4231.794768,4219.999897,4237.948614,4241.025537,4234.871691,4236.410153
36,0,4206.153743,4210.256307,4224.102461,4210.256307,4231.281948,4175.897334,4210.256307,4230.256307,4215.384512,4228.205025,4219.487076,4218.974256,4213.33323,4214.871692
37,0,4211.281948,4223.07682,4229.230666,4211.794769,4227.179384,4188.205026,4217.435794,4233.33323,4218.461435,4230.256307,4219.487076,4221.025538,4215.384512,4216.410153
38,0,4228.205025,4234.358871,4234.358871,4233.33323,4245.128101,4266.153742,4238.974255,4247.179383,4237.948614,4234.358871,4233.84605,4244.615281,4235.897332,4242.563999
39,0,4215.384512,4206.666564,4229.230666,4222.563999,4241.025537,4276.410152,4241.538358,4255.897332,4236.410153,4230.769127,4227.692204,4242.051178,4227.179384,4237.435794
40,0,4186.153744,4181.538359,4214.358871,4202.051179,4202.564,4212.82041,4228.205025,4250.256306,4219.999897,4201.025538,4209.743487,4213.846051,4201.538359,4207.179384
41,0,4194.358872,4195.897333,4213.846051,4209.230666,4208.205025,4201.538359,4227.179384,4237.948614,4217.948615,4193.333231,4211.794769,4209.743487,4206.153743,4203.589641
42,0,4212.307589,4204.102461,4224.615281,4216.922974,4238.974255,4214.358871,4227.179384,4228.717845,4218.974256,4212.82041,4217.435794,4224.615281,4218.461435,4215.897333
43,0,4209.230666,4199.999897,4226.153743,4209.743487,4222.051179,4208.717846,4224.615281,4236.410153,4219.999897,4223.07682,4215.897333,4229.743486,4222.051179,4219.487076
44,0,4214.871692,4213.846051,4234.358871,4218.461435,4207.179384,4231.281948,4229.230666,4246.666563,4231.794768,4230.256307,4224.615281,4238.461435,4235.384512,4227.179384
45,0,4228.205025,4223.07682,4250.256306,4238.461435,4241.538358,4255.384511,4231.281948,4239.487076,4236.922973,4235.384512,4232.307589,4249.230665,4242.563999,4243.076819
46,0,4227.179384,4214.358871,4251.794768,4237.435794,4250.769127,4244.615281,4227.179384,4233.84605,4229.230666,4231.794768,4230.256307,4247.692204,4234.871691,4246.666563
47,0,4227.179384,4212.82041,4246.153742,4230.256307,4215.897333,4219.999897,4222.563999,4236.410153,4223.58964,4230.769127,4226.153743,4240.512717,4232.307589,4236.922973
48,0,4227.179384,4210.256307,4244.10246,4228.205025,4205.640923,4190.769128,4216.922974,4231.794768,4219.999897,4223.07682,4222.051179,4234.871691,4227.692204,4231.281948
49,0,4221.025538,4203.07682,4244.10246,4218.974256,4221.538358,4191.794769,4218.974256,4228.205025,4216.410153,4202.051179,4216.922974,4234.358871,4223.07682,4228.717845
50,0,4223.58964,4211.794769,4241.538358,4217.435794,4223.58964,4236.922973,4228.717845,4233.33323,4217.435794,4189.230667,4216.410153,4233.33323,4229.230666,4223.58964
51,0,4221.025538,4210.769128,4227.692204,4218.974256,4205.128102,4227.692204,4223.58964,4227.179384,4213.33323,4198.974256,4215.384512,4218.974256,4223.58964,4214.871692
52,0,4210.256307,4197.948615,4219.999897,4211.281948,4193.846051,4191.281949,4218.974256,4226.666563,4213.846051,4230.769127,4211.794769,4210.256307,4213.846051,4213.846051
53,0,4224.102461,4215.897333,4235.897332,4222.563999,4217.435794,4235.897332,4229.743486,4246.153742,4232.307589,4255.384511,4215.897333,4225.640922,4229.743486,4225.640922
54,0,4239.999896,4235.897332,4243.58964,4244.10246,4246.666563,4269.743485,4231.794768,4246.666563,4238.461435,4243.58964,4221.025538,4232.307589,4238.974255,4230.256307
55,0,4219.999897,4215.897333,4226.153743,4232.820409,4241.025537,4228.717845,4223.58964,4228.205025,4222.563999,4219.487076,4217.948615,4219.487076,4222.563999,4218.461435
56,0,4197.948615,4194.358872,4214.358871,4202.051179,4222.563999,4201.025538,4217.435794,4222.563999,4212.307589,4210.256307,4212.307589,4212.82041,4215.384512,4209.230666
57,0,4208.205025,4199.487077,4219.487076,4202.564,4233.33323,4220.512717,4218.461435,4230.256307,4220.512717,4218.461435,4213.846051,4221.025538,4231.794768,4222.563999
58,0,4218.461435,4201.025538,4219.999897,4224.615281,4238.461435,4227.179384,4222.051179,4230.769127,4225.640922,4218.461435,4213.846051,4221.538358,4231.794768,4234.358871
59,0,4204.102461,4196.410154,4210.769128,4220.512717,4205.128102,4197.435795,4216.922974,4218.461435,4215.384512,4205.640923,4209.230666,4214.358871,4216.410153,4227.692204
60,0,4201.025538,4198.461436,4217.435794,4197.948615,4194.871692,4191.794769,4214.871692,4216.410153,4212.82041,4215.897333,4213.33323,4222.051179,4222.051179,4227.179384
61,0,4219.999897,4198.461436,4233.84605,4202.564,4235.384512,4224.102461,4225.128102,4231.794768,4221.025538,4234.871691,4221.025538,4231.281948,4236.922973,4233.84605
62,0,4226.153743,4201.025538,4226.666563,4216.410153,4242.051178,4229.230666,4226.153743,4236.922973,4222.051179,4224.615281,4215.384512,4221.025538,4231.794768,4226.153743
63,0,4221.538358,4212.307589,4219.999897,4218.461435,4214.358871,4219.487076,4221.538358,4228.717845,4222.051179,4213.846051,4211.281948,4211.281948,4226.153743,4219.999897
64,0,4233.84605,4211.281948,4232.820409,4228.205025,4226.666563,4231.794768,4227.692204,4231.281948,4228.205025,4221.025538,4216.410153,4216.922974,4233.84605,4231.281948
65,0,4241.538358,4197.948615,4236.922973,4233.84605,4235.384512,4231.281948,4226.666563,4235.897332,4229.743486,4218.461435,4214.358871,4218.974256,4234.871691,4234.358871
66,0,4235.897332,4207.692205,4231.281948,4230.256307,4220.512717,4209.743487,4220.512717,4234.358871,4223.58964,4215.384512,4208.717846,4214.871692,4229.230666,4226.666563
67,0,4232.820409,4222.563999,4227.179384,4228.717845,4231.794768,4195.384513,4219.487076,4232.820409,4215.384512,4213.846051,4206.153743,4207.692205,4225.128102,4220.512717
68,0,4228.205025,4211.281948,4221.538358,4214.871692,4231.794768,4195.384513,4222.051179,4231.281948,4208.717846,4205.640923,4198.974256,4199.999897,4221.538358,4216.410153
69,0,4224.102461,4195.897333,4223.07682,4198.974256,4210.256307,4209.743487,4226.666563,4234.871691,4213.33323,4214.871692,4199.999897,4207.179384,4226.153743,4221.025538
70,0,4230.769127,4196.922974,4228.205025,4214.871692,4215.897333,4227.179384,4230.256307,4243.076819,4222.051179,4219.999897,4213.846051,4218.974256,4232.820409,4229.230666
71,0,4237.435794,4212.307589,4231.281948,4241.538358,4230.256307,4250.256306,4232.307589,4249.230665,4230.256307,4213.33323,4224.615281,4226.153743,4238.974255,4235.897332
72,0,4232.820409,4219.999897,4229.743486,4235.897332,4218.461435,4243.076819,4231.281948,4245.640922,4231.281948,4214.871692,4219.999897,4225.128102,4235.897332,4235.384512
73,0,4224.102461,4203.07682,4219.487076,4209.743487,4208.205025,4183.076821,4226.153743,4233.33323,4210.769128,4202.564,4202.564,4209.743487,4216.410153,4219.999897
74,0,4222.051179,4194.358872,4219.487076,4204.615282,4221.025538,4175.897334,4225.128102,4227.179384,4197.948615,4170.769129,4196.410154,4205.128102,4209.743487,4218.461435
75,0,4229.743486,4211.794769,4229.743486,4226.153743,4235.384512,4235.897332,4229.743486,4230.769127,4213.846051,4176.410154,4211.281948,4219.487076,4230.769127,4239.487076
76,0,4233.33323,4208.717846,4222.051179,4234.358871,4222.051179,4236.410153,4226.666563,4230.256307,4219.487076,4209.230666,4217.435794,4222.051179,4236.410153,4240.512717
77,0,4234.358871,4195.897333,4214.871692,4227.692204,4203.07682,4218.974256,4225.128102,4233.84605,4215.897333,4228.205025,4216.922974,4217.948615,4228.717845,4228.205025
78,0,4237.948614,4204.615282,4222.563999,4224.615281,4212.307589,4230.256307,4225.640922,4234.358871,4219.999897,4233.33323,4220.512717,4218.461435,4232.307589,4233.33323
79,0,4236.410153,4206.153743,4215.897333,4210.769128,4224.615281,4207.179384,4218.974256,4217.435794,4212.307589,4213.846051,4209.743487,4204.102461,4224.615281,4232.307589
80,0,4237.948614,4200.512718,4209.743487,4202.051179,4220.512717,4204.615282,4220.512717,4217.435794,4213.846051,4203.589641,4203.589641,4199.999897,4222.051179,4226.153743
81,0,4246.666563,4206.153743,4223.07682,4214.358871,4214.358871,4239.999896,4229.230666,4238.974255,4233.84605,4232.820409,4217.948615,4217.948615,4240.512717,4234.358871
82,0,4239.999896,4207.179384,4213.33323,4223.07682,4217.948615,4216.922974,4221.538358,4234.358871,4221.538358,4237.948614,4219.999897,4211.794769,4239.999896,4231.794768
83,0,4228.717845,4201.025538,4197.948615,4221.538358,4225.128102,4188.205026,4214.358871,4214.358871,4194.358872,4207.179384,4209.230666,4196.922974,4224.615281,4221.538358
84,0,4231.794768,4205.640923,4211.281948,4225.128102,4213.33323,4219.999897,4219.487076,4218.974256,4203.07682,4208.205025,4216.922974,4208.205025,4229.230666,4228.717845
85,0,4229.743486,4199.999897,4205.640923,4218.461435,4193.846051,4215.384512,4215.897333,4227.179384,4217.435794,4214.358871,4219.999897,4209.743487,4232.307589,4228.717845
86,0,4218.974256,4184.102462,4184.102462,4202.051179,4205.128102,4182.05118,4212.82041,4225.128102,4211.281948,4199.999897,4208.717846,4194.358872,4222.563999,4212.307589
87,0,4228.205025,4193.846051,4201.025538,4207.179384,4231.794768,4207.692205,4225.640922,4235.384512,4219.999897,4216.410153,4215.384512,4202.051179,4229.230666,4214.871692
88,0,4244.10246,4211.794769,4225.640922,4219.999897,4235.897332,4238.461435,4231.281948,4247.179383,4235.897332,4243.076819,4229.743486,4214.871692,4241.538358,4231.794768
89,0,4242.051178,4205.128102,4215.384512,4214.871692,4220.512717,4229.743486,4224.615281,4247.692204,4234.871691,4227.692204,4229.230666,4209.743487,4243.58964,4233.84605
90,0,4241.538358,4195.897333,4211.794769,4217.435794,4202.564,4236.922973,4226.666563,4248.205024,4236.922973,4218.974256,4228.717845,4213.33323,4249.230665,4234.871691
91,0,4249.230665,4204.615282,4224.615281,4222.051179,4200.512718,4228.717845,4229.743486,4246.153742,4235.897332,4231.281948,4230.256307,4223.58964,4249.743486,4239.487076
92,0,4236.922973,4202.051179,4209.230666,4203.589641,4205.128102,4174.871693,4220.512717,4231.281948,4211.794769,4209.230666,4214.358871,4208.205025,4226.153743,4225.128102
93,0,4225.640922,4193.846051,4194.358872,4208.205025,4198.461436,4182.05118,4217.435794,4224.615281,4202.564,4199.487077,4205.128102,4192.82041,4215.384512,4210.256307
94,0,4232.820409,4198.974256,4207.692205,4232.820409,4201.538359,4233.84605,4224.615281,4233.33323,4222.051179,4221.538358,4217.435794,4202.051179,4233.33323,4215.897333
95,0,4234.358871,4194.358872,4220.512717,4223.07682,4210.769128,4223.58964,4223.07682,4231.281948,4218.974256,4215.897333,4217.948615,4209.230666,4235.384512,4224.615281
96,0,4230.769127,4188.717846,4219.487076,4212.307589,4204.615282,4198.974256,4217.948615,4218.461435,4197.948615,4198.461436,4211.281948,4209.743487,4222.563999,4221.538358
97,0,4239.999896,4202.051179,4229.230666,4214.358871,4197.435795,4218.974256,4222.563999,4220.512717,4208.205025,4210.769128,4217.435794,4223.07682,4231.281948,4225.640922
98,0,4248.717845,4206.153743,4237.435794,4208.717846,4198.974256,4220.512717,4226.153743,4232.307589,4225.640922,4212.82041,4224.102461,4229.230666,4238.461435,4236.922973
99,0,4239.999896,4192.30759,4222.051179,4205.128102,4201.538359,4188.205026,4217.435794,4229.230666,4209.743487,4192.82041,4213.846051,4212.307589,4219.487076,4229.743486
100,0,4237.948614,4202.051179,4213.33323,4217.948615,4210.769128,4203.07682,4220.512717,4229.230666,4202.564,4204.615282,4211.794769,4207.692205,4214.358871,4221.025538
101,0,4238.974255,4218.461435,4216.410153,4234.358871,4219.999897,4227.179384,4228.205025,4236.410153,4215.897333,4219.487076,4223.58964,4215.897333,4227.179384,4226.666563
102,0,4235.384512,4215.897333,4216.410153,4245.640922,4219.999897,4229.230666,4226.153743,4237.948614,4222.563999,4213.33323,4228.717845,4218.974256,4234.871691,4233.84605
103,0,4237.948614,4212.82041,4221.538358,4230.769127,4214.871692,4219.487076,4222.563999,4243.58964,4222.051179,4216.410153,4221.538358,4219.999897,4233.33323,4231.281948
104,0,4243.58964,4211.794769,4229.743486,4208.717846,4208.205025,4188.717846,4216.922974,4239.487076,4218.461435,4215.897333,4210.769128,4216.410153,4223.58964,4225.640922
105,0,4245.640922,4207.692205,4230.769127,4224.102461,4199.487077,4197.948615,4218.461435,4231.281948,4220.512717,4208.205025,4215.897333,4217.435794,4223.58964,4229.230666
106,0,4243.58964,4209.230666,4229.743486,4231.794768,4195.897333,4243.076819,4230.256307,4237.948614,4226.153743,4219.999897,4232.820409,4229.230666,4238.974255,4237.948614
107,0,4241.025537,4223.58964,4227.179384,4227.179384,4219.487076,4233.84605,4231.281948,4241.025537,4221.538358,4235.384512,4237.948614,4235.897332,4247.179383,4242.563999
108,0,4249.743486,4241.538358,4232.820409,4252.820409,4233.33323,4216.410153,4224.615281,4236.922973,4224.615281,4233.84605,4235.384512,4238.461435,4249.230665,4248.205024
109,0,4262.051178,4242.563999,4246.153742,4270.256306,4203.589641,4232.307589,4224.615281,4238.461435,4234.871691,4238.461435,4234.871691,4239.487076,4250.256306,4254.35887
110,0,4254.35887,4224.615281,4238.974255,4249.743486,4193.333231,4211.794769,4221.025538,4231.281948,4222.563999,4232.820409,4229.230666,4228.205025,4238.461435,4244.615281
111,0,4247.692204,4218.974256,4232.820409,4237.948614,4227.179384,4202.051179,4220.512717,4224.102461,4214.358871,4216.410153,4228.205025,4228.205025,4238.974255,4238.461435
112,0,4255.384511,4230.256307,4246.666563,4254.35887,4229.743486,4248.717845,4231.281948,4243.58964,4233.33323,4227.179384,4239.999896,4248.205024,4259.487075,4252.820409
113,0,4254.871691,4237.435794,4246.153742,4253.333229,4196.410154,4240.512717,4231.281948,4251.794768,4236.410153,4242.051178,4238.974255,4248.205024,4255.384511,4252.820409
114,0,4256.922973,4240.512717,4236.922973,4238.461435,4204.102461,4211.794769,4227.692204,4236.922973,4229.743486,4230.769127,4229.230666,4239.487076,4242.563999,4244.615281
115,0,4272.820408,4243.58964,4250.769127,4247.179383,4237.948614,4237.948614,4236.410153,4239.999896,4239.487076,4223.07682,4238.974255,4249.743486,4255.384511,4254.35887
116,0,4265.640921,4232.307589,4253.333229,4257.948614,4232.307589,4217.948615,4232.820409,4244.10246,4229.743486,4216.410153,4236.922973,4243.58964,4247.179383,4243.58964
117,0,4247.179383,4224.615281,4231.794768,4251.281947,4201.538359,4193.333231,4225.128102,4236.410153,4215.897333,4214.358871,4218.461435,4224.102461,4227.179384,4217.948615
118,0,4258.461434,4238.974255,4234.358871,4253.333229,4219.487076,4241.025537,4232.820409,4246.666563,4237.435794,4243.076819,4229.230666,4234.871691,4250.769127,4231.281948
119,0,4273.333229,4249.743486,4252.307588,4266.666562,4254.871691,4258.974255,4240.512717,4263.589639,4255.897332,4259.999896,4249.230665,4255.897332,4273.846049,4257.435793
120,0,4264.61528,4252.307588,4249.743486,4254.35887,4229.230666,4226.666563,4237.435794,4254.871691,4241.538358,4233.33323,4238.974255,4247.179383,4254.871691,4244.615281
121,0,4253.84605,4247.179383,4238.974255,4238.974255,4200.512718,4228.717845,4232.820409,4239.487076,4230.769127,4221.538358,4224.615281,4230.256307,4237.435794,4224.102461
122,0,4252.307588,4238.974255,4242.051178,4258.461434,4219.999897,4238.974255,4227.692204,4242.051178,4233.84605,4240.512717,4228.717845,4232.307589,4247.692204,4230.256307
123,0,4253.84605,4238.461435,4250.769127,4266.153742,4221.025538,4216.410153,4225.640922,4245.128101,4234.871691,4227.179384,4233.84605,4236.410153,4251.794768,4237.948614
124,0,4252.820409,4242.563999,4249.743486,4242.051178,4204.615282,4211.794769,4230.256307,4247.692204,4237.948614,4211.794769,4234.358871,4233.84605,4246.666563,4233.33323
125,0,4250.256306,4235.897332,4242.051178,4239.999896,4212.82041,4220.512717,4228.717845,4249.743486,4236.922973,4238.974255,4230.769127,4231.794768,4245.128101,4230.256307
126,0,4243.076819,4224.615281,4238.974255,4258.974255,4225.128102,4220.512717,4224.615281,4243.58964,4227.179384,4246.153742,4226.153743,4226.153743,4242.051178,4231.281948
127,0,4242.051178,4232.307589,4243.58964,4257.435793,4217.948615,4240.512717,4232.307589,4245.128101,4235.384512,4227.692204,4234.358871,4228.717845,4246.666563,4230.256307
128,0,4235.897332,4226.153743,4233.33323,4234.871691,4206.153743,4237.435794,4227.692204,4244.10246,4236.410153,4225.640922,4229.230666,4226.666563,4246.153742,4221.538358
0,0,4219.487076,4208.717846,4215.897333,4224.102461,4215.384512,4200.512718,4210.769128,4231.281948,4215.897333,4222.051179,4213.33323,4213.846051,4234.358871,4213.33323
1,0,4226.153743,4230.256307,4222.563999,4239.999896,4219.999897,4214.358871,4219.487076,4236.922973,4220.512717,4211.794769,4223.07682,4219.487076,4238.461435,4222.051179
2,0,4246.153742,4254.35887,4235.384512,4266.666562,4211.281948,4254.35887,4239.487076,4253.333229,4242.051178,4221.025538,4239.999896,4234.871691,4252.307588,4235.897332
3,0,4245.128101,4238.461435,4238.461435,4263.589639,4217.948615,4235.897332,4234.358871,4249.743486,4234.358871,4237.435794,4232.820409,4231.794768,4247.179383,4230.256307
4,0,4236.410153,4222.563999,4244.615281,4245.128101,4230.256307,4219.999897,4224.102461,4243.076819,4225.640922,4249.743486,4229.743486,4236.410153,4244.10246,4230.256307
5,0,4241.025537,4238.461435,4244.615281,4249.743486,4217.948615,4244.615281,4231.281948,4253.333229,4240.512717,4251.794768,4240.512717,4250.256306,4256.922973,4248.717845
6,0,4236.922973,4236.410153,4226.666563,4250.769127,4210.256307,4211.281948,4224.102461,4244.615281,4238.974255,4226.666563,4225.128102,4227.692204,4244.615281,4235.897332
7,0,4230.256307,4226.666563,4221.538358,4234.358871,4219.487076,4179.999898,4216.410153,4232.820409,4224.102461,4212.82041,4209.230666,4208.717846,4225.128102,4213.33323
8,0,4245.128101,4244.10246,4251.794768,4243.58964,4209.743487,4253.84605,4241.025537,4259.487075,4240.512717,4228.717845,4239.487076,4244.615281,4250.769127,4239.999896
9,0,4248.205024,4246.153742,4259.487075,4259.487075,4215.384512,4285.640921,4250.256306,4272.307588,4254.871691,4237.948614,4256.410152,4264.10246,4270.769126,4257.435793
10,0,4236.410153,4229.230666,4233.33323,4249.743486,4238.461435,4228.717845,4228.717845,4245.640922,4239.999896,4242.051178,4236.410153,4239.487076,4253.333229,4236.410153
11,0,4239.487076,4228.205025,4228.717845,4244.615281,4227.692204,4219.487076,4222.563999,4235.384512,4232.820409,4246.153742,4236.410153,4232.820409,4245.640922,4236.922973
12,0,4242.051178,4236.410153,4242.051178,4246.666563,4212.82041,4233.84605,4229.230666,4243.076819,4232.307589,4226.153743,4245.640922,4238.974255,4250.256306,4246.666563
13,0,4234.871691,4233.33323,4239.487076,4245.128101,4218.974256,4212.82041,4224.102461,4238.461435,4219.999897,4209.230666,4229.743486,4231.281948,4239.487076,4233.33323
14,0,4238.974255,4237.435794,4239.999896,4255.384511,4206.153743,4223.58964,4227.179384,4241.538358,4221.538358,4224.615281,4223.58964,4235.384512,4238.974255,4228.717845
15,0,4249.743486,4250.769127,4259.999896,4266.666562,4189.230667,4248.205024,4234.871691,4254.871691,4238.461435,4243.076819,4238.461435,4250.256306,4250.769127,4237.435794
16,0,4242.563999,4245.128101,4259.999896,4262.563998,4217.948615,4214.871692,4225.128102,4245.640922,4234.358871,4239.999896,4236.922973,4243.58964,4246.153742,4237.948614
17,0,4243.076819,4235.897332,4249.230665,4261.025537,4241.538358,4204.102461,4220.512717,4233.33323,4223.07682,4229.230666,4227.692204,4238.461435,4242.563999,4242.051178
18,0,4260.512716,4239.999896,4259.999896,4269.230665,4228.717845,4255.384511,4233.84605,4243.58964,4234.871691,4223.58964,4232.820409,4252.307588,4248.717845,4246.153742
19,0,4250.769127,4234.871691,4255.897332,4255.384511,4221.538358,4255.897332,4236.410153,4246.153742,4234.871691,4219.487076,4227.692204,4240.512717,4235.897332,4228.205025
20,0,4223.58964,4221.538358,4231.794768,4233.33323,4218.974256,4213.33323,4226.666563,4233.84605,4215.384512,4217.435794,4210.769128,4212.82041,4216.922974,4209.743487
21,0,4223.58964,4229.743486,4234.358871,4237.948614,4215.384512,4226.153743,4225.128102,4230.769127,4222.563999,4226.153743,4215.897333,4219.487076,4224.102461,4214.871692
22,0,4235.384512,4238.974255,4251.794768,4247.179383,4220.512717,4245.128101,4225.128102,4237.435794,4236.922973,4237.435794,4236.410153,4239.487076,4241.025537,4228.717845
23,0,4228.717845,4231.281948,4242.563999,4246.153742,4213.846051,4213.846051,4216.922974,4233.33323,4224.102461,4222.563999,4235.897332,4234.358871,4245.640922,4232.820409
24,0,4230.769127,4234.871691,4235.897332,4258.461434,4213.846051,4214.871692,4219.487076,4229.743486,4217.948615,4209.743487,4230.256307,4234.358871,4245.640922,4238.461435
25,0,4244.10246,4248.205024,4250.769127,4268.717844,4234.358871,4242.051178,4230.769127,4241.538358,4235.384512,4227.179384,4239.999896,4251.281947,4252.820409,4248.717845
26,0,4241.025537,4247.692204,4251.281947,4254.35887,4233.33323,4235.897332,4229.230666,4247.692204,4239.999896,4244.10246,4244.615281,4252.307588,4261.538357,4249.230665
27,0,4239.487076,4249.743486,4248.205024,4238.974255,4215.897333,4235.384512,4224.102461,4245.128101,4235.384512,4250.769127,4248.717845,4249.743486,4262.563998,4248.717845
28,0,4249.230665,4247.692204,4250.769127,4245.640922,4217.948615,4241.538358,4224.102461,4240.512717,4232.820409,4241.538358,4253.333229,4253.84605,4253.333229,4251.281947
29,0,4248.205024,4227.692204,4238.974255,4264.10246,4216.922974,4218.974256,4217.435794,4228.717845,4223.07682,4210.256307,4233.33323,4238.461435,4239.487076,4236.922973
30,0,4236.922973,4214.871692,4228.205025,4246.666563,4208.205025,4195.897333,4209.230666,4222.051179,4214.871692,4197.435795,4210.256307,4217.435794,4228.717845,4218.974256
31,0,4227.179384,4216.922974,4228.717845,4208.717846,4212.307589,4204.102461,4212.307589,4229.743486,4214.358871,4223.58964,4218.974256,4216.410153,4225.640922,4219.999897
32,0,4225.128102,4217.948615,4221.538358,4218.461435,4212.307589,4228.205025,4221.025538,4235.897332,4222.563999,4233.84605,4231.281948,4222.563999,4230.769127,4223.58964
33,0,4228.717845,4216.410153,4212.307589,4248.205024,4199.487077,4240.512717,4223.58964,4233.33323,4227.179384,4218.461435,4217.948615,4218.974256,4232.307589,4216.922974
34,0,4227.179384,4209.743487,4219.487076,4231.794768,4193.846051,4225.640922,4219.487076,4229.230666,4217.948615,4210.256307,4207.179384,4210.769128,4223.58964,4211.281948
35,0,4228.205025,4215.897333,4232.307589,4219.487076,4214.358871,4218.974256,4219.999897,4228.717845,4218.974256,4215.384512,4224.102461,4216.410153,4224.615281,4218.461435
36,0,4241.025537,4243.076819,4241.025537,4248.717845,4244.10246,4238.974255,4226.666563,4240.512717,4241.025537,4236.922973,4245.128101,4237.435794,4245.640922,4235.384512
37,0,4244.10246,4241.538358,4243.58964,4251.794768,4226.153743,4228.717845,4223.07682,4245.640922,4238.974255,4250.256306,4240.512717,4246.666563,4252.307588,4243.58964
38,0,4226.666563,4216.922974,4228.205025,4239.999896,4183.589641,4209.230666,4213.846051,4234.358871,4216.410153,4228.717845,4229.230666,4231.794768,4235.384512,4230.769127
39,0,4218.461435,4224.615281,4222.051179,4246.666563,4201.025538,4234.358871,4218.974256,4229.230666,4222.051179,4209.743487,4231.281948,4228.717845,4229.743486,4224.615281
40,0,4223.58964,4238.461435,4233.33323,4239.999896,4237.948614,4236.922973,4222.051179,4230.256307,4227.179384,4215.897333,4225.128102,4235.897332,4230.256307,4228.205025
41,0,4225.128102,4229.743486,4234.871691,4232.307589,4217.948615,4199.487077,4216.410153,4226.153743,4211.794769,4221.025538,4215.384512,4230.256307,4225.640922,4223.58964
42,0,4228.717845,4230.769127,4237.435794,4239.487076,4196.922974,4214.871692,4221.025538,4230.769127,4212.307589,4211.794769,4224.615281,4231.281948,4228.205025,4223.58964
43,0,4226.153743,4232.820409,4241.025537,4237.948614,4215.384512,4245.128101,4226.153743,4234.871691,4221.025538,4201.538359,4219.999897,4230.256307,4217.948615,4221.025538
44,0,4217.948615,4215.897333,4226.666563,4237.948614,4229.230666,4218.461435,4218.974256,4228.205025,4213.846051,4203.589641,4206.153743,4212.82041,4199.999897,4210.769128
45,0,4229.230666,4217.435794,4232.820409,4247.692204,4217.948615,4217.435794,4222.051179,4236.410153,4216.410153,4227.179384,4225.128102,4219.999897,4217.948615,4221.025538
46,0,4243.076819,4234.871691,4249.230665,4241.538358,4199.999897,4246.666563,4228.205025,4244.10246,4228.717845,4234.871691,4239.487076,4242.051178,4241.538358,4241.025537
47,0,4234.358871,4231.794768,4239.999896,4225.128102,4207.692205,4222.563999,4222.051179,4233.84605,4224.615281,4213.846051,4224.615281,4236.410153,4231.794768,4235.384512
48,0,4224.615281,4227.692204,4234.358871,4229.743486,4233.33323,4202.051179,4221.025538,4237.948614,4223.58964,4214.358871,4225.128102,4225.640922,4226.666563,4225.640922
49,0,4234.358871,4248.717845,4238.974255,4253.333229,4233.33323,4239.999896,4224.615281,4250.769127,4230.256307,4234.358871,4241.538358,4236.410153,4234.871691,4232.307589
50,0,4235.384512,4252.820409,4243.58964,4243.076819,4204.615282,4245.640922,4222.051179,4240.512717,4223.07682,4227.179384,4230.256307,4234.358871,4225.640922,4230.769127
51,0,4227.179384,4221.025538,4247.692204,4221.025538,4184.615282,4204.102461,4219.999897,4227.692204,4214.358871,4211.794769,4213.33323,4216.410153,4212.82041,4215.897333
52,0,4231.281948,4220.512717,4237.435794,4248.205024,4197.948615,4221.538358,4225.128102,4234.871691,4226.153743,4225.640922,4225.128102,4221.025538,4217.435794,4214.871692
53,0,4230.256307,4246.666563,4218.974256,4261.025537,4230.769127,4255.384511,4228.717845,4239.999896,4229.230666,4226.666563,4234.358871,4233.84605,4221.538358,4225.640922
54,0,4208.717846,4238.461435,4208.717846,4223.07682,4239.999896,4225.128102,4223.58964,4228.717845,4209.743487,4204.102461,4215.384512,4223.58964,4215.897333,4219.999897
55,0,4205.640923,4210.769128,4213.846051,4215.897333,4228.205025,4210.256307,4220.512717,4226.153743,4211.794769,4212.82041,4209.230666,4214.358871,4215.897333,4212.82041
56,0,4228.205025,4210.256307,4238.461435,4238.974255,4227.179384,4241.025537,4226.666563,4244.615281,4242.563999,4236.922973,4229.230666,4234.871691,4231.794768,4231.281948
57,0,4233.84605,4234.871691,4249.230665,4236.410153,4224.615281,4237.435794,4230.769127,4257.435793,4248.717845,4241.025537,4236.922973,4253.84605,4248.717845,4247.692204
58,0,4228.205025,4245.640922,4234.358871,4235.384512,4202.564,4212.82041,4225.128102,4249.743486,4230.769127,4243.58964,4233.33323,4248.717845,4245.640922,4245.128101
59,0,4233.84605,4244.10246,4236.922973,4254.35887,4192.82041,4234.358871,4225.640922,4253.84605,4236.922973,4251.794768,4241.025537,4246.666563,4237.948614,4244.615281
60,0,4238.461435,4252.307588,4245.128101,4256.922973,4214.871692,4262.563998,4232.307589,4266.666562,4252.820409,4242.563999,4252.307588,4255.897332,4248.205024,4251.281947
61,0,4229.743486,4245.128101,4233.33323,4233.84605,4228.205025,4228.205025,4225.640922,4251.281947,4238.461435,4222.051179,4249.230665,4254.871691,4248.205024,4245.128101
62,0,4217.948615,4225.128102,4228.205025,4224.102461,4216.410153,4190.769128,4218.461435,4228.717845,4212.82041,4218.974256,4233.84605,4245.640922,4229.230666,4232.307589
63,0,4223.58964,4233.33323,4243.58964,4242.563999,4212.307589,4221.538358,4225.128102,4234.358871,4219.487076,4237.435794,4232.820409,4251.281947,4229.743486,4234.358871
64,0,4229.230666,4243.58964,4251.281947,4234.871691,4210.769128,4232.307589,4221.025538,4235.384512,4221.538358,4231.794768,4233.33323,4250.769127,4231.794768,4236.410153
65,0,4217.948615,4228.717845,4241.025537,4218.974256,4191.794769,4198.974256,4213.33323,4222.051179,4199.487077,4195.897333,4216.922974,4229.743486,4207.692205,4221.538358
66,0,4214.358871,4226.666563,4228.717845,4240.512717,4189.230667,4222.563999,4226.153743,4226.666563,4201.025538,4198.461436,4210.256307,4221.538358,4202.564,4215.897333
67,0,4217.948615,4228.717845,4218.974256,4241.025537,4205.128102,4243.58964,4224.615281,4231.794768,4213.33323,4210.256307,4212.82041,4217.948615,4212.82041,4216.410153
68,0,4206.153743,4208.205025,4205.640923,4204.615282,4203.589641,4198.974256,4204.615282,4213.33323,4200.512718,4181.538359,4203.07682,4196.922974,4201.025538,4201.025538
69,0,4198.974256,4207.179384,4203.589641,4197.435795,4203.589641,4190.256308,4205.640923,4212.307589,4191.794769,4183.076821,4202.564,4190.769128,4195.384513,4196.922974
70,0,4210.256307,4236.922973,4218.461435,4222.563999,4213.846051,4238.461435,4218.974256,4230.256307,4211.281948,4222.563999,4221.025538,4210.769128,4218.461435,4216.410153
71,0,4214.871692,4239.999896,4218.461435,4234.871691,4215.384512,4242.051178,4214.358871,4225.128102,4220.512717,4224.102461,4223.58964,4221.538358,4232.820409,4224.615281
72,0,4212.82041,4214.871692,4209.743487,4229.230666,4202.564,4198.461436,4205.128102,4212.307589,4210.769128,4209.230666,4213.33323,4219.999897,4220.512717,4216.922974
73,0,4220.512717,4221.538358,4215.897333,4239.999896,4181.538359,4198.461436,4209.230666,4219.999897,4210.256307,4215.384512,4219.999897,4218.974256,4214.871692,4220.512717
74,0,4227.179384,4252.307588,4224.102461,4250.769127,4187.179385,4230.256307,4213.33323,4230.256307,4217.435794,4219.487076,4233.33323,4216.922974,4225.640922,4228.717845
75,0,4231.281948,4255.897332,4232.820409,4232.820409,4225.128102,4233.33323,4217.435794,4232.307589,4219.487076,4226.666563,4237.435794,4225.128102,4236.410153,4232.307589
76,0,4231.794768,4244.10246,4230.769127,4227.692204,4247.692204,4216.922974,4217.435794,4230.769127,4215.897333,4226.666563,4235.384512,4233.33323,4234.358871,4231.281948
77,0,4227.692204,4237.948614,4212.82041,4251.281947,4221.025538,4221.538358,4213.846051,4219.999897,4215.384512,4206.153743,4229.230666,4221.538358,4221.538358,4222.051179
78,0,4226.666563,4231.281948,4214.358871,4246.666563,4192.30759,4233.84605,4215.897333,4213.33323,4214.358871,4205.640923,4216.922974,4210.769128,4211.794769,4215.897333
79,0,4223.07682,4227.179384,4228.205025,4220.512717,4206.153743,4225.640922,4217.435794,4220.512717,4211.281948,4213.33323,4210.256307,4206.153743,4209.743487,4211.794769
80,0,4212.82041,4227.179384,4218.974256,4212.82041,4215.384512,4221.538358,4214.871692,4231.281948,4216.410153,4201.538359,4216.922974,4202.051179,4214.358871,4206.153743
81,0,4209.230666,4215.384512,4198.461436,4216.410153,4185.640923,4213.33323,4209.743487,4229.743486,4216.922974,4197.948615,4215.897333,4205.640923,4212.82041,4207.179384
82,0,4210.769128,4205.640923,4195.384513,4223.07682,4190.256308,4200.512718,4208.205025,4225.128102,4211.281948,4206.153743,4213.846051,4212.82041,4210.769128,4210.769128
83,0,4214.871692,4209.743487,4208.717846,4229.743486,4233.84605,4219.487076,4215.897333,4236.410153,4222.563999,4223.07682,4231.794768,4223.07682,4226.666563,4223.58964
84,0,4232.820409,4219.487076,4225.128102,4233.33323,4222.051179,4252.820409,4226.666563,4253.84605,4243.076819,4251.281947,4248.205024,4243.076819,4251.794768,4243.58964
85,0,4237.435794,4219.487076,4232.307589,4226.666563,4179.999898,4244.10246,4224.102461,4249.230665,4236.922973,4241.025537,4239.487076,4248.205024,4251.794768,4245.640922
86,0,4212.307589,4208.205025,4221.025538,4214.358871,4190.256308,4207.692205,4210.256307,4225.640922,4214.871692,4212.82041,4228.205025,4231.794768,4230.256307,4230.256307
87,0,4204.615282,4210.256307,4206.666564,4224.615281,4210.769128,4210.256307,4210.256307,4222.051179,4212.82041,4231.794768,4235.897332,4229.230666,4230.256307,4231.281948
88,0,4218.461435,4218.461435,4204.615282,4238.461435,4185.128103,4213.33323,4212.82041,4226.153743,4213.33323,4230.769127,4232.820409,4232.820409,4233.33323,4233.33323
89,0,4218.461435,4203.589641,4210.256307,4217.948615,4165.640924,4191.281949,4210.256307,4218.974256,4205.640923,4193.333231,4221.025538,4227.179384,4218.461435,4218.461435
90,0,4214.358871,4189.743487,4216.922974,4198.974256,4190.769128,4201.025538,4219.487076,4227.179384,4211.281948,4212.307589,4228.205025,4228.717845,4216.922974,4222.563999
91,0,4220.512717,4205.640923,4215.897333,4214.871692,4210.769128,4225.640922,4226.666563,4245.640922,4228.205025,4241.025537,4236.922973,4231.794768,4231.281948,4241.538358
92,0,4222.563999,4224.102461,4211.281948,4234.358871,4199.999897,4229.230666,4225.128102,4249.230665,4237.435794,4221.025538,4233.33323,4229.230666,4235.384512,4242.563999
93,0,4220.512717,4219.999897,4212.82041,4231.794768,4193.333231,4234.871691,4224.615281,4248.205024,4234.358871,4228.205025,4233.84605,4232.820409,4232.820409,4238.461435
94,0,4220.512717,4208.205025,4218.974256,4214.871692,4198.974256,4228.717845,4215.897333,4240.512717,4223.58964,4238.974255,4235.897332,4231.281948,4232.820409,4231.281948
95,0,4220.512717,4205.128102,4214.358871,4211.794769,4199.487077,4199.487077,4199.487077,4217.435794,4210.769128,4203.07682,4226.666563,4218.461435,4226.153743,4221.025538
96,0,4231.281948,4223.07682,4212.82041,4229.743486,4198.461436,4204.102461,4203.589641,4216.410153,4214.358871,4205.128102,4224.615281,4221.538358,4226.666563,4232.820409
97,0,4242.051178,4234.358871,4227.179384,4233.84605,4194.871692,4226.666563,4215.897333,4234.871691,4224.102461,4240.512717,4231.794768,4237.435794,4232.820409,4248.717845
98,0,4234.871691,4213.846051,4229.743486,4222.051179,4191.794769,4206.153743,4213.846051,4230.256307,4217.435794,4219.999897,4228.717845,4232.307589,4226.153743,4235.384512
99,0,4232.820409,4213.846051,4230.256307,4231.794768,4204.102461,4196.410154,4221.538358,4226.666563,4216.922974,4205.640923,4232.820409,4224.615281,4228.205025,4229.230666
100,0,4258.974255,4251.794768,4258.461434,4267.179383,4222.563999,4251.281947,4249.743486,4257.435793,4245.640922,4252.307588,4257.435793,4251.281947,4256.410152,4260.512716
101,0,4272.307588,4265.128101,4274.35887,4282.051177,4239.487076,4291.281946,4259.487075,4285.640921,4273.333229,4274.35887,4267.692203,4275.384511,4272.820408,4276.410152
102,0,4253.333229,4246.153742,4249.743486,4257.435793,4249.230665,4263.076819,4246.153742,4280.512716,4269.743485,4251.281947,4245.640922,4256.410152,4252.307588,4254.871691
103,0,4240.512717,4236.922973,4230.769127,4238.461435,4243.58964,4231.281948,4238.461435,4259.999896,4247.692204,4245.128101,4227.692204,4231.281948,4234.358871,4234.871691
104,0,4240.512717,4234.358871,4233.33323,4249.230665,4233.84605,4231.794768,4234.871691,4247.179383,4231.281948,4251.281947,4229.743486,4232.307589,4233.33323,4230.769127
105,0,4236.410153,4228.205025,4236.922973,4241.538358,4233.33323,4235.897332,4230.769127,4247.179383,4230.769127,4239.999896,4231.281948,4239.999896,4231.281948,4235.384512
106,0,4246.666563,4238.974255,4246.153742,4230.256307,4234.358871,4243.076819,4232.307589,4253.84605,4239.487076,4234.358871,4234.871691,4247.692204,4241.538358,4249.230665
107,0,4269.230665,4263.589639,4259.487075,4263.076819,4229.230666,4266.153742,4238.974255,4264.61528,4249.743486,4248.717845,4251.281947,4265.128101,4261.025537,4261.538357
108,0,4269.230665,4256.922973,4266.666562,4287.692203,4226.666563,4261.025537,4234.871691,4263.589639,4250.256306,4246.153742,4252.820409,4268.717844,4257.435793,4256.922973
109,0,4250.769127,4230.769127,4261.025537,4261.538357,4229.230666,4211.281948,4221.025538,4244.615281,4231.281948,4219.999897,4232.820409,4253.333229,4237.435794,4246.666563
110,0,4247.692204,4233.33323,4256.410152,4238.461435,4233.33323,4211.794769,4230.256307,4252.307588,4225.640922,4223.58964,4233.33323,4251.794768,4235.897332,4249.230665
111,0,4254.35887,4252.820409,4262.563998,4253.333229,4234.871691,4255.384511,4252.307588,4278.461434,4247.179383,4249.230665,4250.256306,4264.61528,4246.666563,4256.410152
112,0,4254.35887,4249.743486,4266.153742,4270.769126,4230.256307,4246.153742,4243.58964,4271.281947,4250.769127,4249.743486,4249.230665,4265.128101,4252.820409,4257.435793
113,0,4263.076819,4242.051178,4266.153742,4259.999896,4228.205025,4224.102461,4226.666563,4253.84605,4241.025537,4243.076819,4244.615281,4263.076819,4257.435793,4262.563998
114,0,4273.333229,4254.871691,4265.640921,4254.35887,4241.025537,4254.35887,4237.435794,4263.076819,4250.769127,4256.410152,4256.410152,4268.717844,4259.487075,4272.307588
115,0,4258.461434,4251.281947,4255.384511,4261.538357,4254.871691,4249.230665,4239.487076,4257.948614,4241.538358,4245.640922,4244.615281,4253.333229,4240.512717,4254.35887
116,0,4233.33323,4224.615281,4241.025537,4247.692204,4237.948614,4202.564,4219.999897,4235.384512,4211.794769,4210.769128,4214.358871,4224.615281,4214.358871,4222.563999
117,0,4239.487076,4231.281948,4246.153742,4245.640922,4218.974256,4237.435794,4231.281948,4250.769127,4230.256307,4222.563999,4223.58964,4232.307589,4225.128102,4233.84605
118,0,4251.281947,4253.333229,4251.794768,4268.205024,4238.461435,4283.589639,4246.153742,4268.717844,4256.410152,4245.128101,4237.948614,4252.307588,4246.666563,4252.307588
119,0,4239.487076,4237.435794,4236.410153,4252.820409,4242.563999,4240.512717,4228.205025,4247.179383,4232.307589,4221.538358,4216.410153,4234.358871,4229.230666,4232.307589
120,0,4238.461435,4224.615281,4231.281948,4230.769127,4211.794769,4219.487076,4222.051179,4240.512717,4224.102461,4215.384512,4211.794769,4220.512717,4219.487076,4227.179384
121,0,4256.922973,4242.051178,4249.230665,4243.58964,4218.461435,4263.076819,4241.025537,4264.10246,4251.281947,4253.333229,4236.922973,4243.076819,4243.58964,4249.743486
122,0,4254.871691,4241.025537,4258.974255,4235.897332,4252.820409,4259.999896,4238.461435,4261.025537,4246.666563,4258.461434,4238.974255,4251.794768,4244.10246,4250.769127
123,0,4242.563999,4231.281948,4249.230665,4227.179384,4240.512717,4214.871692,4217.948615,4243.58964,4224.102461,4228.717845,4227.692204,4240.512717,4226.666563,4243.076819
124,0,4247.179383,4236.410153,4245.640922,4263.589639,4213.846051,4216.922974,4220.512717,4255.384511,4235.384512,4226.153743,4236.922973,4246.153742,4234.871691,4251.281947
125,0,4248.205024,4241.025537,4249.230665,4275.897331,4219.487076,4237.948614,4231.281948,4262.563998,4253.333229,4242.563999,4245.640922,4253.333229,4241.025537,4252.307588
126,0,4239.487076,4242.563999,4247.179383,4245.128101,4230.256307,4232.307589,4229.743486,4249.230665,4245.640922,4252.820409,4244.10246,4250.769127,4234.358871,4251.281947
127,0,4238.974255,4237.948614,4246.153742,4243.076819,4229.230666,4228.717845,4235.384512,4248.717845,4235.384512,4250.769127,4239.487076,4247.179383,4232.307589,4251.794768
128,0,4241.538358,4226.666563,4251.794768,4248.205024,4236.410153,4240.512717,4241.538358,4252.307588,4237.948614,4225.640922,4225.640922,4237.435794,4222.563999,4236.922973
0,0,4240.512717,4234.871691,4251.794768,4230.256307,4249.230665,4251.794768,4230.256307,4242.563999,4231.794768,4210.256307,4215.897333,4228.717845,4209.230666,4226.666563
1,0,4238.461435,4248.717845,4236.922973,4242.563999,4246.153742,4249.230665,4219.487076,4232.820409,4214.871692,4229.230666,4220.512717,4230.769127,4212.307589,4228.205025
2,0,4232.307589,4239.999896,4226.666563,4261.025537,4221.538358,4233.33323,4220.512717,4228.717845,4212.307589,4236.410153,4221.538358,4230.256307,4215.897333,4228.717845
3,0,4222.051179,4227.179384,4230.769127,4238.461435,4203.589641,4227.179384,4222.051179,4229.743486,4216.922974,4213.846051,4217.435794,4225.640922,4213.33323,4226.153743
4,0,4219.999897,4221.538358,4240.512717,4226.666563,4223.58964,4236.410153,4223.07682,4231.794768,4213.846051,4209.230666,4222.563999,4229.230666,4215.384512,4231.281948
5,0,4237.948614,4229.230666,4250.769127,4245.640922,4250.256306,4240.512717,4225.640922,4231.281948,4212.82041,4228.717845,4227.692204,4242.051178,4218.974256,4242.051178
6,0,4246.153742,4247.179383,4247.179383,4248.717845,4238.461435,4235.897332,4223.07682,4235.897332,4218.461435,4235.897332,4226.666563,4243.076819,4224.102461,4247.692204
7,0,4232.820409,4251.794768,4230.256307,4244.615281,4223.58964,4223.58964,4221.025538,4238.461435,4225.640922,4232.307589,4231.794768,4232.307589,4229.743486,4245.128101
8,0,4226.666563,4243.076819,4227.179384,4239.487076,4234.358871,4213.33323,4224.615281,4238.461435,4231.281948,4233.84605,4236.410153,4235.384512,4228.205025,4243.58964
9,0,4234.871691,4234.871691,4241.538358,4226.153743,4228.205025,4225.640922,4230.769127,4247.179383,4231.281948,4231.794768,4231.281948,4247.179383,4225.640922,4248.205024
10,0,4237.948614,4231.281948,4247.179383,4237.435794,4213.846051,4248.205024,4230.256307,4254.35887,4230.769127,4223.58964,4233.84605,4246.153742,4230.256307,4249.230665
11,0,4235.384512,4235.384512,4241.538358,4252.307588,4226.666563,4247.179383,4225.640922,4248.717845,4234.358871,4224.102461,4236.922973,4238.974255,4230.769127,4244.615281
12,0,4236.410153,4233.84605,4243.076819,4235.897332,4238.974255,4237.948614,4222.563999,4243.58964,4233.84605,4241.025537,4231.281948,4242.051178,4226.153743,4245.128101
13,0,4242.563999,4224.102461,4251.794768,4232.307589,4231.281948,4243.076819,4222.563999,4246.153742,4231.794768,4248.717845,4230.256307,4250.256306,4226.153743,4251.281947
14,0,4244.615281,4235.897332,4247.692204,4246.666563,4230.256307,4247.179383,4227.692204,4247.179383,4231.794768,4234.871691,4233.84605,4249.230665,4223.58964,4246.153742
15,0,4232.820409,4248.205024,4231.794768,4237.435794,4227.179384,4219.999897,4223.58964,4236.922973,4221.538358,4223.58964,4230.256307,4233.84605,4212.82041,4229.743486
16,0,4222.051179,4233.84605,4225.640922,4230.769127,4210.256307,4202.051179,4210.256307,4230.256307,4215.384512,4231.281948,4228.205025,4230.769127,4211.794769,4234.358871
17,0,4229.230666,4220.512717,4238.461435,4246.153742,4214.358871,4237.435794,4215.384512,4239.487076,4233.33323,4239.999896,4236.410153,4247.692204,4225.640922,4253.84605
18,0,4230.769127,4229.743486,4238.461435,4253.333229,4237.948614,4251.794768,4224.615281,4242.051178,4236.922973,4228.717845,4235.897332,4248.717845,4225.128102,4249.230665
19,0,4223.07682,4237.948614,4237.948614,4242.563999,4239.487076,4219.999897,4216.410153,4228.717845,4217.435794,4224.102461,4228.717845,4238.974255,4214.871692,4232.307589
20,0,4225.640922,4225.128102,4256.922973,4228.205025,4218.974256,4220.512717,4216.922974,4227.692204,4219.487076,4238.974255,4227.179384,4245.128101,4215.384512,4231.281948
21,0,4228.717845,4215.897333,4256.410152,4232.820409,4210.256307,4246.153742,4230.769127,4244.10246,4235.384512,4245.640922,4232.820409,4250.256306,4219.999897,4236.410153
22,0,4219.487076,4222.051179,4232.307589,4242.051178,4217.435794,4234.871691,4229.230666,4248.717845,4231.281948,4230.256307,4239.487076,4241.025537,4222.051179,4236.922973
23,0,4207.179384,4217.435794,4223.58964,4225.640922,4216.922974,4202.051179,4217.948615,4235.897332,4210.769128,4214.871692,4225.640922,4225.640922,4211.794769,4224.615281
24,0,4207.692205,4203.07682,4228.205025,4217.948615,4214.358871,4210.256307,4217.435794,4227.692204,4198.461436,4215.384512,4207.692205,4219.487076,4195.897333,4208.717846
25,0,4219.487076,4215.897333,4236.410153,4235.384512,4219.487076,4248.717845,4224.615281,4230.769127,4211.794769,4222.563999,4219.487076,4229.743486,4203.589641,4220.512717
26,0,4225.128102,4237.435794,4245.640922,4233.33323,4214.871692,4255.897332,4228.717845,4232.307589,4230.256307,4213.33323,4231.281948,4236.922973,4216.922974,4236.410153
27,0,4219.487076,4228.717845,4237.435794,4229.230666,4215.384512,4227.179384,4221.025538,4232.307589,4223.58964,4206.153743,4221.538358,4228.205025,4207.179384,4223.07682
28,0,4218.974256,4219.999897,4222.563999,4243.076819,4241.025537,4211.794769,4210.256307,4232.307589,4211.281948,4227.179384,4220.512717,4223.58964,4203.589641,4211.281948
29,0,4228.717845,4226.153743,4231.794768,4234.871691,4245.128101,4217.948615,4210.769128,4223.07682,4215.897333,4237.435794,4233.84605,4232.820409,4216.922974,4226.666563
30,0,4231.794768,4235.384512,4245.640922,4225.128102,4213.846051,4215.897333,4213.33323,4219.487076,4221.025538,4227.692204,4236.922973,4244.615281,4225.128102,4239.487076
31,0,4224.102461,4242.563999,4243.58964,4242.563999,4204.102461,4201.025538,4208.205025,4226.153743,4213.846051,4228.717845,4228.717845,4246.153742,4226.153743,4231.794768
32,0,4225.640922,4247.692204,4245.640922,4258.461434,4225.640922,4217.948615,4211.794769,4230.769127,4217.948615,4237.948614,4233.84605,4245.640922,4231.794768,4232.820409
33,0,4237.948614,4243.58964,4250.256306,4248.205024,4246.666563,4252.820409,4223.58964,4231.281948,4231.281948,4238.974255,4244.615281,4250.256306,4235.384512,4245.128101
34,0,4240.512717,4233.84605,4241.025537,4224.102461,4251.794768,4246.666563,4224.102461,4231.794768,4231.281948,4236.922973,4241.538358,4247.179383,4230.256307,4243.076819
35,0,4225.640922,4225.640922,4226.153743,4216.922974,4218.974256,4220.512717,4214.871692,4234.871691,4220.512717,4228.717845,4233.33323,4234.871691,4221.025538,4233.84605
36,0,4208.717846,4213.846051,4223.07682,4214.871692,4192.82041,4211.281948,4210.256307,4228.717845,4209.230666,4218.974256,4223.58964,4227.179384,4212.307589,4226.153743
37,0,4211.281948,4212.82041,4229.743486,4206.666564,4219.999897,4211.794769,4217.948615,4222.051179,4211.794769,4219.487076,4220.512717,4229.230666,4211.281948,4218.461435
38,0,4221.025538,4230.769127,4229.230666,4222.563999,4230.256307,4228.205025,4227.179384,4233.33323,4226.153743,4221.025538,4224.615281,4229.230666,4213.846051,4221.538358
39,0,4224.102461,4238.461435,4233.33323,4250.769127,4216.410153,4250.256306,4224.615281,4249.230665,4235.897332,4225.640922,4226.153743,4229.230666,4216.922974,4234.358871
40,0,4225.128102,4222.563999,4243.58964,4237.948614,4242.051178,4226.153743,4213.33323,4239.999896,4227.692204,4229.230666,4222.563999,4228.205025,4216.922974,4231.794768
41,0,4230.769127,4218.974256,4239.999896,4217.948615,4258.974255,4201.025538,4214.358871,4226.666563,4219.999897,4232.820409,4228.717845,4231.281948,4218.974256,4230.769127
42,0,4228.717845,4232.820409,4232.820409,4229.230666,4227.179384,4227.692204,4221.025538,4234.358871,4222.563999,4235.897332,4237.948614,4240.512717,4222.563999,4245.640922
43,0,4223.58964,4235.384512,4236.922973,4232.307589,4214.871692,4246.666563,4220.512717,4237.948614,4221.025538,4227.179384,4230.256307,4238.974255,4218.974256,4247.179383
44,0,4225.128102,4225.128102,4238.461435,4222.563999,4225.640922,4229.743486,4219.999897,4230.769127,4219.487076,4216.410153,4223.07682,4232.820409,4213.33323,4229.230666
45,0,4216.410153,4211.794769,4227.179384,4223.07682,4215.897333,4208.205025,4215.897333,4224.615281,4216.410153,4208.205025,4216.922974,4228.717845,4204.102461,4217.435794
46,0,4210.256307,4211.281948,4224.102461,4233.33323,4209.230666,4213.846051,4212.82041,4228.717845,4211.794769,4212.307589,4213.846051,4232.307589,4198.974256,4226.666563
47,0,4221.025538,4218.461435,4235.384512,4222.563999,4217.435794,4222.051179,4214.358871,4231.281948,4206.153743,4227.692204,4219.487076,4231.794768,4202.051179,4233.33323
48,0,4221.025538,4208.205025,4234.871691,4194.871692,4222.051179,4210.769128,4211.794769,4221.538358,4198.461436,4216.410153,4213.846051,4221.538358,4195.384513,4219.487076
49,0,4207.692205,4193.846051,4222.563999,4204.102461,4218.461435,4223.58964,4213.846051,4216.922974,4201.538359,4189.743487,4200.512718,4215.384512,4185.128103,4210.256307
50,0,4204.615282,4206.153743,4213.33323,4229.743486,4215.897333,4235.897332,4218.974256,4216.410153,4203.07682,4187.179385,4195.384513,4210.769128,4182.564,4214.358871
51,0,4212.307589,4219.487076,4219.487076,4217.948615,4213.846051,4222.051179,4218.461435,4215.384512,4202.051179,4206.666564,4207.692205,4209.230666,4189.230667,4216.410153
52,0,4214.358871,4213.846051,4228.205025,4198.974256,4218.974256,4214.871692,4215.384512,4223.58964,4208.717846,4212.307589,4218.974256,4215.384512,4196.922974,4214.358871
53,0,4210.769128,4214.871692,4230.256307,4214.871692,4222.563999,4226.666563,4212.82041,4230.256307,4212.307589,4213.846051,4218.974256,4223.58964,4204.102461,4214.871692
54,0,4211.794769,4224.615281,4232.820409,4228.205025,4216.410153,4233.84605,4215.384512,4227.692204,4210.769128,4223.58964,4221.538358,4225.128102,4209.230666,4218.461435
55,0,4209.230666,4213.846051,4222.051179,4215.384512,4221.538358,4196.410154,4211.281948,4217.435794,4203.07682,4204.615282,4211.794769,4211.794769,4192.82041,4211.794769
56,0,4205.640923,4201.538359,4212.82041,4211.794769,4232.307589,4172.30759,4203.07682,4208.205025,4193.333231,4177.435795,4197.948615,4197.948615,4174.358872,4199.999897
57,0,4218.974256,4221.025538,4233.33323,4231.281948,4237.948614,4234.871691,4218.461435,4226.666563,4210.256307,4209.230666,4214.871692,4217.948615,4198.461436,4218.461435
58,0,4235.384512,4238.461435,4250.256306,4230.769127,4230.769127,4278.461434,4237.435794,4251.281947,4233.84605,4251.794768,4234.871691,4241.025537,4225.128102,4238.974255
59,0,4225.640922,4223.07682,4236.410153,4211.281948,4206.666564,4217.948615,4211.794769,4234.358871,4221.538358,4233.33323,4219.487076,4221.025538,4205.640923,4219.999897
60,0,4211.794769,4214.358871,4225.128102,4221.025538,4197.948615,4190.769128,4186.153744,4218.461435,4208.205025,4205.640923,4210.256307,4212.307589,4192.82041,4213.846051
61,0,4215.897333,4217.948615,4233.33323,4227.692204,4216.410153,4229.230666,4195.384513,4234.871691,4217.948615,4212.307589,4224.102461,4238.461435,4207.179384,4230.256307
62,0,4219.999897,4206.153743,4232.820409,4206.666564,4223.58964,4207.692205,4196.922974,4230.769127,4209.230666,4208.205025,4219.487076,4234.358871,4195.897333,4221.538358
63,0,4221.025538,4210.256307,4229.230666,4211.281948,4214.358871,4186.153744,4188.205026,4212.307589,4195.384513,4191.794769,4207.179384,4212.307589,4178.461436,4216.410153
64,0,4226.666563,4234.358871,4238.461435,4238.974255,4223.07682,4233.84605,4196.922974,4219.487076,4208.205025,4203.07682,4215.384512,4221.025538,4192.30759,4231.281948
65,0,4218.461435,4221.025538,4243.076819,4231.281948,4217.435794,4239.487076,4196.922974,4222.051179,4206.153743,4220.512717,4214.358871,4233.33323,4197.948615,4225.640922
66,0,4204.615282,4194.358872,4234.358871,4212.307589,4200.512718,4199.487077,4188.717846,4214.358871,4185.128103,4211.281948,4199.999897,4226.666563,4181.025539,4207.692205
67,0,4208.717846,4207.692205,4230.256307,4214.871692,4207.179384,4202.051179,4194.871692,4218.461435,4186.666564,4201.538359,4205.128102,4221.025538,4179.487077,4209.743487
68,0,4215.384512,4220.512717,4231.794768,4216.410153,4205.640923,4210.769128,4195.384513,4215.384512,4194.358872,4199.999897,4212.82041,4216.922974,4189.230667,4215.897333
69,0,4208.205025,4211.794769,4226.153743,4214.871692,4201.025538,4192.82041,4189.230667,4207.179384,4187.179385,4184.615282,4201.025538,4210.256307,4179.999898,4213.846051
70,0,4211.794769,4216.922974,4227.692204,4221.538358,4230.256307,4210.769128,4198.461436,4223.07682,4198.461436,4186.153744,4202.051179,4217.435794,4175.897334,4216.410153
71,0,4222.563999,4218.461435,4232.307589,4217.435794,4241.538358,4228.717845,4201.538359,4231.794768,4216.922974,4206.666564,4212.82041,4219.999897,4183.076821,4213.33323
72,0,4209.230666,4193.333231,4215.384512,4188.205026,4198.461436,4209.743487,4193.333231,4218.974256,4208.717846,4202.051179,4203.589641,4203.589641,4177.948616,4202.051179
73,0,4192.30759,4183.589641,4200.512718,4174.871693,4185.128103,4226.666563,4202.051179,4222.563999,4196.922974,4199.487077,4195.897333,4194.358872,4176.410154,4197.435795
74,0,4196.410154,4200.512718,4198.461436,4202.564,4227.692204,4251.281947,4209.743487,4233.84605,4206.666564,4211.281948,4203.589641,4202.564,4190.256308,4203.589641
75,0,4202.051179,4198.461436,4202.564,4202.564,4239.999896,4211.794769,4194.358872,4223.58964,4210.256307,4202.051179,4204.102461,4206.153743,4186.666564,4206.666564
76,0,4204.615282,4194.358872,4208.717846,4187.179385,4208.205025,4190.769128,4188.717846,4216.410153,4202.564,4204.615282,4209.743487,4205.640923,4178.974257,4211.794769
77,0,4215.384512,4214.358871,4208.205025,4218.974256,4199.999897,4232.307589,4205.640923,4228.717845,4207.179384,4225.128102,4218.974256,4212.82041,4198.974256,4221.025538
78,0,4212.307589,4216.922974,4197.948615,4227.179384,4218.974256,4241.538358,4208.205025,4231.794768,4211.794769,4211.794769,4207.179384,4208.717846,4202.564,4207.179384
79,0,4199.999897,4202.564,4195.384513,4190.256308,4216.922974,4221.538358,4204.615282,4228.205025,4204.615282,4194.871692,4194.358872,4202.051179,4184.102462,4194.358872
80,0,4203.07682,4209.230666,4206.153743,4196.922974,4219.999897,4220.512717,4208.205025,4231.794768,4199.487077,4204.615282,4201.538359,4204.102461,4186.153744,4209.743487
81,0,4212.307589,4218.974256,4215.897333,4227.179384,4238.974255,4216.922974,4209.230666,4231.794768,4201.538359,4206.153743,4211.794769,4204.615282,4198.974256,4225.128102
82,0,4212.307589,4211.281948,4210.769128,4212.307589,4224.615281,4217.435794,4206.666564,4228.717845,4208.717846,4201.538359,4212.82041,4205.128102,4194.871692,4217.948615
83,0,4216.922974,4213.846051,4204.615282,4205.640923,4196.922974,4259.487075,4217.435794,4241.025537,4225.128102,4218.461435,4217.948615,4216.922974,4196.410154,4216.410153
84,0,4217.948615,4218.461435,4209.743487,4223.58964,4213.33323,4266.666562,4217.435794,4251.281947,4232.307589,4225.128102,4223.58964,4225.128102,4207.692205,4224.102461
85,0,4201.025538,4202.051179,4196.922974,4206.666564,4228.717845,4193.846051,4193.846051,4226.153743,4205.128102,4197.435795,4210.256307,4202.051179,4192.30759,4207.179384
86,0,4198.974256,4202.564,4186.153744,4191.794769,4207.179384,4181.538359,4190.256308,4210.769128,4191.281949,4191.281949,4200.512718,4190.769128,4176.410154,4188.205026
87,0,4219.487076,4219.999897,4213.33323,4213.33323,4206.153743,4247.692204,4207.692205,4232.820409,4214.358871,4216.922974,4212.307589,4212.82041,4193.333231,4199.999897
88,0,4218.974256,4219.999897,4222.051179,4225.128102,4220.512717,4244.10246,4206.666564,4235.897332,4224.102461,4224.615281,4219.999897,4215.897333,4201.538359,4216.410153
89,0,4197.435795,4204.615282,4198.461436,4206.153743,4204.102461,4199.999897,4196.922974,4215.384512,4207.179384,4217.435794,4209.743487,4198.974256,4186.153744,4214.358871
90,0,4201.025538,4198.974256,4202.564,4194.871692,4191.281949,4227.692204,4207.692205,4221.025538,4209.230666,4217.435794,4211.281948,4210.769128,4190.256308,4219.487076
91,0,4209.230666,4203.07682,4208.205025,4199.999897,4209.230666,4236.410153,4208.205025,4226.153743,4217.948615,4209.230666,4216.922974,4220.512717,4199.999897,4218.974256
92,0,4195.384513,4199.999897,4179.487077,4199.487077,4216.410153,4186.153744,4191.794769,4210.256307,4198.974256,4196.410154,4203.07682,4197.435795,4183.589641,4197.948615
93,0,4195.384513,4199.999897,4184.615282,4199.999897,4190.256308,4205.128102,4198.461436,4222.563999,4195.384513,4209.230666,4202.051179,4200.512718,4176.410154,4201.025538
94,0,4212.307589,4206.153743,4215.384512,4206.153743,4172.820411,4257.948614,4212.307589,4238.461435,4212.307589,4223.07682,4216.922974,4222.051179,4191.281949,4219.999897
95,0,4210.769128,4207.692205,4213.33323,4202.564,4187.692205,4244.615281,4207.179384,4221.025538,4211.281948,4213.846051,4216.922974,4217.948615,4198.974256,4211.794769
96,0,4196.410154,4204.102461,4198.461436,4198.461436,4203.589641,4226.153743,4204.615282,4217.948615,4208.205025,4203.07682,4214.358871,4212.307589,4198.461436,4206.153743
97,0,4192.30759,4196.922974,4188.717846,4197.435795,4198.461436,4221.538358,4205.640923,4229.743486,4211.281948,4202.564,4214.358871,4208.717846,4190.769128,4212.307589
98,0,4198.461436,4191.281949,4179.487077,4193.846051,4199.487077,4192.82041,4197.435795,4219.487076,4200.512718,4198.974256,4198.461436,4195.897333,4181.538359,4204.102461
99,0,4208.717846,4202.564,4184.102462,4205.640923,4214.358871,4200.512718,4201.538359,4218.974256,4202.051179,4198.974256,4196.922974,4201.025538,4190.769128,4204.102461
100,0,4213.33323,4221.025538,4204.615282,4215.384512,4207.692205,4240.512717,4218.461435,4238.461435,4221.538358,4213.846051,4225.640922,4219.999897,4205.640923,4218.974256
101,0,4211.281948,4217.948615,4211.794769,4204.102461,4178.974257,4239.999896,4215.897333,4235.897332,4222.051179,4228.717845,4231.794768,4219.999897,4205.640923,4217.948615
102,0,4220.512717,4212.82041,4205.640923,4205.640923,4172.820411,4234.871691,4206.666564,4229.230666,4216.410153,4238.461435,4219.999897,4216.922974,4211.281948,4222.051179
103,0,4219.487076,4218.461435,4201.025538,4215.897333,4192.30759,4227.179384,4203.07682,4232.307589,4216.922974,4232.307589,4218.974256,4217.948615,4214.871692,4229.743486
104,0,4207.692205,4212.82041,4199.999897,4202.051179,4212.82041,4199.999897,4202.051179,4222.563999,4206.666564,4211.794769,4216.410153,4212.307589,4202.564,4218.974256
105,0,4214.358871,4211.281948,4211.281948,4197.435795,4214.358871,4210.256307,4205.128102,4218.461435,4207.179384,4211.794769,4216.922974,4218.974256,4205.128102,4217.435794
106,0,4233.33323,4231.281948,4225.128102,4218.461435,4206.666564,4238.974255,4207.692205,4227.179384,4219.487076,4222.051179,4226.153743,4234.358871,4225.128102,4232.820409
107,0,4239.487076,4242.563999,4228.717845,4221.025538,4206.153743,4228.717845,4205.128102,4225.128102,4218.461435,4213.33323,4228.717845,4234.358871,4233.84605,4241.538358
108,0,4234.358871,4223.58964,4218.461435,4212.307589,4207.692205,4209.743487,4204.102461,4218.461435,4212.82041,4208.717846,4225.128102,4226.153743,4229.230666,4243.076819
109,0,4236.922973,4217.948615,4207.692205,4214.358871,4196.410154,4204.615282,4204.615282,4218.461435,4209.743487,4220.512717,4228.205025,4229.230666,4231.281948,4246.666563
110,0,4256.922973,4245.640922,4217.948615,4213.33323,4178.461436,4199.487077,4203.589641,4218.974256,4202.051179,4220.512717,4224.615281,4233.33323,4239.487076,4256.922973
111,0,4283.076818,4268.717844,4240.512717,4218.974256,4184.615282,4213.33323,4205.640923,4224.615281,4199.487077,4197.948615,4223.58964,4235.384512,4249.230665,4277.435793
112,0,4291.794767,4267.179383,4249.230665,4227.179384,4201.538359,4230.769127,4208.717846,4229.743486,4204.615282,4189.230667,4236.410153,4241.538358,4258.461434,4297.948613
113,0,4289.230664,4258.974255,4233.84605,4218.461435,4201.025538,4203.589641,4204.102461,4218.974256,4197.435795,4211.281948,4237.948614,4241.025537,4263.076819,4304.615279
114,0,4297.435792,4269.230665,4225.640922,4227.692204,4197.948615,4195.897333,4201.025538,4212.307589,4198.461436,4222.563999,4233.33323,4244.615281,4274.35887,4312.307587
115,0,4312.820407,4282.051177,4248.717845,4244.10246,4187.179385,4235.897332,4206.666564,4222.563999,4210.769128,4208.717846,4240.512717,4256.922973,4284.102459,4327.692202
116,0,4313.846048,4270.769126,4261.025537,4221.025538,4175.897334,4233.84605,4206.666564,4219.487076,4204.102461,4201.025538,4238.974255,4253.84605,4270.256306,4326.666561
117,0,4293.333228,4255.897332,4228.717845,4199.487077,4193.333231,4172.30759,4189.230667,4197.948615,4179.487077,4190.256308,4215.384512,4228.717845,4242.563999,4295.38451
118,0,4278.974254,4257.948614,4210.256307,4217.948615,4195.384513,4162.564001,4183.589641,4197.948615,4172.30759,4175.384513,4207.692205,4221.538358,4240.512717,4283.076818
119,0,4292.307587,4256.922973,4235.384512,4222.051179,4168.717847,4219.999897,4202.564,4216.410153,4191.281949,4189.230667,4229.230666,4244.615281,4261.538357,4315.38451
120,0,4298.974254,4249.743486,4244.615281,4208.717846,4184.102462,4225.128102,4204.615282,4218.461435,4201.025538,4205.640923,4241.025537,4255.897332,4262.563998,4328.205022
121,0,4283.076818,4252.820409,4224.102461,4217.435794,4208.205025,4190.256308,4195.384513,4210.769128,4194.871692,4201.025538,4236.922973,4241.538358,4249.230665,4298.461433
122,0,4271.794767,4257.435793,4222.051179,4214.871692,4189.230667,4201.025538,4202.564,4215.897333,4198.461436,4202.564,4231.794768,4231.794768,4244.615281,4280.512716
123,0,4265.640921,4243.076819,4221.025538,4192.30759,4174.871693,4210.769128,4204.615282,4218.461435,4199.999897,4204.102461,4224.102461,4231.281948,4235.897332,4275.384511
124,0,4251.794768,4217.948615,4203.589641,4189.743487,4183.076821,4189.230667,4197.435795,4211.794769,4192.30759,4195.897333,4214.358871,4224.615281,4219.487076,4256.922973
125,0,4250.769127,4221.538358,4213.846051,4201.538359,4193.846051,4205.128102,4206.153743,4212.82041,4197.435795,4207.692205,4221.538358,4228.205025,4222.051179,4253.84605
126,0,4255.897332,4237.435794,4237.948614,4201.025538,4197.948615,4217.435794,4209.743487,4214.358871,4200.512718,4224.102461,4228.717845,4239.999896,4234.358871,4267.179383
127,0,4247.179383,4223.58964,4233.84605,4204.102461,4190.769128,4201.538359,4200.512718,4213.846051,4191.794769,4215.897333,4224.102461,4239.487076,4229.230666,4261.025537
128,0,4232.307589,4213.33323,4209.743487,4217.948615,4186.666564,4213.846051,4206.666564,4215.897333,4197.948615,4199.487077,4221.025538,4227.692204,4215.384512,4241.025537
0,0,4222.051179,4216.410153,4201.538359,4203.589641,4183.589641,4219.487076,4212.307589,4215.384512,4206.666564,4198.461436,4211.281948,4220.512717,4206.666564,4233.33323
1,0,4218.461435,4200.512718,4213.846051,4176.922975,4179.487077,4202.051179,4205.640923,4213.33323,4198.461436,4211.794769,4203.589641,4224.615281,4203.589641,4231.794768
2,0,4218.461435,4197.948615,4217.948615,4187.692205,4196.922974,4209.230666,4205.128102,4213.846051,4196.410154,4221.538358,4214.358871,4226.153743,4201.538359,4222.051179
3,0,4214.871692,4219.487076,4207.179384,4217.948615,4205.640923,4218.974256,4207.692205,4223.07682,4212.307589,4210.769128,4224.102461,4222.563999,4205.128102,4211.281948
4,0,4212.307589,4221.538358,4212.307589,4214.871692,4194.358872,4221.538358,4209.743487,4232.820409,4225.640922,4201.538359,4223.07682,4227.179384,4215.897333,4215.384512
5,0,4208.717846,4205.640923,4221.025538,4178.461436,4197.435795,4209.743487,4210.769128,4226.153743,4214.358871,4207.692205,4215.384512,4226.666563,4206.666564,4216.922974
6,0,4192.30759,4186.153744,4203.07682,4162.564001,4178.974257,4171.281949,4201.025538,4207.692205,4185.128103,4199.999897,4197.435795,4205.128102,4175.384513,4193.333231
7,0,4190.256308,4182.05118,4199.487077,4185.128103,4156.922975,4185.640923,4199.999897,4206.666564,4184.615282,4195.897333,4195.384513,4194.871692,4173.333231,4182.05118
8,0,4207.179384,4206.666564,4211.794769,4209.743487,4193.846051,4251.281947,4213.33323,4219.999897,4212.307589,4222.563999,4214.358871,4210.256307,4201.025538,4199.999897
9,0,4206.666564,4222.051179,4207.692205,4206.153743,4223.58964,4257.435793,4216.410153,4221.538358,4220.512717,4238.461435,4221.025538,4218.461435,4207.179384,4201.538359
10,0,4186.666564,4204.102461,4203.589641,4183.589641,4201.025538,4207.692205,4205.640923,4216.410153,4205.128102,4218.461435,4213.33323,4214.871692,4190.769128,4180.512718
11,0,4177.948616,4185.128103,4202.564,4173.333231,4193.333231,4174.871693,4198.974256,4212.82041,4190.256308,4200.512718,4206.153743,4210.769128,4181.025539,4175.897334
12,0,4191.794769,4182.05118,4205.640923,4183.589641,4201.025538,4191.281949,4202.564,4214.871692,4201.025538,4208.717846,4208.717846,4214.358871,4183.589641,4195.384513
13,0,4205.128102,4190.769128,4216.410153,4191.794769,4189.743487,4238.461435,4214.871692,4229.230666,4227.692204,4227.179384,4217.435794,4223.58964,4190.769128,4204.615282
14,0,4192.30759,4186.153744,4210.256307,4171.79477,4185.640923,4230.256307,4218.461435,4234.871691,4226.153743,4229.743486,4209.743487,4216.922974,4187.692205,4187.692205
15,0,4174.871693,4167.692206,4190.769128,4163.076821,4194.871692,4181.538359,4206.153743,4225.640922,4204.615282,4212.82041,4193.333231,4203.07682,4177.948616,4173.846052
16,0,4187.692205,4181.538359,4197.948615,4189.743487,4198.974256,4217.948615,4211.794769,4235.897332,4222.563999,4219.487076,4210.256307,4213.846051,4191.281949,4191.281949
17,0,4204.102461,4211.281948,4212.82041,4206.153743,4204.615282,4263.076819,4225.640922,4246.666563,4245.128101,4245.640922,4228.717845,4227.692204,4205.640923,4205.640923
18,0,4189.230667,4204.102461,4193.846051,4191.794769,4205.640923,4206.153743,4212.307589,4220.512717,4217.435794,4224.615281,4198.461436,4206.153743,4184.615282,4181.025539
19,0,4174.358872,4193.846051,4185.640923,4175.897334,4196.410154,4178.461436,4202.564,4207.179384,4197.948615,4185.640923,4183.589641,4190.769128,4169.230667,4162.564001
20,0,4189.743487,4203.07682,4207.692205,4179.487077,4196.410154,4229.743486,4214.871692,4228.205025,4222.563999,4212.82041,4209.743487,4208.717846,4184.102462,4181.025539
21,0,4193.333231,4192.30759,4205.128102,4186.153744,4203.07682,4212.307589,4210.256307,4225.128102,4221.538358,4242.563999,4206.666564,4207.692205,4179.487077,4182.564
22,0,4177.435795,4177.948616,4186.153744,4187.692205,4206.153743,4175.384513,4199.487077,4210.769128,4197.435795,4207.179384,4187.692205,4196.410154,4168.205026,4168.205026
23,0,4185.640923,4195.384513,4201.538359,4183.076821,4214.358871,4224.102461,4211.794769,4223.58964,4210.256307,4196.922974,4206.666564,4212.307589,4187.692205,4186.666564
24,0,4206.153743,4208.205025,4215.384512,4189.230667,4214.358871,4242.051178,4215.897333,4227.692204,4226.153743,4230.769127,4223.07682,4224.615281,4196.410154,4204.102461
25,0,4205.128102,4202.564,4204.102461,4211.794769,4203.07682,4204.615282,4207.179384,4217.435794,4214.358871,4229.743486,4215.897333,4224.615281,4190.256308,4199.487077
26,0,4203.589641,4203.589641,4210.256307,4203.07682,4201.538359,4206.153743,4208.205025,4215.897333,4207.179384,4210.256307,4214.358871,4230.769127,4198.974256,4205.640923
27,0,4211.794769,4202.051179,4220.512717,4174.358872,4210.769128,4207.692205,4200.512718,4205.640923,4205.128102,4222.051179,4206.153743,4224.102461,4193.333231,4211.281948
28,0,4211.281948,4194.358872,4211.281948,4186.153744,4202.051179,4190.256308,4193.333231,4193.846051,4194.871692,4234.358871,4198.461436,4209.230666,4179.487077,4198.974256
29,0,4211.281948,4211.281948,4215.897333,4222.051179,4189.230667,4227.692204,4208.717846,4213.33323,4206.153743,4229.230666,4212.307589,4221.025538,4193.333231,4202.564
30,0,4210.256307,4218.974256,4212.82041,4208.717846,4202.051179,4235.897332,4211.794769,4221.538358,4218.461435,4212.82041,4210.769128,4220.512717,4196.922974,4204.102461
31,0,4193.846051,4192.30759,4185.640923,4166.666565,4218.974256,4167.179385,4193.333231,4196.410154,4194.871692,4199.999897,4191.281949,4192.30759,4175.897334,4186.153744
32,0,4191.794769,4188.717846,4188.717846,4173.846052,4209.743487,4173.846052,4200.512718,4198.461436,4189.230667,4205.128102,4200.512718,4199.487077,4184.615282,4192.82041
33,0,4209.743487,4203.589641,4216.410153,4197.948615,4204.615282,4238.461435,4221.538358,4221.025538,4213.846051,4211.281948,4219.999897,4222.563999,4206.153743,4209.743487
34,0,4210.256307,4194.871692,4212.307589,4187.692205,4211.794769,4232.307589,4214.358871,4215.384512,4212.82041,4219.999897,4208.717846,4208.717846,4194.358872,4197.948615
35,0,4194.358872,4198.461436,4185.640923,4189.230667,4210.769128,4204.102461,4204.615282,4207.179384,4196.922974,4238.461435,4195.897333,4193.333231,4181.025539,4184.102462
36,0,4185.128103,4207.179384,4183.589641,4201.025538,4209.230666,4206.666564,4210.256307,4216.410153,4199.487077,4223.58964,4203.07682,4199.487077,4186.666564,4182.564
37,0,4184.102462,4180.512718,4192.30759,4171.281949,4213.33323,4193.333231,4210.769128,4213.846051,4201.538359,4195.384513,4201.025538,4199.487077,4183.076821,4182.05118
38,0,4192.30759,4178.974257,4194.871692,4160.512719,4206.666564,4211.281948,4216.410153,4224.102461,4216.922974,4222.563999,4202.564,4205.128102,4188.717846,4194.358872
39,0,4198.974256,4210.769128,4202.051179,4196.410154,4195.384513,4249.230665,4228.717845,4249.743486,4241.025537,4245.128101,4221.538358,4225.128102,4206.666564,4209.743487
40,0,4189.230667,4196.410154,4194.871692,4195.384513,4198.461436,4207.692205,4216.922974,4234.358871,4223.58964,4212.307589,4217.948615,4217.948615,4195.384513,4194.871692
41,0,4183.589641,4168.205026,4178.974257,4169.230667,4211.794769,4175.384513,4203.07682,4212.307589,4196.410154,4206.666564,4197.435795,4204.615282,4179.487077,4185.128103
42,0,4192.30759,4173.846052,4186.666564,4164.615283,4214.871692,4206.666564,4208.717846,4223.07682,4201.025538,4224.615281,4195.384513,4211.794769,4184.615282,4197.948615
43,0,4194.871692,4183.076821,4207.692205,4168.717847,4190.256308,4219.487076,4213.33323,4222.051179,4202.564,4197.948615,4200.512718,4215.384512,4179.999898,4200.512718
44,0,4195.897333,4189.743487,4218.461435,4183.589641,4178.461436,4218.461435,4210.769128,4210.256307,4198.461436,4181.538359,4203.07682,4213.846051,4176.410154,4198.974256
45,0,4200.512718,4201.025538,4211.794769,4199.999897,4202.564,4223.58964,4209.743487,4213.846051,4200.512718,4206.153743,4203.07682,4217.435794,4183.589641,4199.999897
46,0,4196.410154,4193.846051,4201.538359,4188.717846,4203.07682,4209.230666,4208.205025,4210.769128,4192.30759,4199.999897,4198.461436,4214.871692,4174.358872,4188.205026
47,0,4193.846051,4180.512718,4201.538359,4178.461436,4179.487077,4200.512718,4208.717846,4202.051179,4186.153744,4184.102462,4196.922974,4209.230666,4166.153744,4180.512718
48,0,4194.871692,4180.512718,4203.07682,4183.076821,4190.256308,4185.640923,4202.564,4199.487077,4184.102462,4198.974256,4190.769128,4199.999897,4165.640924,4185.128103
49,0,4197.948615,4185.128103,4197.948615,4174.358872,4219.999897,4161.025539,4197.435795,4196.922974,4181.538359,4200.512718,4178.974257,4185.640923,4161.53836,4184.615282
50,0,4205.640923,4192.30759,4206.153743,4173.333231,4218.974256,4193.333231,4208.205025,4206.153743,4200.512718,4199.999897,4189.230667,4188.717846,4173.333231,4188.717846
51,0,4209.743487,4204.615282,4216.922974,4199.487077,4207.692205,4245.128101,4218.461435,4223.58964,4221.538358,4227.179384,4211.281948,4207.179384,4196.922974,4204.615282
52,0,4203.589641,4205.128102,4203.07682,4203.589641,4213.33323,4223.07682,4211.794769,4214.871692,4203.589641,4227.179384,4198.461436,4207.179384,4190.769128,4201.538359
53,0,4204.615282,4208.205025,4197.435795,4183.589641,4210.769128,4192.30759,4206.153743,4199.487077,4188.205026,4201.538359,4182.05118,4194.871692,4173.333231,4188.205026
54,0,4208.205025,4215.897333,4204.102461,4179.999898,4186.153744,4212.307589,4210.769128,4203.589641,4204.102461,4197.435795,4194.871692,4190.769128,4175.897334,4187.179385
55,0,4195.897333,4205.128102,4191.281949,4186.153744,4189.230667,4221.025538,4210.769128,4201.538359,4201.538359,4193.333231,4196.410154,4178.461436,4177.948616,4178.974257
56,0,4184.102462,4192.30759,4173.846052,4185.128103,4235.384512,4198.974256,4208.205025,4194.358872,4181.538359,4185.640923,4175.897334,4165.640924,4166.153744,4164.615283
57,0,4190.769128,4196.410154,4181.538359,4176.922975,4257.435793,4194.871692,4208.717846,4204.615282,4187.179385,4199.487077,4175.384513,4177.435795,4161.025539,4171.79477
58,0,4205.640923,4209.743487,4197.435795,4172.30759,4235.384512,4223.07682,4218.461435,4220.512717,4210.769128,4215.897333,4196.922974,4204.615282,4181.538359,4194.358872
59,0,4211.794769,4219.487076,4204.615282,4187.179385,4216.410153,4231.281948,4221.025538,4221.538358,4221.538358,4227.692204,4210.256307,4222.563999,4206.666564,4206.153743
60,0,4202.564,4211.281948,4205.640923,4204.102461,4211.794769,4197.435795,4208.717846,4214.871692,4213.846051,4229.230666,4211.281948,4217.435794,4201.538359,4198.974256
61,0,4204.615282,4209.743487,4209.230666,4206.153743,4217.948615,4198.974256,4209.230666,4215.897333,4214.871692,4208.205025,4215.384512,4212.307589,4192.30759,4200.512718
62,0,4224.102461,4226.666563,4225.128102,4212.307589,4233.33323,4248.205024,4221.025538,4223.58964,4227.692204,4202.564,4225.640922,4228.717845,4209.230666,4223.07682
63,0,4218.974256,4220.512717,4231.281948,4213.33323,4225.640922,4239.487076,4214.871692,4214.871692,4220.512717,4221.538358,4218.974256,4237.948614,4211.794769,4226.666563
64,0,4198.461436,4202.051179,4216.410153,4184.102462,4208.717846,4178.974257,4201.025538,4198.974256,4195.897333,4220.512717,4201.025538,4219.487076,4187.179385,4204.102461
65,0,4206.153743,4211.794769,4212.307589,4178.461436,4220.512717,4183.589641,4204.615282,4204.615282,4192.30759,4219.999897,4209.743487,4212.82041,4185.640923,4205.128102
66,0,4216.410153,4214.871692,4220.512717,4206.153743,4216.922974,4211.794769,4208.205025,4210.256307,4202.564,4216.410153,4214.358871,4221.538358,4195.897333,4216.922974
67,0,4199.999897,4202.564,4217.948615,4199.999897,4193.333231,4205.128102,4205.128102,4196.922974,4199.999897,4188.717846,4201.025538,4217.435794,4187.179385,4205.128102
68,0,4191.281949,4202.051179,4215.897333,4174.871693,4198.974256,4204.615282,4207.179384,4199.487077,4196.922974,4195.384513,4206.666564,4214.871692,4182.05118,4199.999897
69,0,4201.538359,4194.871692,4218.461435,4181.025539,4214.358871,4197.948615,4208.205025,4215.384512,4199.999897,4228.205025,4211.794769,4219.999897,4190.256308,4205.640923
70,0,4201.025538,4189.230667,4207.692205,4189.743487,4210.256307,4189.230667,4205.640923,4216.922974,4198.974256,4214.871692,4199.999897,4218.461435,4189.743487,4197.435795
71,0,4191.794769,4204.615282,4201.538359,4182.05118,4212.82041,4211.794769,4210.256307,4209.230666,4198.461436,4193.333231,4206.153743,4217.948615,4186.666564,4198.461436
72,0,4187.179385,4206.666564,4202.051179,4188.205026,4220.512717,4213.846051,4211.281948,4206.666564,4200.512718,4204.615282,4215.384512,4214.871692,4186.153744,4211.794769
73,0,4189.743487,4195.897333,4200.512718,4201.025538,4198.974256,4186.153744,4207.692205,4209.230666,4198.461436,4203.07682,4201.538359,4207.692205,4185.640923,4211.281948
74,0,4197.948615,4199.487077,4210.256307,4193.333231,4186.153744,4206.153743,4210.769128,4212.307589,4196.922974,4193.846051,4199.487077,4213.33323,4189.743487,4208.717846
75,0,4203.07682,4205.640923,4215.384512,4174.358872,4205.128102,4229.230666,4213.33323,4207.179384,4203.07682,4207.179384,4206.666564,4216.410153,4191.281949,4205.128102
76,0,4192.30759,4198.461436,4198.461436,4163.589642,4220.512717,4183.076821,4201.538359,4196.410154,4198.461436,4207.179384,4189.743487,4199.487077,4182.05118,4190.769128
77,0,4185.128103,4201.538359,4192.30759,4185.640923,4235.384512,4159.999898,4198.974256,4197.948615,4189.743487,4196.410154,4185.640923,4195.897333,4182.564,4190.256308
78,0,4200.512718,4217.948615,4213.33323,4213.846051,4232.307589,4209.743487,4215.384512,4211.794769,4205.640923,4205.640923,4213.846051,4216.922974,4199.999897,4212.307589
79,0,4211.794769,4219.999897,4224.102461,4203.07682,4203.07682,4238.974255,4221.025538,4219.999897,4221.025538,4218.461435,4226.153743,4223.58964,4210.256307,4224.615281
80,0,4205.640923,4211.794769,4217.435794,4183.076821,4207.692205,4213.846051,4211.794769,4214.358871,4206.666564,4217.948615,4208.717846,4206.666564,4205.128102,4213.846051
81,0,4201.538359,4215.897333,4208.205025,4194.358872,4234.358871,4204.615282,4209.743487,4203.589641,4192.82041,4214.358871,4195.897333,4191.281949,4197.435795,4198.974256
82,0,4202.051179,4217.948615,4202.564,4211.281948,4224.615281,4219.487076,4214.358871,4203.589641,4203.589641,4219.999897,4202.051179,4192.30759,4198.974256,4196.922974
83,0,4200.512718,4206.666564,4202.564,4203.589641,4215.384512,4217.435794,4216.410153,4211.281948,4210.769128,4222.051179,4211.281948,4201.538359,4203.589641,4210.769128
84,0,4198.461436,4197.948615,4198.974256,4183.589641,4222.563999,4203.07682,4212.307589,4211.794769,4202.564,4204.615282,4208.717846,4202.564,4197.435795,4215.384512
85,0,4197.435795,4201.025538,4192.30759,4182.05118,4211.281948,4196.410154,4211.281948,4209.743487,4199.999897,4194.358872,4198.974256,4195.897333,4191.281949,4205.640923
86,0,4194.871692,4204.615282,4184.102462,4194.871692,4203.589641,4195.897333,4211.281948,4213.33323,4202.051179,4210.256307,4196.922974,4195.897333,4194.871692,4202.564
87,0,4194.358872,4202.564,4185.128103,4195.897333,4218.974256,4210.256307,4212.307589,4216.922974,4200.512718,4217.948615,4202.051179,4198.461436,4198.461436,4201.538359
88,0,4193.846051,4202.564,4194.871692,4185.640923,4230.769127,4229.743486,4214.871692,4212.307589,4202.051179,4207.179384,4201.538359,4198.461436,4197.435795,4199.999897
89,0,4196.410154,4207.692205,4200.512718,4186.666564,4230.256307,4215.384512,4207.692205,4203.589641,4204.102461,4194.358872,4197.435795,4200.512718,4194.871692,4205.128102
90,0,4209.230666,4209.230666,4204.615282,4203.07682,4210.256307,4193.846051,4199.999897,4201.538359,4202.564,4182.05118,4202.051179,4205.128102,4190.769128,4211.794769
91,0,4204.102461,4192.82041,4201.025538,4202.051179,4194.358872,4185.640923,4202.051179,4201.025538,4192.82041,4188.717846,4202.051179,4202.564,4185.128103,4202.564
92,0,4185.128103,4188.717846,4188.205026,4174.358872,4212.82041,4181.538359,4207.179384,4201.538359,4186.666564,4208.205025,4192.82041,4195.384513,4185.128103,4191.794769
93,0,4195.897333,4219.487076,4191.281949,4171.281949,4222.563999,4204.102461,4213.33323,4211.794769,4202.564,4207.692205,4201.025538,4202.564,4198.974256,4208.205025
94,0,4224.615281,4236.922973,4209.230666,4203.589641,4212.307589,4241.538358,4223.07682,4223.58964,4219.999897,4206.666564,4224.102461,4221.538358,4217.435794,4233.84605
95,0,4223.07682,4218.461435,4208.205025,4217.435794,4214.358871,4227.692204,4217.435794,4218.461435,4210.256307,4221.538358,4215.384512,4219.999897,4214.871692,4231.281948
96,0,4210.769128,4207.692205,4201.538359,4198.974256,4222.051179,4196.410154,4208.717846,4214.358871,4203.07682,4224.615281,4196.922974,4203.589641,4201.025538,4216.410153
97,0,4210.256307,4216.410153,4209.230666,4187.692205,4219.487076,4210.256307,4215.384512,4216.922974,4216.922974,4215.897333,4208.205025,4204.102461,4202.564,4216.922974
98,0,4203.07682,4217.435794,4201.538359,4198.461436,4209.230666,4207.179384,4216.922974,4207.179384,4216.410153,4210.769128,4218.974256,4205.640923,4205.128102,4214.871692
99,0,4201.538359,4215.384512,4187.692205,4204.615282,4207.179384,4174.358872,4206.666564,4198.974256,4206.153743,4207.179384,4211.281948,4196.922974,4200.512718,4204.102461
100,0,4218.974256,4222.051179,4202.564,4203.589641,4221.538358,4200.512718,4210.769128,4215.384512,4215.897333,4220.512717,4215.384512,4207.692205,4211.281948,4215.384512
101,0,4224.102461,4228.717845,4213.846051,4206.153743,4234.871691,4245.128101,4217.948615,4231.281948,4225.128102,4235.897332,4223.07682,4225.640922,4223.07682,4232.307589
102,0,4206.666564,4220.512717,4194.871692,4196.922974,4222.563999,4210.769128,4209.230666,4217.948615,4209.230666,4218.461435,4210.769128,4211.794769,4209.743487,4219.999897
103,0,4190.256308,4198.974256,4178.461436,4182.05118,4193.846051,4168.205026,4199.487077,4201.538359,4194.871692,4193.846051,4200.512718,4190.769128,4198.974256,4203.589641
104,0,4200.512718,4203.589641,4199.487077,4194.871692,4187.179385,4221.025538,4209.743487,4214.871692,4213.33323,4207.179384,4215.897333,4210.769128,4217.948615,4221.025538
105,0,4216.410153,4221.025538,4219.999897,4210.769128,4207.179384,4247.179383,4215.897333,4223.07682,4225.640922,4223.07682,4226.666563,4229.743486,4222.563999,4239.487076
106,0,4207.692205,4206.153743,4196.922974,4186.666564,4223.07682,4172.820411,4199.487077,4196.410154,4195.384513,4204.615282,4205.128102,4207.692205,4194.871692,4215.384512
107,0,4198.974256,4199.487077,4175.897334,4174.358872,4214.358871,4152.820411,4195.897333,4185.128103,4181.025539,4205.128102,4192.30759,4196.922974,4187.179385,4193.333231
108,0,4206.666564,4218.461435,4196.410154,4199.999897,4202.051179,4216.922974,4210.769128,4208.205025,4209.743487,4218.974256,4216.410153,4218.974256,4205.128102,4207.179384
109,0,4208.205025,4211.281948,4209.230666,4199.487077,4203.07682,4239.487076,4214.871692,4218.974256,4222.563999,4207.179384,4220.512717,4222.563999,4205.640923,4218.461435
110,0,4204.102461,4194.358872,4189.743487,4184.102462,4201.025538,4222.563999,4214.358871,4215.897333,4213.33323,4208.717846,4200.512718,4210.256307,4197.435795,4211.281948
111,0,4205.640923,4207.692205,4182.564,4188.205026,4195.384513,4210.769128,4220.512717,4213.846051,4208.717846,4205.640923,4199.999897,4212.307589,4192.82041,4201.538359
112,0,4195.897333,4210.256307,4203.07682,4190.256308,4203.589641,4198.974256,4212.82041,4206.153743,4202.564,4176.922975,4207.692205,4214.358871,4186.666564,4195.897333
113,0,4189.743487,4191.281949,4206.666564,4186.666564,4209.743487,4202.564,4203.589641,4202.564,4197.948615,4191.794769,4201.538359,4206.153743,4188.717846,4203.589641
114,0,4193.846051,4184.615282,4181.538359,4183.589641,4189.743487,4189.743487,4204.615282,4201.538359,4195.897333,4214.871692,4192.30759,4193.333231,4189.743487,4199.487077
115,0,4181.025539,4181.538359,4169.743488,4172.820411,4177.948616,4162.05118,4205.128102,4198.461436,4190.256308,4186.666564,4190.769128,4188.717846,4181.025539,4173.333231
116,0,4182.05118,4191.281949,4195.384513,4176.410154,4206.666564,4196.922974,4210.256307,4215.384512,4202.564,4191.794769,4205.128102,4209.743487,4190.769128,4185.128103
117,0,4211.794769,4222.563999,4213.846051,4213.33323,4229.230666,4241.538358,4218.461435,4232.307589,4225.640922,4230.769127,4223.58964,4228.717845,4215.384512,4225.128102
118,0,4219.999897,4232.820409,4197.948615,4214.358871,4213.33323,4212.82041,4213.846051,4218.461435,4221.025538,4225.128102,4219.487076,4216.922974,4219.487076,4224.102461
119,0,4205.128102,4211.281948,4185.128103,4177.948616,4199.487077,4189.230667,4207.179384,4206.666564,4202.051179,4212.307589,4211.794769,4204.615282,4211.794769,4207.692205
120,0,4206.153743,4203.07682,4195.384513,4180.512718,4198.461436,4198.974256,4209.230666,4214.871692,4198.461436,4214.358871,4213.33323,4209.743487,4212.307589,4211.281948
121,0,4213.33323,4214.358871,4205.640923,4203.589641,4192.82041,4202.564,4212.82041,4217.948615,4207.692205,4212.307589,4214.871692,4213.846051,4215.897333,4212.82041
122,0,4209.743487,4218.461435,4204.102461,4202.051179,4196.922974,4212.82041,4212.307589,4216.922974,4216.922974,4211.281948,4216.922974,4216.410153,4217.435794,4212.307589
123,0,4207.179384,4213.33323,4198.461436,4197.435795,4213.846051,4211.794769,4207.179384,4215.897333,4209.743487,4211.794769,4214.358871,4217.948615,4216.922974,4216.922974
124,0,4202.051179,4212.307589,4199.999897,4205.640923,4221.538358,4199.999897,4209.230666,4214.871692,4203.07682,4212.307589,4216.922974,4216.410153,4217.435794,4214.358871
125,0,4200.512718,4216.410153,4205.128102,4200.512718,4221.538358,4211.281948,4218.461435,4219.487076,4219.999897,4220.512717,4228.717845,4215.897333,4219.999897,4212.307589
126,0,4212.307589,4226.153743,4203.07682,4205.640923,4230.769127,4228.205025,4220.512717,4219.999897,4231.794768,4225.128102,4233.84605,4217.948615,4225.128102,4221.538358
127,0,4220.512717,4236.922973,4198.974256,4224.102461,4231.794768,4221.538358,4216.410153,4218.974256,4223.58964,4226.666563,4231.281948,4228.205025,4225.128102,4235.384512
128,0,4207.179384,4224.102461,4199.487077,4202.051179,4208.717846,4194.871692,4214.358871,4215.897333,4213.846051,4230.769127,4222.563999,4228.205025,4209.230666,4224.102461
0,0,4194.871692,4198.461436,4202.564,4172.30759,4194.358872,4181.025539,4215.384512,4214.358871,4214.358871,4227.692204,4214.871692,4216.410153,4194.358872,4197.948615
1,0,4202.564,4206.153743,4208.717846,4193.846051,4216.410153,4209.230666,4223.58964,4224.615281,4222.051179,4225.640922,4221.025538,4221.538358,4198.974256,4209.230666
2,0,4214.358871,4229.743486,4217.435794,4219.487076,4238.974255,4248.205024,4231.794768,4238.461435,4232.820409,4212.82041,4230.256307,4238.461435,4205.128102,4237.435794
3,0,4219.487076,4226.666563,4219.487076,4215.897333,4223.58964,4252.820409,4227.179384,4237.948614,4237.948614,4198.974256,4226.666563,4237.435794,4204.102461,4234.871691
4,0,4212.82041,4213.846051,4207.179384,4215.897333,4210.256307,4223.07682,4216.410153,4224.102461,4222.051179,4217.948615,4219.999897,4219.999897,4198.461436,4210.769128
5,0,4201.538359,4211.281948,4192.82041,4201.538359,4218.974256,4179.487077,4207.179384,4209.743487,4197.435795,4231.794768,4211.794769,4209.230666,4184.102462,4196.922974
6,0,4203.07682,4213.846051,4202.564,4180.512718,4206.666564,4184.615282,4211.281948,4213.846051,4203.589641,4222.051179,4213.33323,4219.999897,4179.999898,4207.179384
7,0,4212.82041,4212.307589,4222.051179,4189.230667,4194.871692,4224.102461,4223.58964,4226.666563,4216.922974,4215.897333,4226.153743,4232.820409,4187.692205,4222.563999
8,0,4212.307589,4215.384512,4219.999897,4205.640923,4221.025538,4222.563999,4223.07682,4221.538358,4208.205025,4211.281948,4222.051179,4226.666563,4187.692205,4217.435794
9,0,4214.871692,4225.640922,4216.410153,4208.205025,4231.794768,4215.384512,4220.512717,4213.846051,4209.743487,4208.205025,4214.871692,4228.205025,4189.230667,4214.358871
10,0,4212.82041,4216.922974,4221.025538,4207.692205,4201.025538,4231.794768,4218.974256,4219.487076,4221.025538,4215.897333,4221.538358,4237.948614,4192.30759,4222.563999
11,0,4193.333231,4199.487077,4203.589641,4200.512718,4193.846051,4211.281948,4212.82041,4216.410153,4204.615282,4214.358871,4213.33323,4221.025538,4175.897334,4210.256307
12,0,4185.640923,4205.640923,4181.538359,4193.846051,4224.102461,4176.922975,4208.205025,4205.640923,4193.846051,4194.871692,4202.564,4204.102461,4167.692206,4192.82041
13,0,4198.974256,4217.435794,4194.871692,4200.512718,4223.58964,4200.512718,4212.82041,4212.82041,4214.358871,4194.358872,4215.897333,4219.487076,4189.743487,4205.128102
14,0,4211.281948,4217.948615,4218.974256,4206.666564,4205.128102,4250.256306,4225.128102,4228.205025,4224.615281,4228.717845,4237.435794,4239.999896,4207.692205,4227.179384
15,0,4206.666564,4223.07682,4221.025538,4197.435795,4223.58964,4245.128101,4227.692204,4224.102461,4214.358871,4248.717845,4233.84605,4231.794768,4192.30759,4225.128102
16,0,4189.230667,4216.410153,4203.589641,4183.076821,4238.974255,4183.589641,4207.179384,4199.487077,4199.999897,4214.871692,4208.717846,4203.07682,4167.179385,4199.999897
17,0,4191.794769,4199.487077,4194.358872,4195.897333,4219.487076,4176.922975,4198.974256,4195.897333,4202.564,4186.666564,4198.974256,4198.461436,4170.256308,4192.30759
18,0,4217.435794,4218.461435,4209.230666,4229.743486,4222.563999,4246.153742,4222.051179,4226.666563,4221.025538,4219.487076,4216.922974,4227.692204,4196.410154,4210.769128
19,0,4221.025538,4242.051178,4221.025538,4225.640922,4243.58964,4262.563998,4227.179384,4238.974255,4228.205025,4237.948614,4226.666563,4241.025537,4204.102461,4223.58964
20,0,4205.640923,4229.230666,4213.33323,4191.281949,4219.487076,4212.82041,4209.230666,4217.948615,4216.410153,4209.743487,4214.871692,4225.640922,4189.230667,4225.128102
21,0,4205.640923,4222.563999,4208.205025,4193.846051,4201.538359,4196.410154,4211.281948,4210.256307,4215.384512,4214.358871,4215.897333,4224.102461,4187.179385,4228.205025
22,0,4217.435794,4236.410153,4219.487076,4219.487076,4222.563999,4222.051179,4224.615281,4227.692204,4228.205025,4246.666563,4232.820409,4244.615281,4203.07682,4232.307589
23,0,4225.128102,4232.820409,4232.307589,4211.281948,4233.33323,4234.358871,4222.563999,4234.358871,4232.307589,4245.640922,4241.025537,4252.307588,4210.256307,4238.461435
24,0,4219.999897,4216.922974,4224.102461,4194.358872,4231.794768,4210.769128,4213.33323,4222.051179,4223.07682,4230.256307,4232.820409,4235.897332,4196.922974,4231.281948
25,0,4197.948615,4211.281948,4196.410154,4201.025538,4228.205025,4169.743488,4203.589641,4209.743487,4201.538359,4202.564,4213.33323,4211.281948,4178.974257,4204.102461
26,0,4193.333231,4214.871692,4187.692205,4201.025538,4219.999897,4187.179385,4206.153743,4211.281948,4200.512718,4184.615282,4210.256307,4209.743487,4181.025539,4197.948615
27,0,4216.410153,4225.640922,4212.82041,4198.974256,4218.974256,4255.897332,4224.102461,4227.692204,4232.307589,4225.640922,4229.743486,4232.307589,4201.025538,4227.692204
28,0,4223.07682,4232.307589,4227.692204,4212.82041,4225.128102,4265.128101,4227.179384,4235.384512,4244.615281,4267.179383,4235.897332,4239.999896,4205.640923,4241.538358
29,0,4207.692205,4213.33323,4210.256307,4203.589641,4218.461435,4207.179384,4208.717846,4219.999897,4211.794769,4229.743486,4210.769128,4221.538358,4182.564,4218.461435
30,0,4204.615282,4202.051179,4196.922974,4183.589641,4209.230666,4190.769128,4208.717846,4212.82041,4195.384513,4189.230667,4200.512718,4213.33323,4174.358872,4206.666564
31,0,4214.871692,4218.461435,4209.230666,4199.487077,4214.871692,4211.794769,4221.538358,4227.179384,4216.410153,4210.256307,4218.461435,4221.025538,4187.179385,4213.846051
32,0,4209.743487,4217.435794,4216.922974,4205.128102,4223.58964,4198.974256,4215.384512,4225.128102,4220.512717,4208.205025,4217.948615,4214.871692,4178.974257,4204.615282
33,0,4198.974256,4207.692205,4211.794769,4194.358872,4221.538358,4203.589641,4213.846051,4216.410153,4212.307589,4195.897333,4208.205025,4209.230666,4169.743488,4202.051179
34,0,4201.025538,4217.948615,4215.384512,4210.256307,4213.846051,4241.025537,4222.563999,4224.102461,4211.794769,4224.102461,4211.281948,4221.538358,4182.05118,4215.384512
35,0,4202.564,4209.743487,4211.281948,4210.256307,4209.743487,4217.435794,4211.281948,4212.307589,4201.538359,4213.846051,4204.102461,4218.974256,4171.79477,4208.717846
36,0,4208.205025,4195.897333,4206.153743,4182.05118,4212.82041,4187.179385,4206.153743,4202.051179,4198.461436,4184.102462,4202.564,4212.307589,4164.102462,4202.051179
37,0,4217.948615,4215.897333,4221.538358,4188.205026,4230.769127,4224.102461,4219.999897,4221.538358,4215.384512,4212.82041,4218.974256,4226.666563,4190.769128,4218.974256
38,0,4218.974256,4229.743486,4231.794768,4213.33323,4242.563999,4229.743486,4217.435794,4227.179384,4221.538358,4233.33323,4222.051179,4237.435794,4199.999897,4223.58964
39,0,4215.897333,4223.07682,4225.128102,4222.563999,4221.538358,4197.948615,4211.794769,4217.948615,4219.487076,4204.615282,4218.974256,4229.743486,4187.179385,4218.461435
40,0,4222.051179,4229.743486,4229.743486,4228.717845,4209.743487,4237.435794,4225.640922,4229.230666,4231.281948,4211.281948,4228.205025,4232.307589,4195.384513,4231.281948
41,0,4227.692204,4229.230666,4240.512717,4208.717846,4232.307589,4269.230665,4230.256307,4236.922973,4230.769127,4236.922973,4227.692204,4243.076819,4198.974256,4236.922973
42,0,4210.769128,4203.589641,4219.999897,4172.820411,4228.717845,4186.666564,4206.666564,4211.794769,4201.025538,4208.205025,4204.615282,4223.58964,4173.333231,4213.846051
43,0,4199.487077,4194.871692,4196.922974,4192.30759,4202.051179,4152.820411,4198.974256,4201.538359,4194.871692,4195.384513,4200.512718,4207.179384,4168.717847,4202.564
44,0,4214.358871,4219.487076,4210.769128,4234.358871,4211.794769,4244.615281,4221.538358,4227.179384,4227.179384,4227.692204,4228.205025,4230.769127,4197.435795,4219.487076
45,0,4219.487076,4223.58964,4223.07682,4217.948615,4230.769127,4269.230665,4229.230666,4236.922973,4238.974255,4236.922973,4235.897332,4242.051178,4203.589641,4226.666563
46,0,4199.999897,4196.922974,4207.692205,4185.128103,4217.435794,4206.666564,4212.82041,4218.461435,4220.512717,4220.512717,4215.897333,4221.538358,4183.589641,4216.922974
47,0,4195.384513,4193.333231,4197.435795,4188.205026,4200.512718,4196.410154,4207.692205,4215.384512,4214.871692,4203.589641,4214.871692,4216.410153,4179.487077,4208.717846
48,0,4203.07682,4218.461435,4202.051179,4194.871692,4218.461435,4224.615281,4215.897333,4229.743486,4221.538358,4204.102461,4229.743486,4225.128102,4191.281949,4206.153743
49,0,4197.948615,4216.410153,4200.512718,4183.589641,4246.153742,4208.717846,4212.82041,4226.666563,4217.435794,4226.153743,4217.948615,4217.435794,4184.615282,4204.615282
50,0,4204.615282,4199.487077,4204.615282,4187.179385,4241.025537,4209.230666,4214.871692,4223.07682,4220.512717,4247.692204,4210.769128,4221.025538,4182.564,4213.846051
51,0,4218.974256,4210.256307,4219.999897,4214.358871,4218.461435,4243.58964,4227.179384,4236.410153,4235.897332,4236.410153,4230.256307,4242.051178,4200.512718,4223.58964
52,0,4209.230666,4218.461435,4213.846051,4219.999897,4210.769128,4225.640922,4222.563999,4235.384512,4233.84605,4218.974256,4231.281948,4233.33323,4198.461436,4212.82041
53,0,4202.051179,4210.769128,4199.487077,4204.102461,4211.794769,4202.564,4213.846051,4221.025538,4219.999897,4217.435794,4215.897333,4212.307589,4186.153744,4205.640923
54,0,4217.435794,4214.871692,4209.743487,4200.512718,4227.692204,4226.153743,4219.999897,4217.435794,4217.948615,4205.640923,4212.82041,4219.487076,4189.743487,4217.435794
55,0,4213.33323,4217.435794,4221.538358,4192.82041,4241.025537,4232.820409,4221.538358,4217.435794,4215.897333,4202.564,4219.999897,4228.205025,4191.794769,4220.512717
56,0,4192.82041,4205.640923,4209.743487,4183.589641,4212.82041,4216.410153,4217.948615,4214.871692,4208.205025,4204.615282,4215.384512,4217.948615,4180.512718,4202.564
57,0,4198.461436,4205.128102,4198.974256,4199.487077,4198.974256,4222.563999,4218.461435,4215.384512,4211.281948,4188.205026,4205.128102,4214.871692,4176.922975,4197.948615
58,0,4215.384512,4216.922974,4198.974256,4210.769128,4229.743486,4220.512717,4214.358871,4215.384512,4214.871692,4188.717846,4208.717846,4216.410153,4182.05118,4211.281948
59,0,4210.256307,4215.897333,4199.487077,4202.051179,4234.358871,4201.538359,4206.666564,4218.974256,4212.82041,4223.58964,4218.461435,4213.846051,4183.076821,4214.871692
60,0,4215.384512,4224.615281,4209.743487,4207.179384,4214.358871,4215.897333,4212.82041,4230.256307,4223.07682,4238.974255,4223.58964,4227.179384,4188.205026,4218.974256
61,0,4228.717845,4233.84605,4219.487076,4215.384512,4230.256307,4222.051179,4214.871692,4232.307589,4229.230666,4219.487076,4217.948615,4237.948614,4189.743487,4227.179384
62,0,4215.384512,4219.487076,4218.461435,4196.410154,4242.563999,4205.128102,4214.358871,4227.179384,4222.051179,4209.230666,4215.384512,4231.794768,4186.153744,4228.717845
63,0,4210.769128,4213.846051,4227.179384,4186.666564,4211.794769,4226.153743,4224.615281,4235.384512,4229.230666,4214.871692,4229.743486,4239.999896,4196.410154,4230.256307
64,0,4228.205025,4219.487076,4228.717845,4199.999897,4191.794769,4245.640922,4226.666563,4232.820409,4233.84605,4218.974256,4234.871691,4247.692204,4203.589641,4229.230666
65,0,4219.999897,4203.589641,4204.102461,4201.538359,4210.769128,4206.666564,4212.307589,4207.179384,4210.769128,4208.717846,4211.794769,4223.58964,4185.128103,4212.307589
66,0,4191.281949,4189.743487,4189.230667,4190.769128,4232.820409,4168.205026,4204.615282,4192.30759,4182.05118,4188.205026,4193.846051,4197.948615,4157.435796,4190.256308
67,0,4190.769128,4208.205025,4205.128102,4193.846051,4230.769127,4204.102461,4215.384512,4203.589641,4186.153744,4176.410154,4206.153743,4206.153743,4157.435796,4192.82041
68,0,4209.743487,4220.512717,4218.974256,4207.179384,4208.717846,4247.692204,4226.153743,4219.487076,4211.281948,4187.692205,4211.281948,4221.538358,4172.820411,4212.307589
69,0,4214.871692,4212.82041,4212.82041,4213.846051,4202.051179,4236.922973,4222.051179,4217.948615,4216.410153,4209.230666,4205.128102,4217.948615,4176.410154,4214.358871
70,0,4217.435794,4213.846051,4216.410153,4214.358871,4228.205025,4225.128102,4213.846051,4211.281948,4208.717846,4210.256307,4213.33323,4217.948615,4181.025539,4209.743487
71,0,4224.102461,4223.07682,4234.358871,4210.256307,4249.743486,4223.58964,4212.307589,4213.33323,4214.358871,4203.07682,4223.07682,4231.281948,4190.256308,4217.435794
72,0,4223.58964,4227.692204,4234.358871,4209.743487,4230.256307,4197.948615,4212.82041,4212.82041,4214.871692,4206.666564,4218.461435,4235.384512,4185.640923,4218.974256
73,0,4223.58964,4221.538358,4228.717845,4219.999897,4209.743487,4196.922974,4216.410153,4215.897333,4212.82041,4217.948615,4218.461435,4232.820409,4184.102462,4213.846051
74,0,4226.666563,4217.435794,4229.743486,4220.512717,4227.692204,4227.692204,4220.512717,4224.615281,4228.205025,4229.743486,4230.256307,4235.384512,4193.333231,4218.974256
75,0,4219.487076,4221.025538,4217.948615,4211.281948,4235.897332,4223.07682,4217.948615,4223.58964,4229.230666,4232.820409,4228.205025,4232.307589,4190.769128,4217.435794
76,0,4217.948615,4231.794768,4222.563999,4211.794769,4211.281948,4219.999897,4221.025538,4227.692204,4222.563999,4222.051179,4223.58964,4236.410153,4192.30759,4216.922974
77,0,4224.102461,4231.794768,4237.948614,4213.846051,4208.205025,4245.640922,4226.153743,4235.897332,4229.743486,4216.922974,4228.717845,4242.563999,4194.871692,4218.974256
78,0,4213.33323,4218.974256,4218.974256,4205.128102,4233.33323,4222.051179,4212.307589,4221.538358,4219.999897,4221.538358,4225.640922,4226.153743,4176.922975,4208.717846
79,0,4207.179384,4211.794769,4208.205025,4196.410154,4226.666563,4166.666565,4201.025538,4206.666564,4202.051179,4210.769128,4207.692205,4213.33323,4165.640924,4204.102461
80,0,4229.230666,4213.33323,4242.051178,4204.102461,4201.025538,4197.948615,4215.384512,4219.999897,4214.358871,4210.256307,4213.846051,4231.281948,4185.640923,4219.999897
81,0,4241.025537,4224.102461,4248.717845,4217.948615,4222.051179,4260.512716,4227.179384,4227.692204,4225.128102,4219.999897,4231.281948,4242.051178,4195.897333,4226.153743
82,0,4216.410153,4229.230666,4214.358871,4218.974256,4235.384512,4221.025538,4212.82041,4207.692205,4203.07682,4195.897333,4214.358871,4224.102461,4176.922975,4209.230666
83,0,4207.692205,4223.58964,4213.33323,4211.281948,4221.538358,4185.128103,4205.128102,4199.999897,4196.922974,4182.05118,4201.538359,4223.58964,4176.922975,4209.743487
84,0,4222.051179,4210.256307,4228.205025,4200.512718,4224.102461,4210.256307,4211.794769,4204.102461,4206.153743,4209.230666,4213.846051,4230.769127,4185.640923,4217.948615
85,0,4225.128102,4204.615282,4226.153743,4195.384513,4223.07682,4203.589641,4209.230666,4201.538359,4201.025538,4222.051179,4215.897333,4223.07682,4179.487077,4212.307589
86,0,4219.487076,4222.563999,4229.230666,4199.999897,4217.435794,4192.30759,4207.692205,4208.717846,4206.666564,4208.205025,4209.230666,4223.58964,4183.076821,4208.205025
87,0,4227.179384,4238.974255,4236.922973,4219.487076,4225.640922,4243.58964,4221.538358,4230.256307,4231.281948,4217.948615,4225.128102,4235.897332,4203.589641,4219.999897
88,0,4232.820409,4233.33323,4229.230666,4242.051178,4232.820409,4270.256306,4227.179384,4236.922973,4239.999896,4234.358871,4241.025537,4239.487076,4210.256307,4237.948614
89,0,4215.384512,4218.974256,4218.974256,4223.07682,4229.743486,4205.640923,4212.307589,4222.563999,4218.461435,4216.922974,4227.692204,4227.692204,4201.025538,4226.666563
90,0,4203.589641,4205.128102,4216.410153,4185.128103,4223.07682,4165.128103,4201.538359,4212.307589,4203.07682,4204.615282,4210.256307,4214.358871,4197.435795,4204.615282
91,0,4215.384512,4195.384513,4215.897333,4192.82041,4212.307589,4196.922974,4208.205025,4210.769128,4207.179384,4216.410153,4210.769128,4210.769128,4198.461436,4214.358871
92,0,4229.230666,4213.846051,4226.666563,4222.051179,4205.640923,4237.435794,4219.487076,4215.384512,4216.922974,4224.615281,4230.769127,4227.179384,4205.640923,4237.435794
93,0,4224.615281,4237.948614,4237.948614,4217.948615,4227.179384,4236.922973,4217.435794,4216.922974,4218.974256,4221.538358,4233.33323,4238.974255,4208.717846,4234.871691
94,0,4216.922974,4231.794768,4229.230666,4213.33323,4248.717845,4213.846051,4208.717846,4210.769128,4209.230666,4208.717846,4215.384512,4226.666563,4197.435795,4225.640922
95,0,4226.666563,4224.102461,4219.487076,4218.974256,4239.999896,4218.461435,4213.846051,4214.871692,4209.230666,4198.974256,4222.563999,4224.102461,4200.512718,4232.307589
96,0,4234.871691,4222.563999,4220.512717,4209.230666,4214.871692,4220.512717,4221.538358,4221.025538,4215.384512,4209.230666,4232.307589,4228.205025,4209.743487,4231.281948
97,0,4228.205025,4219.999897,4216.410153,4213.33323,4214.871692,4217.948615,4217.948615,4217.435794,4216.410153,4224.102461,4217.435794,4221.025538,4205.128102,4229.230666
98,0,4221.025538,4220.512717,4206.153743,4221.025538,4230.256307,4217.948615,4213.846051,4212.307589,4211.794769,4217.435794,4214.358871,4213.846051,4199.999897,4228.717845
99,0,4222.051179,4219.999897,4212.82041,4205.128102,4225.128102,4219.487076,4214.871692,4214.871692,4211.281948,4204.615282,4230.256307,4217.948615,4204.615282,4220.512717
100,0,4224.102461,4218.974256,4221.025538,4196.410154,4225.640922,4221.025538,4214.871692,4220.512717,4215.384512,4202.564,4229.230666,4224.102461,4207.692205,4217.948615
101,0,4213.846051,4212.82041,4204.102461,4201.025538,4218.461435,4204.102461,4208.717846,4212.307589,4206.153743,4198.461436,4212.82041,4214.358871,4195.384513,4219.487076
102,0,4209.743487,4205.640923,4194.871692,4207.179384,4193.846051,4201.025538,4210.769128,4207.179384,4195.897333,4193.846051,4203.589641,4204.102461,4183.076821,4217.948615
103,0,4229.743486,4221.025538,4214.871692,4224.102461,4209.230666,4232.820409,4223.07682,4222.563999,4209.230666,4203.589641,4208.205025,4215.384512,4193.333231,4226.153743
104,0,4241.025537,4240.512717,4224.102461,4225.640922,4234.871691,4241.025537,4225.640922,4228.205025,4222.563999,4211.794769,4217.948615,4230.256307,4205.640923,4232.820409
105,0,4225.640922,4228.717845,4213.846051,4207.692205,4230.769127,4219.487076,4218.974256,4215.384512,4217.435794,4206.666564,4217.948615,4227.179384,4203.07682,4224.615281
106,0,4218.974256,4213.33323,4211.794769,4204.615282,4233.84605,4214.358871,4214.871692,4212.82041,4209.230666,4203.07682,4215.897333,4217.435794,4199.487077,4224.102461
107,0,4227.692204,4220.512717,4217.948615,4206.153743,4223.58964,4207.692205,4212.82041,4212.82041,4204.102461,4209.743487,4210.256307,4215.384512,4199.487077,4230.256307
108,0,4230.256307,4227.692204,4219.999897,4207.179384,4190.256308,4203.07682,4210.769128,4205.128102,4202.564,4221.025538,4207.692205,4220.512717,4204.102461,4231.794768
109,0,4232.820409,4229.230666,4219.999897,4217.435794,4203.07682,4231.794768,4212.307589,4210.256307,4212.82041,4224.102461,4227.692204,4233.33323,4223.07682,4241.025537
110,0,4232.820409,4229.743486,4215.384512,4217.948615,4243.076819,4239.487076,4214.358871,4219.487076,4221.538358,4216.410153,4241.538358,4238.461435,4234.871691,4247.179383
111,0,4229.230666,4224.102461,4206.666564,4215.897333,4236.410153,4215.897333,4214.358871,4219.487076,4225.640922,4221.538358,4235.384512,4228.205025,4225.128102,4236.410153
112,0,4224.615281,4213.846051,4202.564,4215.384512,4217.948615,4214.358871,4212.82041,4217.435794,4224.102461,4234.358871,4225.640922,4216.410153,4217.948615,4228.717845
113,0,4223.58964,4211.281948,4205.640923,4207.692205,4215.897333,4223.58964,4216.922974,4217.435794,4217.435794,4221.538358,4219.999897,4211.794769,4214.358871,4231.794768
114,0,4227.179384,4221.538358,4204.102461,4209.230666,4203.07682,4213.846051,4221.025538,4222.563999,4222.051179,4212.307589,4222.563999,4214.358871,4212.82041,4229.230666
115,0,4227.692204,4229.743486,4197.948615,4221.025538,4203.07682,4208.717846,4216.410153,4230.769127,4229.743486,4229.743486,4235.897332,4224.102461,4223.58964,4228.205025
116,0,4226.153743,4224.615281,4209.230666,4211.281948,4226.153743,4230.256307,4215.897333,4232.820409,4224.102461,4236.410153,4241.538358,4236.410153,4232.307589,4237.948614
117,0,4223.07682,4210.769128,4216.922974,4193.333231,4239.487076,4228.717845,4221.025538,4222.563999,4215.384512,4229.230666,4227.692204,4231.281948,4217.948615,4232.307589
118,0,4217.948615,4209.230666,4202.564,4209.230666,4230.769127,4198.461436,4219.487076,4214.358871,4217.948615,4227.179384,4219.487076,4219.487076,4200.512718,4216.410153
119,0,4225.128102,4226.666563,4204.615282,4239.487076,4209.743487,4212.82041,4219.999897,4223.58964,4223.58964,4233.84605,4229.743486,4230.769127,4210.256307,4223.07682
120,0,4235.897332,4221.025538,4224.615281,4223.07682,4194.871692,4239.999896,4223.58964,4232.820409,4219.999897,4235.384512,4235.897332,4241.025537,4221.025538,4236.410153
121,0,4228.717845,4201.538359,4221.538358,4191.794769,4199.487077,4219.487076,4222.051179,4231.794768,4221.538358,4222.051179,4229.743486,4235.897332,4217.435794,4233.84605
122,0,4214.358871,4209.743487,4210.769128,4208.205025,4220.512717,4202.564,4219.487076,4233.33323,4234.358871,4218.974256,4235.384512,4239.999896,4218.974256,4229.743486
123,0,4216.922974,4222.563999,4217.435794,4233.33323,4230.256307,4229.230666,4222.051179,4235.897332,4238.974255,4247.179383,4251.794768,4250.256306,4223.07682,4226.153743
124,0,4221.538358,4211.281948,4218.974256,4211.794769,4225.640922,4232.307589,4226.153743,4230.769127,4233.33323,4255.897332,4245.128101,4243.58964,4216.410153,4217.435794
125,0,4224.615281,4212.307589,4214.358871,4191.281949,4212.307589,4215.384512,4227.692204,4232.820409,4230.769127,4223.58964,4229.743486,4235.384512,4212.307589,4221.538358
126,0,4224.102461,4222.563999,4214.358871,4208.717846,4193.333231,4219.487076,4221.538358,4231.281948,4223.07682,4217.948615,4230.256307,4236.922973,4217.948615,4230.769127
127,0,4211.794769,4208.717846,4210.256307,4227.179384,4199.999897,4226.153743,4218.974256,4219.999897,4215.897333,4234.358871,4232.820409,4235.897332,4214.871692,4222.563999
128,0,4205.640923,4201.538359,4201.538359,4217.435794,4230.769127,4216.922974,4221.538358,4213.33323,4216.922974,4222.563999,4228.205025,4227.692204,4204.615282,4213.846051
0,0,4216.922974,4213.846051,4205.128102,4208.205025,4244.10246,4201.538359,4217.435794,4213.846051,4213.33323,4209.230666,4225.128102,4224.102461,4204.615282,4217.435794
1,0,4235.384512,4226.666563,4227.179384,4229.230666,4226.153743,4218.974256,4221.025538,4226.153743,4219.999897,4233.33323,4236.922973,4240.512717,4222.051179,4234.871691
2,0,4236.922973,4226.153743,4231.794768,4233.33323,4206.666564,4243.58964,4226.666563,4235.384512,4225.640922,4240.512717,4238.974255,4245.640922,4226.666563,4239.487076
3,0,4218.461435,4212.307589,4210.256307,4203.07682,4204.615282,4226.666563,4218.461435,4220.512717,4206.153743,4203.589641,4209.743487,4222.051179,4201.538359,4214.871692
4,0,4204.615282,4202.051179,4202.051179,4196.922974,4213.33323,4203.589641,4212.82041,4208.205025,4197.435795,4197.948615,4196.410154,4208.717846,4190.256308,4197.948615
5,0,4211.794769,4208.717846,4214.358871,4216.410153,4223.58964,4219.487076,4223.07682,4221.538358,4219.487076,4227.179384,4219.487076,4218.461435,4209.230666,4209.743487
6,0,4228.717845,4221.538358,4223.07682,4222.563999,4225.640922,4243.076819,4226.666563,4236.922973,4229.743486,4238.461435,4232.307589,4225.128102,4221.025538,4221.538358
7,0,4227.179384,4213.846051,4209.743487,4209.743487,4229.230666,4220.512717,4215.384512,4227.692204,4215.897333,4216.922974,4216.410153,4215.897333,4203.07682,4212.82041
8,0,4213.33323,4204.102461,4194.871692,4201.025538,4213.33323,4193.846051,4208.205025,4215.897333,4208.717846,4198.974256,4208.717846,4209.230666,4188.205026,4206.153743
9,0,4215.384512,4210.769128,4207.692205,4201.025538,4185.640923,4207.179384,4214.358871,4224.615281,4221.538358,4216.410153,4216.410153,4214.358871,4202.051179,4215.897333
10,0,4218.974256,4215.897333,4218.974256,4210.256307,4201.025538,4227.179384,4219.999897,4235.897332,4231.794768,4235.897332,4223.07682,4222.051179,4216.410153,4221.538358
11,0,4216.410153,4218.974256,4206.153743,4224.615281,4248.205024,4232.820409,4222.051179,4235.384512,4233.84605,4243.58964,4233.33323,4227.179384,4215.897333,4220.512717
12,0,4217.435794,4223.07682,4196.410154,4226.153743,4255.384511,4231.281948,4223.07682,4235.384512,4235.384512,4243.076819,4230.256307,4225.128102,4211.794769,4214.358871
13,0,4226.153743,4223.58964,4208.205025,4218.974256,4218.974256,4233.33323,4221.025538,4233.33323,4231.794768,4230.256307,4219.999897,4224.615281,4213.33323,4214.358871
14,0,4231.794768,4218.974256,4219.487076,4216.922974,4208.205025,4227.179384,4216.410153,4222.563999,4222.051179,4212.307589,4223.58964,4233.84605,4216.922974,4227.179384
15,0,4224.615281,4210.256307,4217.948615,4219.487076,4217.948615,4207.179384,4211.281948,4212.307589,4211.281948,4210.256307,4222.051179,4233.33323,4207.692205,4226.666563
16,0,4222.051179,4210.256307,4211.281948,4216.410153,4221.025538,4204.102461,4213.846051,4213.846051,4209.743487,4217.948615,4210.256307,4224.102461,4197.948615,4210.256307
17,0,4228.717845,4222.051179,4211.281948,4211.281948,4225.128102,4228.717845,4221.025538,4221.538358,4215.384512,4215.897333,4215.897333,4225.640922,4205.640923,4208.717846
18,0,4231.794768,4223.58964,4218.974256,4212.82041,4232.820409,4242.051178,4223.58964,4229.230666,4222.051179,4217.948615,4236.410153,4235.897332,4220.512717,4224.102461
19,0,4223.07682,4213.33323,4215.897333,4216.410153,4229.230666,4214.871692,4214.358871,4220.512717,4216.410153,4221.538358,4233.84605,4230.769127,4217.435794,4224.615281
20,0,4223.07682,4217.435794,4212.307589,4215.897333,4214.871692,4209.230666,4209.743487,4211.281948,4211.794769,4217.948615,4218.461435,4221.538358,4207.179384,4216.410153
21,0,4229.230666,4229.230666,4216.410153,4217.435794,4220.512717,4234.358871,4215.897333,4222.563999,4223.58964,4218.461435,4217.948615,4224.615281,4214.871692,4216.410153
22,0,4227.179384,4227.179384,4212.307589,4223.07682,4227.692204,4223.58964,4220.512717,4228.717845,4226.153743,4221.025538,4219.487076,4221.538358,4213.846051,4214.871692
23,0,4231.281948,4228.205025,4216.410153,4230.769127,4233.84605,4211.281948,4222.563999,4232.820409,4222.051179,4215.384512,4213.33323,4220.512717,4200.512718,4215.897333
24,0,4237.948614,4234.358871,4229.743486,4231.794768,4242.563999,4243.58964,4228.717845,4246.666563,4231.794768,4207.692205,4216.410153,4230.256307,4204.102461,4218.974256
25,0,4233.33323,4230.769127,4229.230666,4224.102461,4228.717845,4261.025537,4229.743486,4245.640922,4239.487076,4221.025538,4218.974256,4230.769127,4215.384512,4221.025538
26,0,4230.256307,4219.999897,4215.384512,4212.307589,4213.846051,4231.281948,4223.07682,4229.743486,4229.230666,4236.922973,4202.564,4215.897333,4207.179384,4216.410153
27,0,4233.33323,4221.025538,4208.205025,4214.358871,4227.692204,4217.948615,4223.07682,4227.179384,4224.615281,4231.794768,4197.435795,4216.410153,4201.538359,4212.82041
28,0,4236.922973,4235.384512,4216.922974,4226.666563,4241.538358,4236.922973,4229.743486,4235.384512,4234.358871,4228.717845,4216.410153,4233.33323,4217.948615,4224.102461
29,0,4237.435794,4230.256307,4228.205025,4232.307589,4231.281948,4239.999896,4227.179384,4234.871691,4236.922973,4229.230666,4223.58964,4232.820409,4218.461435,4229.743486
30,0,4235.897332,4214.871692,4222.563999,4229.230666,4234.358871,4229.743486,4221.538358,4232.820409,4233.84605,4221.025538,4210.769128,4218.974256,4201.025538,4219.487076
31,0,4226.666563,4224.102461,4213.33323,4217.435794,4233.33323,4231.281948,4224.102461,4231.281948,4229.230666,4216.922974,4206.666564,4215.897333,4204.102461,4212.307589
32,0,4227.179384,4234.358871,4224.102461,4207.179384,4208.717846,4239.999896,4225.640922,4231.281948,4228.205025,4221.538358,4213.846051,4225.640922,4214.358871,4216.410153
33,0,4239.999896,4220.512717,4233.84605,4213.846051,4216.410153,4245.128101,4221.538358,4234.871691,4232.820409,4221.538358,4215.897333,4234.871691,4210.256307,4219.999897
34,0,4237.948614,4207.179384,4220.512717,4227.179384,4231.281948,4214.871692,4212.307589,4226.153743,4221.538358,4207.692205,4207.179384,4228.205025,4197.948615,4216.410153
35,0,4230.256307,4212.307589,4213.33323,4217.948615,4216.922974,4175.897334,4207.179384,4215.384512,4202.564,4199.487077,4195.897333,4214.871692,4193.846051,4213.33323
36,0,4236.410153,4220.512717,4226.666563,4202.564,4218.974256,4205.128102,4215.384512,4224.615281,4214.358871,4217.948615,4207.179384,4223.07682,4204.102461,4221.025538
37,0,4241.538358,4228.205025,4236.410153,4224.102461,4235.384512,4261.025537,4225.128102,4236.922973,4236.922973,4242.051178,4227.179384,4244.615281,4216.922974,4231.794768
38,0,4238.974255,4236.410153,4234.358871,4246.153742,4226.153743,4259.487075,4224.102461,4235.897332,4239.487076,4242.563999,4228.205025,4249.743486,4220.512717,4236.922973
39,0,4236.922973,4228.717845,4225.128102,4228.717845,4226.153743,4219.487076,4218.461435,4231.794768,4233.84605,4230.769127,4215.897333,4237.948614,4213.33323,4233.33323
40,0,4229.230666,4216.922974,4213.846051,4209.230666,4234.871691,4205.640923,4215.384512,4232.307589,4228.205025,4225.128102,4213.846051,4230.769127,4208.717846,4225.128102
41,0,4221.025538,4211.281948,4213.33323,4214.358871,4217.948615,4215.897333,4213.846051,4230.256307,4222.051179,4232.820409,4224.102461,4232.820409,4213.33323,4223.07682
42,0,4222.563999,4211.281948,4219.999897,4215.384512,4225.128102,4225.640922,4213.33323,4229.230666,4226.153743,4242.563999,4228.205025,4235.897332,4218.461435,4228.205025
43,0,4229.230666,4222.051179,4222.051179,4217.435794,4248.717845,4242.051178,4218.974256,4234.358871,4237.435794,4235.897332,4225.640922,4236.922973,4219.999897,4228.717845
44,0,4226.153743,4221.538358,4211.794769,4224.615281,4223.58964,4234.358871,4217.435794,4228.717845,4227.179384,4217.948615,4217.948615,4223.07682,4208.717846,4217.948615
45,0,4212.307589,4201.025538,4199.487077,4210.769128,4193.333231,4203.07682,4209.743487,4215.897333,4209.230666,4208.717846,4205.128102,4203.589641,4197.948615,4204.102461
