title:K                                                                               , recorded:02.07.20 11.54.17, sampling:128, subject:K                                                                               , labels:COUNTER INTERPOLATED AF3 F7 F3 FC5 T7 P7 O1 O2 P8 T8 FC6 F4 F8 AF4,, units:emotiv,,,,,,,,,
113,0,4235.384512,4236.922973,4217.435794,4095.897336,4215.897333,4212.82041,4239.487076,4213.33323,4221.025538,4218.461435,4193.333231,4229.743486,4198.974256,4232.820409
114,0,4233.33323,4236.922973,4214.358871,4094.358874,4216.410153,4215.897333,4236.410153,4214.871692,4219.999897,4217.948615,4187.179385,4228.205025,4201.538359,4230.256307
115,0,4240.512717,4245.128101,4216.922974,4099.9999,4221.025538,4214.871692,4237.435794,4221.538358,4225.128102,4223.07682,4193.846051,4233.33323,4208.717846,4233.33323
116,0,4242.051178,4248.717845,4219.487076,4108.205028,4228.205025,4217.435794,4244.615281,4226.153743,4228.717845,4228.205025,4204.102461,4237.948614,4212.82041,4239.999896
117,0,4236.410153,4242.563999,4215.384512,4101.538361,4228.205025,4222.051179,4244.615281,4227.692204,4237.948614,4223.58964,4203.07682,4237.435794,4214.358871,4240.512717
118,0,4247.179383,4248.205024,4223.58964,4108.205028,4232.820409,4222.563999,4246.153742,4237.435794,4254.35887,4234.358871,4212.307589,4248.717845,4223.07682,4247.692204
119,0,4254.871691,4253.333229,4232.820409,4118.974258,4232.820409,4216.922974,4245.640922,4238.974255,4250.256306,4250.256306,4221.025538,4253.84605,4227.692204,4249.743486
120,0,4255.897332,4256.410152,4234.358871,4123.076822,4229.743486,4215.897333,4246.666563,4236.410153,4242.051178,4254.871691,4223.58964,4252.307588,4229.743486,4246.666563
121,0,4248.717845,4254.871691,4230.256307,4118.974258,4229.230666,4215.384512,4240.512717,4229.743486,4234.358871,4240.512717,4217.948615,4247.692204,4222.563999,4241.025537
122,0,4245.640922,4255.897332,4230.769127,4119.999899,4233.84605,4213.846051,4237.435794,4229.743486,4232.820409,4238.974255,4214.871692,4249.230665,4222.563999,4243.58964
123,0,4235.897332,4244.615281,4221.538358,4111.281951,4225.128102,4210.769128,4234.358871,4226.666563,4231.281948,4236.410153,4208.717846,4240.512717,4219.999897,4236.922973
124,0,4238.461435,4242.563999,4222.051179,4113.333233,4221.538358,4212.82041,4241.538358,4227.179384,4235.897332,4235.897332,4212.307589,4240.512717,4220.512717,4237.948614
125,0,4243.076819,4243.58964,4227.692204,4114.358874,4221.538358,4212.307589,4242.051178,4224.102461,4234.871691,4234.358871,4214.358871,4245.640922,4215.897333,4244.10246
126,0,4247.179383,4247.179383,4229.230666,4114.871694,4227.692204,4214.358871,4244.10246,4227.692204,4239.999896,4238.461435,4216.410153,4249.743486,4220.512717,4250.256306
127,0,4240.512717,4244.615281,4222.563999,4113.846053,4227.692204,4211.281948,4239.487076,4227.179384,4237.435794,4234.358871,4213.846051,4242.563999,4221.025538,4241.538358
128,0,4236.922973,4243.58964,4224.102461,4115.384515,4227.179384,4208.205025,4234.358871,4221.025538,4230.769127,4229.230666,4210.769128,4238.461435,4217.435794,4235.384512
0,0,4234.358871,4237.948614,4227.179384,4112.820412,4225.640922,4206.153743,4230.256307,4216.922974,4227.179384,4226.153743,4203.07682,4238.974255,4213.33323,4232.820409
1,0,4232.307589,4234.358871,4225.128102,4113.846053,4228.205025,4209.230666,4232.307589,4223.58964,4231.281948,4225.640922,4204.102461,4241.538358,4215.897333,4232.820409
2,0,4231.281948,4235.897332,4222.563999,4115.384515,4230.256307,4210.256307,4236.410153,4227.179384,4233.33323,4226.666563,4208.205025,4239.999896,4215.897333,4231.794768
3,0,4233.33323,4236.410153,4223.58964,4116.410156,4231.281948,4211.281948,4239.999896,4221.538358,4230.256307,4227.692204,4204.615282,4235.384512,4210.769128,4230.256307
4,0,4231.794768,4231.281948,4222.051179,4118.974258,4225.640922,4208.205025,4239.487076,4217.435794,4227.692204,4228.717845,4201.538359,4235.897332,4210.769128,4230.256307
5,0,4227.179384,4227.179384,4218.974256,4116.410156,4216.410153,4202.051179,4233.84605,4214.358871,4223.58964,4224.102461,4206.153743,4239.999896,4216.410153,4232.307589
6,0,4231.794768,4232.820409,4225.128102,4115.384515,4221.025538,4203.589641,4236.410153,4217.435794,4223.07682,4227.179384,4210.769128,4244.10246,4222.051179,4237.948614
7,0,4227.179384,4226.666563,4223.07682,4112.307592,4222.563999,4206.666564,4238.461435,4217.948615,4219.487076,4225.128102,4202.051179,4234.358871,4213.33323,4230.769127
8,0,4222.051179,4221.538358,4216.410153,4115.384515,4223.58964,4207.692205,4236.410153,4217.948615,4221.538358,4219.487076,4198.974256,4227.692204,4207.179384,4222.563999
9,0,4224.102461,4227.692204,4214.358871,4120.51272,4228.717845,4205.128102,4231.281948,4213.846051,4222.563999,4212.307589,4193.846051,4226.153743,4206.153743,4222.051179
10,0,4241.025537,4244.615281,4225.640922,4134.358873,4235.384512,4210.256307,4237.948614,4220.512717,4230.769127,4220.512717,4200.512718,4233.84605,4219.999897,4238.461435
11,0,4249.743486,4248.717845,4233.33323,4138.461437,4231.794768,4214.358871,4241.538358,4225.640922,4234.871691,4230.256307,4210.769128,4237.435794,4231.794768,4248.717845
12,0,4249.743486,4252.307588,4231.281948,4136.410155,4237.948614,4217.435794,4242.563999,4226.666563,4237.435794,4238.974255,4216.922974,4239.487076,4231.794768,4246.666563
13,0,4237.435794,4242.563999,4218.974256,4128.205027,4238.461435,4212.82041,4236.922973,4221.025538,4232.307589,4232.820409,4209.230666,4232.820409,4222.051179,4234.358871
14,0,4233.33323,4236.922973,4216.410153,4130.256309,4233.84605,4210.256307,4238.461435,4221.025538,4232.820409,4231.794768,4203.07682,4229.230666,4227.692204,4235.384512
15,0,4235.384512,4237.435794,4216.922974,4126.666566,4227.692204,4208.205025,4237.948614,4217.435794,4231.794768,4231.281948,4200.512718,4228.717845,4226.153743,4237.435794
16,0,4243.58964,4244.615281,4223.58964,4128.717848,4230.256307,4210.256307,4243.58964,4219.487076,4234.871691,4233.84605,4210.256307,4240.512717,4227.692204,4244.615281
17,0,4250.256306,4247.692204,4229.743486,4133.333232,4229.230666,4208.717846,4244.10246,4220.512717,4232.307589,4230.256307,4215.384512,4244.615281,4236.410153,4252.307588
18,0,4250.256306,4246.666563,4226.153743,4132.820412,4225.640922,4206.153743,4238.974255,4214.358871,4222.563999,4221.025538,4202.564,4233.33323,4230.769127,4251.794768
19,0,4246.153742,4236.410153,4217.948615,4122.564002,4218.974256,4207.179384,4231.281948,4206.153743,4216.922974,4212.307589,4192.30759,4223.58964,4214.871692,4248.717845
20,0,4275.897331,4250.769127,4233.33323,4131.794771,4226.666563,4213.33323,4239.487076,4215.897333,4230.256307,4225.640922,4210.256307,4242.051178,4239.487076,4279.999895
21,0,4323.589638,4283.589639,4253.333229,4153.846052,4232.820409,4211.794769,4247.692204,4226.153743,4237.435794,4235.384512,4232.820409,4263.076819,4277.948613,4330.769125
22,0,4346.15374,4293.846049,4252.307588,4162.05118,4228.205025,4205.640923,4241.538358,4219.487076,4227.179384,4225.128102,4235.384512,4265.128101,4285.1281,4359.487073
23,0,4361.538355,4294.87169,4254.871691,4164.102462,4229.743486,4205.640923,4238.974255,4216.410153,4229.743486,4229.743486,4236.922973,4269.743485,4291.794767,4382.563995
24,0,4387.17938,4301.538356,4264.61528,4168.205026,4228.717845,4203.07682,4235.384512,4219.487076,4235.384512,4237.948614,4248.717845,4281.538357,4314.358869,4409.743482
25,0,4397.43579,4299.487074,4270.256306,4170.256308,4223.07682,4197.948615,4230.256307,4218.461435,4230.769127,4230.769127,4256.922973,4287.179382,4324.102458,4423.076815
26,0,4381.025534,4288.717844,4263.589639,4161.53836,4224.102461,4197.948615,4227.179384,4212.307589,4224.615281,4221.025538,4249.230665,4281.025536,4312.820407,4414.358866
27,0,4379.487072,4302.563997,4262.051178,4167.179385,4238.461435,4206.153743,4234.358871,4217.435794,4229.230666,4229.230666,4248.205024,4283.076818,4312.820407,4412.820405
28,0,4374.358867,4303.076818,4257.948614,4169.230667,4235.897332,4205.128102,4233.84605,4215.897333,4226.153743,4226.666563,4244.10246,4275.897331,4305.64092,4401.538354
29,0,4357.435791,4285.640921,4257.435793,4164.615283,4230.256307,4203.589641,4234.871691,4216.922974,4229.743486,4228.205025,4241.538358,4270.769126,4299.999895,4384.102457
30,0,4339.487073,4276.410152,4254.871691,4160.512719,4224.102461,4202.051179,4233.33323,4214.871692,4228.205025,4224.615281,4233.33323,4265.640921,4288.205023,4362.051175
31,0,4334.358868,4284.61528,4250.256306,4164.102462,4224.615281,4204.102461,4235.897332,4212.82041,4224.615281,4224.615281,4228.205025,4258.974255,4277.435793,4345.128099
32,0,4318.974253,4276.410152,4242.051178,4153.846052,4227.179384,4205.128102,4234.871691,4210.256307,4224.102461,4228.205025,4223.07682,4248.717845,4266.666562,4326.666561
33,0,4304.615279,4264.10246,4242.563999,4154.871693,4231.794768,4206.666564,4231.794768,4215.384512,4229.230666,4227.692204,4223.07682,4249.743486,4266.153742,4317.948612
34,0,4288.205023,4251.794768,4237.948614,4156.922975,4225.640922,4203.07682,4222.563999,4209.743487,4217.948615,4210.256307,4216.922974,4241.025537,4253.333229,4298.461433
35,0,4277.435793,4248.717845,4232.820409,4148.717847,4228.205025,4207.179384,4229.230666,4210.256307,4217.948615,4215.384512,4214.358871,4232.820409,4245.128101,4280.512716
36,0,4270.256306,4245.128101,4232.307589,4143.589642,4237.948614,4212.307589,4239.487076,4220.512717,4229.743486,4235.384512,4216.922974,4237.435794,4244.615281,4276.922972
37,0,4267.179383,4243.076819,4235.384512,4151.79477,4238.461435,4210.769128,4242.051178,4223.07682,4232.820409,4234.358871,4221.025538,4243.076819,4243.58964,4275.384511
38,0,4263.076819,4241.538358,4235.897332,4152.820411,4234.871691,4211.281948,4239.999896,4216.922974,4227.179384,4225.128102,4219.487076,4235.897332,4241.025537,4263.076819
39,0,4263.589639,4245.128101,4237.948614,4153.846052,4241.025537,4217.435794,4244.10246,4218.974256,4230.256307,4233.84605,4220.512717,4235.384512,4246.153742,4261.538357
40,0,4252.307588,4236.410153,4235.897332,4153.846052,4236.410153,4209.743487,4237.948614,4221.025538,4229.230666,4234.358871,4219.999897,4238.974255,4241.025537,4258.974255
41,0,4229.743486,4221.025538,4223.58964,4141.53836,4224.102461,4201.025538,4229.743486,4215.384512,4223.07682,4223.07682,4209.743487,4228.717845,4224.102461,4237.435794
42,0,4219.999897,4218.974256,4215.897333,4135.897335,4228.205025,4206.153743,4236.410153,4215.897333,4223.58964,4220.512717,4201.025538,4216.410153,4215.384512,4219.487076
43,0,4213.846051,4216.410153,4210.769128,4134.871694,4230.256307,4209.743487,4236.922973,4214.871692,4218.974256,4212.82041,4197.435795,4209.230666,4211.281948,4212.82041
44,0,4210.256307,4211.794769,4211.794769,4137.948617,4231.281948,4210.256307,4237.435794,4215.897333,4218.461435,4212.307589,4202.051179,4212.82041,4214.358871,4214.871692
45,0,4210.769128,4208.717846,4217.435794,4142.564001,4236.922973,4212.82041,4242.051178,4219.999897,4225.128102,4218.461435,4202.564,4217.435794,4214.358871,4213.33323
46,0,4218.974256,4215.384512,4225.128102,4146.666565,4243.076819,4215.384512,4248.205024,4227.692204,4234.871691,4224.102461,4209.743487,4224.615281,4215.384512,4215.897333
47,0,4214.358871,4211.281948,4221.538358,4137.948617,4232.307589,4208.205025,4244.615281,4224.102461,4229.230666,4219.999897,4207.692205,4222.563999,4211.281948,4213.33323
48,0,4215.897333,4214.358871,4225.640922,4144.615283,4231.794768,4207.692205,4248.717845,4226.666563,4230.769127,4232.307589,4211.281948,4229.230666,4221.025538,4218.974256
49,0,4214.358871,4213.33323,4224.615281,4148.717847,4233.84605,4210.256307,4242.563999,4227.692204,4232.820409,4235.897332,4216.922974,4230.769127,4228.205025,4219.999897
50,0,4212.82041,4215.384512,4218.974256,4145.128104,4233.33323,4211.794769,4238.974255,4226.153743,4232.820409,4232.820409,4218.974256,4222.563999,4228.205025,4218.461435
51,0,4209.230666,4216.410153,4213.33323,4139.487078,4233.33323,4209.230666,4240.512717,4222.563999,4228.717845,4229.743486,4210.256307,4211.794769,4220.512717,4210.256307
52,0,4209.230666,4217.948615,4216.922974,4146.666565,4236.410153,4213.33323,4247.692204,4230.256307,4234.871691,4237.435794,4211.794769,4215.384512,4221.025538,4206.153743
53,0,4205.128102,4212.82041,4218.974256,4148.205027,4228.205025,4215.384512,4249.230665,4233.33323,4237.948614,4240.512717,4213.33323,4214.871692,4218.461435,4205.128102
54,0,4213.846051,4219.999897,4222.563999,4150.256309,4234.358871,4215.384512,4251.794768,4233.84605,4239.487076,4239.999896,4215.897333,4213.846051,4222.051179,4212.307589
55,0,4216.410153,4220.512717,4216.922974,4149.230668,4245.128101,4213.33323,4244.615281,4229.230666,4233.84605,4228.717845,4212.82041,4210.769128,4221.025538,4206.666564
56,0,4206.666564,4216.410153,4210.256307,4148.205027,4239.999896,4214.871692,4240.512717,4226.153743,4228.717845,4222.051179,4206.153743,4207.692205,4213.33323,4196.922974
57,0,4205.128102,4217.948615,4213.846051,4150.769129,4232.820409,4217.435794,4246.153742,4228.205025,4230.256307,4226.666563,4206.153743,4208.717846,4208.717846,4196.922974
58,0,4212.307589,4219.999897,4219.999897,4158.461437,4235.384512,4214.358871,4243.58964,4223.07682,4228.205025,4228.717845,4213.846051,4211.794769,4212.82041,4202.051179
59,0,4212.82041,4219.487076,4221.025538,4163.076821,4230.769127,4207.692205,4233.33323,4211.794769,4219.999897,4220.512717,4214.358871,4211.281948,4214.871692,4203.589641
60,0,4211.281948,4219.487076,4223.07682,4158.974257,4221.025538,4209.230666,4235.384512,4213.846051,4220.512717,4213.846051,4209.743487,4215.384512,4214.871692,4203.589641
61,0,4214.358871,4219.999897,4225.128102,4159.999898,4228.205025,4212.82041,4243.076819,4224.615281,4228.717845,4222.563999,4213.33323,4223.58964,4219.487076,4205.640923
62,0,4217.435794,4222.563999,4223.07682,4168.717847,4243.58964,4208.717846,4241.025537,4224.102461,4229.230666,4233.33323,4216.922974,4221.538358,4225.640922,4207.692205
63,0,4226.666563,4234.358871,4228.205025,4176.922975,4250.769127,4212.307589,4249.230665,4230.256307,4237.948614,4245.128101,4225.128102,4224.615281,4238.974255,4217.948615
64,0,4215.384512,4227.179384,4223.07682,4164.615283,4239.487076,4218.461435,4250.769127,4233.84605,4236.922973,4234.871691,4219.999897,4220.512717,4230.769127,4207.692205
65,0,4202.564,4219.487076,4215.897333,4157.435796,4239.487076,4216.922974,4246.666563,4233.33323,4232.307589,4226.153743,4215.384512,4216.922974,4218.974256,4198.974256
66,0,4201.025538,4215.897333,4216.410153,4153.846052,4238.461435,4208.717846,4245.128101,4229.230666,4229.230666,4225.128102,4217.435794,4218.461435,4216.922974,4202.051179
67,0,4202.564,4220.512717,4221.025538,4158.974257,4228.717845,4210.769128,4247.179383,4225.640922,4227.179384,4226.153743,4217.948615,4219.487076,4218.461435,4200.512718
68,0,4198.974256,4225.128102,4214.358871,4163.076821,4223.58964,4213.846051,4242.563999,4219.487076,4221.025538,4222.051179,4209.230666,4213.33323,4210.769128,4188.205026
69,0,4213.846051,4238.974255,4222.051179,4171.79477,4240.512717,4216.410153,4251.794768,4227.692204,4231.281948,4239.487076,4222.051179,4226.666563,4225.128102,4202.051179
70,0,4215.384512,4236.922973,4229.230666,4165.128103,4243.076819,4212.307589,4248.717845,4227.692204,4228.205025,4239.999896,4227.179384,4232.307589,4230.256307,4209.743487
71,0,4206.666564,4234.358871,4222.563999,4157.948616,4238.974255,4210.769128,4236.922973,4223.07682,4221.025538,4225.640922,4219.487076,4227.179384,4221.538358,4199.999897
72,0,4206.153743,4237.948614,4216.922974,4156.410155,4234.358871,4210.256307,4232.307589,4220.512717,4224.102461,4228.205025,4219.487076,4231.281948,4221.025538,4197.435795
73,0,4212.307589,4242.563999,4225.128102,4162.564001,4228.717845,4212.307589,4236.922973,4219.999897,4229.743486,4236.922973,4222.563999,4238.974255,4227.179384,4203.589641
74,0,4205.640923,4236.922973,4223.58964,4159.487078,4225.640922,4208.717846,4231.794768,4217.435794,4221.025538,4224.102461,4210.769128,4229.230666,4216.410153,4193.333231
75,0,4199.487077,4233.84605,4212.82041,4154.358873,4231.281948,4205.128102,4227.179384,4218.974256,4215.897333,4218.461435,4212.307589,4224.102461,4209.230666,4185.640923
76,0,4202.051179,4234.871691,4211.281948,4158.461437,4233.33323,4207.692205,4231.281948,4222.563999,4221.025538,4226.666563,4224.102461,4228.205025,4215.897333,4190.256308
77,0,4212.307589,4241.025537,4223.07682,4167.179385,4234.358871,4213.846051,4240.512717,4227.692204,4231.281948,4233.84605,4223.58964,4233.84605,4224.102461,4199.999897
78,0,4221.025538,4250.769127,4232.820409,4169.743488,4241.538358,4216.410153,4244.615281,4232.820409,4239.487076,4241.538358,4225.640922,4243.58964,4230.769127,4211.281948
79,0,4223.58964,4248.717845,4232.820409,4169.743488,4239.999896,4214.358871,4241.025537,4232.307589,4236.410153,4241.538358,4235.897332,4249.743486,4231.794768,4212.82041
80,0,4225.640922,4245.640922,4233.84605,4173.846052,4233.33323,4214.358871,4242.563999,4230.256307,4231.794768,4238.461435,4234.871691,4245.128101,4226.153743,4205.640923
81,0,4218.461435,4244.615281,4225.640922,4168.717847,4232.307589,4213.33323,4241.538358,4223.58964,4229.743486,4233.84605,4217.435794,4229.230666,4216.410153,4200.512718
82,0,4203.07682,4224.102461,4213.33323,4156.922975,4238.461435,4212.82041,4241.025537,4226.666563,4233.84605,4235.897332,4213.846051,4224.615281,4213.846051,4202.051179
83,0,4191.281949,4197.948615,4209.743487,4149.743488,4235.897332,4211.794769,4239.487076,4230.769127,4228.717845,4231.281948,4216.922974,4225.128102,4206.666564,4188.717846
84,0,4212.82041,4233.84605,4221.538358,4171.281949,4233.33323,4213.846051,4241.538358,4230.769127,4224.102461,4230.769127,4221.025538,4229.743486,4208.717846,4194.871692
85,0,4236.922973,4282.563998,4226.153743,4193.333231,4230.769127,4211.281948,4234.358871,4222.051179,4218.461435,4220.512717,4213.846051,4225.128102,4203.589641,4210.256307
86,0,4247.692204,4291.281946,4229.230666,4201.538359,4241.538358,4212.307589,4235.897332,4223.07682,4222.563999,4214.871692,4211.794769,4226.666563,4194.358872,4214.871692
87,0,4239.999896,4274.87169,4232.307589,4189.743487,4245.640922,4213.846051,4235.384512,4224.615281,4225.640922,4218.461435,4212.82041,4229.230666,4187.692205,4207.179384
88,0,4239.999896,4276.922972,4236.410153,4187.179385,4249.743486,4216.410153,4235.897332,4226.666563,4227.179384,4231.794768,4218.461435,4235.384512,4202.051179,4212.82041
89,0,4230.256307,4264.61528,4223.58964,4181.538359,4235.897332,4207.692205,4229.230666,4214.358871,4211.794769,4217.435794,4206.666564,4224.102461,4191.281949,4202.051179
90,0,4215.897333,4253.333229,4210.256307,4177.435795,4221.538358,4202.564,4226.666563,4206.153743,4204.102461,4199.999897,4194.358872,4210.256307,4167.692206,4186.153744
91,0,4212.307589,4254.871691,4213.846051,4177.948616,4227.692204,4210.769128,4228.205025,4214.871692,4213.846051,4209.230666,4197.948615,4213.846051,4172.30759,4188.717846
92,0,4225.640922,4261.025537,4228.205025,4185.128103,4242.051178,4219.999897,4235.384512,4226.153743,4225.640922,4229.230666,4212.307589,4229.230666,4199.999897,4200.512718
93,0,4232.307589,4261.025537,4232.307589,4186.666564,4239.999896,4213.846051,4235.897332,4224.615281,4223.58964,4230.256307,4218.461435,4230.256307,4207.692205,4205.128102
94,0,4227.179384,4260.512716,4230.256307,4189.743487,4232.307589,4208.717846,4233.33323,4221.025538,4219.487076,4224.102461,4218.974256,4224.615281,4202.564,4204.615282
95,0,4216.922974,4254.871691,4226.153743,4189.743487,4224.102461,4209.230666,4227.692204,4214.358871,4213.846051,4214.871692,4211.794769,4219.999897,4195.897333,4193.846051
96,0,4211.794769,4245.640922,4222.051179,4179.999898,4224.102461,4210.256307,4224.102461,4212.307589,4214.358871,4207.692205,4203.07682,4217.948615,4189.743487,4189.743487
97,0,4222.051179,4252.820409,4229.230666,4184.615282,4241.538358,4214.871692,4233.84605,4221.025538,4225.640922,4215.897333,4208.717846,4226.666563,4193.846051,4202.564
98,0,4224.615281,4257.948614,4229.230666,4194.871692,4243.58964,4212.307589,4235.384512,4219.487076,4226.666563,4217.948615,4215.897333,4229.743486,4192.30759,4199.999897
99,0,4217.948615,4251.281947,4225.640922,4193.846051,4230.256307,4210.769128,4232.307589,4219.999897,4225.128102,4219.999897,4219.999897,4225.128102,4199.999897,4195.384513
100,0,4217.435794,4247.692204,4227.179384,4184.615282,4230.256307,4216.410153,4238.461435,4230.256307,4229.743486,4221.025538,4227.692204,4228.717845,4212.307589,4205.128102
101,0,4218.974256,4249.743486,4227.692204,4184.615282,4239.999896,4217.948615,4246.153742,4237.435794,4234.871691,4225.640922,4226.153743,4237.435794,4203.589641,4206.666564
102,0,4203.07682,4240.512717,4213.846051,4177.435795,4233.84605,4210.769128,4236.410153,4227.692204,4226.666563,4230.769127,4205.128102,4221.538358,4183.076821,4187.179385
103,0,4200.512718,4239.999896,4208.205025,4174.358872,4229.230666,4211.281948,4229.743486,4221.538358,4224.615281,4225.640922,4208.205025,4210.769128,4189.743487,4187.179385
104,0,4207.179384,4242.563999,4210.769128,4174.871693,4230.769127,4209.743487,4227.179384,4217.948615,4219.999897,4205.640923,4212.82041,4215.897333,4198.461436,4193.846051
105,0,4221.538358,4255.897332,4222.563999,4185.640923,4246.153742,4215.897333,4237.948614,4226.666563,4223.07682,4222.563999,4214.358871,4229.230666,4207.692205,4203.589641
106,0,4226.666563,4259.999896,4227.179384,4192.82041,4248.717845,4222.051179,4241.538358,4231.281948,4226.153743,4220.512717,4216.922974,4226.666563,4202.564,4204.615282
107,0,4221.538358,4252.307588,4221.025538,4191.794769,4235.897332,4219.487076,4236.922973,4227.179384,4226.153743,4190.769128,4220.512717,4220.512717,4190.256308,4197.948615
108,0,4210.256307,4239.487076,4212.82041,4180.512718,4228.717845,4214.358871,4231.794768,4219.999897,4218.974256,4201.025538,4215.384512,4217.948615,4191.281949,4193.333231
109,0,4215.897333,4245.640922,4217.435794,4185.640923,4241.538358,4218.974256,4238.461435,4223.58964,4219.487076,4242.051178,4217.435794,4223.58964,4206.666564,4203.07682
110,0,4211.794769,4238.461435,4213.33323,4183.076821,4228.717845,4210.769128,4228.205025,4219.487076,4213.33323,4225.128102,4207.692205,4215.384512,4192.30759,4194.358872
111,0,4204.615282,4227.692204,4211.794769,4176.922975,4210.769128,4204.615282,4219.999897,4214.358871,4208.205025,4204.102461,4204.102461,4206.153743,4183.589641,4183.589641
112,0,4207.692205,4230.256307,4218.461435,4180.512718,4221.538358,4209.230666,4226.666563,4216.922974,4208.717846,4213.846051,4218.461435,4209.230666,4192.30759,4188.205026
113,0,4210.769128,4233.33323,4217.435794,4182.05118,4231.794768,4209.230666,4226.153743,4214.871692,4210.256307,4199.487077,4217.948615,4215.384512,4191.281949,4193.333231
114,0,4207.179384,4227.692204,4210.256307,4175.384513,4219.487076,4203.07682,4215.384512,4208.717846,4210.256307,4187.692205,4217.435794,4215.897333,4187.692205,4188.717846
115,0,4202.564,4226.666563,4206.666564,4173.846052,4218.461435,4206.666564,4215.384512,4207.179384,4210.769128,4212.82041,4230.256307,4211.281948,4193.333231,4185.128103
116,0,4201.025538,4225.640922,4206.153743,4173.846052,4227.692204,4211.281948,4223.07682,4209.743487,4212.307589,4228.205025,4233.33323,4208.717846,4198.974256,4188.717846
117,0,4198.974256,4212.307589,4207.179384,4169.230667,4222.563999,4209.743487,4223.07682,4207.692205,4208.717846,4208.717846,4227.692204,4208.717846,4195.897333,4187.179385
118,0,4202.051179,4216.410153,4214.871692,4178.461436,4224.615281,4209.230666,4222.563999,4213.33323,4211.281948,4201.025538,4233.33323,4212.307589,4199.487077,4189.230667
119,0,4198.974256,4229.230666,4213.846051,4179.999898,4223.07682,4205.640923,4221.025538,4218.461435,4213.846051,4210.256307,4238.974255,4213.33323,4202.051179,4192.30759
120,0,4206.666564,4233.33323,4216.410153,4175.897334,4219.999897,4210.256307,4226.153743,4220.512717,4219.999897,4225.640922,4247.179383,4222.563999,4203.07682,4196.410154
121,0,4209.230666,4222.051179,4215.384512,4170.769129,4222.563999,4213.33323,4227.692204,4215.897333,4218.974256,4224.615281,4243.58964,4218.974256,4198.974256,4188.717846
122,0,4207.179384,4218.461435,4212.82041,4172.820411,4228.205025,4209.743487,4229.230666,4217.435794,4219.487076,4220.512717,4242.563999,4214.871692,4210.769128,4188.717846
123,0,4195.384513,4213.33323,4206.666564,4169.743488,4219.487076,4205.640923,4224.615281,4213.846051,4211.281948,4217.948615,4246.666563,4210.769128,4211.281948,4188.205026
124,0,4191.281949,4211.281948,4205.128102,4172.30759,4220.512717,4209.743487,4226.666563,4209.230666,4207.692205,4213.846051,4240.512717,4204.615282,4199.487077,4184.102462
125,0,4190.769128,4209.230666,4202.564,4168.717847,4224.615281,4207.692205,4222.051179,4204.615282,4209.230666,4208.717846,4233.84605,4197.948615,4200.512718,4184.615282
126,0,4199.487077,4213.846051,4206.666564,4169.230667,4223.58964,4204.102461,4219.999897,4209.230666,4213.33323,4221.538358,4247.692204,4205.128102,4209.743487,4190.769128
127,0,4187.692205,4205.640923,4205.128102,4166.666565,4218.461435,4202.564,4217.435794,4208.717846,4206.666564,4209.230666,4229.743486,4198.461436,4174.871693,4166.666565
128,0,4177.948616,4201.025538,4201.025538,4169.230667,4221.025538,4208.205025,4222.563999,4210.769128,4210.256307,4204.102461,4213.846051,4191.794769,4163.589642,4154.871693
0,0,4189.743487,4199.487077,4199.999897,4165.640924,4217.435794,4209.230666,4224.615281,4217.435794,4222.051179,4222.563999,4238.974255,4201.025538,4202.564,4179.999898
1,0,4202.051179,4196.410154,4205.128102,4163.076821,4214.358871,4207.179384,4226.153743,4222.563999,4229.230666,4220.512717,4261.025537,4212.82041,4235.384512,4205.128102
2,0,4198.461436,4189.743487,4210.769128,4163.589642,4218.974256,4209.230666,4229.230666,4221.538358,4225.640922,4213.33323,4255.897332,4212.82041,4248.717845,4210.769128
3,0,4201.025538,4189.743487,4213.846051,4167.692206,4221.538358,4212.82041,4228.205025,4216.410153,4219.487076,4223.07682,4262.051178,4217.948615,4260.512716,4210.256307
4,0,4203.589641,4188.717846,4215.897333,4166.666565,4215.897333,4208.717846,4224.102461,4213.846051,4218.461435,4215.897333,4269.230665,4226.153743,4252.820409,4203.07682
5,0,4193.333231,4185.128103,4213.33323,4162.05118,4218.974256,4207.692205,4226.153743,4215.384512,4219.487076,4214.871692,4255.384511,4221.025538,4236.922973,4197.948615
6,0,4190.769128,4188.205026,4208.205025,4163.589642,4225.640922,4210.256307,4231.794768,4217.435794,4221.025538,4243.076819,4253.333229,4209.743487,4243.076819,4206.666564
7,0,4187.179385,4183.076821,4201.025538,4161.53836,4221.538358,4206.666564,4226.153743,4213.33323,4221.538358,4235.384512,4254.35887,4204.102461,4242.051178,4200.512718
8,0,4179.487077,4172.30759,4197.435795,4157.435796,4221.025538,4206.666564,4220.512717,4212.82041,4221.025538,4209.743487,4247.179383,4200.512718,4231.281948,4186.153744
9,0,4171.79477,4165.640924,4193.846051,4150.256309,4217.948615,4206.666564,4217.435794,4209.230666,4210.256307,4211.281948,4231.794768,4192.82041,4224.102461,4176.922975
10,0,4178.974257,4175.897334,4202.564,4163.076821,4220.512717,4208.205025,4223.07682,4211.281948,4210.769128,4227.179384,4237.435794,4204.615282,4229.230666,4182.564
11,0,4187.692205,4181.538359,4213.846051,4176.410154,4228.205025,4209.743487,4226.666563,4212.82041,4215.897333,4223.58964,4253.84605,4213.33323,4235.897332,4190.256308
12,0,4198.974256,4185.640923,4221.025538,4177.435795,4236.410153,4215.384512,4231.281948,4218.974256,4222.051179,4221.538358,4263.076819,4215.897333,4247.179383,4204.102461
13,0,4195.384513,4181.538359,4214.358871,4161.025539,4227.179384,4211.281948,4226.666563,4215.897333,4219.487076,4223.58964,4254.35887,4215.384512,4246.666563,4201.538359
14,0,4197.435795,4185.640923,4212.307589,4160.512719,4225.128102,4211.281948,4228.205025,4218.461435,4226.666563,4232.820409,4254.871691,4220.512717,4251.794768,4200.512718
15,0,4204.102461,4190.256308,4219.487076,4174.358872,4228.717845,4215.384512,4232.307589,4223.58964,4233.84605,4229.230666,4262.563998,4221.025538,4257.435793,4207.179384
16,0,4211.794769,4199.487077,4229.230666,4186.666564,4230.769127,4217.948615,4242.051178,4230.256307,4237.948614,4239.487076,4266.666562,4226.666563,4260.512716,4215.384512
17,0,4208.717846,4191.281949,4223.07682,4178.974257,4228.205025,4215.384512,4244.615281,4228.717845,4233.84605,4246.666563,4260.512716,4227.692204,4250.769127,4207.179384
18,0,4207.179384,4184.102462,4216.922974,4173.846052,4234.358871,4217.948615,4245.640922,4229.743486,4234.358871,4242.563999,4263.589639,4225.640922,4252.820409,4202.564
19,0,4202.564,4191.281949,4216.410153,4172.30759,4236.410153,4219.999897,4243.076819,4230.256307,4233.33323,4236.922973,4261.538357,4222.051179,4257.435793,4205.640923
20,0,4204.102461,4203.07682,4220.512717,4177.948616,4231.794768,4218.974256,4243.58964,4230.769127,4232.820409,4237.948614,4257.948614,4225.128102,4255.384511,4209.743487
21,0,4210.769128,4205.128102,4225.640922,4186.153744,4225.128102,4217.435794,4240.512717,4230.769127,4237.435794,4236.410153,4266.666562,4230.256307,4257.948614,4213.846051
22,0,4217.435794,4212.307589,4226.666563,4185.640923,4223.58964,4218.974256,4236.922973,4229.230666,4242.051178,4240.512717,4278.461434,4231.794768,4269.230665,4222.051179
23,0,4231.281948,4234.358871,4225.640922,4183.589641,4228.717845,4222.051179,4237.948614,4226.666563,4237.435794,4249.230665,4268.717844,4228.717845,4262.563998,4226.153743
24,0,4251.281947,4247.179383,4232.820409,4188.205026,4227.179384,4218.461435,4236.922973,4224.102461,4228.205025,4239.999896,4258.461434,4238.461435,4255.384511,4237.948614
25,0,4270.769126,4244.615281,4243.58964,4194.871692,4216.922974,4210.769128,4231.794768,4223.07682,4228.717845,4236.410153,4276.922972,4258.461434,4286.153741,4271.794767
26,0,4290.769126,4246.153742,4237.435794,4191.281949,4210.769128,4209.743487,4225.128102,4217.948615,4233.33323,4243.076819,4289.743485,4256.410152,4311.281946,4299.999895
27,0,4320.512715,4268.717844,4241.538358,4199.999897,4223.07682,4216.410153,4231.794768,4220.512717,4239.999896,4251.794768,4291.281946,4256.922973,4314.358869,4318.461433
28,0,4342.563996,4280.512716,4252.820409,4211.794769,4224.615281,4215.384512,4236.922973,4220.512717,4236.410153,4254.871691,4293.846049,4267.179383,4322.051176,4339.999894
29,0,4351.794765,4276.410152,4251.281947,4210.256307,4212.82041,4213.33323,4235.384512,4216.922974,4230.769127,4245.128101,4296.410151,4270.769126,4337.435791,4361.538355
30,0,4343.076817,4262.051178,4235.897332,4192.82041,4199.487077,4208.717846,4222.563999,4208.205025,4218.461435,4217.435794,4283.589639,4255.384511,4327.179381,4355.897329
31,0,4347.179381,4267.179383,4242.051178,4198.461436,4213.33323,4214.358871,4228.717845,4215.897333,4224.615281,4229.743486,4286.666562,4260.512716,4330.256304,4357.435791
32,0,4346.66656,4272.820408,4252.307588,4205.640923,4222.563999,4221.538358,4237.435794,4228.205025,4235.897332,4253.333229,4292.307587,4269.230665,4334.358868,4358.461432
33,0,4332.820407,4267.692203,4248.205024,4203.07682,4215.384512,4221.538358,4236.410153,4231.281948,4237.948614,4250.256306,4292.307587,4267.692203,4327.179381,4346.66656
34,0,4309.743484,4248.717845,4237.948614,4192.82041,4203.07682,4213.33323,4227.179384,4219.487076,4229.743486,4237.435794,4285.1281,4258.974255,4316.410151,4322.563997
35,0,4295.897331,4242.051178,4239.999896,4191.281949,4210.769128,4213.33323,4227.692204,4215.384512,4229.230666,4243.58964,4281.025536,4257.435793,4312.820407,4306.666561
36,0,4279.487075,4236.922973,4236.410153,4186.666564,4219.999897,4214.358871,4224.102461,4215.384512,4226.153743,4239.999896,4274.35887,4250.256306,4304.615279,4295.897331
37,0,4275.384511,4236.922973,4234.871691,4188.717846,4222.563999,4214.358871,4226.153743,4218.974256,4227.692204,4240.512717,4275.384511,4249.743486,4300.512715,4291.281946
38,0,4277.435793,4236.922973,4241.538358,4191.794769,4216.410153,4213.846051,4233.84605,4220.512717,4230.256307,4246.153742,4279.487075,4253.333229,4295.38451,4284.102459
39,0,4273.333229,4240.512717,4241.538358,4194.358872,4217.435794,4214.358871,4237.948614,4223.07682,4232.307589,4248.205024,4281.025536,4255.384511,4298.461433,4277.948613
40,0,4269.743485,4241.538358,4237.948614,4192.30759,4224.615281,4213.33323,4234.358871,4225.128102,4234.358871,4252.820409,4278.461434,4257.435793,4302.563997,4276.922972
41,0,4268.205024,4232.307589,4243.58964,4189.743487,4215.384512,4213.33323,4233.33323,4222.051179,4231.794768,4248.717845,4278.974254,4258.974255,4290.769126,4271.281947
42,0,4257.435793,4226.153743,4243.58964,4189.230667,4204.615282,4210.256307,4229.230666,4217.435794,4227.692204,4234.358871,4271.794767,4253.84605,4281.538357,4262.051178
43,0,4246.666563,4231.281948,4232.307589,4189.230667,4215.384512,4209.230666,4224.102461,4216.922974,4231.281948,4234.358871,4266.153742,4247.692204,4290.769126,4258.461434
44,0,4246.153742,4233.33323,4233.84605,4190.256308,4228.205025,4212.307589,4229.743486,4223.58964,4236.410153,4248.205024,4276.410152,4252.820409,4293.333228,4255.897332
45,0,4236.922973,4218.974256,4231.281948,4179.999898,4220.512717,4214.358871,4232.820409,4223.58964,4227.179384,4241.538358,4266.666562,4246.666563,4273.333229,4237.948614
46,0,4229.743486,4215.384512,4224.615281,4175.897334,4220.512717,4217.435794,4235.897332,4227.179384,4228.205025,4228.717845,4248.717845,4235.897332,4264.10246,4229.743486
47,0,4224.102461,4210.769128,4221.538358,4180.512718,4223.58964,4218.461435,4235.897332,4226.666563,4229.230666,4222.563999,4250.769127,4229.743486,4258.461434,4228.205025
48,0,4222.051179,4209.743487,4224.615281,4187.179385,4227.179384,4220.512717,4242.051178,4226.153743,4227.179384,4235.384512,4263.589639,4235.384512,4257.948614,4227.179384
49,0,4212.82041,4206.666564,4217.948615,4180.512718,4222.051179,4214.871692,4238.974255,4218.974256,4218.461435,4237.948614,4246.153742,4230.256307,4251.794768,4214.871692
50,0,4216.410153,4208.205025,4219.999897,4183.076821,4214.871692,4210.769128,4231.794768,4213.33323,4213.846051,4230.256307,4237.948614,4228.205025,4250.769127,4213.846051
51,0,4222.051179,4208.717846,4228.717845,4182.05118,4208.717846,4207.692205,4222.051179,4207.692205,4211.794769,4219.487076,4249.230665,4236.922973,4256.922973,4221.025538
52,0,4229.743486,4217.435794,4238.461435,4187.179385,4218.461435,4210.256307,4224.615281,4211.794769,4219.999897,4229.230666,4260.512716,4251.794768,4274.35887,4231.281948
53,0,4226.153743,4212.82041,4237.435794,4191.794769,4218.974256,4207.179384,4219.999897,4211.794769,4221.538358,4234.358871,4254.35887,4249.743486,4270.769126,4226.153743
54,0,4223.07682,4210.256307,4231.794768,4190.769128,4219.487076,4206.153743,4218.461435,4215.384512,4224.615281,4232.307589,4248.205024,4243.076819,4261.538357,4218.461435
55,0,4221.025538,4212.82041,4226.666563,4185.128103,4224.615281,4210.769128,4225.128102,4217.948615,4227.179384,4228.205025,4246.153742,4236.922973,4258.461434,4213.846051
56,0,4213.846051,4208.205025,4225.128102,4188.205026,4222.051179,4213.846051,4227.179384,4214.358871,4221.538358,4224.102461,4243.076819,4234.358871,4251.281947,4208.717846
57,0,4197.948615,4194.358872,4216.922974,4186.666564,4208.717846,4210.256307,4218.461435,4209.743487,4213.33323,4222.563999,4234.358871,4229.743486,4239.999896,4197.435795
58,0,4196.922974,4197.948615,4211.794769,4179.999898,4206.153743,4212.307589,4225.640922,4217.948615,4222.051179,4229.743486,4236.410153,4228.717845,4246.666563,4198.974256
59,0,4208.717846,4207.692205,4217.948615,4175.384513,4215.384512,4216.410153,4240.512717,4226.153743,4232.307589,4238.974255,4242.563999,4232.820409,4259.487075,4206.666564
60,0,4205.128102,4202.564,4217.948615,4178.461436,4221.538358,4211.281948,4234.358871,4217.948615,4223.58964,4230.769127,4234.358871,4230.256307,4249.743486,4201.025538
61,0,4203.07682,4201.538359,4217.948615,4186.153744,4224.102461,4209.230666,4224.102461,4215.897333,4218.974256,4227.179384,4229.743486,4228.205025,4243.58964,4198.461436
62,0,4218.974256,4214.871692,4228.717845,4191.281949,4225.128102,4216.922974,4226.153743,4221.538358,4227.179384,4239.487076,4243.58964,4236.922973,4256.410152,4210.769128
63,0,4225.640922,4224.102461,4232.820409,4194.871692,4226.666563,4217.948615,4231.281948,4224.102461,4232.820409,4235.384512,4254.35887,4244.10246,4262.563998,4217.948615
64,0,4203.07682,4206.666564,4215.897333,4186.666564,4216.410153,4207.692205,4218.974256,4212.82041,4219.487076,4206.666564,4236.922973,4230.769127,4246.666563,4204.615282
65,0,4194.871692,4197.948615,4209.230666,4181.538359,4209.743487,4204.615282,4209.743487,4207.179384,4213.33323,4216.410153,4230.256307,4225.128102,4242.051178,4201.538359
66,0,4201.538359,4207.179384,4215.384512,4183.589641,4216.410153,4206.153743,4214.358871,4207.179384,4216.410153,4239.999896,4232.820409,4226.153743,4245.128101,4203.07682
67,0,4210.256307,4218.974256,4223.07682,4197.435795,4226.153743,4209.743487,4227.692204,4217.435794,4227.179384,4236.922973,4239.999896,4232.307589,4250.256306,4207.179384
68,0,4210.769128,4213.846051,4224.615281,4199.487077,4221.025538,4211.281948,4226.153743,4222.563999,4228.717845,4222.563999,4246.153742,4233.84605,4251.794768,4208.205025
69,0,4221.538358,4220.512717,4229.743486,4204.102461,4229.230666,4216.922974,4230.769127,4226.666563,4233.84605,4238.974255,4248.717845,4243.58964,4264.61528,4219.487076
70,0,4215.897333,4221.025538,4224.102461,4199.999897,4230.769127,4214.871692,4233.33323,4225.128102,4234.871691,4238.974255,4238.461435,4243.076819,4262.051178,4218.974256
71,0,4210.256307,4216.922974,4222.051179,4197.948615,4225.128102,4213.33323,4237.435794,4229.743486,4239.487076,4233.33323,4245.640922,4239.999896,4252.307588,4214.871692
72,0,4211.794769,4213.846051,4225.640922,4197.948615,4218.974256,4216.410153,4237.948614,4232.307589,4236.922973,4239.999896,4249.743486,4236.410153,4247.179383,4211.794769
73,0,4211.281948,4215.897333,4225.640922,4203.07682,4223.58964,4221.025538,4236.922973,4230.256307,4228.205025,4242.563999,4231.281948,4234.358871,4250.256306,4211.794769
74,0,4196.922974,4206.666564,4211.794769,4196.922974,4217.948615,4213.846051,4221.025538,4218.974256,4215.384512,4215.897333,4213.846051,4223.58964,4234.871691,4201.538359
75,0,4193.846051,4203.589641,4206.666564,4192.82041,4214.358871,4208.205025,4212.307589,4212.307589,4213.33323,4204.615282,4220.512717,4218.461435,4226.666563,4196.922974
76,0,4201.025538,4207.692205,4216.410153,4195.897333,4216.922974,4212.82041,4218.461435,4217.948615,4220.512717,4219.999897,4227.179384,4226.153743,4239.999896,4204.102461
77,0,4201.538359,4207.179384,4222.051179,4198.461436,4219.999897,4216.922974,4225.640922,4226.666563,4229.743486,4234.358871,4234.871691,4232.307589,4252.820409,4209.743487
78,0,4201.538359,4206.153743,4221.538358,4196.922974,4226.666563,4215.384512,4227.179384,4227.179384,4233.33323,4243.076819,4245.128101,4230.256307,4255.897332,4209.743487
79,0,4204.102461,4209.743487,4221.538358,4199.487077,4232.307589,4216.410153,4228.205025,4225.128102,4233.33323,4238.461435,4246.153742,4228.717845,4252.820409,4208.717846
80,0,4201.538359,4213.33323,4218.974256,4200.512718,4225.640922,4217.435794,4227.179384,4224.615281,4233.84605,4229.230666,4242.051178,4226.153743,4247.179383,4206.666564
81,0,4194.871692,4203.589641,4209.230666,4194.871692,4217.435794,4216.410153,4219.999897,4218.461435,4225.640922,4226.666563,4227.692204,4220.512717,4240.512717,4201.025538
82,0,4204.615282,4206.153743,4215.897333,4203.589641,4231.794768,4221.025538,4228.717845,4222.051179,4228.205025,4234.358871,4224.102461,4225.640922,4247.692204,4208.717846
83,0,4206.153743,4213.846051,4221.538358,4203.589641,4239.487076,4226.153743,4239.999896,4225.128102,4233.33323,4231.281948,4230.769127,4227.692204,4249.230665,4213.33323
84,0,4195.897333,4207.179384,4214.358871,4195.384513,4227.692204,4225.640922,4240.512717,4228.717845,4231.281948,4225.640922,4229.743486,4221.538358,4240.512717,4204.615282
85,0,4188.717846,4190.256308,4208.717846,4191.794769,4219.487076,4223.58964,4238.461435,4231.794768,4228.717845,4224.615281,4215.897333,4215.384512,4229.230666,4192.82041
86,0,4197.948615,4201.538359,4218.974256,4201.538359,4231.281948,4227.179384,4248.205024,4242.051178,4243.076819,4237.435794,4229.230666,4224.615281,4242.051178,4207.179384
87,0,4196.410154,4205.640923,4219.999897,4198.461436,4226.153743,4222.051179,4241.538358,4239.487076,4242.051178,4237.435794,4235.384512,4224.102461,4249.743486,4210.256307
88,0,4197.948615,4201.025538,4217.948615,4203.589641,4222.563999,4221.025538,4233.33323,4234.358871,4232.307589,4234.871691,4218.974256,4226.153743,4241.025537,4204.102461
89,0,4194.871692,4198.461436,4215.384512,4204.615282,4224.102461,4218.461435,4226.666563,4224.615281,4220.512717,4216.410153,4212.82041,4221.538358,4231.281948,4202.051179
90,0,4191.281949,4200.512718,4214.358871,4197.435795,4218.974256,4215.384512,4223.58964,4219.999897,4218.461435,4203.07682,4226.666563,4214.358871,4239.487076,4205.128102
91,0,4190.769128,4198.461436,4210.769128,4196.410154,4215.897333,4214.871692,4224.102461,4221.538358,4223.07682,4219.999897,4223.58964,4209.743487,4239.487076,4199.999897
92,0,4199.999897,4207.179384,4211.281948,4208.205025,4237.435794,4221.538358,4232.820409,4228.205025,4231.794768,4250.769127,4226.666563,4221.538358,4241.538358,4206.153743
93,0,4198.461436,4212.82041,4208.717846,4202.051179,4244.615281,4217.948615,4228.205025,4223.07682,4226.666563,4234.871691,4230.769127,4222.563999,4243.076819,4210.769128
94,0,4198.974256,4209.230666,4207.179384,4197.435795,4228.717845,4214.358871,4224.102461,4216.922974,4222.051179,4208.205025,4224.102461,4212.82041,4243.58964,4207.692205
95,0,4196.410154,4190.769128,4210.769128,4199.999897,4224.102461,4220.512717,4232.307589,4224.615281,4230.256307,4223.58964,4220.512717,4215.384512,4243.58964,4207.179384
96,0,4185.640923,4183.076821,4212.82041,4196.410154,4232.307589,4221.025538,4233.33323,4231.281948,4229.230666,4232.307589,4217.948615,4219.999897,4236.922973,4204.615282
97,0,4189.230667,4204.615282,4212.307589,4201.025538,4232.820409,4214.358871,4223.07682,4219.487076,4214.358871,4210.256307,4209.743487,4214.358871,4223.07682,4201.025538
98,0,4199.487077,4218.461435,4210.769128,4208.717846,4229.743486,4213.846051,4218.461435,4208.717846,4206.666564,4204.615282,4204.615282,4210.256307,4217.948615,4199.999897
99,0,4195.384513,4207.692205,4208.717846,4204.102461,4231.794768,4215.897333,4221.538358,4214.358871,4215.897333,4214.871692,4207.179384,4210.769128,4220.512717,4199.487077
100,0,4188.717846,4200.512718,4208.717846,4200.512718,4231.794768,4216.410153,4223.58964,4218.974256,4221.538358,4208.205025,4206.153743,4206.153743,4215.897333,4197.435795
101,0,4197.435795,4211.281948,4215.384512,4209.743487,4237.948614,4222.563999,4229.743486,4223.07682,4224.615281,4215.384512,4212.307589,4212.307589,4225.640922,4204.615282
102,0,4194.358872,4211.281948,4214.871692,4204.102461,4241.025537,4223.07682,4230.769127,4222.563999,4223.58964,4229.230666,4212.82041,4215.897333,4229.230666,4203.07682
103,0,4191.794769,4212.307589,4212.82041,4202.564,4233.84605,4218.974256,4231.281948,4224.615281,4225.640922,4225.128102,4213.33323,4213.33323,4223.58964,4202.564
104,0,4185.640923,4206.153743,4208.205025,4203.589641,4219.487076,4216.922974,4225.128102,4223.07682,4223.58964,4212.307589,4211.281948,4207.692205,4215.384512,4199.487077
105,0,4188.717846,4214.358871,4207.692205,4208.205025,4235.384512,4224.615281,4227.692204,4226.153743,4226.666563,4226.153743,4217.435794,4210.769128,4222.051179,4197.948615
106,0,4191.281949,4225.640922,4207.179384,4206.153743,4247.692204,4223.58964,4230.769127,4224.102461,4227.179384,4229.230666,4212.307589,4206.666564,4221.025538,4193.846051
107,0,4194.871692,4234.358871,4214.358871,4211.281948,4238.461435,4222.563999,4236.922973,4229.743486,4232.307589,4217.435794,4204.615282,4211.794769,4216.922974,4194.358872
108,0,4194.358872,4240.512717,4212.82041,4214.358871,4232.307589,4222.563999,4235.384512,4233.33323,4234.871691,4216.922974,4206.153743,4216.922974,4216.410153,4190.769128
109,0,4199.999897,4254.35887,4212.82041,4218.461435,4244.10246,4226.666563,4239.999896,4236.922973,4242.051178,4239.487076,4216.922974,4221.025538,4228.205025,4195.897333
110,0,4199.487077,4249.230665,4212.307589,4209.230666,4243.076819,4227.179384,4241.025537,4236.410153,4240.512717,4235.897332,4210.256307,4219.999897,4229.230666,4199.487077
111,0,4201.025538,4239.999896,4211.281948,4205.128102,4239.487076,4227.179384,4238.974255,4235.897332,4236.922973,4219.487076,4205.128102,4220.512717,4223.07682,4200.512718
112,0,4195.384513,4236.922973,4205.128102,4209.230666,4234.358871,4221.538358,4231.281948,4227.692204,4227.179384,4219.999897,4202.051179,4216.410153,4210.769128,4193.846051
113,0,4191.281949,4237.435794,4203.589641,4207.692205,4233.84605,4219.999897,4227.692204,4222.563999,4217.948615,4218.461435,4191.281949,4212.82041,4203.589641,4188.205026
114,0,4201.025538,4239.999896,4208.717846,4204.615282,4243.076819,4225.640922,4233.84605,4226.153743,4221.538358,4207.179384,4192.30759,4217.948615,4209.743487,4193.333231
115,0,4203.07682,4241.025537,4206.666564,4204.615282,4242.051178,4226.666563,4236.410153,4227.179384,4226.153743,4211.281948,4199.999897,4219.999897,4215.384512,4197.435795
116,0,4192.82041,4233.33323,4202.051179,4204.102461,4231.794768,4221.538358,4228.717845,4222.563999,4218.974256,4207.692205,4194.358872,4216.922974,4199.487077,4188.205026
117,0,4194.871692,4233.33323,4203.07682,4211.281948,4233.84605,4219.487076,4222.051179,4216.410153,4212.82041,4192.30759,4190.256308,4214.358871,4192.30759,4183.589641
118,0,4199.999897,4230.256307,4209.743487,4212.82041,4234.871691,4222.563999,4230.256307,4218.461435,4216.922974,4207.179384,4194.358872,4216.410153,4205.128102,4191.794769
119,0,4189.230667,4208.205025,4209.743487,4196.922974,4224.615281,4223.07682,4235.897332,4221.025538,4218.461435,4225.128102,4185.640923,4216.922974,4201.538359,4187.692205
120,0,4196.410154,4216.922974,4209.743487,4201.538359,4234.358871,4226.153743,4238.974255,4226.666563,4225.128102,4229.743486,4190.769128,4223.07682,4205.128102,4192.82041
121,0,4213.846051,4244.615281,4211.794769,4217.435794,4236.922973,4223.58964,4234.871691,4226.666563,4226.666563,4212.307589,4201.538359,4227.179384,4209.743487,4208.205025
122,0,4232.307589,4265.640921,4221.538358,4225.640922,4227.692204,4221.025538,4234.871691,4227.179384,4221.538358,4211.281948,4198.974256,4229.230666,4209.743487,4222.563999
123,0,4243.076819,4268.205024,4224.615281,4224.102461,4225.128102,4219.487076,4231.281948,4220.512717,4214.358871,4207.179384,4189.230667,4223.58964,4205.640923,4227.692204
124,0,4251.794768,4271.794767,4223.58964,4235.384512,4239.999896,4223.58964,4229.743486,4221.025538,4219.999897,4198.461436,4196.922974,4224.615281,4209.230666,4233.84605
125,0,4238.974255,4261.538357,4210.769128,4227.692204,4241.538358,4221.025538,4219.487076,4217.948615,4216.922974,4201.538359,4190.769128,4217.435794,4199.999897,4218.461435
126,0,4225.640922,4251.794768,4206.666564,4211.794769,4234.871691,4219.487076,4216.922974,4216.922974,4213.846051,4218.974256,4185.128103,4212.82041,4196.410154,4206.666564
127,0,4217.435794,4240.512717,4210.769128,4207.692205,4228.717845,4219.487076,4218.461435,4211.281948,4211.281948,4211.794769,4186.666564,4213.846051,4189.743487,4203.07682
128,0,4216.922974,4241.025537,4214.871692,4219.487076,4231.794768,4222.563999,4220.512717,4205.128102,4208.717846,4191.794769,4185.128103,4217.948615,4181.025539,4202.564
0,0,4214.871692,4244.10246,4209.743487,4217.435794,4230.256307,4222.051179,4220.512717,4208.205025,4211.281948,4193.333231,4180.512718,4207.692205,4183.076821,4196.922974
1,0,4224.615281,4242.563999,4213.33323,4217.435794,4231.281948,4222.563999,4229.230666,4222.563999,4224.615281,4211.794769,4192.30759,4209.230666,4193.846051,4203.07682
2,0,4229.743486,4241.538358,4218.461435,4221.538358,4229.743486,4219.999897,4225.640922,4222.051179,4217.435794,4209.230666,4193.846051,4218.974256,4192.30759,4209.743487
3,0,4214.358871,4237.948614,4208.717846,4211.794769,4222.563999,4214.358871,4214.358871,4214.358871,4204.102461,4195.384513,4173.333231,4209.743487,4188.717846,4198.461436
4,0,4199.999897,4228.717845,4200.512718,4204.102461,4217.948615,4213.846051,4211.794769,4210.769128,4205.640923,4187.179385,4161.53836,4201.025538,4179.999898,4186.666564
5,0,4209.743487,4231.794768,4209.230666,4215.384512,4227.179384,4218.461435,4213.846051,4203.07682,4200.512718,4187.692205,4176.410154,4204.615282,4177.435795,4193.846051
6,0,4224.102461,4242.051178,4214.358871,4222.051179,4236.410153,4220.512717,4214.871692,4199.999897,4194.358872,4193.846051,4194.358872,4205.128102,4190.256308,4205.128102
7,0,4220.512717,4241.538358,4206.153743,4213.846051,4233.33323,4221.538358,4218.461435,4207.692205,4207.179384,4202.051179,4197.435795,4206.153743,4198.974256,4204.615282
8,0,4223.58964,4241.538358,4213.846051,4217.948615,4232.307589,4226.153743,4227.179384,4222.563999,4224.615281,4212.82041,4199.487077,4225.640922,4204.615282,4214.358871
9,0,4230.256307,4238.974255,4226.666563,4227.692204,4227.179384,4225.128102,4229.743486,4231.281948,4225.640922,4219.487076,4201.025538,4228.717845,4213.846051,4220.512717
10,0,4229.743486,4238.461435,4222.051179,4229.743486,4228.717845,4225.640922,4233.33323,4233.84605,4228.717845,4228.717845,4200.512718,4214.871692,4218.974256,4213.846051
11,0,4216.922974,4237.948614,4209.230666,4216.410153,4229.743486,4227.692204,4228.717845,4222.563999,4223.58964,4214.871692,4197.435795,4208.717846,4202.051179,4204.615282
12,0,4216.922974,4238.974255,4213.33323,4216.410153,4231.281948,4228.205025,4226.666563,4223.58964,4223.58964,4207.692205,4203.589641,4217.948615,4203.07682,4208.205025
13,0,4218.461435,4233.33323,4215.384512,4218.461435,4221.025538,4222.563999,4221.025538,4223.58964,4221.025538,4212.82041,4199.999897,4220.512717,4205.128102,4209.743487
14,0,4223.07682,4238.461435,4216.922974,4219.999897,4220.512717,4223.58964,4224.615281,4220.512717,4218.974256,4213.846051,4203.07682,4225.640922,4197.435795,4213.33323
15,0,4216.922974,4229.230666,4214.871692,4215.384512,4220.512717,4222.563999,4225.128102,4216.410153,4211.794769,4196.922974,4197.435795,4216.922974,4191.281949,4205.128102
16,0,4210.256307,4220.512717,4212.82041,4215.897333,4222.563999,4224.102461,4229.230666,4219.999897,4211.794769,4196.922974,4189.743487,4208.717846,4201.538359,4198.461436
17,0,4207.179384,4223.58964,4210.256307,4210.769128,4221.025538,4224.615281,4233.33323,4222.563999,4211.794769,4201.025538,4185.640923,4204.615282,4198.974256,4196.922974
18,0,4214.358871,4232.307589,4212.307589,4216.922974,4222.051179,4224.615281,4234.358871,4224.102461,4212.82041,4196.922974,4191.281949,4211.281948,4192.82041,4203.589641
19,0,4209.743487,4223.07682,4210.256307,4218.461435,4219.999897,4222.563999,4226.666563,4218.461435,4209.230666,4192.82041,4191.794769,4213.33323,4190.769128,4201.025538
20,0,4211.794769,4218.461435,4214.358871,4221.538358,4224.102461,4228.205025,4234.358871,4223.07682,4216.410153,4202.051179,4201.538359,4216.922974,4195.897333,4201.538359
21,0,4225.128102,4230.256307,4224.102461,4231.281948,4232.820409,4233.84605,4245.640922,4233.33323,4231.281948,4213.33323,4213.846051,4222.051179,4213.33323,4213.33323
22,0,4229.230666,4245.128101,4228.205025,4233.84605,4233.84605,4233.33323,4239.999896,4229.230666,4229.230666,4216.410153,4206.153743,4220.512717,4224.102461,4220.512717
23,0,4215.384512,4234.871691,4221.025538,4224.102461,4225.128102,4227.179384,4229.743486,4221.025538,4218.461435,4208.205025,4193.333231,4212.82041,4194.871692,4202.051179
24,0,4202.051179,4215.384512,4213.846051,4217.435794,4224.615281,4225.640922,4234.358871,4222.051179,4222.051179,4205.640923,4193.333231,4209.743487,4176.922975,4185.640923
25,0,4202.051179,4217.435794,4214.871692,4217.435794,4230.256307,4227.179384,4237.948614,4218.974256,4224.615281,4209.230666,4198.974256,4217.435794,4197.435795,4192.30759
26,0,4196.410154,4216.410153,4208.717846,4207.692205,4223.07682,4222.051179,4227.692204,4204.615282,4211.794769,4198.461436,4192.30759,4211.794769,4204.102461,4189.743487
27,0,4187.179385,4208.717846,4202.564,4203.589641,4218.974256,4221.025538,4225.128102,4206.666564,4212.82041,4198.974256,4193.846051,4202.051179,4203.589641,4183.589641
28,0,4177.948616,4201.025538,4198.974256,4204.615282,4217.435794,4222.563999,4226.666563,4213.33323,4217.948615,4210.256307,4204.102461,4199.487077,4209.230666,4179.999898
29,0,4176.922975,4196.410154,4201.025538,4206.666564,4210.256307,4220.512717,4223.07682,4209.743487,4214.871692,4212.82041,4206.153743,4204.102461,4204.615282,4176.410154
30,0,4167.179385,4186.153744,4196.922974,4197.948615,4200.512718,4213.33323,4212.82041,4195.897333,4202.051179,4194.871692,4185.128103,4194.871692,4183.589641,4162.05118
31,0,4171.79477,4196.410154,4197.435795,4196.410154,4216.922974,4218.974256,4219.999897,4202.564,4206.666564,4196.922974,4185.128103,4197.948615,4194.871692,4169.230667
32,0,4176.922975,4201.025538,4197.435795,4195.897333,4226.666563,4225.640922,4226.666563,4209.743487,4212.307589,4206.153743,4201.025538,4206.666564,4208.717846,4177.948616
33,0,4176.922975,4198.461436,4198.461436,4202.564,4219.999897,4224.615281,4224.102461,4206.153743,4212.307589,4208.205025,4201.538359,4204.615282,4205.128102,4176.410154
34,0,4175.384513,4199.999897,4200.512718,4207.692205,4211.794769,4217.435794,4216.410153,4197.948615,4201.538359,4196.922974,4192.82041,4198.461436,4197.435795,4174.871693
35,0,4181.025539,4207.179384,4205.128102,4212.82041,4219.999897,4221.025538,4220.512717,4204.615282,4209.743487,4208.717846,4206.153743,4202.564,4206.153743,4180.512718
36,0,4174.871693,4194.871692,4199.487077,4203.589641,4217.948615,4220.512717,4216.922974,4208.205025,4221.025538,4226.666563,4206.666564,4198.974256,4210.256307,4171.79477
37,0,4181.025539,4198.461436,4201.538359,4209.230666,4217.435794,4216.410153,4215.384512,4206.666564,4223.07682,4224.615281,4205.640923,4205.128102,4212.307589,4175.384513
38,0,4193.846051,4216.922974,4210.769128,4218.974256,4225.128102,4219.999897,4226.153743,4211.794769,4223.07682,4218.461435,4221.538358,4216.922974,4215.897333,4187.179385
39,0,4196.410154,4223.07682,4214.871692,4218.461435,4229.230666,4227.179384,4239.999896,4224.102461,4233.33323,4234.871691,4226.153743,4218.461435,4222.563999,4189.230667
40,0,4190.256308,4213.846051,4209.230666,4213.846051,4224.102461,4224.102461,4236.410153,4226.153743,4236.410153,4241.025537,4211.794769,4213.846051,4222.563999,4186.666564
41,0,4192.82041,4211.281948,4209.230666,4220.512717,4228.205025,4225.640922,4234.358871,4221.538358,4233.84605,4232.820409,4217.435794,4216.410153,4225.128102,4195.384513
42,0,4191.794769,4209.743487,4208.205025,4219.487076,4227.179384,4228.717845,4238.461435,4217.435794,4227.692204,4226.153743,4222.051179,4209.230666,4221.538358,4191.281949
43,0,4179.487077,4205.128102,4199.999897,4206.153743,4217.948615,4223.58964,4231.794768,4213.33323,4215.384512,4218.974256,4206.153743,4195.384513,4212.307589,4175.897334
44,0,4176.922975,4207.179384,4199.999897,4209.743487,4226.153743,4224.102461,4227.179384,4215.384512,4217.435794,4222.051179,4205.128102,4198.461436,4214.871692,4179.487077
45,0,4182.05118,4208.205025,4203.589641,4218.461435,4233.33323,4227.692204,4231.281948,4218.974256,4226.666563,4226.666563,4212.82041,4207.179384,4219.999897,4187.692205
46,0,4196.410154,4218.974256,4214.358871,4228.717845,4231.281948,4233.33323,4241.025537,4226.666563,4233.84605,4234.358871,4222.563999,4212.82041,4233.33323,4198.974256
47,0,4207.179384,4225.640922,4219.999897,4229.743486,4225.128102,4235.384512,4242.563999,4227.179384,4234.871691,4239.999896,4230.769127,4209.743487,4243.58964,4209.230666
48,0,4223.58964,4227.692204,4222.563999,4229.743486,4227.692204,4234.358871,4245.640922,4230.769127,4239.487076,4244.10246,4236.922973,4216.922974,4246.153742,4227.179384
49,0,4239.999896,4230.256307,4220.512717,4229.230666,4224.615281,4229.230666,4238.461435,4227.179384,4233.84605,4229.230666,4232.307589,4217.948615,4237.948614,4244.615281
50,0,4275.384511,4253.84605,4225.128102,4239.999896,4228.717845,4230.256307,4239.487076,4227.179384,4234.871691,4232.307589,4240.512717,4222.563999,4262.051178,4286.666562
51,0,4316.410151,4272.820408,4233.84605,4247.692204,4225.640922,4226.666563,4233.84605,4221.025538,4232.820409,4236.922973,4253.333229,4234.871691,4302.051177,4339.999894
52,0,4363.076816,4289.743485,4254.871691,4266.153742,4221.538358,4224.102461,4231.794768,4220.512717,4232.820409,4232.820409,4265.640921,4256.410152,4327.179381,4388.205021
53,0,4390.769123,4295.38451,4266.153742,4272.820408,4218.461435,4224.102461,4232.307589,4219.487076,4232.307589,4229.743486,4270.769126,4264.61528,4327.692202,4412.820405
54,0,4394.358867,4295.38451,4261.538357,4264.61528,4221.025538,4225.640922,4233.33323,4219.999897,4234.358871,4237.948614,4276.410152,4266.666562,4333.846048,4421.538353
55,0,4378.461431,4283.589639,4252.307588,4256.410152,4219.487076,4222.563999,4225.640922,4215.897333,4230.256307,4231.281948,4270.256306,4258.974255,4336.41015,4412.307584
56,0,4368.205021,4281.538357,4255.384511,4263.076819,4220.512717,4222.563999,4228.717845,4217.948615,4230.256307,4225.128102,4268.205024,4257.435793,4331.281945,4403.589636
57,0,4351.794765,4281.025536,4253.333229,4259.487075,4217.948615,4219.487076,4230.256307,4221.025538,4232.307589,4227.692204,4271.794767,4259.487075,4316.410151,4388.205021
58,0,4329.743484,4268.717844,4241.025537,4247.692204,4215.897333,4218.974256,4224.615281,4221.025538,4229.230666,4227.692204,4265.128101,4250.769127,4301.538356,4360.512714
59,0,4318.461433,4260.512716,4239.999896,4248.205024,4224.615281,4225.640922,4230.256307,4222.563999,4230.769127,4231.794768,4255.897332,4245.128101,4294.87169,4342.051176
60,0,4327.179381,4279.487075,4262.563998,4270.769126,4248.205024,4237.948614,4250.769127,4237.435794,4250.769127,4252.820409,4270.769126,4263.589639,4300.512715,4351.794765
61,0,4332.307586,4296.410151,4277.435793,4289.743485,4261.538357,4245.640922,4261.025537,4250.769127,4265.640921,4267.692203,4280.512716,4274.87169,4303.589638,4351.794765
62,0,4306.153741,4276.410152,4259.999896,4273.333229,4248.717845,4238.461435,4250.769127,4239.487076,4250.769127,4250.769127,4255.897332,4254.35887,4278.461434,4318.461433
63,0,4284.102459,4261.538357,4246.666563,4254.871691,4240.512717,4232.820409,4243.58964,4229.743486,4236.922973,4235.897332,4243.58964,4244.615281,4253.333229,4294.87169
64,0,4288.717844,4270.769126,4250.769127,4259.487075,4249.230665,4238.974255,4248.205024,4234.871691,4242.563999,4236.922973,4254.35887,4251.281947,4256.922973,4295.38451
65,0,4291.794767,4272.307588,4253.84605,4266.666562,4257.435793,4243.58964,4250.769127,4242.563999,4255.384511,4247.179383,4263.589639,4252.820409,4269.743485,4294.87169
66,0,4269.743485,4253.84605,4243.58964,4253.84605,4246.666563,4236.410153,4241.538358,4237.435794,4253.333229,4248.717845,4261.025537,4249.230665,4259.487075,4279.487075
67,0,4261.025537,4254.35887,4245.128101,4250.769127,4237.948614,4234.871691,4243.58964,4235.384512,4249.230665,4254.35887,4263.076819,4252.820409,4255.384511,4275.384511
68,0,4255.384511,4259.487075,4247.692204,4251.281947,4232.307589,4234.871691,4244.615281,4227.692204,4242.051178,4245.640922,4249.743486,4243.58964,4250.256306,4264.61528
69,0,4248.717845,4262.051178,4243.58964,4249.230665,4236.922973,4236.922973,4244.615281,4229.230666,4244.10246,4241.025537,4244.615281,4239.999896,4241.538358,4251.794768
70,0,4245.128101,4265.128101,4235.897332,4242.563999,4241.025537,4239.487076,4246.666563,4235.384512,4248.205024,4243.58964,4252.820409,4246.153742,4235.897332,4242.563999
71,0,4254.35887,4275.897331,4245.128101,4249.743486,4246.153742,4244.615281,4256.410152,4241.025537,4253.333229,4251.281947,4259.999896,4256.922973,4244.615281,4251.281947
72,0,4248.717845,4265.128101,4249.230665,4248.205024,4236.922973,4237.435794,4246.153742,4235.384512,4246.153742,4241.025537,4250.256306,4250.769127,4233.33323,4244.10246
73,0,4238.461435,4261.538357,4238.974255,4246.153742,4236.922973,4231.794768,4239.999896,4229.743486,4240.512717,4235.897332,4244.615281,4244.10246,4220.512717,4227.692204
74,0,4228.717845,4267.179383,4227.179384,4242.051178,4242.051178,4233.84605,4245.128101,4223.58964,4234.358871,4235.897332,4241.025537,4238.461435,4216.410153,4219.487076
75,0,4227.179384,4268.205024,4228.205025,4239.487076,4237.948614,4236.922973,4247.692204,4218.974256,4227.179384,4227.692204,4235.384512,4236.410153,4220.512717,4222.051179
76,0,4226.153743,4262.051178,4230.769127,4235.897332,4228.717845,4234.871691,4236.410153,4217.948615,4225.640922,4217.435794,4235.384512,4239.487076,4219.487076,4223.07682
77,0,4232.307589,4271.281947,4236.922973,4243.58964,4238.461435,4239.999896,4241.538358,4229.743486,4241.025537,4234.871691,4248.205024,4248.205024,4222.051179,4230.769127
78,0,4233.33323,4274.35887,4237.948614,4245.640922,4246.666563,4244.615281,4253.84605,4237.948614,4248.205024,4250.256306,4248.205024,4246.666563,4229.230666,4232.307589
79,0,4230.769127,4258.974255,4233.84605,4237.435794,4239.487076,4238.974255,4251.281947,4232.820409,4241.538358,4238.461435,4239.999896,4239.999896,4231.281948,4224.615281
80,0,4232.307589,4253.333229,4235.384512,4239.999896,4237.948614,4236.922973,4244.615281,4230.256307,4244.10246,4237.435794,4243.58964,4244.615281,4228.717845,4227.179384
81,0,4224.102461,4252.820409,4229.743486,4235.897332,4232.820409,4236.410153,4242.563999,4230.256307,4243.076819,4240.512717,4243.58964,4241.025537,4219.999897,4222.051179
82,0,4210.256307,4245.640922,4218.461435,4225.640922,4226.153743,4233.84605,4246.153742,4231.281948,4238.461435,4230.769127,4229.230666,4227.692204,4210.256307,4205.640923
83,0,4209.743487,4240.512717,4220.512717,4228.717845,4232.307589,4237.948614,4246.153742,4235.384512,4234.871691,4224.102461,4218.461435,4223.58964,4205.640923,4204.615282
84,0,4223.58964,4254.35887,4235.897332,4243.58964,4246.666563,4244.615281,4249.743486,4243.58964,4240.512717,4233.33323,4235.384512,4235.897332,4217.948615,4221.538358
85,0,4212.307589,4249.230665,4227.692204,4228.717845,4238.974255,4238.461435,4244.615281,4239.487076,4238.461435,4227.692204,4238.974255,4232.307589,4215.384512,4211.794769
86,0,4204.102461,4236.922973,4221.025538,4220.512717,4234.358871,4237.435794,4245.128101,4234.871691,4235.897332,4225.128102,4223.58964,4225.128102,4207.179384,4201.025538
87,0,4212.307589,4244.10246,4230.256307,4235.384512,4241.025537,4243.076819,4246.666563,4229.743486,4232.307589,4225.640922,4220.512717,4227.179384,4208.717846,4207.179384
88,0,4226.666563,4263.589639,4241.025537,4250.256306,4250.769127,4248.205024,4251.794768,4233.84605,4240.512717,4235.384512,4239.999896,4236.410153,4224.102461,4219.999897
89,0,4219.487076,4253.84605,4233.33323,4236.410153,4244.10246,4244.10246,4246.153742,4234.358871,4244.10246,4239.487076,4234.358871,4229.230666,4222.051179,4214.358871
90,0,4219.999897,4252.307588,4233.33323,4234.358871,4245.128101,4242.563999,4245.640922,4236.922973,4244.10246,4242.563999,4225.640922,4229.743486,4219.999897,4217.948615
91,0,4224.615281,4257.435793,4238.974255,4245.128101,4245.640922,4241.025537,4246.153742,4236.922973,4240.512717,4232.307589,4230.256307,4236.410153,4217.435794,4221.538358
92,0,4223.58964,4248.717845,4238.461435,4249.230665,4241.538358,4242.563999,4249.743486,4238.974255,4242.563999,4232.307589,4231.794768,4239.487076,4218.461435,4216.922974
93,0,4215.897333,4241.538358,4230.769127,4237.435794,4241.025537,4244.10246,4253.333229,4241.538358,4244.10246,4241.025537,4224.102461,4233.33323,4217.948615,4207.692205
94,0,4219.999897,4255.384511,4233.84605,4236.922973,4246.666563,4246.153742,4257.948614,4243.58964,4248.717845,4246.153742,4230.769127,4234.358871,4221.025538,4211.281948
95,0,4225.640922,4257.948614,4238.461435,4245.128101,4243.076819,4242.563999,4252.307588,4236.922973,4246.153742,4239.999896,4236.922973,4238.461435,4223.07682,4217.948615
96,0,4227.179384,4253.333229,4236.410153,4248.717845,4246.666563,4243.076819,4250.769127,4233.84605,4245.128101,4242.051178,4239.487076,4241.538358,4231.281948,4224.615281
97,0,4222.563999,4252.307588,4234.871691,4242.563999,4255.384511,4246.666563,4253.333229,4241.025537,4249.230665,4251.281947,4242.051178,4237.435794,4234.871691,4224.615281
98,0,4218.461435,4248.205024,4237.435794,4239.487076,4245.128101,4243.076819,4249.230665,4241.025537,4247.179383,4244.615281,4237.435794,4232.307589,4231.281948,4218.461435
99,0,4211.794769,4235.384512,4236.410153,4235.384512,4229.230666,4235.897332,4241.538358,4236.410153,4242.563999,4231.281948,4227.692204,4232.307589,4220.512717,4210.256307
100,0,4192.30759,4215.384512,4225.128102,4222.563999,4228.717845,4233.33323,4237.435794,4227.179384,4232.307589,4223.07682,4217.435794,4223.58964,4197.948615,4192.82041
101,0,4192.82041,4222.051179,4224.615281,4228.717845,4238.974255,4239.999896,4241.538358,4225.640922,4231.281948,4228.205025,4220.512717,4219.999897,4204.102461,4192.82041
102,0,4214.871692,4251.281947,4230.769127,4239.999896,4240.512717,4244.615281,4243.58964,4232.820409,4237.435794,4233.84605,4232.307589,4229.230666,4236.922973,4213.33323
103,0,4224.615281,4261.538357,4234.358871,4238.974255,4241.538358,4243.58964,4246.666563,4243.076819,4245.128101,4242.051178,4243.076819,4237.948614,4247.179383,4224.615281
104,0,4206.153743,4239.487076,4227.179384,4229.743486,4236.922973,4239.487076,4245.128101,4237.948614,4241.025537,4238.974255,4233.84605,4227.692204,4223.58964,4206.153743
105,0,4203.589641,4231.794768,4224.615281,4232.307589,4235.384512,4242.563999,4247.179383,4234.871691,4243.076819,4239.999896,4226.666563,4224.615281,4222.563999,4202.564
106,0,4200.512718,4230.769127,4217.948615,4223.07682,4232.820409,4238.461435,4240.512717,4229.230666,4241.025537,4236.410153,4225.640922,4223.07682,4221.025538,4203.589641
107,0,4196.410154,4234.358871,4219.999897,4224.102461,4239.487076,4237.435794,4241.025537,4230.256307,4241.538358,4239.999896,4230.256307,4223.58964,4216.410153,4199.487077
108,0,4200.512718,4236.922973,4229.230666,4233.84605,4238.461435,4241.025537,4244.10246,4230.769127,4239.487076,4236.922973,4226.666563,4222.051179,4220.512717,4196.410154
109,0,4215.897333,4244.10246,4236.922973,4245.128101,4243.076819,4245.128101,4248.205024,4235.384512,4241.538358,4238.461435,4232.820409,4232.307589,4233.84605,4211.794769
110,0,4211.794769,4241.538358,4228.717845,4243.076819,4243.076819,4242.051178,4241.538358,4229.743486,4235.897332,4234.871691,4233.33323,4233.33323,4231.794768,4214.358871
111,0,4207.179384,4239.999896,4226.666563,4243.58964,4234.358871,4241.025537,4240.512717,4225.640922,4232.307589,4233.84605,4227.692204,4226.153743,4229.743486,4207.179384
112,0,4208.717846,4236.922973,4227.692204,4237.948614,4227.179384,4237.435794,4241.538358,4223.58964,4230.256307,4230.769127,4225.128102,4219.999897,4226.153743,4201.025538
113,0,4210.769128,4238.974255,4226.666563,4232.307589,4236.922973,4236.410153,4243.076819,4225.640922,4232.307589,4231.794768,4229.743486,4228.205025,4224.615281,4204.102461
114,0,4210.769128,4239.487076,4229.230666,4235.897332,4238.974255,4237.948614,4243.076819,4227.179384,4233.84605,4233.84605,4228.717845,4233.84605,4226.666563,4208.717846
115,0,4219.999897,4243.58964,4237.435794,4248.717845,4233.84605,4239.999896,4246.666563,4230.256307,4235.384512,4232.307589,4229.743486,4232.307589,4231.794768,4214.358871
116,0,4227.179384,4247.692204,4239.999896,4251.281947,4237.435794,4242.051178,4250.769127,4234.871691,4239.999896,4230.256307,4235.897332,4232.820409,4231.794768,4217.435794
117,0,4217.435794,4238.974255,4233.84605,4238.974255,4238.974255,4243.076819,4246.666563,4230.769127,4235.897332,4225.128102,4230.769127,4228.717845,4222.563999,4211.794769
118,0,4207.179384,4232.307589,4227.692204,4232.820409,4236.922973,4241.025537,4244.615281,4226.153743,4229.743486,4223.07682,4221.025538,4223.58964,4216.410153,4205.640923
119,0,4202.564,4227.692204,4223.07682,4233.33323,4235.897332,4241.538358,4245.640922,4228.717845,4231.281948,4223.07682,4215.897333,4221.538358,4214.871692,4198.974256
120,0,4201.538359,4224.615281,4222.563999,4236.410153,4235.384512,4244.10246,4245.128101,4232.307589,4236.410153,4226.666563,4218.461435,4218.974256,4215.384512,4195.384513
121,0,4196.922974,4221.025538,4217.948615,4232.307589,4230.769127,4237.948614,4237.435794,4222.563999,4225.128102,4221.538358,4215.384512,4209.743487,4206.153743,4189.743487
122,0,4204.102461,4230.256307,4222.051179,4235.897332,4236.922973,4235.384512,4237.435794,4217.435794,4220.512717,4218.974256,4216.922974,4217.435794,4208.717846,4197.435795
123,0,4202.564,4226.666563,4223.58964,4230.769127,4235.897332,4236.410153,4232.307589,4213.846051,4218.974256,4210.769128,4217.435794,4223.07682,4210.769128,4198.461436
124,0,4194.871692,4213.33323,4216.922974,4221.025538,4230.256307,4236.410153,4230.256307,4213.33323,4215.384512,4208.205025,4215.897333,4215.897333,4207.692205,4192.30759
125,0,4189.230667,4201.025538,4209.230666,4219.487076,4216.922974,4230.769127,4229.743486,4211.794769,4211.281948,4207.179384,4208.205025,4206.153743,4202.051179,4186.666564
126,0,4200.512718,4211.281948,4216.922974,4236.410153,4218.974256,4237.435794,4235.384512,4216.410153,4223.07682,4216.922974,4218.974256,4214.871692,4210.256307,4195.897333
127,0,4200.512718,4222.563999,4217.435794,4234.358871,4235.897332,4242.051178,4235.897332,4217.435794,4225.640922,4217.435794,4226.666563,4215.897333,4213.846051,4196.410154
128,0,4199.487077,4225.640922,4214.871692,4226.153743,4247.692204,4243.58964,4241.025537,4224.102461,4225.640922,4218.461435,4224.615281,4213.33323,4218.974256,4197.435795
0,0,4201.025538,4217.948615,4217.435794,4231.281948,4238.974255,4242.051178,4238.974255,4227.692204,4227.179384,4219.999897,4224.102461,4211.281948,4222.563999,4201.538359
1,0,4209.743487,4223.58964,4226.153743,4242.051178,4238.974255,4243.076819,4236.922973,4226.153743,4233.33323,4227.179384,4233.33323,4218.461435,4229.743486,4210.256307
2,0,4211.794769,4226.153743,4224.615281,4232.820409,4237.435794,4238.461435,4231.281948,4220.512717,4228.717845,4224.102461,4230.769127,4219.487076,4226.666563,4206.666564
3,0,4213.846051,4222.563999,4225.128102,4232.820409,4232.820409,4237.435794,4233.33323,4219.487076,4224.615281,4224.102461,4230.769127,4221.025538,4230.256307,4209.743487
4,0,4217.948615,4224.615281,4234.358871,4245.128101,4241.025537,4243.58964,4245.640922,4225.640922,4230.256307,4237.435794,4243.076819,4232.307589,4242.051178,4221.538358
5,0,4218.461435,4227.692204,4234.871691,4241.025537,4247.179383,4246.153742,4253.333229,4229.743486,4237.435794,4244.615281,4245.640922,4235.897332,4244.10246,4221.538358
6,0,4213.33323,4223.07682,4227.179384,4236.410153,4241.538358,4244.10246,4247.692204,4227.179384,4240.512717,4239.999896,4234.871691,4226.666563,4233.84605,4212.307589
7,0,4209.743487,4220.512717,4228.205025,4246.153742,4244.10246,4247.179383,4244.10246,4226.153743,4238.461435,4233.84605,4233.33323,4224.615281,4233.33323,4214.358871
8,0,4207.179384,4218.461435,4230.256307,4241.538358,4245.128101,4247.692204,4246.666563,4225.640922,4235.897332,4231.281948,4236.922973,4225.640922,4234.871691,4218.461435
9,0,4200.512718,4205.640923,4221.025538,4229.743486,4235.384512,4239.487076,4239.487076,4216.410153,4227.179384,4223.07682,4229.743486,4214.871692,4222.051179,4207.692205
10,0,4209.743487,4209.743487,4225.640922,4247.179383,4241.025537,4239.487076,4236.410153,4215.897333,4227.692204,4224.102461,4231.794768,4218.461435,4226.153743,4212.307589
11,0,4217.948615,4221.538358,4232.820409,4251.281947,4244.10246,4242.051178,4238.974255,4218.974256,4229.743486,4223.58964,4236.410153,4226.666563,4230.256307,4216.922974
12,0,4217.948615,4227.692204,4233.33323,4241.025537,4246.153742,4244.10246,4242.563999,4222.563999,4231.794768,4228.717845,4241.025537,4229.743486,4230.256307,4215.897333
13,0,4211.794769,4221.025538,4227.179384,4238.974255,4245.128101,4242.563999,4235.384512,4219.487076,4225.128102,4225.640922,4234.358871,4221.025538,4226.666563,4210.256307
14,0,4215.897333,4219.999897,4227.179384,4245.128101,4247.692204,4246.153742,4236.410153,4220.512717,4227.692204,4227.179384,4232.307589,4221.025538,4228.717845,4216.410153
15,0,4211.794769,4215.384512,4228.717845,4239.999896,4240.512717,4246.153742,4238.461435,4219.999897,4234.358871,4233.33323,4237.948614,4228.205025,4230.769127,4219.999897
16,0,4219.487076,4223.07682,4238.974255,4250.256306,4241.538358,4246.153742,4247.179383,4228.717845,4243.58964,4245.128101,4254.35887,4238.974255,4249.743486,4229.743486
17,0,4226.666563,4230.256307,4241.025537,4256.410152,4248.717845,4244.615281,4248.717845,4232.307589,4244.615281,4246.153742,4258.974255,4237.948614,4252.820409,4232.820409
18,0,4228.717845,4234.358871,4237.948614,4254.35887,4251.281947,4245.640922,4246.666563,4231.281948,4246.666563,4247.179383,4258.974255,4239.487076,4243.58964,4232.307589
19,0,4221.025538,4226.153743,4233.33323,4243.076819,4240.512717,4238.974255,4235.384512,4223.07682,4236.922973,4235.384512,4247.692204,4231.794768,4238.461435,4224.615281
20,0,4214.871692,4218.461435,4229.743486,4238.461435,4235.384512,4233.33323,4232.307589,4216.410153,4226.153743,4222.051179,4238.461435,4222.563999,4236.922973,4218.974256
21,0,4213.33323,4217.948615,4226.153743,4240.512717,4239.999896,4234.358871,4233.84605,4215.384512,4225.640922,4223.58964,4241.025537,4224.615281,4228.717845,4217.948615
22,0,4219.487076,4223.58964,4229.743486,4244.10246,4240.512717,4237.948614,4235.897332,4222.051179,4229.743486,4231.281948,4245.128101,4231.281948,4233.33323,4222.563999
23,0,4217.948615,4218.461435,4228.717845,4238.461435,4229.230666,4235.384512,4232.307589,4218.974256,4218.974256,4221.025538,4236.410153,4223.58964,4231.794768,4216.922974
24,0,4212.307589,4216.922974,4226.666563,4235.897332,4229.743486,4234.358871,4228.205025,4207.692205,4209.743487,4211.794769,4235.384512,4221.538358,4223.07682,4212.307589
25,0,4213.33323,4219.487076,4229.230666,4236.922973,4236.922973,4236.410153,4227.692204,4205.128102,4216.410153,4222.051179,4241.538358,4227.692204,4228.205025,4213.846051
26,0,4207.692205,4208.205025,4221.538358,4232.820409,4236.410153,4235.384512,4224.102461,4204.615282,4215.897333,4226.153743,4238.461435,4217.435794,4231.281948,4209.743487
27,0,4207.179384,4205.128102,4217.435794,4238.974255,4233.33323,4233.84605,4223.58964,4207.692205,4212.82041,4224.102461,4236.922973,4213.846051,4229.230666,4208.205025
28,0,4211.794769,4212.82041,4224.615281,4242.051178,4227.692204,4231.794768,4224.615281,4209.230666,4217.435794,4224.615281,4236.410153,4220.512717,4229.230666,4206.153743
29,0,4215.384512,4219.999897,4231.794768,4243.076819,4228.205025,4233.33323,4229.230666,4212.82041,4225.640922,4235.384512,4245.128101,4225.640922,4236.410153,4211.794769
30,0,4213.33323,4215.897333,4224.615281,4243.58964,4229.743486,4233.33323,4226.666563,4214.358871,4223.58964,4234.358871,4250.769127,4221.538358,4238.974255,4216.410153
31,0,4220.512717,4223.58964,4226.153743,4245.640922,4239.999896,4237.948614,4229.230666,4222.051179,4232.820409,4241.538358,4255.384511,4229.230666,4245.640922,4219.999897
32,0,4209.743487,4212.82041,4223.07682,4228.717845,4233.84605,4234.871691,4223.58964,4218.461435,4230.256307,4236.410153,4245.128101,4225.640922,4234.871691,4209.230666
33,0,4197.435795,4196.922974,4214.871692,4222.563999,4230.256307,4232.820409,4222.563999,4212.82041,4218.461435,4223.58964,4236.922973,4214.358871,4222.563999,4202.564
34,0,4191.794769,4197.948615,4206.666564,4225.640922,4227.692204,4231.281948,4219.999897,4205.640923,4209.743487,4212.307589,4228.205025,4205.640923,4211.281948,4193.846051
35,0,4196.410154,4212.82041,4212.82041,4227.179384,4219.487076,4230.256307,4218.461435,4203.07682,4211.281948,4212.307589,4229.230666,4211.281948,4210.256307,4195.384513
36,0,4202.051179,4211.281948,4221.025538,4224.102461,4210.256307,4227.179384,4216.410153,4201.025538,4209.230666,4211.794769,4234.358871,4215.897333,4212.82041,4201.538359
37,0,4213.33323,4217.948615,4225.640922,4233.84605,4228.717845,4234.871691,4226.666563,4207.692205,4218.974256,4222.051179,4243.076819,4226.153743,4224.615281,4211.794769
38,0,4214.871692,4232.307589,4224.102461,4234.358871,4241.538358,4239.487076,4227.179384,4212.307589,4224.102461,4226.666563,4244.615281,4232.820409,4228.717845,4213.33323
39,0,4213.846051,4235.384512,4219.999897,4228.717845,4224.615281,4234.871691,4222.051179,4213.33323,4219.999897,4223.58964,4238.974255,4229.743486,4220.512717,4207.692205
40,0,4213.33323,4231.281948,4212.82041,4224.615281,4211.281948,4229.743486,4219.999897,4210.256307,4217.948615,4219.999897,4224.615281,4216.922974,4205.640923,4195.384513
41,0,4210.769128,4226.153743,4213.846051,4221.538358,4225.640922,4235.897332,4228.205025,4214.871692,4224.615281,4223.07682,4226.666563,4221.538358,4207.692205,4197.435795
42,0,4199.487077,4203.589641,4218.974256,4208.205025,4231.794768,4243.58964,4236.922973,4223.58964,4227.179384,4223.58964,4234.871691,4233.33323,4209.743487,4199.487077
43,0,4203.589641,4210.256307,4218.974256,4211.281948,4223.58964,4240.512717,4231.794768,4217.435794,4216.410153,4214.358871,4226.153743,4228.205025,4198.461436,4193.333231
44,0,4226.666563,4252.820409,4219.999897,4237.948614,4216.922974,4234.358871,4221.025538,4205.128102,4205.128102,4204.102461,4218.974256,4221.538358,4193.846051,4198.461436
45,0,4232.307589,4267.179383,4223.58964,4245.640922,4217.948615,4231.794768,4214.358871,4197.435795,4197.948615,4194.871692,4217.435794,4222.563999,4187.179385,4201.538359
46,0,4224.615281,4258.461434,4226.153743,4234.871691,4230.256307,4233.84605,4217.948615,4200.512718,4203.589641,4198.974256,4211.281948,4226.666563,4176.922975,4198.461436
47,0,4216.922974,4251.281947,4216.410153,4227.179384,4232.820409,4233.84605,4218.974256,4206.666564,4212.82041,4209.230666,4204.615282,4223.07682,4175.897334,4194.358872
48,0,4219.999897,4253.84605,4215.897333,4236.922973,4229.230666,4233.84605,4218.974256,4211.281948,4217.435794,4216.922974,4212.307589,4223.07682,4190.256308,4200.512718
49,0,4220.512717,4253.333229,4222.563999,4236.410153,4226.153743,4229.743486,4214.871692,4204.102461,4211.281948,4208.717846,4213.33323,4219.999897,4189.743487,4199.487077
50,0,4221.025538,4258.461434,4228.717845,4236.410153,4232.307589,4233.33323,4222.051179,4210.256307,4220.512717,4217.948615,4217.948615,4224.615281,4187.692205,4200.512718
51,0,4208.205025,4243.58964,4221.025538,4229.743486,4226.153743,4233.33323,4221.538358,4212.82041,4221.538358,4223.07682,4215.897333,4224.615281,4181.538359,4193.846051
52,0,4205.640923,4235.384512,4217.435794,4226.153743,4222.051179,4231.794768,4218.974256,4204.615282,4206.666564,4210.769128,4208.205025,4219.999897,4177.948616,4186.153744
53,0,4211.281948,4237.435794,4222.563999,4226.153743,4219.487076,4231.281948,4223.07682,4201.538359,4198.974256,4198.974256,4202.051179,4217.435794,4174.871693,4186.153744
54,0,4221.025538,4244.615281,4232.307589,4237.948614,4222.051179,4234.358871,4233.84605,4212.307589,4209.743487,4207.179384,4208.205025,4227.692204,4181.538359,4197.435795
55,0,4217.948615,4244.615281,4228.717845,4238.461435,4226.666563,4233.33323,4226.153743,4207.179384,4207.179384,4205.128102,4207.179384,4224.102461,4181.538359,4193.333231
56,0,4214.358871,4245.640922,4221.538358,4233.33323,4233.33323,4237.435794,4222.563999,4202.564,4207.179384,4204.615282,4205.640923,4216.922974,4179.999898,4186.153744
57,0,4215.897333,4241.538358,4220.512717,4232.820409,4229.230666,4237.435794,4226.666563,4208.717846,4213.33323,4209.230666,4207.179384,4217.948615,4178.461436,4189.743487
58,0,4214.871692,4235.897332,4221.538358,4234.871691,4221.025538,4231.281948,4225.640922,4210.256307,4212.82041,4208.205025,4211.794769,4219.487076,4179.999898,4193.846051
59,0,4199.999897,4226.153743,4215.897333,4224.102461,4216.410153,4227.179384,4218.461435,4206.153743,4208.205025,4202.564,4207.692205,4210.769128,4176.922975,4182.564
60,0,4201.025538,4227.692204,4216.922974,4221.025538,4223.58964,4233.33323,4222.051179,4209.743487,4213.33323,4209.230666,4208.717846,4210.256307,4185.128103,4183.589641
61,0,4208.205025,4232.307589,4217.948615,4227.179384,4229.743486,4234.358871,4223.58964,4209.743487,4213.33323,4214.871692,4213.33323,4211.794769,4191.794769,4189.230667
62,0,4205.128102,4232.307589,4211.794769,4227.692204,4227.692204,4231.794768,4219.487076,4204.615282,4208.717846,4209.230666,4210.769128,4206.153743,4187.179385,4185.128103
63,0,4203.07682,4233.33323,4208.717846,4227.692204,4224.615281,4235.897332,4221.538358,4205.128102,4212.82041,4207.179384,4210.769128,4209.230666,4190.769128,4188.205026
64,0,4201.025538,4227.692204,4206.153743,4225.128102,4219.999897,4235.897332,4215.897333,4201.025538,4209.743487,4205.640923,4209.743487,4211.281948,4191.281949,4187.692205
65,0,4203.589641,4224.615281,4209.743487,4227.179384,4223.58964,4232.307589,4213.846051,4201.538359,4210.256307,4214.358871,4211.281948,4209.230666,4188.205026,4187.179385
66,0,4207.179384,4228.717845,4216.410153,4230.769127,4227.692204,4233.33323,4221.025538,4206.153743,4215.897333,4219.487076,4214.358871,4209.230666,4192.30759,4191.281949
67,0,4214.871692,4239.487076,4223.58964,4236.922973,4231.794768,4239.999896,4230.256307,4212.307589,4219.487076,4218.974256,4222.051179,4220.512717,4202.051179,4203.589641
68,0,4216.410153,4236.922973,4226.153743,4237.948614,4227.692204,4237.948614,4228.205025,4211.281948,4210.256307,4214.358871,4220.512717,4225.640922,4195.897333,4204.102461
69,0,4222.563999,4236.922973,4231.794768,4241.025537,4231.281948,4236.922973,4235.384512,4216.410153,4214.358871,4223.58964,4222.051179,4229.230666,4199.999897,4207.692205
70,0,4210.769128,4228.717845,4223.07682,4230.769127,4224.615281,4232.820409,4229.743486,4212.82041,4213.846051,4214.358871,4213.33323,4219.999897,4198.461436,4202.051179
71,0,4208.205025,4225.640922,4219.487076,4231.794768,4222.563999,4232.820409,4225.128102,4212.307589,4212.82041,4212.82041,4216.410153,4219.487076,4195.384513,4201.538359
72,0,4221.025538,4231.794768,4227.692204,4238.461435,4227.692204,4233.84605,4227.692204,4212.82041,4214.358871,4226.153743,4228.717845,4228.205025,4204.102461,4210.769128
73,0,4229.230666,4240.512717,4231.794768,4239.999896,4232.820409,4233.84605,4230.769127,4211.794769,4218.974256,4229.230666,4232.820409,4234.358871,4218.461435,4222.051179
74,0,4218.461435,4230.769127,4221.025538,4227.692204,4224.615281,4229.743486,4221.538358,4205.128102,4212.307589,4212.82041,4221.538358,4223.58964,4207.179384,4213.846051
75,0,4215.897333,4226.666563,4216.922974,4229.230666,4218.461435,4229.743486,4216.922974,4204.102461,4206.153743,4210.769128,4218.461435,4215.897333,4197.435795,4202.051179
76,0,4216.922974,4228.205025,4216.410153,4231.281948,4212.82041,4229.743486,4213.846051,4203.07682,4202.564,4208.717846,4214.358871,4210.769128,4197.948615,4196.922974
77,0,4215.897333,4227.179384,4212.82041,4225.128102,4217.435794,4231.794768,4221.025538,4204.102461,4209.230666,4207.179384,4213.846051,4212.307589,4196.410154,4202.051179
78,0,4217.435794,4223.58964,4211.281948,4221.025538,4225.640922,4232.307589,4227.179384,4212.307589,4218.974256,4214.871692,4221.025538,4220.512717,4198.974256,4208.205025
79,0,4237.948614,4235.897332,4223.58964,4233.84605,4228.717845,4233.33323,4223.07682,4217.435794,4222.051179,4218.974256,4232.307589,4231.281948,4217.435794,4227.692204
80,0,4254.871691,4250.256306,4238.461435,4248.205024,4225.128102,4234.358871,4217.948615,4208.717846,4213.33323,4212.307589,4229.743486,4232.307589,4213.846051,4239.999896
81,0,4253.84605,4246.666563,4235.897332,4243.58964,4219.487076,4230.256307,4217.948615,4197.948615,4202.564,4206.153743,4218.461435,4224.102461,4197.435795,4234.871691
82,0,4268.717844,4250.769127,4232.307589,4242.563999,4223.07682,4226.666563,4214.358871,4198.461436,4202.564,4208.717846,4228.205025,4226.666563,4219.487076,4255.384511
83,0,4292.820408,4262.051178,4235.897332,4247.179383,4222.051179,4225.640922,4205.640923,4195.384513,4198.461436,4201.538359,4236.922973,4233.84605,4244.615281,4290.256305
84,0,4305.64092,4259.487075,4239.999896,4245.640922,4210.256307,4225.640922,4204.615282,4191.794769,4194.871692,4196.410154,4232.820409,4237.948614,4246.153742,4306.666561
85,0,4314.358869,4250.769127,4237.948614,4237.948614,4202.051179,4223.07682,4202.564,4188.717846,4195.384513,4196.922974,4231.794768,4235.384512,4251.794768,4316.922971
86,0,4338.974253,4266.666562,4245.640922,4250.769127,4213.846051,4226.153743,4205.128102,4194.871692,4204.615282,4207.179384,4251.794768,4245.128101,4279.487075,4350.769124
87,0,4343.076817,4272.820408,4250.256306,4256.410152,4217.435794,4224.102461,4203.589641,4194.871692,4205.640923,4208.205025,4258.461434,4253.333229,4286.666562,4366.66656
88,0,4348.205022,4269.743485,4253.84605,4252.307588,4216.922974,4226.666563,4209.230666,4203.589641,4214.358871,4218.974256,4265.640921,4262.563998,4299.487074,4376.92297
89,0,4352.820406,4264.10246,4252.307588,4244.615281,4210.769128,4225.128102,4205.640923,4205.128102,4214.871692,4225.128102,4270.769126,4261.538357,4310.256305,4384.615277
90,0,4349.230663,4262.051178,4250.256306,4248.205024,4206.666564,4221.538358,4202.051179,4202.051179,4210.769128,4223.07682,4268.205024,4257.948614,4309.230664,4385.128098
91,0,4340.512714,4256.410152,4247.179383,4250.256306,4211.794769,4221.025538,4203.589641,4200.512718,4210.769128,4218.974256,4268.717844,4255.897332,4304.615279,4379.487072
92,0,4338.461432,4257.435793,4249.230665,4250.769127,4224.102461,4227.692204,4212.307589,4203.589641,4212.307589,4219.999897,4275.897331,4257.948614,4307.692202,4377.43579
93,0,4315.38451,4241.538358,4240.512717,4238.974255,4211.794769,4224.102461,4203.07682,4191.281949,4193.333231,4205.640923,4256.410152,4238.461435,4290.769126,4350.769124
94,0,4290.769126,4227.179384,4228.717845,4232.820409,4202.051179,4218.461435,4194.871692,4182.564,4184.615282,4195.384513,4238.974255,4220.512717,4269.230665,4320.512715
95,0,4282.563998,4226.666563,4223.58964,4233.84605,4205.128102,4218.974256,4196.410154,4185.640923,4192.82041,4195.897333,4242.051178,4221.538358,4259.999896,4309.230664
96,0,4282.563998,4232.820409,4227.179384,4238.461435,4211.794769,4222.563999,4201.538359,4191.794769,4198.461436,4200.512718,4242.563999,4226.666563,4259.999896,4307.179382
97,0,4271.281947,4226.153743,4229.230666,4235.384512,4211.794769,4223.58964,4201.538359,4194.871692,4202.564,4203.589641,4231.794768,4222.051179,4251.794768,4293.333228
98,0,4259.487075,4218.461435,4228.717845,4233.84605,4210.256307,4225.640922,4205.640923,4197.435795,4209.743487,4205.128102,4234.871691,4219.487076,4242.563999,4279.487075
99,0,4258.461434,4221.025538,4228.717845,4234.871691,4214.358871,4230.256307,4211.794769,4203.07682,4211.281948,4209.743487,4242.563999,4222.563999,4244.615281,4276.922972
100,0,4254.35887,4220.512717,4227.179384,4230.256307,4216.410153,4231.281948,4212.307589,4203.07682,4206.666564,4211.281948,4238.974255,4222.051179,4248.205024,4271.281947
101,0,4243.076819,4210.256307,4227.692204,4229.743486,4212.307589,4228.205025,4211.281948,4196.922974,4208.205025,4211.281948,4234.871691,4222.563999,4237.948614,4258.461434
102,0,4233.84605,4198.974256,4224.615281,4228.205025,4211.281948,4226.666563,4211.794769,4194.871692,4207.692205,4207.692205,4230.769127,4219.487076,4219.487076,4241.538358
103,0,4232.820409,4202.051179,4223.07682,4224.615281,4223.07682,4231.281948,4217.948615,4206.666564,4212.307589,4214.871692,4231.794768,4221.025538,4222.051179,4236.922973
104,0,4217.435794,4191.794769,4215.897333,4213.33323,4214.871692,4228.205025,4211.794769,4202.564,4206.666564,4209.230666,4225.128102,4214.358871,4218.461435,4226.153743
105,0,4203.07682,4183.589641,4210.769128,4214.871692,4202.051179,4222.563999,4204.102461,4194.358872,4198.461436,4197.948615,4219.487076,4203.07682,4207.179384,4213.846051
106,0,4194.358872,4183.589641,4204.615282,4209.743487,4202.051179,4221.025538,4197.948615,4199.487077,4198.974256,4195.897333,4217.948615,4195.384513,4202.051179,4207.179384
107,0,4198.461436,4185.640923,4208.205025,4205.128102,4201.538359,4225.640922,4203.07682,4209.743487,4210.769128,4209.230666,4226.666563,4206.666564,4214.358871,4212.82041
108,0,4192.30759,4173.333231,4206.666564,4203.07682,4188.717846,4219.999897,4199.999897,4194.871692,4200.512718,4203.589641,4222.563999,4207.692205,4206.666564,4203.07682
109,0,4192.30759,4178.974257,4206.153743,4211.794769,4198.974256,4221.025538,4203.07682,4184.615282,4193.333231,4197.435795,4215.897333,4201.538359,4195.897333,4193.846051
110,0,4197.435795,4189.743487,4209.230666,4215.897333,4213.846051,4228.205025,4210.769128,4193.846051,4202.051179,4202.051179,4216.410153,4202.051179,4198.974256,4195.384513
111,0,4201.025538,4188.205026,4212.307589,4217.948615,4213.846051,4230.256307,4216.410153,4205.640923,4211.794769,4210.256307,4219.487076,4206.666564,4204.102461,4199.999897
112,0,4184.615282,4169.743488,4201.538359,4208.717846,4204.102461,4220.512717,4207.179384,4195.384513,4197.948615,4197.435795,4206.666564,4193.333231,4186.666564,4183.589641
113,0,4175.897334,4166.666565,4199.999897,4207.179384,4206.666564,4221.025538,4203.589641,4188.717846,4190.256308,4188.717846,4203.589641,4189.743487,4182.564,4175.897334
114,0,4176.410154,4172.820411,4206.666564,4209.743487,4206.666564,4223.07682,4206.153743,4190.769128,4195.897333,4196.410154,4210.769128,4195.384513,4189.743487,4182.564
115,0,4177.435795,4176.410154,4205.640923,4210.769128,4207.179384,4223.58964,4212.82041,4194.358872,4204.102461,4207.692205,4213.846051,4195.384513,4189.230667,4184.102462
116,0,4179.999898,4177.435795,4206.153743,4212.82041,4211.281948,4227.692204,4219.999897,4204.102461,4211.281948,4211.794769,4216.410153,4195.897333,4190.769128,4181.538359
117,0,4181.025539,4174.871693,4207.179384,4213.846051,4207.179384,4229.743486,4220.512717,4212.82041,4212.82041,4209.230666,4218.461435,4197.948615,4199.487077,4183.589641
118,0,4179.487077,4170.256308,4205.128102,4214.358871,4198.461436,4229.743486,4219.999897,4213.846051,4216.922974,4214.358871,4221.025538,4197.948615,4202.051179,4186.666564
119,0,4178.461436,4172.30759,4202.564,4215.384512,4204.102461,4231.281948,4219.999897,4213.33323,4219.999897,4219.487076,4218.974256,4198.974256,4202.051179,4186.666564
120,0,4187.179385,4186.153744,4206.666564,4221.025538,4222.051179,4233.84605,4223.07682,4216.922974,4219.999897,4219.999897,4221.025538,4204.102461,4207.179384,4191.794769
121,0,4189.743487,4185.640923,4207.692205,4216.410153,4218.461435,4228.717845,4221.538358,4209.230666,4213.33323,4214.871692,4224.615281,4201.025538,4201.025538,4191.794769
122,0,4189.743487,4179.999898,4210.256307,4216.922974,4208.717846,4226.153743,4217.435794,4205.128102,4214.358871,4219.999897,4229.743486,4203.07682,4202.564,4192.30759
123,0,4183.076821,4176.410154,4209.230666,4218.461435,4203.07682,4227.692204,4211.794769,4206.666564,4212.82041,4217.435794,4218.461435,4201.025538,4207.692205,4185.640923
124,0,4183.589641,4188.205026,4210.769128,4222.051179,4212.82041,4234.358871,4222.051179,4214.871692,4219.487076,4219.999897,4215.897333,4199.487077,4208.205025,4185.640923
125,0,4183.589641,4196.410154,4210.256307,4219.999897,4217.948615,4233.84605,4229.743486,4218.461435,4224.615281,4222.563999,4224.615281,4201.025538,4199.999897,4186.153744
126,0,4191.281949,4204.615282,4214.358871,4226.153743,4218.461435,4235.384512,4230.769127,4221.025538,4226.153743,4221.538358,4230.769127,4207.692205,4206.153743,4190.769128
127,0,4188.205026,4204.615282,4208.205025,4222.051179,4211.794769,4233.33323,4224.102461,4211.794769,4215.897333,4210.256307,4219.487076,4203.07682,4202.051179,4185.128103
128,0,4180.512718,4206.666564,4200.512718,4216.410153,4211.281948,4233.33323,4222.051179,4208.717846,4214.871692,4212.307589,4215.897333,4201.025538,4192.30759,4180.512718
0,0,4179.487077,4210.769128,4199.487077,4215.897333,4205.640923,4232.820409,4219.487076,4209.230666,4217.435794,4214.871692,4218.461435,4205.128102,4194.871692,4179.999898
1,0,4188.717846,4216.410153,4203.07682,4215.897333,4198.974256,4230.769127,4222.563999,4210.769128,4220.512717,4212.82041,4218.461435,4207.692205,4199.999897,4182.05118
2,0,4175.384513,4201.025538,4198.461436,4204.615282,4202.051179,4228.717845,4221.025538,4210.769128,4216.410153,4209.743487,4204.102461,4200.512718,4168.717847,4161.025539
3,0,4166.153744,4193.846051,4199.999897,4207.179384,4215.897333,4234.358871,4225.640922,4215.384512,4217.948615,4217.948615,4202.051179,4204.615282,4162.05118,4154.871693
4,0,4173.333231,4199.487077,4203.589641,4209.743487,4201.025538,4226.153743,4221.538358,4209.743487,4215.897333,4214.358871,4213.33323,4209.230666,4189.743487,4169.743488
5,0,4180.512718,4196.922974,4202.051179,4205.128102,4182.05118,4216.410153,4214.871692,4205.128102,4210.769128,4208.205025,4229.743486,4212.307589,4214.358871,4183.589641
6,0,4189.743487,4190.769128,4208.205025,4207.692205,4202.051179,4227.692204,4223.07682,4218.461435,4225.640922,4234.358871,4245.640922,4226.153743,4245.128101,4199.487077
7,0,4191.794769,4186.153744,4209.230666,4207.692205,4213.33323,4232.307589,4224.102461,4220.512717,4234.358871,4244.615281,4243.58964,4226.153743,4264.10246,4205.128102
8,0,4178.461436,4175.897334,4201.538359,4202.051179,4192.82041,4218.461435,4211.794769,4207.692205,4218.974256,4215.897333,4232.820409,4211.794769,4245.640922,4193.333231
9,0,4180.512718,4173.846052,4206.666564,4204.102461,4199.487077,4222.563999,4219.999897,4213.33323,4221.538358,4218.461435,4237.948614,4219.487076,4243.076819,4194.871692
10,0,4196.922974,4184.102462,4217.435794,4208.717846,4224.615281,4239.487076,4243.58964,4233.84605,4247.179383,4254.35887,4251.794768,4241.538358,4268.205024,4212.307589
11,0,4182.564,4177.435795,4207.179384,4201.025538,4215.897333,4234.871691,4237.948614,4226.666563,4240.512717,4244.10246,4242.563999,4231.281948,4252.307588,4199.999897
12,0,4171.281949,4173.333231,4203.07682,4204.102461,4206.666564,4227.692204,4228.717845,4220.512717,4229.743486,4233.33323,4240.512717,4220.512717,4241.025537,4190.256308
13,0,4176.922975,4170.769129,4206.153743,4203.07682,4210.256307,4228.205025,4230.769127,4225.128102,4235.897332,4244.615281,4242.563999,4220.512717,4251.794768,4192.30759
14,0,4182.05118,4171.281949,4206.153743,4203.589641,4210.769128,4230.256307,4234.358871,4228.717845,4244.10246,4247.179383,4241.538358,4219.999897,4252.820409,4192.30759
15,0,4173.333231,4171.281949,4198.974256,4206.153743,4197.435795,4224.102461,4225.128102,4216.410153,4232.307589,4230.769127,4235.897332,4209.230666,4245.640922,4186.153744
16,0,4177.948616,4178.461436,4202.051179,4209.743487,4196.410154,4223.58964,4224.102461,4214.358871,4228.205025,4230.256307,4238.461435,4211.281948,4254.35887,4191.794769
17,0,4183.076821,4175.897334,4205.128102,4205.128102,4207.179384,4227.692204,4225.128102,4215.384512,4225.640922,4226.153743,4236.922973,4214.358871,4249.230665,4195.897333
18,0,4186.153744,4174.871693,4205.128102,4207.692205,4219.999897,4230.769127,4227.692204,4217.435794,4227.692204,4227.692204,4240.512717,4220.512717,4247.179383,4201.025538
19,0,4175.384513,4166.153744,4196.922974,4202.564,4208.205025,4223.07682,4221.538358,4208.717846,4221.025538,4223.58964,4233.84605,4215.384512,4242.563999,4190.769128
20,0,4169.743488,4161.53836,4195.384513,4199.999897,4198.974256,4221.025538,4217.435794,4202.564,4216.922974,4216.922974,4225.640922,4207.692205,4232.820409,4181.538359
21,0,4167.179385,4159.487078,4197.435795,4200.512718,4205.128102,4225.128102,4217.948615,4202.051179,4216.922974,4216.410153,4224.102461,4198.974256,4225.128102,4179.487077
22,0,4168.205026,4162.564001,4195.384513,4202.564,4210.256307,4230.769127,4227.692204,4210.256307,4219.487076,4222.051179,4224.615281,4196.410154,4229.743486,4180.512718
23,0,4171.79477,4164.102462,4192.30759,4201.025538,4208.205025,4232.307589,4232.820409,4218.461435,4221.025538,4217.435794,4220.512717,4195.897333,4226.666563,4178.974257
24,0,4180.512718,4170.256308,4197.948615,4206.666564,4211.281948,4230.769127,4230.769127,4221.025538,4225.128102,4217.435794,4223.07682,4197.948615,4223.58964,4182.05118
25,0,4182.564,4174.358872,4200.512718,4209.230666,4209.230666,4227.179384,4224.102461,4217.948615,4227.692204,4223.58964,4225.640922,4201.538359,4222.563999,4184.615282
26,0,4171.281949,4167.692206,4192.30759,4198.461436,4201.538359,4226.153743,4215.897333,4210.256307,4221.538358,4215.384512,4223.58964,4202.564,4217.948615,4181.025539
27,0,4168.205026,4166.153744,4192.30759,4196.410154,4207.692205,4227.179384,4214.871692,4209.230666,4217.435794,4212.82041,4226.153743,4202.051179,4223.07682,4185.640923
28,0,4171.281949,4167.692206,4190.769128,4203.589641,4210.769128,4224.102461,4214.358871,4204.615282,4214.871692,4214.358871,4219.999897,4194.871692,4224.615281,4184.102462
29,0,4173.846052,4173.846052,4185.640923,4209.743487,4209.743487,4225.640922,4215.384512,4203.589641,4215.384512,4211.281948,4212.82041,4191.794769,4216.922974,4178.461436
30,0,4172.820411,4174.871693,4184.102462,4204.615282,4209.230666,4224.102461,4213.846051,4206.153743,4213.33323,4208.205025,4214.358871,4189.230667,4209.743487,4175.897334
31,0,4176.922975,4173.333231,4190.256308,4205.128102,4202.051179,4221.025538,4214.871692,4209.230666,4213.33323,4215.384512,4218.461435,4188.205026,4211.281948,4177.948616
32,0,4170.256308,4163.076821,4188.205026,4201.025538,4192.30759,4219.999897,4210.256307,4204.102461,4210.256307,4207.692205,4209.743487,4188.205026,4206.666564,4169.230667
33,0,4173.333231,4169.230667,4191.281949,4203.589641,4207.179384,4226.153743,4214.358871,4208.205025,4214.358871,4208.205025,4215.897333,4202.051179,4212.82041,4174.358872
34,0,4176.922975,4177.948616,4194.871692,4203.07682,4213.33323,4226.153743,4217.435794,4208.205025,4213.33323,4218.461435,4222.563999,4206.153743,4213.846051,4179.999898
35,0,4182.05118,4181.538359,4203.07682,4209.230666,4211.281948,4227.692204,4220.512717,4208.717846,4218.461435,4225.128102,4227.692204,4209.230666,4218.461435,4187.179385
36,0,4179.487077,4175.897334,4205.128102,4213.33323,4207.692205,4226.666563,4216.410153,4206.666564,4219.999897,4216.922974,4224.102461,4204.102461,4221.025538,4185.640923
37,0,4181.538359,4184.102462,4202.051179,4217.435794,4214.358871,4229.230666,4222.563999,4211.794769,4222.563999,4219.999897,4226.153743,4204.102461,4224.102461,4184.615282
38,0,4181.025539,4183.589641,4198.974256,4210.256307,4210.256307,4228.717845,4228.205025,4214.871692,4222.051179,4215.384512,4222.051179,4203.07682,4212.82041,4180.512718
39,0,4177.435795,4169.743488,4197.435795,4199.999897,4198.974256,4225.128102,4226.666563,4210.256307,4219.487076,4204.615282,4210.769128,4197.435795,4196.410154,4173.846052
40,0,4170.769129,4160.512719,4193.846051,4197.435795,4198.974256,4226.153743,4223.07682,4204.102461,4215.384512,4205.128102,4210.769128,4197.435795,4195.897333,4168.717847
41,0,4179.999898,4175.897334,4206.153743,4211.794769,4217.435794,4234.871691,4232.307589,4214.871692,4221.025538,4219.487076,4227.692204,4215.897333,4222.051179,4183.589641
42,0,4191.794769,4183.589641,4217.948615,4219.999897,4218.974256,4228.205025,4228.717845,4216.922974,4218.974256,4216.410153,4232.820409,4221.538358,4229.743486,4194.871692
43,0,4189.743487,4172.820411,4210.769128,4213.846051,4204.615282,4220.512717,4219.487076,4208.205025,4213.846051,4212.82041,4225.128102,4211.794769,4215.384512,4188.205026
44,0,4186.666564,4170.256308,4208.205025,4209.743487,4209.230666,4229.230666,4229.230666,4215.897333,4224.102461,4228.717845,4229.230666,4215.384512,4219.999897,4188.717846
45,0,4181.025539,4171.79477,4208.717846,4207.179384,4207.179384,4227.692204,4230.256307,4216.922974,4221.538358,4219.487076,4222.051179,4209.743487,4222.051179,4185.128103
46,0,4175.384513,4169.743488,4199.487077,4206.666564,4199.487077,4220.512717,4218.974256,4201.538359,4207.692205,4196.410154,4207.179384,4192.82041,4205.640923,4171.79477
47,0,4175.384513,4172.820411,4193.333231,4207.692205,4208.205025,4226.666563,4217.948615,4197.948615,4207.692205,4198.461436,4209.230666,4190.256308,4200.512718,4170.769129
48,0,4188.205026,4182.05118,4202.051179,4212.307589,4223.07682,4233.33323,4229.743486,4211.794769,4219.999897,4218.461435,4224.615281,4204.102461,4218.974256,4189.230667
49,0,4192.30759,4178.461436,4204.615282,4210.769128,4218.461435,4227.179384,4228.717845,4214.358871,4221.538358,4217.948615,4229.230666,4209.743487,4226.153743,4193.846051
50,0,4191.281949,4176.922975,4202.051179,4212.82041,4204.102461,4226.153743,4224.615281,4214.871692,4226.666563,4222.563999,4232.820409,4210.769128,4225.640922,4194.871692
51,0,4185.640923,4175.897334,4199.999897,4210.769128,4192.82041,4224.102461,4217.948615,4212.307589,4226.153743,4228.717845,4230.769127,4203.07682,4227.179384,4193.333231
52,0,4191.794769,4180.512718,4208.205025,4214.871692,4205.640923,4226.153743,4221.538358,4215.897333,4227.179384,4232.820409,4230.769127,4207.179384,4238.461435,4197.948615
53,0,4186.153744,4172.30759,4203.589641,4204.102461,4213.33323,4225.128102,4222.563999,4215.384512,4224.102461,4223.58964,4224.615281,4210.256307,4227.179384,4191.794769
54,0,4179.487077,4170.769129,4196.410154,4202.051179,4203.07682,4223.58964,4223.07682,4211.281948,4219.999897,4215.384512,4219.999897,4205.128102,4208.717846,4185.128103
55,0,4178.461436,4176.922975,4198.974256,4210.769128,4197.948615,4224.615281,4217.435794,4205.640923,4211.281948,4206.666564,4211.281948,4189.230667,4202.564,4177.948616
56,0,4185.128103,4185.640923,4206.153743,4216.922974,4216.922974,4232.820409,4225.128102,4213.846051,4218.461435,4211.794769,4214.871692,4194.358872,4210.769128,4183.589641
57,0,4186.666564,4177.435795,4204.615282,4208.205025,4219.487076,4233.84605,4234.358871,4218.974256,4229.230666,4222.563999,4224.615281,4209.743487,4214.871692,4192.30759
58,0,4191.794769,4173.333231,4207.692205,4205.640923,4209.743487,4230.256307,4231.794768,4216.922974,4232.307589,4230.769127,4230.769127,4216.922974,4222.051179,4198.974256
59,0,4190.769128,4176.922975,4207.692205,4207.692205,4199.999897,4221.025538,4213.846051,4207.692205,4222.051179,4222.051179,4225.128102,4206.153743,4220.512717,4191.281949
60,0,4192.30759,4183.589641,4207.179384,4217.435794,4202.051179,4217.948615,4213.846051,4207.179384,4217.435794,4217.948615,4224.615281,4202.564,4218.461435,4188.205026
61,0,4198.974256,4185.128103,4212.307589,4223.58964,4206.666564,4224.615281,4226.153743,4215.897333,4221.025538,4222.051179,4227.179384,4209.743487,4223.58964,4195.897333
62,0,4203.07682,4183.589641,4217.435794,4220.512717,4211.794769,4230.769127,4230.256307,4220.512717,4218.974256,4218.461435,4228.205025,4211.281948,4225.640922,4201.025538
63,0,4206.153743,4187.179385,4220.512717,4222.563999,4227.179384,4232.820409,4237.435794,4223.58964,4219.999897,4223.07682,4234.871691,4217.435794,4233.33323,4204.615282
64,0,4202.051179,4186.666564,4222.051179,4224.102461,4228.717845,4230.769127,4240.512717,4223.58964,4222.051179,4227.692204,4234.358871,4223.07682,4235.384512,4207.179384
65,0,4196.922974,4185.640923,4221.025538,4222.563999,4211.794769,4228.717845,4232.820409,4218.974256,4219.999897,4217.435794,4229.743486,4217.948615,4221.538358,4205.128102
66,0,4202.564,4185.640923,4216.922974,4223.07682,4204.102461,4226.666563,4226.666563,4214.871692,4218.974256,4213.33323,4231.794768,4213.33323,4217.435794,4199.999897
67,0,4211.281948,4185.128103,4221.538358,4227.692204,4221.025538,4230.256307,4233.84605,4224.615281,4233.84605,4237.948614,4244.615281,4227.179384,4238.461435,4207.692205
68,0,4201.025538,4183.076821,4220.512717,4219.487076,4222.051179,4230.769127,4232.307589,4227.692204,4236.410153,4239.487076,4242.051178,4228.205025,4241.025537,4210.256307
69,0,4206.666564,4193.846051,4225.128102,4222.051179,4218.974256,4231.281948,4233.33323,4226.666563,4231.794768,4230.256307,4237.435794,4224.615281,4238.974255,4214.871692
70,0,4203.07682,4170.256308,4224.615281,4215.897333,4215.384512,4228.205025,4234.871691,4226.666563,4229.743486,4229.743486,4237.948614,4227.179384,4238.461435,4210.769128
71,0,4191.281949,4147.179386,4222.051179,4212.307589,4210.769128,4228.717845,4237.948614,4235.384512,4238.461435,4235.897332,4244.10246,4235.384512,4237.435794,4208.717846
72,0,4201.538359,4176.410154,4223.58964,4219.487076,4208.205025,4227.179384,4233.33323,4231.281948,4236.410153,4233.33323,4243.076819,4232.307589,4232.307589,4213.33323
73,0,4233.33323,4229.230666,4234.871691,4244.10246,4224.615281,4229.743486,4235.897332,4227.692204,4233.84605,4235.897332,4245.640922,4231.794768,4237.948614,4230.256307
74,0,4234.871691,4240.512717,4231.794768,4253.84605,4227.179384,4227.179384,4229.230666,4223.07682,4226.153743,4225.128102,4234.871691,4224.102461,4220.512717,4226.666563
75,0,4229.743486,4237.948614,4228.717845,4251.794768,4220.512717,4228.717845,4226.153743,4223.58964,4228.205025,4219.999897,4223.07682,4224.102461,4199.487077,4217.948615
76,0,4232.307589,4236.410153,4235.384512,4247.179383,4219.999897,4230.256307,4229.743486,4224.615281,4230.769127,4223.58964,4229.743486,4230.256307,4199.999897,4220.512717
77,0,4228.717845,4233.33323,4234.358871,4246.666563,4224.615281,4229.743486,4233.33323,4226.153743,4228.717845,4226.153743,4241.025537,4230.769127,4208.205025,4221.025538
78,0,4215.384512,4225.128102,4219.999897,4236.922973,4218.974256,4226.153743,4226.153743,4224.102461,4221.538358,4218.974256,4227.179384,4218.461435,4197.435795,4203.07682
79,0,4210.769128,4225.128102,4221.025538,4234.358871,4215.897333,4226.666563,4226.666563,4222.563999,4218.461435,4211.794769,4214.358871,4213.33323,4189.230667,4193.846051
80,0,4213.33323,4236.922973,4232.307589,4242.051178,4217.948615,4227.179384,4231.281948,4224.102461,4218.461435,4205.640923,4220.512717,4219.999897,4195.384513,4202.051179
81,0,4217.948615,4244.10246,4228.717845,4237.435794,4221.025538,4226.666563,4227.692204,4224.615281,4216.922974,4204.615282,4223.07682,4223.07682,4191.281949,4203.07682
82,0,4219.487076,4241.025537,4221.538358,4229.743486,4215.384512,4227.179384,4225.128102,4222.051179,4215.897333,4208.205025,4217.948615,4219.487076,4179.999898,4195.897333
83,0,4217.435794,4243.076819,4222.563999,4233.84605,4198.974256,4225.128102,4224.102461,4214.871692,4210.256307,4200.512718,4213.33323,4217.435794,4176.922975,4191.794769
84,0,4223.07682,4253.333229,4225.128102,4238.974255,4207.692205,4225.128102,4228.717845,4216.410153,4213.846051,4204.615282,4216.410153,4221.025538,4183.589641,4194.358872
85,0,4229.230666,4257.435793,4222.563999,4238.974255,4233.84605,4229.230666,4230.256307,4221.538358,4220.512717,4215.897333,4221.025538,4224.615281,4189.743487,4195.897333
86,0,4229.743486,4260.512716,4225.128102,4244.615281,4235.897332,4230.256307,4226.666563,4223.07682,4225.128102,4217.948615,4225.640922,4229.230666,4196.922974,4197.948615
87,0,4217.435794,4251.281947,4219.999897,4233.33323,4209.230666,4219.999897,4215.384512,4212.307589,4216.410153,4203.07682,4216.410153,4221.538358,4189.230667,4186.666564
88,0,4218.461435,4248.717845,4217.948615,4228.717845,4208.205025,4218.461435,4216.922974,4207.692205,4213.33323,4200.512718,4211.794769,4218.461435,4185.640923,4186.153744
89,0,4217.948615,4245.640922,4215.384512,4232.307589,4219.487076,4220.512717,4215.384512,4206.666564,4211.281948,4200.512718,4206.666564,4218.974256,4183.589641,4187.179385
90,0,4216.922974,4244.615281,4216.410153,4235.384512,4221.025538,4222.563999,4219.999897,4214.358871,4215.897333,4205.640923,4211.281948,4223.07682,4190.769128,4189.743487
91,0,4214.871692,4239.999896,4213.846051,4232.307589,4215.897333,4225.640922,4226.666563,4218.461435,4216.922974,4210.256307,4219.487076,4221.538358,4189.230667,4189.743487
92,0,4226.666563,4250.769127,4220.512717,4237.435794,4231.794768,4232.307589,4235.384512,4225.640922,4224.615281,4220.512717,4230.769127,4229.230666,4195.384513,4199.999897
93,0,4225.640922,4249.743486,4221.538358,4231.281948,4227.179384,4230.769127,4226.666563,4221.538358,4219.487076,4211.794769,4225.128102,4227.692204,4194.358872,4200.512718
94,0,4219.487076,4240.512717,4216.410153,4229.743486,4209.743487,4227.179384,4220.512717,4216.922974,4212.82041,4203.589641,4221.538358,4221.538358,4192.30759,4196.922974
95,0,4219.999897,4236.922973,4216.922974,4233.84605,4218.974256,4226.153743,4224.102461,4221.538358,4217.948615,4210.256307,4227.179384,4220.512717,4198.974256,4196.410154
96,0,4226.666563,4242.051178,4222.051179,4237.435794,4234.358871,4224.615281,4227.692204,4227.179384,4224.615281,4215.897333,4231.281948,4223.58964,4209.743487,4202.564
97,0,4230.256307,4244.615281,4222.051179,4237.948614,4212.82041,4220.512717,4222.051179,4222.051179,4218.974256,4212.82041,4227.692204,4224.102461,4206.666564,4207.692205
98,0,4238.461435,4250.256306,4227.179384,4244.10246,4201.538359,4224.615281,4224.615281,4225.128102,4221.538358,4221.025538,4231.794768,4229.230666,4209.743487,4213.33323
99,0,4243.58964,4254.871691,4236.922973,4246.666563,4227.692204,4234.358871,4233.84605,4237.435794,4232.820409,4228.717845,4242.563999,4234.358871,4223.07682,4219.487076
100,0,4233.33323,4242.051178,4235.384512,4236.922973,4235.384512,4234.871691,4231.794768,4236.410153,4229.230666,4223.07682,4240.512717,4231.281948,4222.051179,4218.974256
101,0,4223.58964,4234.358871,4229.743486,4233.33323,4220.512717,4225.640922,4226.153743,4230.256307,4224.615281,4218.974256,4231.281948,4228.717845,4210.256307,4211.794769
102,0,4226.666563,4238.461435,4227.179384,4238.461435,4218.974256,4226.153743,4226.666563,4230.769127,4231.794768,4217.948615,4228.205025,4227.692204,4204.102461,4204.615282
103,0,4233.84605,4239.999896,4225.640922,4240.512717,4227.692204,4232.820409,4231.281948,4231.281948,4236.922973,4226.153743,4227.179384,4226.153743,4204.615282,4206.153743
104,0,4228.205025,4233.33323,4222.051179,4232.820409,4221.025538,4228.205025,4226.666563,4225.128102,4223.58964,4221.025538,4218.974256,4220.512717,4197.435795,4204.615282
105,0,4226.666563,4235.897332,4226.153743,4235.384512,4222.051179,4226.153743,4225.640922,4225.128102,4216.410153,4207.692205,4221.538358,4221.538358,4196.410154,4206.153743
106,0,4220.512717,4233.33323,4220.512717,4229.743486,4222.563999,4223.58964,4219.999897,4216.922974,4212.307589,4194.871692,4216.410153,4214.358871,4188.717846,4196.922974
107,0,4212.82041,4220.512717,4215.384512,4221.538358,4210.256307,4219.487076,4218.461435,4210.256307,4211.281948,4194.871692,4209.230666,4208.205025,4183.589641,4187.179385
108,0,4202.564,4201.025538,4214.358871,4216.410153,4196.410154,4217.948615,4217.948615,4210.769128,4209.743487,4192.82041,4207.179384,4206.666564,4180.512718,4178.974257
109,0,4216.922974,4217.948615,4221.538358,4229.230666,4217.435794,4226.666563,4229.230666,4221.538358,4223.07682,4210.256307,4216.410153,4217.435794,4193.333231,4190.256308
110,0,4230.769127,4244.615281,4220.512717,4237.435794,4229.230666,4227.692204,4231.794768,4221.025538,4226.666563,4217.435794,4212.82041,4215.384512,4193.846051,4197.435795
111,0,4231.281948,4249.230665,4222.051179,4243.076819,4220.512717,4225.128102,4229.230666,4220.512717,4223.58964,4211.281948,4212.307589,4210.769128,4186.666564,4194.871692
112,0,4220.512717,4233.84605,4222.563999,4236.922973,4212.307589,4223.07682,4226.153743,4218.461435,4219.999897,4207.692205,4214.358871,4210.769128,4181.025539,4187.692205
113,0,4222.051179,4236.410153,4221.025538,4232.820409,4222.563999,4226.666563,4231.794768,4220.512717,4226.666563,4216.922974,4220.512717,4218.974256,4188.717846,4194.871692
114,0,4226.666563,4241.538358,4221.025538,4233.33323,4228.205025,4229.743486,4235.897332,4223.58964,4229.743486,4223.07682,4225.128102,4223.58964,4198.974256,4201.538359
115,0,4227.179384,4245.128101,4222.051179,4239.999896,4227.692204,4230.256307,4237.435794,4226.153743,4228.205025,4222.563999,4223.07682,4219.999897,4205.128102,4199.999897
116,0,4224.615281,4243.58964,4218.461435,4238.974255,4223.58964,4224.615281,4230.769127,4222.563999,4224.102461,4215.897333,4215.384512,4212.307589,4198.461436,4194.358872
117,0,4221.025538,4237.435794,4212.82041,4233.84605,4224.615281,4221.025538,4223.58964,4217.435794,4219.487076,4212.307589,4217.435794,4212.307589,4195.384513,4195.384513
118,0,4219.487076,4239.487076,4214.358871,4233.84605,4222.563999,4223.07682,4224.102461,4217.948615,4219.487076,4217.435794,4225.128102,4217.948615,4203.07682,4201.025538
119,0,4217.435794,4239.487076,4212.82041,4228.205025,4209.743487,4224.102461,4223.58964,4216.410153,4221.538358,4217.948615,4219.999897,4213.846051,4202.564,4197.435795
120,0,4220.512717,4239.999896,4214.358871,4226.666563,4213.846051,4225.128102,4221.025538,4217.948615,4223.58964,4216.410153,4213.846051,4213.846051,4198.974256,4197.948615
121,0,4228.717845,4237.435794,4220.512717,4232.820409,4227.179384,4226.666563,4222.051179,4217.435794,4218.974256,4209.743487,4212.307589,4223.58964,4201.538359,4205.128102
122,0,4234.358871,4236.922973,4225.640922,4238.461435,4227.692204,4228.205025,4227.692204,4218.461435,4216.922974,4207.692205,4209.230666,4228.717845,4205.640923,4208.717846
123,0,4228.205025,4238.974255,4220.512717,4232.307589,4216.410153,4220.512717,4219.999897,4210.769128,4211.281948,4199.487077,4195.897333,4221.025538,4201.025538,4202.051179
124,0,4227.692204,4236.410153,4227.692204,4235.384512,4217.948615,4216.922974,4221.025538,4214.358871,4218.461435,4203.589641,4201.538359,4228.717845,4204.615282,4206.153743
125,0,4222.563999,4218.461435,4234.871691,4233.84605,4218.974256,4221.538358,4225.640922,4225.128102,4229.743486,4218.974256,4214.871692,4238.461435,4206.666564,4205.640923
126,0,4230.769127,4238.461435,4235.384512,4241.025537,4225.128102,4228.205025,4225.640922,4229.230666,4232.820409,4231.281948,4215.897333,4237.948614,4211.794769,4209.230666
127,0,4237.435794,4270.256306,4230.256307,4247.692204,4223.07682,4222.051179,4215.897333,4213.846051,4215.384512,4212.307589,4195.897333,4223.58964,4198.974256,4205.640923
128,0,4236.922973,4263.589639,4231.794768,4249.743486,4217.948615,4218.974256,4219.999897,4211.281948,4211.281948,4201.025538,4190.769128,4222.563999,4183.589641,4199.487077
0,0,4229.230666,4239.999896,4230.256307,4241.025537,4214.358871,4220.512717,4221.025538,4216.410153,4216.922974,4204.102461,4199.999897,4225.128102,4179.487077,4195.384513
1,0,4230.256307,4250.256306,4228.205025,4242.051178,4216.922974,4223.58964,4218.974256,4216.410153,4219.487076,4203.589641,4204.615282,4227.179384,4188.717846,4202.051179
2,0,4226.666563,4254.35887,4224.102461,4239.999896,4219.999897,4222.563999,4216.922974,4212.82041,4215.897333,4198.461436,4197.948615,4224.102461,4189.230667,4199.487077
3,0,4228.205025,4248.205024,4226.666563,4237.948614,4228.717845,4224.102461,4227.692204,4223.58964,4225.128102,4213.846051,4199.999897,4224.102461,4193.846051,4198.461436
4,0,4227.179384,4243.58964,4227.179384,4236.922973,4222.051179,4221.025538,4230.769127,4228.205025,4229.743486,4219.999897,4197.435795,4219.487076,4193.333231,4195.384513
5,0,4221.025538,4243.58964,4221.025538,4240.512717,4215.384512,4219.999897,4222.563999,4222.563999,4224.102461,4209.743487,4190.256308,4213.33323,4186.666564,4189.743487
6,0,4218.974256,4240.512717,4215.897333,4238.974255,4222.563999,4222.563999,4219.487076,4221.538358,4223.07682,4209.230666,4192.30759,4209.743487,4188.717846,4189.743487
7,0,4217.948615,4235.384512,4214.871692,4231.281948,4225.640922,4224.615281,4229.230666,4225.128102,4229.230666,4217.435794,4195.384513,4208.717846,4192.30759,4191.794769
8,0,4213.846051,4235.384512,4214.871692,4229.743486,4226.666563,4227.692204,4234.871691,4231.794768,4235.897332,4218.974256,4193.846051,4214.358871,4190.256308,4193.333231
9,0,4213.846051,4235.897332,4215.897333,4237.435794,4232.307589,4228.717845,4229.230666,4234.871691,4235.384512,4215.384512,4196.922974,4214.358871,4191.281949,4195.897333
10,0,4220.512717,4240.512717,4219.487076,4243.076819,4231.281948,4226.666563,4227.179384,4233.33323,4232.307589,4217.948615,4202.051179,4212.307589,4198.974256,4201.025538
11,0,4220.512717,4241.025537,4218.974256,4234.871691,4223.07682,4225.640922,4226.153743,4226.666563,4229.743486,4218.974256,4198.461436,4216.922974,4203.589641,4202.051179
12,0,4224.102461,4245.128101,4222.563999,4237.435794,4231.281948,4229.230666,4232.307589,4228.717845,4236.410153,4225.640922,4205.128102,4225.640922,4209.743487,4210.256307
13,0,4226.153743,4245.128101,4225.128102,4242.563999,4235.384512,4228.205025,4231.794768,4225.640922,4232.820409,4222.051179,4207.179384,4221.538358,4206.153743,4209.230666
14,0,4231.281948,4246.153742,4228.205025,4243.58964,4231.281948,4226.666563,4228.717845,4222.563999,4231.794768,4221.538358,4208.205025,4221.538358,4205.640923,4206.153743
15,0,4227.179384,4241.025537,4222.563999,4235.384512,4226.153743,4225.640922,4224.615281,4223.07682,4232.820409,4222.051179,4206.153743,4222.051179,4205.640923,4204.615282
16,0,4224.615281,4241.025537,4220.512717,4237.948614,4231.281948,4227.692204,4232.820409,4231.281948,4235.897332,4227.179384,4206.666564,4222.051179,4209.230666,4204.615282
17,0,4216.922974,4236.922973,4221.025538,4237.948614,4230.256307,4228.717845,4232.307589,4227.179384,4226.153743,4214.871692,4199.999897,4216.410153,4203.07682,4195.384513
18,0,4219.999897,4239.487076,4226.666563,4239.487076,4235.384512,4232.820409,4234.871691,4226.153743,4227.179384,4211.794769,4204.102461,4219.999897,4206.153743,4201.538359
19,0,4218.461435,4234.871691,4222.051179,4233.84605,4233.84605,4229.743486,4234.358871,4226.666563,4231.794768,4216.922974,4205.640923,4222.563999,4201.538359,4202.051179
20,0,4216.922974,4230.256307,4216.410153,4232.307589,4229.230666,4225.640922,4233.84605,4226.666563,4230.769127,4217.948615,4201.025538,4221.538358,4195.384513,4196.410154
21,0,4216.410153,4228.205025,4218.461435,4231.281948,4226.153743,4223.07682,4231.794768,4222.563999,4226.153743,4213.33323,4198.974256,4217.435794,4196.410154,4199.487077
22,0,4226.153743,4234.871691,4228.205025,4236.922973,4232.307589,4224.615281,4234.358871,4225.640922,4232.307589,4217.948615,4209.743487,4226.666563,4210.769128,4213.846051
23,0,4229.230666,4231.794768,4228.717845,4238.974255,4231.794768,4223.58964,4229.230666,4225.640922,4232.307589,4215.384512,4211.794769,4229.743486,4210.256307,4210.769128
24,0,4223.58964,4228.205025,4222.051179,4237.948614,4225.640922,4223.07682,4226.153743,4221.025538,4226.153743,4213.846051,4204.102461,4221.538358,4203.589641,4207.692205
25,0,4217.435794,4230.769127,4220.512717,4235.384512,4230.256307,4225.128102,4225.640922,4217.435794,4227.179384,4223.58964,4203.07682,4220.512717,4207.692205,4211.281948
26,0,4215.384512,4228.205025,4221.025538,4232.820409,4242.051178,4227.179384,4221.025538,4213.846051,4228.205025,4218.974256,4201.025538,4219.487076,4209.230666,4204.102461
27,0,4224.102461,4232.820409,4223.07682,4241.025537,4247.179383,4226.666563,4221.025538,4216.410153,4228.205025,4214.871692,4195.897333,4214.358871,4208.205025,4203.07682
28,0,4228.205025,4241.538358,4220.512717,4242.051178,4233.33323,4225.128102,4218.974256,4215.384512,4227.692204,4217.948615,4194.358872,4212.82041,4205.640923,4210.256307
29,0,4219.999897,4241.538358,4213.33323,4230.769127,4226.666563,4225.640922,4214.358871,4213.846051,4226.666563,4212.307589,4193.333231,4210.769128,4199.999897,4209.743487
30,0,4207.692205,4232.820409,4207.179384,4218.461435,4230.769127,4226.153743,4218.974256,4218.461435,4225.128102,4206.153743,4184.615282,4202.564,4189.743487,4201.538359
31,0,4214.358871,4240.512717,4213.33323,4223.58964,4230.769127,4229.743486,4231.281948,4228.205025,4235.897332,4219.487076,4193.333231,4211.281948,4192.30759,4205.640923
32,0,4219.487076,4250.256306,4217.435794,4228.205025,4225.128102,4227.179384,4224.102461,4225.640922,4233.84605,4218.974256,4201.025538,4219.999897,4193.333231,4208.205025
33,0,4228.717845,4263.076819,4222.051179,4234.358871,4242.051178,4230.769127,4225.128102,4228.717845,4232.820409,4221.538358,4202.564,4223.58964,4200.512718,4214.358871
34,0,4234.358871,4266.153742,4225.128102,4234.358871,4248.717845,4232.307589,4232.820409,4231.281948,4237.435794,4229.743486,4198.974256,4222.563999,4206.666564,4217.435794
35,0,4239.999896,4265.640921,4230.769127,4236.922973,4239.999896,4229.230666,4236.410153,4232.820409,4240.512717,4233.84605,4201.538359,4231.281948,4211.281948,4221.538358
