title:K                                                                               , recorded:02.07.20 11.50.22, sampling:128, subject:K                                                                               , labels:COUNTER INTERPOLATED AF3 F7 F3 FC5 T7 P7 O1 O2 P8 T8 FC6 F4 F8 AF4,, units:emotiv,,,,,,,,,
4,0,4235.384512,4221.538358,4222.051179,4234.871691,4231.281948,4216.410153,4216.922974,4157.948616,4222.563999,4226.153743,4229.230666,4224.615281,4236.922973,4234.871691
5,0,4241.538358,4226.666563,4228.205025,4243.076819,4228.717845,4217.948615,4217.948615,4158.974257,4222.051179,4225.128102,4230.256307,4228.717845,4238.974255,4238.461435
6,0,4245.640922,4225.640922,4229.743486,4241.025537,4230.256307,4217.435794,4216.922974,4163.589642,4222.563999,4232.307589,4231.281948,4230.769127,4236.410153,4240.512717
7,0,4242.563999,4217.948615,4229.230666,4235.897332,4235.897332,4216.922974,4215.384512,4165.128103,4227.692204,4234.358871,4234.358871,4234.871691,4237.948614,4242.051178
8,0,4228.717845,4208.717846,4220.512717,4229.230666,4227.692204,4212.307589,4206.153743,4154.358873,4219.999897,4221.025538,4224.615281,4225.640922,4225.640922,4231.281948
9,0,4234.871691,4219.487076,4224.615281,4239.999896,4231.281948,4216.410153,4214.358871,4157.948616,4221.025538,4227.179384,4226.666563,4226.153743,4228.205025,4234.871691
10,0,4235.384512,4223.07682,4226.666563,4241.538358,4240.512717,4222.051179,4226.666563,4167.179385,4228.717845,4231.794768,4232.820409,4227.179384,4232.307589,4235.384512
11,0,4229.743486,4225.128102,4221.538358,4234.358871,4237.435794,4223.58964,4231.794768,4171.281949,4233.84605,4234.358871,4229.743486,4223.07682,4226.153743,4230.256307
12,0,4221.025538,4217.948615,4210.256307,4223.58964,4215.384512,4213.846051,4220.512717,4162.05118,4221.025538,4228.205025,4215.897333,4216.410153,4208.717846,4221.538358
13,0,4227.179384,4216.410153,4209.743487,4225.640922,4221.025538,4215.897333,4221.025538,4165.640924,4224.102461,4233.84605,4222.051179,4225.128102,4210.769128,4227.179384
14,0,4229.743486,4217.435794,4212.307589,4226.153743,4239.999896,4223.07682,4226.666563,4172.820411,4237.948614,4236.410153,4233.33323,4231.794768,4217.948615,4232.307589
15,0,4236.410153,4226.666563,4217.948615,4231.794768,4247.692204,4226.666563,4231.281948,4176.410154,4241.538358,4233.84605,4237.948614,4238.461435,4223.58964,4237.948614
16,0,4242.563999,4231.794768,4224.615281,4237.435794,4241.025537,4225.128102,4232.307589,4175.384513,4234.871691,4241.025537,4234.358871,4242.051178,4221.538358,4238.461435
17,0,4241.538358,4231.281948,4223.07682,4237.948614,4234.358871,4224.102461,4232.307589,4173.333231,4236.410153,4255.897332,4229.230666,4240.512717,4217.948615,4235.897332
18,0,4238.974255,4228.205025,4217.948615,4238.461435,4234.871691,4224.615281,4228.717845,4173.333231,4238.974255,4250.769127,4225.640922,4238.974255,4217.435794,4234.871691
19,0,4240.512717,4226.153743,4218.974256,4238.974255,4239.487076,4225.640922,4223.58964,4170.256308,4229.230666,4227.692204,4225.128102,4237.948614,4217.435794,4232.820409
20,0,4241.538358,4227.692204,4221.025538,4233.84605,4238.461435,4225.128102,4224.615281,4166.666565,4223.07682,4225.128102,4224.615281,4237.948614,4215.897333,4229.743486
21,0,4232.820409,4221.538358,4214.358871,4224.615281,4229.743486,4218.974256,4219.999897,4159.999898,4218.461435,4226.666563,4214.358871,4231.281948,4204.615282,4222.051179
22,0,4230.769127,4216.410153,4216.922974,4228.205025,4233.33323,4219.999897,4219.999897,4163.589642,4218.974256,4224.615281,4214.358871,4232.307589,4205.640923,4223.58964
23,0,4228.205025,4209.230666,4221.025538,4227.692204,4231.281948,4223.07682,4223.58964,4165.128103,4218.461435,4218.461435,4217.435794,4234.871691,4208.205025,4223.07682
24,0,4224.615281,4206.153743,4214.358871,4225.128102,4219.487076,4219.487076,4224.102461,4162.564001,4219.487076,4222.563999,4215.897333,4232.820409,4208.205025,4222.051179
25,0,4223.07682,4206.153743,4205.640923,4221.538358,4218.461435,4215.384512,4216.922974,4161.53836,4219.487076,4228.717845,4212.307589,4227.179384,4208.205025,4219.487076
26,0,4241.025537,4222.563999,4217.948615,4231.281948,4238.461435,4227.179384,4226.666563,4177.948616,4234.871691,4243.076819,4228.205025,4238.974255,4226.666563,4234.871691
27,0,4247.179383,4227.692204,4224.615281,4235.897332,4241.025537,4231.281948,4232.820409,4182.564,4241.538358,4244.615281,4237.435794,4246.153742,4235.384512,4243.076819
28,0,4245.128101,4228.205025,4222.563999,4239.999896,4233.84605,4226.666563,4231.281948,4179.999898,4241.025537,4242.051178,4237.948614,4247.692204,4234.358871,4243.076819
29,0,4239.999896,4225.128102,4217.948615,4234.871691,4227.692204,4223.07682,4227.179384,4176.922975,4235.384512,4240.512717,4229.230666,4241.025537,4222.563999,4232.307589
30,0,4243.076819,4226.153743,4222.563999,4235.897332,4231.794768,4225.128102,4231.281948,4175.897334,4233.84605,4246.153742,4225.640922,4235.384512,4219.487076,4229.230666
31,0,4239.487076,4223.07682,4223.58964,4238.974255,4230.769127,4219.999897,4222.563999,4166.153744,4225.640922,4233.84605,4226.153743,4233.33323,4221.025538,4231.281948
32,0,4235.897332,4222.051179,4221.025538,4237.435794,4237.948614,4222.051179,4221.025538,4167.692206,4226.666563,4227.692204,4231.281948,4235.897332,4223.07682,4231.794768
33,0,4223.07682,4207.179384,4211.794769,4220.512717,4232.820409,4226.153743,4225.128102,4169.743488,4226.153743,4231.281948,4218.461435,4223.58964,4205.128102,4213.846051
34,0,4223.07682,4204.615282,4211.281948,4219.999897,4220.512717,4224.615281,4221.538358,4167.179385,4225.128102,4233.33323,4213.33323,4221.538358,4204.615282,4212.82041
35,0,4241.538358,4222.563999,4219.487076,4232.820409,4226.666563,4219.487076,4213.33323,4171.79477,4230.256307,4229.743486,4230.769127,4234.358871,4232.307589,4238.461435
36,0,4253.84605,4238.974255,4223.07682,4237.435794,4238.461435,4221.025538,4217.948615,4179.487077,4233.33323,4231.794768,4236.410153,4236.410153,4243.076819,4249.230665
37,0,4249.743486,4234.871691,4222.563999,4236.922973,4227.179384,4223.07682,4223.58964,4177.948616,4233.84605,4237.435794,4226.666563,4230.769127,4227.179384,4237.948614
38,0,4241.538358,4222.563999,4221.025538,4233.33323,4220.512717,4221.538358,4223.58964,4177.435795,4235.897332,4237.435794,4227.692204,4233.84605,4221.538358,4234.871691
39,0,4239.999896,4219.487076,4223.58964,4227.692204,4233.33323,4218.974256,4226.153743,4183.076821,4237.948614,4239.487076,4233.33323,4236.410153,4226.666563,4239.999896
40,0,4233.84605,4217.435794,4218.974256,4220.512717,4226.666563,4216.410153,4219.487076,4174.358872,4227.692204,4232.307589,4222.563999,4229.230666,4216.410153,4230.769127
41,0,4234.358871,4217.948615,4219.999897,4224.615281,4219.999897,4216.922974,4216.922974,4173.333231,4226.666563,4235.897332,4225.128102,4235.384512,4218.461435,4233.33323
42,0,4237.948614,4214.871692,4227.692204,4229.230666,4230.769127,4217.948615,4222.563999,4179.999898,4233.84605,4242.563999,4231.794768,4243.076819,4229.743486,4240.512717
43,0,4242.051178,4219.999897,4232.820409,4236.410153,4236.922973,4221.025538,4228.205025,4180.512718,4238.461435,4242.051178,4231.281948,4242.051178,4233.84605,4245.128101
44,0,4231.281948,4214.871692,4219.487076,4228.717845,4218.974256,4217.948615,4214.871692,4167.692206,4224.102461,4226.666563,4221.025538,4226.153743,4221.025538,4231.794768
45,0,4232.307589,4217.948615,4217.435794,4226.666563,4221.538358,4219.487076,4218.461435,4170.769129,4224.102461,4234.358871,4225.128102,4227.692204,4225.128102,4229.230666
46,0,4236.410153,4221.025538,4223.07682,4227.179384,4230.256307,4222.051179,4226.666563,4175.384513,4233.33323,4243.076819,4228.205025,4235.384512,4230.256307,4234.358871
47,0,4236.410153,4221.538358,4222.051179,4229.230666,4224.102461,4222.051179,4226.666563,4177.435795,4234.358871,4240.512717,4223.58964,4232.307589,4225.640922,4236.410153
48,0,4224.102461,4211.794769,4209.743487,4216.922974,4219.487076,4216.922974,4218.974256,4173.333231,4224.102461,4233.84605,4212.307589,4218.461435,4212.307589,4221.025538
49,0,4220.512717,4207.692205,4207.179384,4208.717846,4233.84605,4217.948615,4222.051179,4174.871693,4227.692204,4228.717845,4213.33323,4218.974256,4215.897333,4216.410153
50,0,4217.435794,4204.102461,4204.102461,4205.128102,4229.230666,4217.948615,4217.435794,4174.871693,4225.640922,4215.897333,4212.82041,4221.025538,4217.435794,4220.512717
51,0,4221.025538,4209.230666,4205.640923,4210.769128,4221.538358,4217.948615,4211.794769,4175.897334,4219.999897,4222.563999,4213.33323,4222.051179,4214.871692,4224.102461
52,0,4224.102461,4212.82041,4209.230666,4213.33323,4229.230666,4214.358871,4206.153743,4170.256308,4218.461435,4226.666563,4210.769128,4218.974256,4209.743487,4220.512717
53,0,4226.666563,4213.846051,4212.82041,4219.487076,4231.281948,4212.82041,4208.205025,4165.640924,4215.897333,4216.410153,4202.564,4217.948615,4208.205025,4218.974256
54,0,4228.205025,4213.33323,4216.410153,4224.102461,4224.102461,4215.384512,4213.33323,4168.717847,4212.82041,4214.871692,4193.846051,4221.025538,4205.128102,4218.974256
55,0,4229.743486,4213.846051,4215.897333,4220.512717,4227.179384,4217.435794,4214.871692,4171.79477,4213.33323,4222.051179,4198.461436,4222.051179,4201.538359,4218.461435
56,0,4230.769127,4213.846051,4215.384512,4218.974256,4225.128102,4214.358871,4214.358871,4171.281949,4216.922974,4221.538358,4208.717846,4223.58964,4209.230666,4222.563999
57,0,4227.692204,4211.281948,4211.794769,4217.435794,4217.948615,4213.846051,4213.846051,4172.30759,4219.999897,4222.051179,4208.717846,4225.128102,4216.410153,4226.666563
58,0,4230.256307,4213.846051,4212.307589,4216.410153,4226.153743,4222.051179,4218.461435,4182.05118,4229.230666,4230.256307,4212.307589,4228.205025,4217.948615,4229.743486
59,0,4229.230666,4213.846051,4211.281948,4213.33323,4229.743486,4225.640922,4221.025538,4181.538359,4231.281948,4226.666563,4213.846051,4225.640922,4213.846051,4223.58964
60,0,4230.256307,4219.487076,4214.358871,4219.487076,4230.769127,4222.563999,4226.666563,4181.538359,4231.794768,4233.84605,4214.358871,4226.153743,4217.948615,4223.58964
61,0,4227.179384,4220.512717,4214.358871,4222.051179,4234.358871,4215.897333,4223.07682,4181.025539,4229.230666,4241.025537,4210.769128,4222.051179,4219.999897,4220.512717
62,0,4227.692204,4220.512717,4213.33323,4224.102461,4236.922973,4217.435794,4218.974256,4181.538359,4230.769127,4241.538358,4213.33323,4221.538358,4221.025538,4216.922974
63,0,4218.974256,4210.769128,4207.692205,4214.358871,4225.128102,4214.871692,4206.666564,4171.281949,4221.538358,4224.102461,4204.615282,4216.410153,4212.82041,4210.256307
64,0,4224.615281,4214.871692,4212.82041,4215.897333,4225.128102,4214.358871,4210.256307,4170.769129,4220.512717,4218.461435,4206.153743,4218.461435,4215.897333,4216.410153
65,0,4229.230666,4219.487076,4213.846051,4218.974256,4225.640922,4213.846051,4218.461435,4173.846052,4220.512717,4223.07682,4210.256307,4215.897333,4217.435794,4215.897333
66,0,4231.281948,4224.615281,4213.33323,4222.563999,4226.153743,4217.948615,4223.58964,4181.025539,4226.153743,4234.871691,4214.358871,4215.384512,4224.102461,4221.025538
67,0,4226.666563,4223.07682,4215.384512,4221.538358,4227.179384,4219.999897,4219.999897,4185.640923,4229.743486,4233.33323,4213.33323,4219.487076,4228.205025,4226.666563
68,0,4232.307589,4227.692204,4222.563999,4227.179384,4239.487076,4225.128102,4230.256307,4189.230667,4237.435794,4235.897332,4213.846051,4226.153743,4229.230666,4230.769127
69,0,4236.410153,4229.230666,4221.538358,4228.205025,4244.615281,4225.640922,4234.871691,4187.692205,4237.435794,4239.487076,4212.82041,4223.07682,4223.07682,4229.230666
70,0,4237.948614,4227.179384,4221.538358,4228.717845,4230.769127,4221.025538,4224.102461,4185.128103,4233.84605,4234.871691,4215.897333,4222.563999,4225.128102,4232.820409
71,0,4231.794768,4218.974256,4217.948615,4222.051179,4212.307589,4212.82041,4208.205025,4176.922975,4222.051179,4220.512717,4211.281948,4217.435794,4221.025538,4227.692204
72,0,4227.692204,4218.461435,4210.769128,4216.922974,4219.487076,4214.871692,4209.743487,4172.30759,4213.846051,4216.922974,4204.615282,4211.794769,4212.307589,4218.974256
73,0,4227.179384,4222.051179,4211.281948,4218.974256,4236.410153,4225.128102,4222.563999,4183.076821,4225.128102,4229.230666,4206.666564,4216.922974,4213.846051,4217.948615
74,0,4226.153743,4216.410153,4214.871692,4216.922974,4231.281948,4228.205025,4230.256307,4194.871692,4236.410153,4236.410153,4211.794769,4219.487076,4218.974256,4216.410153
75,0,4226.153743,4211.281948,4213.846051,4213.33323,4223.07682,4224.615281,4229.230666,4194.871692,4235.384512,4233.84605,4213.33323,4214.358871,4217.948615,4213.846051
76,0,4218.461435,4203.589641,4208.717846,4210.256307,4229.230666,4222.051179,4221.538358,4186.666564,4227.692204,4226.666563,4206.666564,4209.743487,4206.153743,4206.666564
77,0,4217.435794,4204.615282,4211.281948,4212.307589,4228.205025,4218.974256,4219.999897,4183.589641,4227.179384,4228.205025,4205.640923,4213.846051,4207.179384,4208.205025
78,0,4228.205025,4214.871692,4213.33323,4215.384512,4210.769128,4214.871692,4215.897333,4181.538359,4222.563999,4221.025538,4210.769128,4213.846051,4218.974256,4216.922974
79,0,4243.076819,4230.256307,4215.897333,4226.666563,4217.948615,4219.487076,4217.435794,4186.153744,4228.205025,4224.102461,4220.512717,4218.974256,4234.871691,4233.33323
80,0,4234.358871,4223.58964,4209.230666,4219.487076,4231.794768,4221.538358,4214.358871,4182.564,4226.153743,4224.102461,4212.82041,4213.33323,4225.640922,4229.230666
81,0,4231.794768,4218.974256,4210.256307,4216.410153,4232.820409,4222.563999,4218.461435,4183.076821,4221.538358,4216.922974,4212.82041,4211.794769,4217.435794,4223.58964
82,0,4235.897332,4216.410153,4216.410153,4219.487076,4223.07682,4221.025538,4217.435794,4182.564,4218.974256,4214.358871,4215.384512,4216.922974,4221.025538,4227.179384
83,0,4241.025537,4217.948615,4223.58964,4223.58964,4225.128102,4221.538358,4216.410153,4184.102462,4224.615281,4236.410153,4216.922974,4223.07682,4231.281948,4237.435794
84,0,4229.743486,4211.281948,4213.33323,4213.33323,4216.410153,4217.435794,4207.179384,4176.922975,4217.948615,4238.461435,4205.128102,4210.256307,4218.461435,4226.153743
85,0,4228.205025,4214.871692,4208.717846,4212.82041,4214.871692,4217.948615,4210.256307,4180.512718,4220.512717,4228.717845,4205.640923,4208.717846,4214.871692,4218.974256
86,0,4234.871691,4217.948615,4217.948615,4214.871692,4223.07682,4218.974256,4218.461435,4187.692205,4229.230666,4225.640922,4212.82041,4216.922974,4222.051179,4224.102461
87,0,4238.974255,4218.974256,4226.666563,4217.948615,4229.230666,4222.563999,4224.102461,4191.794769,4233.33323,4232.820409,4218.461435,4222.051179,4225.128102,4232.307589
88,0,4237.948614,4218.974256,4226.153743,4219.487076,4226.153743,4221.538358,4221.538358,4189.743487,4231.281948,4229.743486,4216.410153,4222.563999,4221.025538,4231.794768
89,0,4240.512717,4221.538358,4227.692204,4222.051179,4227.179384,4219.999897,4222.563999,4189.743487,4229.743486,4225.128102,4214.871692,4225.640922,4223.58964,4232.307589
90,0,4238.461435,4217.948615,4224.102461,4219.487076,4218.461435,4218.974256,4218.974256,4186.153744,4223.58964,4222.563999,4210.769128,4221.025538,4216.410153,4227.179384
91,0,4233.33323,4219.487076,4219.487076,4219.487076,4212.82041,4221.538358,4212.82041,4178.974257,4214.358871,4218.461435,4206.153743,4215.384512,4205.640923,4219.999897
92,0,4233.33323,4222.051179,4222.051179,4218.974256,4227.692204,4222.051179,4215.384512,4181.538359,4214.358871,4218.974256,4209.230666,4219.999897,4210.256307,4222.563999
93,0,4237.435794,4220.512717,4222.563999,4216.410153,4244.615281,4222.051179,4224.102461,4190.769128,4228.205025,4228.717845,4218.461435,4225.640922,4221.538358,4232.820409
94,0,4242.051178,4226.666563,4219.999897,4219.487076,4233.84605,4222.051179,4218.974256,4192.30759,4235.384512,4233.84605,4221.538358,4225.640922,4225.640922,4238.461435
95,0,4237.948614,4229.743486,4215.897333,4217.948615,4206.153743,4216.922974,4206.666564,4182.05118,4215.897333,4219.487076,4209.230666,4217.435794,4216.410153,4229.230666
96,0,4246.666563,4237.435794,4222.563999,4223.07682,4217.948615,4222.563999,4218.974256,4186.153744,4214.871692,4225.128102,4212.82041,4221.538358,4217.948615,4234.358871
97,0,4256.922973,4245.640922,4230.256307,4229.743486,4247.179383,4229.743486,4229.230666,4194.871692,4230.769127,4231.281948,4227.692204,4233.33323,4226.666563,4246.153742
98,0,4257.435793,4249.743486,4231.794768,4233.33323,4245.128101,4229.743486,4226.666563,4199.999897,4236.922973,4226.666563,4231.794768,4241.538358,4229.230666,4248.205024
99,0,4245.640922,4237.435794,4221.025538,4224.615281,4223.07682,4226.666563,4223.58964,4195.384513,4224.615281,4224.102461,4218.974256,4232.820409,4217.435794,4234.871691
100,0,4247.692204,4238.974255,4219.487076,4225.640922,4235.897332,4233.33323,4230.769127,4197.948615,4226.153743,4234.871691,4221.025538,4234.871691,4218.461435,4235.897332
101,0,4240.512717,4233.33323,4214.871692,4216.410153,4230.256307,4229.743486,4222.563999,4194.871692,4225.640922,4226.666563,4218.461435,4235.384512,4212.307589,4230.769127
102,0,4237.948614,4230.769127,4213.846051,4215.897333,4212.307589,4223.07682,4219.999897,4192.82041,4225.128102,4224.102461,4212.307589,4232.307589,4205.640923,4225.640922
103,0,4239.999896,4233.84605,4217.948615,4221.025538,4228.717845,4227.692204,4224.615281,4192.82041,4221.538358,4233.84605,4211.281948,4231.281948,4202.564,4226.153743
104,0,4246.666563,4239.487076,4225.128102,4226.666563,4252.820409,4235.897332,4226.666563,4198.974256,4222.051179,4236.922973,4222.051179,4241.538358,4210.769128,4234.358871
105,0,4248.205024,4236.922973,4227.179384,4225.640922,4239.999896,4232.307589,4223.58964,4196.410154,4221.538358,4224.102461,4223.58964,4242.051178,4214.358871,4234.871691
106,0,4251.281947,4236.922973,4231.794768,4230.256307,4232.307589,4230.256307,4230.769127,4193.846051,4224.102461,4225.640922,4219.487076,4242.563999,4219.487076,4239.999896
107,0,4250.769127,4234.871691,4233.33323,4229.230666,4242.051178,4231.281948,4231.281948,4194.358872,4213.33323,4235.384512,4218.461435,4247.179383,4221.538358,4245.640922
108,0,4255.384511,4237.948614,4234.871691,4229.743486,4233.84605,4230.769127,4223.58964,4197.948615,4241.538358,4239.487076,4222.051179,4249.743486,4223.07682,4248.205024
109,0,4258.974255,4240.512717,4238.461435,4235.384512,4215.897333,4226.153743,4224.102461,4202.051179,4339.999894,4232.820409,4224.615281,4252.307588,4228.717845,4251.281947
110,0,4258.974255,4238.974255,4237.435794,4235.384512,4231.281948,4231.281948,4231.794768,4204.615282,4415.384507,4236.410153,4230.256307,4258.461434,4238.461435,4257.435793
111,0,4266.666562,4245.128101,4235.384512,4233.33323,4252.820409,4236.410153,4232.820409,4202.564,4408.20502,4247.179383,4238.461435,4258.974255,4245.640922,4262.563998
112,0,4278.974254,4259.487075,4237.948614,4238.461435,4244.615281,4228.205025,4230.769127,4198.461436,4389.230662,4236.410153,4238.974255,4254.35887,4246.153742,4270.256306
113,0,4282.563998,4257.948614,4244.10246,4241.025537,4233.33323,4223.58964,4231.281948,4200.512718,4402.051174,4230.256307,4234.358871,4256.410152,4245.128101,4279.999895
114,0,4281.025536,4244.615281,4239.487076,4233.33323,4233.33323,4227.179384,4226.153743,4198.974256,4398.461431,4240.512717,4232.820409,4256.922973,4248.205024,4286.153741
115,0,4302.563997,4257.948614,4235.384512,4237.948614,4233.84605,4230.256307,4224.102461,4199.487077,4387.17938,4249.230665,4245.128101,4262.051178,4269.743485,4310.769125
116,0,4324.615279,4272.307588,4235.384512,4241.025537,4225.640922,4225.640922,4218.461435,4192.30759,4375.384508,4226.153743,4248.205024,4262.563998,4278.461434,4339.999894
117,0,4351.794765,4280.512716,4249.230665,4247.179383,4227.179384,4226.153743,4221.025538,4192.30759,4377.43579,4221.538358,4255.384511,4270.769126,4290.769126,4376.92297
118,0,4380.512713,4288.717844,4259.487075,4255.897332,4228.717845,4223.58964,4222.051179,4193.333231,4381.025534,4235.384512,4261.538357,4279.487075,4306.153741,4404.615277
119,0,4404.102456,4305.64092,4265.640921,4266.153742,4232.820409,4224.615281,4221.538358,4194.871692,4383.076816,4242.051178,4264.10246,4287.692203,4313.333228,4426.666558
120,0,4408.20502,4298.974254,4263.589639,4258.461434,4224.615281,4224.102461,4215.384512,4192.30759,4376.410149,4228.205025,4260.512716,4283.589639,4309.743484,4436.410148
121,0,4419.487071,4296.410151,4263.076819,4260.512716,4219.487076,4220.512717,4221.538358,4195.384513,4377.43579,4221.538358,4265.128101,4281.025536,4321.025535,4449.743481
122,0,4423.076815,4299.487074,4259.999896,4262.563998,4218.461435,4215.384512,4220.512717,4188.205026,4369.230662,4214.358871,4259.487075,4277.948613,4315.38451,4449.23066
123,0,4423.589635,4304.615279,4264.10246,4264.61528,4226.153743,4218.974256,4218.461435,4186.666564,4367.17938,4215.384512,4263.076819,4285.640921,4316.410151,4454.358865
124,0,4428.20502,4308.717843,4271.794767,4265.640921,4232.307589,4221.025538,4219.999897,4193.846051,4374.871688,4227.179384,4275.384511,4293.333228,4335.89733,4465.640916
125,0,4435.897327,4312.307587,4277.948613,4269.743485,4234.358871,4222.051179,4226.153743,4201.025538,4382.563995,4237.435794,4283.076818,4299.487074,4344.102458,4468.205019
126,0,4429.230661,4306.666561,4279.999895,4266.666562,4234.358871,4223.58964,4225.640922,4199.999897,4380.512713,4236.410153,4281.538357,4301.025536,4335.384509,4460.512711
127,0,4415.897328,4304.615279,4276.410152,4263.589639,4243.076819,4227.179384,4224.615281,4198.461436,4379.999893,4235.897332,4278.974254,4296.922972,4332.820407,4450.256301
128,0,4394.871687,4302.563997,4265.128101,4262.563998,4237.948614,4222.563999,4222.563999,4196.410154,4376.410149,4224.102461,4268.717844,4283.589639,4315.89733,4423.589635
0,0,4374.358867,4291.794767,4255.897332,4259.487075,4228.717845,4219.487076,4221.538358,4192.82041,4366.66656,4213.846051,4257.948614,4272.820408,4291.794767,4393.846046
1,0,4368.717842,4287.179382,4257.948614,4259.487075,4237.948614,4223.58964,4221.025538,4191.794769,4366.153739,4228.205025,4257.948614,4271.794767,4288.717844,4381.538354
2,0,4358.461432,4281.025536,4252.820409,4253.333229,4236.410153,4222.563999,4210.769128,4190.769128,4367.17938,4236.410153,4252.820409,4265.640921,4286.153741,4368.205021
3,0,4346.15374,4273.333229,4250.769127,4249.743486,4228.717845,4218.461435,4210.769128,4196.922974,4369.230662,4230.769127,4250.256306,4266.153742,4280.512716,4355.384509
4,0,4334.871689,4268.205024,4253.333229,4248.717845,4227.179384,4216.922974,4216.410153,4193.333231,4362.563996,4222.563999,4250.256306,4267.692203,4272.820408,4343.076817
5,0,4329.743484,4270.256306,4254.35887,4249.230665,4233.33323,4221.538358,4219.487076,4188.205026,4356.92297,4223.07682,4250.769127,4268.205024,4269.743485,4334.358868
6,0,4315.89733,4263.076819,4246.153742,4241.538358,4239.487076,4222.563999,4214.358871,4184.615282,4351.794765,4220.512717,4244.615281,4259.487075,4265.128101,4320.512715
7,0,4306.666561,4258.974255,4242.051178,4243.076819,4239.487076,4223.58964,4216.922974,4189.230667,4354.871688,4229.230666,4239.999896,4253.84605,4259.999896,4307.692202
8,0,4287.692203,4247.692204,4230.769127,4235.384512,4221.538358,4220.512717,4212.82041,4190.256308,4352.307586,4228.205025,4226.666563,4239.999896,4241.538358,4281.538357
9,0,4279.999895,4250.769127,4230.256307,4233.84605,4232.820409,4226.666563,4221.538358,4199.999897,4358.974252,4233.84605,4230.256307,4242.051178,4242.563999,4274.87169
10,0,4280.512716,4255.384511,4238.461435,4235.897332,4254.35887,4229.230666,4227.692204,4203.07682,4364.102457,4239.999896,4241.025537,4252.307588,4253.333229,4280.512716
11,0,4278.461434,4251.281947,4238.974255,4236.410153,4244.10246,4223.58964,4223.07682,4201.538359,4362.563996,4243.076819,4241.538358,4256.922973,4252.820409,4276.922972
12,0,4263.589639,4239.999896,4230.256307,4229.743486,4226.666563,4218.461435,4213.33323,4195.384513,4349.743483,4233.33323,4228.205025,4245.640922,4235.897332,4258.974255
13,0,4256.410152,4241.538358,4230.769127,4231.281948,4237.435794,4222.563999,4216.922974,4195.384513,4345.640919,4231.794768,4226.153743,4241.538358,4232.307589,4249.230665
14,0,4241.025537,4230.256307,4223.58964,4220.512717,4233.33323,4219.487076,4209.743487,4190.256308,4337.948612,4228.717845,4221.025538,4233.33323,4225.128102,4234.871691
15,0,4234.358871,4221.025538,4216.922974,4213.846051,4221.025538,4216.922974,4202.564,4185.128103,4331.794766,4226.666563,4219.999897,4229.230666,4219.999897,4225.128102
16,0,4246.666563,4232.307589,4228.717845,4226.153743,4231.281948,4222.051179,4211.794769,4191.794769,4339.487073,4234.871691,4229.743486,4241.538358,4229.230666,4229.743486
17,0,4252.820409,4242.051178,4239.999896,4236.922973,4246.666563,4226.153743,4219.487076,4200.512718,4346.15374,4239.999896,4231.281948,4250.769127,4235.384512,4232.820409
18,0,4240.512717,4233.33323,4229.743486,4227.692204,4240.512717,4223.58964,4215.897333,4199.487077,4336.922971,4228.205025,4219.487076,4239.487076,4221.538358,4221.025538
19,0,4229.230666,4224.615281,4216.922974,4215.384512,4231.281948,4223.58964,4218.974256,4196.410154,4328.205022,4218.974256,4212.82041,4226.666563,4207.179384,4206.153743
20,0,4231.281948,4229.230666,4223.07682,4218.461435,4238.974255,4228.205025,4232.820409,4204.102461,4338.461432,4234.871691,4221.538358,4233.33323,4211.794769,4208.717846
21,0,4227.692204,4225.640922,4222.563999,4218.461435,4235.897332,4227.179384,4227.692204,4203.07682,4339.999894,4241.025537,4225.640922,4234.358871,4215.897333,4212.82041
22,0,4219.487076,4218.974256,4214.358871,4213.846051,4229.230666,4223.07682,4214.871692,4195.897333,4326.15374,4227.179384,4221.538358,4225.640922,4215.897333,4209.230666
23,0,4214.871692,4219.999897,4213.846051,4212.307589,4231.794768,4221.025538,4215.897333,4192.82041,4317.435792,4214.871692,4213.846051,4219.999897,4211.281948,4199.487077
24,0,4225.128102,4232.307589,4224.102461,4223.07682,4237.435794,4226.153743,4230.769127,4207.179384,4332.820407,4229.230666,4216.922974,4227.692204,4215.897333,4205.128102
25,0,4219.999897,4225.128102,4215.897333,4213.33323,4230.256307,4225.128102,4229.230666,4213.33323,4330.769125,4229.230666,4208.205025,4220.512717,4206.666564,4198.461436
26,0,4209.743487,4222.563999,4207.692205,4207.692205,4235.897332,4226.153743,4227.179384,4210.769128,4316.922971,4222.563999,4198.974256,4212.307589,4197.435795,4185.640923
27,0,4202.564,4218.974256,4206.666564,4207.692205,4241.025537,4226.153743,4226.153743,4203.589641,4313.333228,4220.512717,4199.999897,4210.769128,4193.846051,4175.897334
28,0,4206.666564,4218.461435,4209.230666,4209.743487,4245.640922,4227.179384,4231.281948,4205.640923,4327.179381,4233.84605,4214.871692,4219.999897,4206.153743,4184.102462
29,0,4213.33323,4222.563999,4214.358871,4215.897333,4249.230665,4226.153743,4230.769127,4209.743487,4331.281945,4244.615281,4226.666563,4225.640922,4217.435794,4196.410154
30,0,4227.692204,4235.384512,4225.640922,4231.281948,4255.384511,4229.230666,4231.281948,4216.410153,4334.358868,4256.410152,4239.999896,4235.384512,4232.820409,4207.692205
31,0,4224.102461,4229.230666,4223.07682,4224.102461,4241.538358,4226.153743,4221.025538,4210.256307,4329.230663,4253.84605,4234.871691,4233.33323,4231.794768,4202.564
32,0,4222.051179,4233.33323,4223.07682,4224.615281,4240.512717,4225.128102,4222.563999,4210.769128,4327.692202,4246.153742,4227.179384,4227.179384,4231.281948,4201.538359
33,0,4230.769127,4246.666563,4230.256307,4236.922973,4253.333229,4229.743486,4231.281948,4219.487076,4331.281945,4238.974255,4231.281948,4228.717845,4232.820409,4205.640923
34,0,4232.307589,4242.563999,4229.230666,4233.33323,4250.256306,4234.871691,4233.84605,4221.538358,4329.230663,4236.410153,4228.717845,4232.820409,4225.128102,4199.999897
35,0,4215.897333,4224.102461,4216.410153,4215.897333,4240.512717,4232.820409,4228.717845,4212.82041,4316.922971,4239.999896,4211.281948,4224.102461,4206.666564,4181.538359
36,0,4200.512718,4214.358871,4205.128102,4209.743487,4248.717845,4231.794768,4226.153743,4207.692205,4305.1281,4235.384512,4202.051179,4209.743487,4192.82041,4169.743488
37,0,4195.384513,4211.794769,4202.564,4207.179384,4251.794768,4233.33323,4225.640922,4207.179384,4301.538356,4222.563999,4205.128102,4203.07682,4191.281949,4169.230667
38,0,4197.435795,4210.256307,4202.564,4203.07682,4233.84605,4228.205025,4223.58964,4206.153743,4302.563997,4221.025538,4207.179384,4202.051179,4196.922974,4172.30759
39,0,4205.128102,4217.435794,4208.717846,4210.256307,4230.769127,4224.615281,4224.615281,4206.153743,4306.666561,4232.307589,4216.410153,4212.307589,4212.307589,4184.102462
40,0,4206.153743,4222.051179,4213.33323,4213.846051,4238.974255,4223.58964,4219.487076,4197.435795,4298.461433,4227.692204,4222.051179,4219.487076,4218.461435,4189.230667
41,0,4215.384512,4226.153743,4221.538358,4216.922974,4248.717845,4228.717845,4221.538358,4201.538359,4299.999895,4233.84605,4226.666563,4227.692204,4222.051179,4193.846051
42,0,4222.563999,4226.666563,4223.58964,4217.435794,4251.794768,4230.769127,4230.769127,4210.256307,4309.230664,4248.717845,4227.179384,4230.769127,4222.051179,4194.358872
43,0,4223.58964,4230.769127,4226.153743,4222.051179,4249.230665,4230.256307,4238.461435,4216.922974,4312.820407,4251.281947,4234.358871,4239.487076,4226.666563,4201.025538
44,0,4208.205025,4222.051179,4218.974256,4215.897333,4236.922973,4224.102461,4224.102461,4208.717846,4302.051177,4226.666563,4230.769127,4234.358871,4217.435794,4190.256308
45,0,4201.538359,4215.384512,4209.230666,4212.82041,4233.33323,4222.563999,4214.871692,4204.615282,4296.922972,4221.025538,4219.487076,4219.999897,4205.128102,4174.358872
46,0,4194.871692,4211.794769,4199.999897,4208.717846,4232.307589,4223.07682,4211.794769,4199.487077,4284.61528,4225.128102,4204.615282,4202.564,4194.358872,4163.076821
47,0,4198.461436,4224.615281,4206.666564,4216.922974,4245.128101,4228.717845,4215.897333,4199.999897,4277.948613,4224.615281,4205.640923,4200.512718,4199.487077,4171.281949
48,0,4202.564,4233.84605,4208.717846,4221.025538,4246.666563,4228.205025,4215.897333,4197.435795,4275.897331,4214.358871,4206.153743,4198.974256,4202.564,4175.384513
49,0,4203.07682,4224.102461,4206.153743,4217.948615,4236.922973,4227.692204,4221.538358,4202.051179,4283.589639,4220.512717,4211.281948,4203.589641,4206.666564,4174.358872
50,0,4198.461436,4208.717846,4209.743487,4210.256307,4238.461435,4231.794768,4228.717845,4213.33323,4294.358869,4232.820409,4223.58964,4217.435794,4212.307589,4178.461436
51,0,4210.256307,4224.615281,4220.512717,4216.922974,4254.35887,4237.435794,4239.999896,4221.538358,4305.1281,4242.051178,4233.33323,4230.769127,4220.512717,4192.82041
52,0,4221.025538,4244.10246,4221.025538,4220.512717,4252.820409,4233.84605,4234.871691,4213.33323,4296.922972,4242.563999,4225.128102,4226.153743,4214.871692,4195.897333
53,0,4223.58964,4249.230665,4220.512717,4222.051179,4246.666563,4232.820409,4223.07682,4204.102461,4286.666562,4242.563999,4223.07682,4224.102461,4213.846051,4196.410154
54,0,4225.640922,4245.640922,4227.179384,4228.205025,4251.281947,4232.820409,4221.538358,4204.102461,4288.717844,4242.563999,4230.769127,4232.820409,4223.58964,4203.07682
55,0,4216.410153,4233.84605,4223.58964,4222.051179,4245.128101,4225.128102,4219.999897,4204.102461,4282.563998,4230.256307,4227.692204,4229.230666,4213.846051,4196.410154
56,0,4202.051179,4222.563999,4212.82041,4211.794769,4228.717845,4221.025538,4218.461435,4202.564,4268.205024,4215.897333,4215.897333,4214.871692,4192.82041,4177.948616
57,0,4197.948615,4223.07682,4206.666564,4212.307589,4228.717845,4228.717845,4225.128102,4206.153743,4264.10246,4213.33323,4208.717846,4207.179384,4188.717846,4171.281949
58,0,4202.051179,4231.281948,4207.692205,4214.871692,4248.205024,4236.410153,4232.307589,4214.871692,4269.743485,4216.410153,4212.82041,4210.769128,4194.358872,4174.358872
59,0,4195.897333,4232.820409,4203.589641,4205.128102,4256.410152,4234.358871,4228.205025,4213.846051,4266.153742,4212.307589,4209.230666,4207.692205,4185.640923,4167.692206
60,0,4203.589641,4243.58964,4207.179384,4212.307589,4252.307588,4236.410153,4232.820409,4216.410153,4274.35887,4226.153743,4208.205025,4208.205025,4189.230667,4173.846052
61,0,4215.384512,4247.692204,4213.33323,4219.999897,4239.999896,4235.897332,4232.820409,4213.33323,4278.974254,4238.974255,4206.666564,4211.794769,4194.871692,4181.538359
62,0,4222.563999,4250.256306,4218.974256,4221.538358,4233.84605,4232.307589,4228.205025,4210.256307,4272.820408,4234.358871,4207.692205,4221.538358,4193.333231,4186.666564
63,0,4216.922974,4244.615281,4216.922974,4215.897333,4238.461435,4228.717845,4225.640922,4207.179384,4264.61528,4221.025538,4204.615282,4226.666563,4184.102462,4185.128103
64,0,4223.58964,4248.205024,4222.051179,4221.538358,4254.35887,4235.384512,4237.948614,4218.461435,4274.87169,4232.307589,4214.871692,4236.410153,4193.846051,4194.871692
65,0,4220.512717,4243.076819,4218.461435,4217.435794,4244.10246,4235.897332,4236.410153,4217.948615,4269.743485,4219.999897,4216.922974,4234.358871,4192.30759,4189.743487
66,0,4211.281948,4237.948614,4207.692205,4211.281948,4234.358871,4232.820409,4231.281948,4213.846051,4263.589639,4206.666564,4212.307589,4229.230666,4187.692205,4180.512718
67,0,4205.640923,4233.33323,4202.051179,4205.640923,4239.487076,4233.33323,4230.256307,4213.846051,4263.076819,4227.692204,4211.281948,4225.640922,4192.82041,4180.512718
68,0,4211.281948,4234.358871,4207.179384,4210.256307,4244.10246,4236.410153,4233.84605,4216.922974,4266.153742,4248.717845,4216.922974,4227.179384,4202.564,4187.179385
69,0,4209.230666,4231.794768,4204.615282,4206.666564,4237.435794,4232.820409,4231.281948,4215.897333,4263.589639,4232.820409,4212.307589,4222.563999,4199.999897,4183.076821
70,0,4211.794769,4235.897332,4203.589641,4207.179384,4238.461435,4232.820409,4231.281948,4218.461435,4263.589639,4228.717845,4212.307589,4221.538358,4204.615282,4185.640923
71,0,4217.948615,4242.051178,4209.230666,4214.358871,4238.974255,4234.358871,4229.743486,4217.948615,4261.538357,4239.999896,4214.358871,4219.487076,4208.717846,4194.871692
72,0,4220.512717,4245.128101,4213.846051,4216.922974,4245.128101,4233.84605,4228.717845,4214.871692,4259.999896,4229.743486,4212.307589,4216.922974,4210.256307,4194.358872
73,0,4216.922974,4243.076819,4212.82041,4214.358871,4250.769127,4232.820409,4229.230666,4216.922974,4260.512716,4214.358871,4210.769128,4218.461435,4209.230666,4189.743487
74,0,4208.205025,4237.948614,4206.153743,4210.769128,4241.538358,4231.794768,4224.102461,4216.410153,4254.35887,4218.461435,4207.179384,4216.922974,4200.512718,4185.640923
75,0,4210.256307,4238.974255,4211.281948,4215.384512,4237.435794,4229.230666,4224.615281,4213.846051,4252.820409,4231.794768,4207.179384,4221.538358,4198.974256,4187.179385
76,0,4215.897333,4236.922973,4221.025538,4217.435794,4237.948614,4227.692204,4229.743486,4211.281948,4252.307588,4222.563999,4210.769128,4230.769127,4203.07682,4189.230667
77,0,4217.435794,4239.487076,4221.538358,4218.461435,4234.358871,4232.307589,4230.256307,4214.871692,4254.871691,4218.974256,4217.948615,4232.307589,4207.179384,4192.30759
78,0,4213.33323,4242.563999,4215.897333,4215.384512,4238.461435,4234.871691,4226.666563,4219.487076,4256.410152,4236.922973,4220.512717,4225.128102,4209.743487,4190.256308
79,0,4223.58964,4247.179383,4225.640922,4216.922974,4256.922973,4237.948614,4238.461435,4230.769127,4264.10246,4252.820409,4233.84605,4238.461435,4224.615281,4201.025538
80,0,4224.615281,4240.512717,4224.102461,4213.33323,4253.84605,4236.922973,4239.999896,4227.179384,4259.487075,4237.435794,4229.743486,4237.948614,4221.025538,4205.640923
81,0,4219.999897,4240.512717,4215.897333,4215.897333,4245.640922,4235.897332,4234.871691,4222.051179,4255.384511,4230.769127,4215.897333,4226.666563,4210.769128,4202.564
82,0,4210.256307,4234.871691,4212.82041,4212.82041,4237.948614,4232.820409,4229.743486,4219.487076,4247.179383,4219.487076,4208.205025,4223.07682,4202.051179,4192.30759
83,0,4214.871692,4237.435794,4221.538358,4215.897333,4240.512717,4233.84605,4238.974255,4223.07682,4248.717845,4211.794769,4216.410153,4233.33323,4208.717846,4198.461436
84,0,4219.487076,4239.487076,4222.563999,4218.461435,4249.743486,4233.33323,4238.974255,4218.461435,4248.717845,4217.435794,4215.897333,4230.256307,4207.179384,4200.512718
85,0,4216.922974,4240.512717,4219.487076,4217.948615,4255.384511,4233.84605,4231.794768,4216.922974,4245.128101,4226.666563,4213.33323,4225.128102,4201.025538,4194.358872
86,0,4203.589641,4231.281948,4214.358871,4207.692205,4240.512717,4230.769127,4225.640922,4216.410153,4234.358871,4212.82041,4208.205025,4220.512717,4194.871692,4185.640923
87,0,4202.564,4228.717845,4212.82041,4208.717846,4235.384512,4229.743486,4230.769127,4217.435794,4236.922973,4210.769128,4206.666564,4221.538358,4196.922974,4188.205026
88,0,4202.564,4226.153743,4208.205025,4209.230666,4242.563999,4232.307589,4233.84605,4217.435794,4243.076819,4223.07682,4207.179384,4218.974256,4193.333231,4183.589641
89,0,4204.615282,4229.230666,4207.179384,4208.717846,4250.256306,4235.897332,4231.794768,4218.461435,4242.051178,4228.717845,4213.33323,4216.410153,4197.948615,4183.589641
90,0,4207.179384,4233.84605,4210.256307,4210.769128,4239.999896,4229.230666,4226.153743,4213.846051,4234.358871,4214.871692,4214.871692,4216.922974,4205.128102,4189.743487
91,0,4209.743487,4238.461435,4210.256307,4216.410153,4231.794768,4227.179384,4226.666563,4207.692205,4233.33323,4209.230666,4212.307589,4218.974256,4202.564,4192.30759
92,0,4216.922974,4246.666563,4213.846051,4222.051179,4241.538358,4234.871691,4233.33323,4212.82041,4241.025537,4223.58964,4216.922974,4223.58964,4204.102461,4197.435795
93,0,4216.922974,4242.563999,4213.846051,4215.384512,4251.281947,4236.922973,4230.769127,4219.487076,4238.461435,4221.538358,4217.435794,4224.102461,4209.230666,4202.051179
94,0,4210.769128,4233.33323,4210.769128,4209.230666,4252.307588,4234.871691,4226.666563,4218.974256,4232.307589,4213.846051,4213.33323,4222.051179,4208.717846,4202.051179
95,0,4206.153743,4227.692204,4209.743487,4207.179384,4243.58964,4231.794768,4224.102461,4211.281948,4231.281948,4221.025538,4214.358871,4218.461435,4202.564,4198.974256
96,0,4216.922974,4235.384512,4217.435794,4212.82041,4234.358871,4232.307589,4231.281948,4217.948615,4241.538358,4234.358871,4225.640922,4227.692204,4209.230666,4205.640923
97,0,4219.999897,4237.948614,4219.487076,4213.846051,4236.922973,4233.84605,4234.871691,4225.128102,4244.615281,4229.230666,4227.179384,4233.33323,4216.410153,4209.230666
98,0,4218.461435,4236.922973,4218.974256,4216.410153,4253.333229,4234.871691,4231.281948,4221.025538,4240.512717,4223.58964,4229.743486,4234.358871,4224.615281,4215.897333
99,0,4209.230666,4224.102461,4209.743487,4208.717846,4242.051178,4226.153743,4216.922974,4206.666564,4224.102461,4212.307589,4221.538358,4221.025538,4211.281948,4204.102461
100,0,4213.846051,4228.205025,4211.794769,4212.82041,4240.512717,4227.692204,4224.102461,4213.33323,4228.717845,4218.974256,4219.487076,4221.538358,4208.205025,4201.025538
101,0,4219.999897,4234.358871,4216.410153,4215.384512,4251.794768,4235.897332,4230.256307,4219.999897,4234.871691,4224.615281,4223.07682,4228.205025,4212.307589,4206.666564
102,0,4214.871692,4230.769127,4213.846051,4210.256307,4245.640922,4236.410153,4228.717845,4217.435794,4229.743486,4219.487076,4218.974256,4228.205025,4201.538359,4202.564
103,0,4203.07682,4218.461435,4207.692205,4199.487077,4231.281948,4228.205025,4224.615281,4212.82041,4225.640922,4216.410153,4210.256307,4223.07682,4194.358872,4194.358872
104,0,4214.871692,4224.615281,4214.358871,4205.128102,4245.640922,4229.743486,4226.666563,4216.922974,4234.358871,4225.640922,4225.640922,4231.794768,4225.128102,4214.871692
105,0,4229.230666,4233.84605,4217.948615,4212.82041,4254.871691,4235.384512,4228.205025,4218.974256,4234.871691,4229.743486,4241.025537,4234.358871,4248.205024,4230.256307
106,0,4232.307589,4237.948614,4218.974256,4217.435794,4248.717845,4236.922973,4233.84605,4221.025538,4233.84605,4238.461435,4243.076819,4233.84605,4247.692204,4227.692204
107,0,4223.58964,4229.230666,4217.435794,4213.33323,4248.205024,4232.820409,4227.179384,4216.922974,4234.871691,4233.84605,4236.922973,4235.384512,4238.461435,4218.974256
108,0,4217.948615,4223.58964,4214.358871,4209.743487,4254.35887,4235.384512,4224.102461,4213.33323,4235.897332,4227.692204,4227.179384,4231.794768,4231.794768,4212.307589
109,0,4208.717846,4218.461435,4211.281948,4206.666564,4237.948614,4233.84605,4226.666563,4210.769128,4227.692204,4230.256307,4216.410153,4219.999897,4224.102461,4199.487077
110,0,4201.025538,4211.281948,4207.692205,4202.564,4225.128102,4227.692204,4221.025538,4204.102461,4211.281948,4213.33323,4215.384512,4214.871692,4220.512717,4194.871692
111,0,4207.692205,4212.307589,4210.256307,4203.07682,4248.205024,4232.820409,4224.102461,4207.179384,4214.358871,4203.07682,4223.58964,4221.538358,4224.615281,4204.102461
112,0,4214.358871,4213.846051,4216.410153,4202.051179,4268.205024,4240.512717,4235.897332,4218.461435,4226.666563,4227.179384,4226.666563,4223.07682,4234.358871,4211.281948
113,0,4217.948615,4214.871692,4222.051179,4204.615282,4257.948614,4236.922973,4234.358871,4223.07682,4228.717845,4244.10246,4226.666563,4223.07682,4238.974255,4213.33323
114,0,4216.410153,4216.410153,4218.461435,4209.230666,4237.435794,4228.205025,4221.538358,4218.974256,4225.128102,4223.07682,4227.179384,4225.128102,4230.769127,4207.179384
115,0,4225.640922,4227.179384,4225.128102,4221.538358,4241.025537,4232.820409,4227.179384,4228.205025,4232.820409,4225.640922,4242.563999,4239.487076,4238.461435,4215.384512
116,0,4231.794768,4227.179384,4232.307589,4223.58964,4249.230665,4240.512717,4237.435794,4233.33323,4232.820409,4243.58964,4246.666563,4244.615281,4249.230665,4224.102461
117,0,4233.84605,4226.666563,4227.692204,4220.512717,4257.435793,4242.563999,4242.563999,4231.794768,4232.820409,4237.435794,4237.948614,4242.051178,4251.794768,4228.717845
118,0,4214.358871,4212.82041,4212.307589,4205.128102,4250.769127,4232.820409,4228.205025,4218.974256,4220.512717,4206.153743,4223.58964,4226.666563,4231.794768,4211.794769
119,0,4207.692205,4205.640923,4212.307589,4201.538359,4247.692204,4227.179384,4221.025538,4214.871692,4216.410153,4216.410153,4224.102461,4218.974256,4226.153743,4204.615282
120,0,4210.769128,4206.666564,4213.846051,4202.564,4243.58964,4227.692204,4223.58964,4217.435794,4222.051179,4243.076819,4224.102461,4219.999897,4233.33323,4208.205025
121,0,4210.769128,4214.358871,4212.307589,4205.128102,4236.410153,4232.820409,4230.769127,4226.153743,4230.769127,4247.692204,4227.692204,4227.692204,4239.487076,4212.82041
122,0,4205.128102,4209.743487,4209.743487,4202.564,4236.922973,4231.794768,4231.794768,4229.743486,4233.84605,4241.538358,4232.307589,4230.256307,4236.922973,4209.743487
123,0,4214.871692,4212.307589,4218.974256,4208.717846,4246.153742,4233.33323,4241.538358,4235.897332,4245.128101,4252.307588,4241.025537,4235.384512,4246.153742,4215.384512
124,0,4218.461435,4216.922974,4225.128102,4209.743487,4237.948614,4231.794768,4239.487076,4235.384512,4238.461435,4246.666563,4238.461435,4235.897332,4246.153742,4216.410153
125,0,4210.769128,4214.871692,4221.538358,4205.640923,4229.230666,4229.230666,4230.256307,4229.230666,4222.051179,4232.820409,4230.769127,4232.307589,4234.358871,4210.256307
126,0,4201.025538,4204.102461,4212.307589,4202.564,4229.230666,4226.666563,4225.128102,4220.512717,4213.846051,4225.640922,4220.512717,4221.538358,4222.563999,4202.051179
127,0,4204.615282,4205.640923,4210.769128,4205.128102,4237.435794,4230.769127,4229.743486,4218.461435,4214.358871,4221.025538,4217.435794,4214.871692,4223.07682,4201.025538
128,0,4216.922974,4218.461435,4216.922974,4206.666564,4239.487076,4234.871691,4238.461435,4226.666563,4223.07682,4227.692204,4222.051179,4218.974256,4230.769127,4206.153743
0,0,4217.435794,4216.922974,4217.948615,4208.717846,4232.820409,4234.871691,4242.051178,4232.307589,4229.743486,4238.461435,4222.051179,4224.615281,4231.281948,4211.281948
1,0,4213.846051,4209.743487,4220.512717,4213.846051,4236.410153,4239.487076,4241.025537,4236.410153,4235.897332,4233.84605,4230.769127,4232.307589,4238.461435,4219.487076
2,0,4220.512717,4217.948615,4223.07682,4215.384512,4248.717845,4241.025537,4238.974255,4239.999896,4241.025537,4230.769127,4244.615281,4237.948614,4253.333229,4224.102461
3,0,4228.717845,4229.743486,4225.128102,4215.384512,4245.640922,4236.922973,4237.435794,4238.461435,4237.435794,4254.35887,4244.615281,4239.487076,4256.410152,4228.205025
4,0,4221.538358,4219.487076,4221.025538,4211.794769,4227.692204,4235.897332,4227.692204,4227.179384,4221.538358,4255.897332,4227.179384,4229.230666,4243.58964,4223.58964
5,0,4229.743486,4225.128102,4228.205025,4221.025538,4247.692204,4246.666563,4237.948614,4234.358871,4232.307589,4245.128101,4231.281948,4235.384512,4249.743486,4229.743486
6,0,4236.410153,4236.410153,4229.230666,4224.102461,4265.128101,4247.692204,4250.769127,4242.051178,4243.076819,4245.640922,4239.487076,4241.538358,4253.333229,4230.769127
7,0,4227.692204,4231.281948,4219.487076,4217.435794,4245.640922,4239.999896,4240.512717,4236.922973,4230.256307,4248.205024,4235.897332,4232.820409,4244.615281,4224.102461
8,0,4215.384512,4215.897333,4215.897333,4206.153743,4228.717845,4231.281948,4221.025538,4224.102461,4211.794769,4231.794768,4225.640922,4219.487076,4234.358871,4214.871692
9,0,4231.794768,4229.230666,4231.281948,4219.999897,4252.820409,4235.384512,4236.410153,4233.33323,4226.666563,4238.974255,4235.384512,4233.33323,4247.179383,4228.717845
10,0,4238.461435,4236.410153,4233.84605,4228.205025,4256.410152,4236.922973,4245.640922,4239.487076,4236.922973,4243.58964,4242.563999,4239.487076,4254.871691,4233.84605
11,0,4234.871691,4229.230666,4227.692204,4223.58964,4236.410153,4234.871691,4238.974255,4233.33323,4230.769127,4238.974255,4235.384512,4230.769127,4250.769127,4225.128102
12,0,4227.179384,4221.025538,4222.563999,4213.33323,4234.358871,4233.84605,4232.307589,4224.102461,4219.487076,4232.820409,4221.025538,4223.58964,4239.487076,4214.871692
13,0,4228.205025,4226.666563,4224.102461,4213.846051,4244.615281,4238.461435,4235.897332,4228.205025,4219.487076,4227.692204,4223.07682,4225.128102,4242.563999,4217.948615
14,0,4226.153743,4225.128102,4220.512717,4214.358871,4236.410153,4234.871691,4229.743486,4225.128102,4218.974256,4223.07682,4225.640922,4221.025538,4242.563999,4215.897333
15,0,4227.179384,4221.025538,4214.871692,4214.871692,4233.84605,4231.281948,4223.58964,4217.948615,4216.410153,4234.871691,4223.07682,4220.512717,4238.974255,4214.358871
16,0,4226.666563,4223.07682,4215.384512,4212.82041,4237.948614,4235.384512,4226.666563,4218.461435,4213.846051,4238.974255,4221.538358,4221.538358,4241.538358,4217.948615
17,0,4224.102461,4227.179384,4218.461435,4211.794769,4243.58964,4239.487076,4233.33323,4224.615281,4217.435794,4230.769127,4226.153743,4222.051179,4245.640922,4220.512717
18,0,4223.58964,4226.153743,4217.435794,4216.922974,4244.615281,4236.922973,4232.307589,4227.179384,4222.563999,4233.84605,4230.256307,4224.615281,4241.025537,4216.410153
19,0,4217.435794,4218.461435,4213.33323,4212.82041,4230.769127,4234.871691,4226.153743,4223.07682,4216.410153,4232.820409,4224.615281,4221.538358,4231.794768,4208.205025
20,0,4217.435794,4217.948615,4220.512717,4209.230666,4229.743486,4238.461435,4232.820409,4227.692204,4219.487076,4236.410153,4227.692204,4224.615281,4237.948614,4215.384512
21,0,4228.205025,4224.102461,4229.230666,4213.846051,4241.538358,4236.922973,4236.410153,4235.897332,4230.769127,4249.743486,4238.461435,4236.410153,4248.717845,4230.256307
22,0,4249.230665,4241.538358,4237.948614,4227.179384,4243.076819,4237.948614,4237.435794,4242.051178,4237.435794,4259.487075,4244.10246,4249.230665,4253.84605,4243.076819
23,0,4249.230665,4251.281947,4235.897332,4227.179384,4236.410153,4240.512717,4235.897332,4233.84605,4226.153743,4244.615281,4235.384512,4245.640922,4244.615281,4238.974255
24,0,4245.128101,4250.256306,4231.794768,4226.153743,4242.051178,4236.922973,4230.769127,4229.230666,4217.435794,4230.256307,4235.897332,4239.999896,4238.974255,4236.410153
25,0,4249.230665,4246.153742,4224.102461,4222.051179,4234.358871,4228.205025,4218.974256,4222.051179,4206.666564,4223.07682,4230.769127,4231.281948,4234.358871,4233.84605
26,0,4264.61528,4260.512716,4223.07682,4223.07682,4229.743486,4232.820409,4222.563999,4217.948615,4204.102461,4226.666563,4228.205025,4233.33323,4240.512717,4246.666563
27,0,4269.743485,4259.487075,4225.128102,4221.025538,4224.102461,4234.871691,4224.615281,4216.922974,4201.025538,4219.487076,4222.563999,4236.922973,4234.358871,4253.84605
28,0,4287.179382,4261.025537,4233.84605,4227.179384,4226.666563,4232.820409,4226.666563,4224.615281,4206.666564,4223.58964,4225.128102,4243.58964,4233.84605,4265.640921
29,0,4315.38451,4280.512716,4237.948614,4232.820409,4235.897332,4232.820409,4226.153743,4222.563999,4210.256307,4235.897332,4233.33323,4250.256306,4252.820409,4294.358869
30,0,4336.922971,4297.435792,4244.10246,4240.512717,4240.512717,4234.358871,4228.717845,4216.410153,4208.717846,4228.717845,4242.563999,4264.61528,4277.948613,4330.256304
31,0,4335.384509,4283.076818,4246.153742,4234.358871,4227.692204,4228.717845,4222.563999,4213.846051,4201.538359,4206.666564,4233.84605,4266.666562,4271.794767,4333.333227
32,0,4344.102458,4285.1281,4247.179383,4236.922973,4226.153743,4232.820409,4220.512717,4218.461435,4204.615282,4218.461435,4231.794768,4261.025537,4271.794767,4333.846048
33,0,4363.589637,4306.666561,4250.769127,4245.640922,4241.538358,4238.974255,4224.102461,4219.487076,4210.256307,4240.512717,4242.563999,4263.076819,4290.256305,4352.307586
34,0,4363.076816,4308.205023,4251.281947,4245.640922,4249.230665,4234.358871,4224.615281,4216.922974,4206.666564,4235.384512,4243.58964,4267.179383,4293.846049,4359.487073
35,0,4342.051176,4288.205023,4244.615281,4236.922973,4229.230666,4225.128102,4209.230666,4211.281948,4195.897333,4216.922974,4230.769127,4258.974255,4275.384511,4339.999894
36,0,4329.743484,4276.410152,4238.461435,4232.820409,4214.871692,4225.128102,4201.538359,4206.153743,4189.230667,4212.307589,4227.179384,4250.256306,4266.153742,4324.615279
37,0,4326.666561,4279.487075,4239.487076,4233.84605,4232.307589,4229.743486,4214.358871,4211.794769,4198.461436,4221.538358,4238.974255,4256.922973,4273.846049,4324.102458
38,0,4321.538356,4279.999895,4245.128101,4231.794768,4240.512717,4231.281948,4222.563999,4222.563999,4210.769128,4224.615281,4246.153742,4266.153742,4276.410152,4321.025535
39,0,4324.615279,4284.61528,4253.333229,4240.512717,4234.358871,4235.384512,4226.666563,4230.256307,4217.435794,4234.358871,4247.692204,4269.743485,4276.410152,4320.512715
40,0,4319.487074,4281.538357,4249.743486,4240.512717,4238.461435,4235.384512,4227.692204,4224.615281,4213.846051,4242.563999,4243.076819,4261.538357,4273.846049,4315.38451
41,0,4299.999895,4268.717844,4239.999896,4231.794768,4235.897332,4229.743486,4223.07682,4221.025538,4208.205025,4228.717845,4234.358871,4253.84605,4265.128101,4299.487074
42,0,4270.256306,4249.743486,4227.692204,4218.974256,4213.33323,4223.07682,4208.717846,4210.769128,4194.358872,4205.128102,4217.948615,4244.10246,4245.640922,4269.743485
43,0,4265.128101,4250.769127,4229.230666,4221.538358,4224.615281,4232.307589,4216.410153,4213.846051,4199.999897,4224.102461,4221.025538,4247.692204,4249.743486,4265.640921
44,0,4266.666562,4249.743486,4230.769127,4217.948615,4246.153742,4241.538358,4225.640922,4223.58964,4210.769128,4241.538358,4227.692204,4250.256306,4256.410152,4269.743485
45,0,4266.153742,4254.35887,4232.820409,4221.025538,4245.128101,4238.974255,4222.563999,4225.128102,4211.281948,4235.897332,4225.128102,4248.205024,4253.84605,4264.61528
46,0,4254.871691,4254.35887,4227.179384,4223.07682,4227.179384,4229.230666,4209.743487,4214.871692,4196.410154,4220.512717,4214.358871,4237.435794,4241.538358,4249.230665
47,0,4254.35887,4253.84605,4230.256307,4225.640922,4232.820409,4232.307589,4218.461435,4220.512717,4199.999897,4222.051179,4219.999897,4244.10246,4246.153742,4251.794768
48,0,4254.35887,4250.769127,4233.84605,4222.563999,4240.512717,4235.897332,4225.640922,4225.640922,4206.666564,4223.07682,4221.538358,4248.717845,4246.153742,4250.769127
49,0,4253.333229,4254.871691,4235.384512,4226.153743,4238.974255,4235.384512,4225.640922,4223.58964,4209.230666,4230.256307,4218.974256,4244.615281,4242.563999,4242.051178
50,0,4247.692204,4253.333229,4232.307589,4225.128102,4236.922973,4233.84605,4225.640922,4218.974256,4204.615282,4230.769127,4214.871692,4237.948614,4235.897332,4232.820409
51,0,4242.051178,4249.743486,4229.230666,4224.102461,4240.512717,4237.948614,4228.717845,4216.410153,4199.487077,4225.640922,4209.743487,4235.384512,4231.281948,4227.692204
52,0,4236.410153,4245.128101,4228.205025,4222.563999,4244.10246,4237.948614,4226.153743,4216.410153,4195.897333,4219.999897,4205.128102,4230.769127,4228.205025,4223.07682
53,0,4235.384512,4243.076819,4229.230666,4218.461435,4247.692204,4233.84605,4229.230666,4223.07682,4196.922974,4215.897333,4209.230666,4232.820409,4228.717845,4223.58964
54,0,4231.794768,4237.435794,4226.153743,4214.358871,4230.256307,4230.256307,4229.743486,4224.102461,4197.948615,4215.897333,4208.717846,4234.871691,4225.128102,4221.025538
55,0,4227.692204,4232.820409,4219.999897,4214.358871,4211.281948,4227.179384,4219.999897,4215.384512,4191.281949,4215.384512,4202.051179,4229.230666,4220.512717,4214.358871
56,0,4230.256307,4237.948614,4220.512717,4216.410153,4235.384512,4228.717845,4222.563999,4217.948615,4193.846051,4213.33323,4209.743487,4231.794768,4227.692204,4217.435794
57,0,4226.153743,4239.487076,4221.538358,4211.794769,4257.948614,4230.256307,4225.640922,4220.512717,4196.410154,4207.692205,4214.871692,4232.820409,4227.179384,4218.974256
58,0,4223.07682,4236.410153,4222.563999,4213.846051,4238.974255,4227.692204,4216.410153,4212.307589,4190.256308,4215.384512,4208.205025,4227.692204,4222.051179,4216.922974
59,0,4221.538358,4232.820409,4218.974256,4212.307589,4219.999897,4225.640922,4215.384512,4205.640923,4185.640923,4225.128102,4202.051179,4225.640922,4220.512717,4211.794769
60,0,4226.666563,4241.025537,4220.512717,4212.82041,4236.410153,4232.820409,4231.281948,4217.948615,4198.461436,4228.205025,4211.281948,4234.358871,4225.640922,4210.769128
61,0,4218.461435,4232.820409,4217.435794,4207.692205,4235.384512,4230.256307,4225.640922,4216.922974,4192.82041,4211.794769,4207.179384,4227.179384,4216.922974,4202.051179
62,0,4221.538358,4233.84605,4223.07682,4217.435794,4231.794768,4228.205025,4224.102461,4215.897333,4189.743487,4215.897333,4204.615282,4226.153743,4218.974256,4208.205025
63,0,4230.256307,4245.128101,4230.769127,4225.128102,4242.563999,4233.84605,4236.410153,4224.102461,4200.512718,4230.256307,4212.82041,4234.358871,4228.205025,4217.435794
64,0,4237.948614,4251.794768,4236.410153,4228.205025,4252.820409,4239.487076,4244.10246,4233.84605,4211.794769,4237.435794,4228.205025,4246.153742,4240.512717,4224.615281
65,0,4224.615281,4235.897332,4227.179384,4216.410153,4233.84605,4229.230666,4225.128102,4223.58964,4201.538359,4227.179384,4221.025538,4241.025537,4233.33323,4217.435794
66,0,4213.33323,4226.666563,4218.974256,4210.256307,4221.538358,4221.025538,4213.846051,4214.358871,4191.281949,4223.07682,4206.153743,4230.256307,4217.948615,4207.692205
67,0,4213.846051,4228.717845,4218.461435,4210.256307,4235.897332,4228.205025,4218.974256,4209.743487,4187.692205,4213.33323,4202.564,4224.615281,4212.307589,4203.07682
68,0,4219.999897,4236.410153,4225.128102,4214.871692,4251.794768,4236.922973,4227.692204,4210.769128,4189.743487,4204.615282,4210.256307,4229.230666,4223.07682,4208.205025
69,0,4211.281948,4231.794768,4224.102461,4213.846051,4235.384512,4227.692204,4217.435794,4205.128102,4181.538359,4207.179384,4207.692205,4223.58964,4219.999897,4198.974256
70,0,4204.102461,4225.128102,4215.384512,4209.743487,4222.563999,4221.025538,4208.205025,4201.538359,4176.410154,4214.358871,4204.102461,4216.410153,4213.33323,4188.717846
71,0,4207.692205,4225.640922,4213.33323,4207.179384,4233.33323,4227.179384,4214.358871,4205.640923,4182.564,4212.82041,4203.589641,4218.974256,4215.384512,4191.281949
72,0,4210.769128,4229.743486,4219.487076,4210.256307,4235.384512,4229.743486,4221.538358,4211.794769,4188.717846,4209.230666,4202.564,4222.051179,4214.871692,4192.30759
73,0,4207.692205,4227.692204,4219.487076,4211.281948,4226.153743,4225.128102,4218.461435,4214.871692,4187.692205,4212.307589,4203.07682,4218.974256,4211.281948,4189.230667
74,0,4208.717846,4226.153743,4217.435794,4206.153743,4235.384512,4228.717845,4223.58964,4219.999897,4192.30759,4224.102461,4212.82041,4221.538358,4219.999897,4194.358872
75,0,4215.384512,4232.820409,4226.153743,4210.769128,4245.640922,4234.358871,4236.922973,4227.692204,4206.153743,4243.58964,4223.07682,4232.820409,4237.435794,4207.179384
76,0,4213.33323,4236.410153,4228.717845,4215.384512,4234.871691,4231.794768,4232.820409,4223.58964,4204.615282,4246.666563,4221.025538,4232.307589,4237.435794,4206.153743
77,0,4209.230666,4235.897332,4221.538358,4212.82041,4229.230666,4229.230666,4223.58964,4216.922974,4193.333231,4230.256307,4217.435794,4222.563999,4226.666563,4197.948615
78,0,4205.640923,4230.256307,4212.307589,4206.666564,4231.281948,4227.179384,4218.974256,4210.256307,4183.589641,4211.281948,4211.794769,4212.82041,4218.461435,4189.230667
79,0,4213.846051,4236.922973,4218.461435,4216.410153,4236.410153,4230.256307,4224.102461,4214.871692,4191.794769,4222.563999,4216.922974,4218.461435,4227.692204,4198.974256
80,0,4210.256307,4232.820409,4217.948615,4214.358871,4234.358871,4228.717845,4217.435794,4211.281948,4188.205026,4225.128102,4213.846051,4214.358871,4221.025538,4199.487077
81,0,4206.153743,4226.153743,4216.410153,4210.769128,4238.974255,4229.230666,4214.358871,4209.230666,4185.640923,4219.999897,4209.230666,4214.871692,4214.871692,4194.358872
82,0,4212.307589,4232.820409,4221.538358,4214.871692,4242.051178,4229.743486,4217.435794,4208.717846,4186.666564,4221.025538,4208.717846,4219.487076,4223.07682,4196.410154
83,0,4224.102461,4237.435794,4232.820409,4220.512717,4241.025537,4232.820409,4228.717845,4216.922974,4193.846051,4228.717845,4222.051179,4226.666563,4236.410153,4208.717846
84,0,4210.769128,4211.281948,4229.230666,4208.717846,4230.769127,4232.820409,4229.743486,4221.538358,4194.871692,4224.615281,4225.128102,4224.615281,4226.666563,4201.538359
85,0,4209.230666,4217.948615,4223.07682,4212.82041,4230.256307,4232.820409,4227.692204,4223.07682,4197.435795,4227.692204,4220.512717,4223.58964,4218.974256,4193.846051
86,0,4219.487076,4246.153742,4219.487076,4218.461435,4232.307589,4228.205025,4218.974256,4214.358871,4191.794769,4219.999897,4211.794769,4217.948615,4214.871692,4192.30759
87,0,4223.07682,4247.179383,4221.025538,4218.974256,4233.84605,4228.717845,4216.410153,4212.307589,4189.230667,4211.281948,4211.281948,4217.435794,4214.871692,4196.410154
88,0,4218.974256,4236.410153,4224.102461,4219.999897,4239.487076,4231.281948,4220.512717,4218.974256,4194.871692,4220.512717,4213.846051,4221.538358,4218.461435,4197.948615
89,0,4216.922974,4239.999896,4223.07682,4217.435794,4243.076819,4229.743486,4223.58964,4218.461435,4196.922974,4226.666563,4215.384512,4222.051179,4222.563999,4199.487077
90,0,4210.769128,4230.769127,4215.897333,4206.153743,4227.179384,4225.640922,4214.358871,4207.179384,4185.640923,4213.33323,4210.769128,4214.871692,4214.871692,4195.384513
91,0,4212.307589,4225.640922,4215.897333,4211.281948,4220.512717,4227.692204,4210.256307,4201.538359,4179.999898,4209.743487,4204.102461,4209.230666,4208.205025,4191.794769
92,0,4218.974256,4234.871691,4223.58964,4223.58964,4238.461435,4233.33323,4219.999897,4210.256307,4187.692205,4218.974256,4206.153743,4212.82041,4212.82041,4193.846051
93,0,4209.230666,4225.128102,4219.999897,4213.33323,4242.051178,4233.84605,4222.051179,4217.435794,4194.871692,4216.410153,4209.743487,4213.33323,4214.358871,4189.743487
94,0,4205.128102,4219.999897,4216.922974,4206.666564,4231.794768,4231.281948,4222.563999,4221.025538,4202.051179,4224.102461,4209.743487,4211.281948,4213.846051,4190.769128
95,0,4214.358871,4228.717845,4223.58964,4211.281948,4231.794768,4228.717845,4226.666563,4223.07682,4205.128102,4234.871691,4208.205025,4211.794769,4213.846051,4193.846051
96,0,4230.769127,4242.563999,4236.922973,4222.563999,4235.897332,4231.281948,4233.84605,4227.179384,4205.128102,4236.922973,4216.922974,4221.538358,4222.563999,4202.564
97,0,4231.794768,4242.563999,4239.487076,4225.640922,4227.179384,4230.769127,4226.153743,4220.512717,4196.410154,4227.692204,4216.922974,4223.07682,4224.102461,4203.589641
98,0,4233.84605,4245.128101,4241.025537,4230.256307,4236.410153,4233.33323,4227.692204,4221.025538,4199.999897,4229.230666,4219.487076,4227.179384,4228.205025,4212.82041
99,0,4232.307589,4244.615281,4236.922973,4224.615281,4245.640922,4238.461435,4234.871691,4227.179384,4208.205025,4230.769127,4225.128102,4230.769127,4231.281948,4216.410153
100,0,4233.84605,4250.256306,4240.512717,4227.692204,4249.743486,4246.666563,4242.051178,4237.435794,4223.58964,4246.153742,4234.871691,4237.435794,4241.538358,4216.922974
101,0,4223.58964,4242.051178,4241.538358,4227.179384,4237.435794,4243.58964,4231.281948,4228.717845,4214.358871,4246.153742,4228.717845,4231.281948,4235.384512,4205.128102
102,0,4212.82041,4230.256307,4237.948614,4223.58964,4229.230666,4236.922973,4221.025538,4216.922974,4195.897333,4227.692204,4221.538358,4223.58964,4225.640922,4197.948615
103,0,4209.230666,4230.256307,4234.871691,4218.461435,4234.358871,4235.897332,4220.512717,4216.410153,4193.846051,4220.512717,4221.538358,4225.128102,4226.153743,4197.948615
104,0,4227.179384,4245.128101,4243.58964,4226.153743,4245.128101,4241.538358,4229.230666,4224.102461,4208.717846,4236.922973,4232.307589,4238.974255,4240.512717,4211.794769
105,0,4237.435794,4241.025537,4246.666563,4225.640922,4235.897332,4239.487076,4223.07682,4221.538358,4205.128102,4234.871691,4234.871691,4237.435794,4242.051178,4218.974256
106,0,4230.769127,4233.33323,4238.974255,4217.435794,4226.666563,4237.435794,4219.999897,4221.025538,4198.974256,4227.692204,4230.256307,4231.794768,4232.820409,4215.897333
107,0,4223.58964,4233.33323,4236.922973,4214.871692,4230.256307,4241.025537,4227.179384,4225.640922,4206.153743,4231.794768,4228.717845,4233.84605,4231.281948,4210.769128
108,0,4228.717845,4241.025537,4243.58964,4223.58964,4237.948614,4246.153742,4233.84605,4232.820409,4217.435794,4238.461435,4238.974255,4239.487076,4245.128101,4215.897333
109,0,4233.84605,4245.128101,4244.615281,4230.769127,4248.205024,4246.666563,4232.307589,4237.948614,4219.999897,4244.615281,4245.128101,4237.948614,4251.281947,4220.512717
110,0,4232.820409,4241.538358,4240.512717,4227.692204,4256.410152,4245.128101,4231.794768,4233.84605,4214.358871,4244.615281,4237.435794,4231.281948,4242.563999,4217.435794
111,0,4230.769127,4237.948614,4242.051178,4223.07682,4246.666563,4244.615281,4231.794768,4228.717845,4212.82041,4236.410153,4235.897332,4232.820409,4240.512717,4218.461435
112,0,4224.615281,4234.871691,4237.948614,4218.461435,4227.692204,4239.487076,4223.07682,4223.58964,4207.179384,4229.230666,4234.358871,4231.281948,4236.922973,4214.358871
113,0,4230.769127,4241.538358,4237.435794,4223.58964,4233.33323,4236.922973,4223.58964,4223.07682,4206.666564,4239.487076,4230.256307,4226.666563,4236.410153,4211.794769
114,0,4235.897332,4244.10246,4236.922973,4226.153743,4241.025537,4240.512717,4229.230666,4224.102461,4207.692205,4243.58964,4228.205025,4225.640922,4235.384512,4212.82041
115,0,4238.974255,4250.769127,4242.051178,4226.666563,4243.58964,4246.153742,4238.461435,4233.33323,4214.871692,4247.692204,4242.051178,4238.461435,4240.512717,4224.615281
116,0,4236.410153,4251.794768,4243.58964,4223.07682,4244.615281,4243.076819,4238.974255,4235.384512,4213.33323,4246.153742,4243.076819,4243.076819,4235.384512,4227.179384
117,0,4237.435794,4252.307588,4244.615281,4227.179384,4243.58964,4242.563999,4241.025537,4237.948614,4210.769128,4246.666563,4242.051178,4241.025537,4238.461435,4227.179384
118,0,4226.153743,4244.10246,4233.84605,4218.974256,4227.179384,4239.999896,4231.794768,4232.307589,4201.025538,4229.743486,4229.230666,4229.230666,4217.435794,4209.743487
119,0,4221.538358,4244.10246,4231.794768,4215.897333,4232.307589,4241.538358,4229.230666,4229.743486,4199.999897,4221.025538,4217.435794,4228.717845,4190.769128,4194.358872
120,0,4228.717845,4245.640922,4236.922973,4216.410153,4242.051178,4244.10246,4233.33323,4230.769127,4205.128102,4228.717845,4224.615281,4239.487076,4206.666564,4204.615282
121,0,4244.10246,4250.256306,4243.076819,4218.461435,4236.410153,4245.128101,4241.025537,4234.871691,4210.256307,4238.461435,4246.153742,4251.281947,4247.692204,4234.358871
122,0,4238.974255,4242.563999,4242.051178,4213.846051,4223.58964,4236.410153,4234.358871,4228.205025,4198.974256,4228.717845,4241.538358,4245.640922,4238.974255,4231.281948
123,0,4229.230666,4237.435794,4241.025537,4216.410153,4224.615281,4232.820409,4227.692204,4224.615281,4191.794769,4220.512717,4229.743486,4242.051178,4216.410153,4216.410153
124,0,4226.153743,4235.384512,4235.897332,4212.82041,4229.743486,4234.871691,4226.666563,4224.615281,4194.871692,4221.025538,4229.230666,4243.58964,4217.435794,4216.922974
125,0,4227.179384,4237.948614,4229.743486,4207.692205,4232.820409,4237.435794,4228.205025,4225.128102,4197.435795,4225.128102,4228.205025,4240.512717,4220.512717,4221.025538
126,0,4228.717845,4242.563999,4230.769127,4208.717846,4235.384512,4237.435794,4229.743486,4227.692204,4196.410154,4227.179384,4227.179384,4238.974255,4221.025538,4218.461435
127,0,4230.256307,4242.051178,4233.33323,4209.743487,4235.384512,4236.410153,4228.717845,4228.205025,4199.487077,4221.538358,4231.281948,4242.051178,4227.179384,4219.999897
128,0,4222.563999,4231.281948,4225.128102,4204.102461,4221.025538,4232.820409,4223.58964,4222.563999,4199.487077,4215.384512,4223.07682,4234.871691,4216.410153,4213.33323
0,0,4214.358871,4226.666563,4217.435794,4197.948615,4213.846051,4232.820409,4224.102461,4217.435794,4193.333231,4221.025538,4214.358871,4226.153743,4208.205025,4204.102461
1,0,4224.615281,4234.358871,4225.640922,4203.07682,4234.358871,4238.974255,4231.794768,4222.051179,4198.974256,4234.358871,4225.128102,4236.410153,4223.07682,4215.897333
2,0,4230.256307,4234.358871,4227.692204,4205.640923,4238.974255,4236.922973,4226.153743,4221.538358,4201.025538,4225.640922,4227.692204,4241.538358,4229.230666,4223.58964
3,0,4226.666563,4234.358871,4225.128102,4209.743487,4222.563999,4235.384512,4219.999897,4222.051179,4198.461436,4213.33323,4223.07682,4234.871691,4225.640922,4221.025538
4,0,4222.563999,4234.871691,4226.153743,4207.692205,4221.538358,4241.025537,4223.07682,4224.615281,4198.461436,4219.999897,4229.230666,4232.820409,4225.640922,4217.948615
5,0,4230.256307,4237.435794,4230.769127,4206.153743,4234.358871,4243.58964,4233.33323,4230.769127,4206.153743,4236.410153,4239.999896,4241.025537,4234.871691,4225.128102
6,0,4229.743486,4233.84605,4226.666563,4201.538359,4232.820409,4236.410153,4230.256307,4228.205025,4203.589641,4231.281948,4231.794768,4236.410153,4232.307589,4224.102461
7,0,4241.538358,4245.640922,4237.435794,4217.948615,4240.512717,4247.692204,4239.487076,4235.384512,4210.769128,4240.512717,4236.410153,4243.076819,4240.512717,4234.871691
8,0,4257.435793,4258.461434,4250.256306,4233.33323,4247.179383,4258.461434,4250.769127,4246.666563,4220.512717,4254.35887,4247.692204,4254.35887,4251.281947,4245.640922
9,0,4272.307588,4271.794767,4259.999896,4241.538358,4258.974255,4256.410152,4259.999896,4257.435793,4231.281948,4259.487075,4256.410152,4265.640921,4266.666562,4257.948614
10,0,4273.846049,4272.307588,4263.076819,4241.538358,4266.153742,4254.35887,4261.538357,4257.948614,4234.358871,4256.922973,4256.410152,4270.769126,4272.820408,4264.61528
11,0,4274.35887,4268.717844,4262.051178,4242.051178,4260.512716,4260.512716,4263.589639,4254.35887,4231.794768,4262.051178,4260.512716,4271.281947,4272.307588,4267.179383
12,0,4262.051178,4252.820409,4249.743486,4230.769127,4242.563999,4256.410152,4250.256306,4244.615281,4221.025538,4249.230665,4255.897332,4258.461434,4261.538357,4251.794768
13,0,4255.384511,4250.769127,4249.230665,4228.717845,4246.153742,4252.820409,4247.692204,4245.640922,4224.102461,4244.615281,4256.410152,4255.897332,4263.589639,4244.615281
14,0,4260.512716,4261.538357,4256.410152,4236.922973,4255.384511,4254.871691,4254.35887,4249.743486,4229.230666,4258.461434,4257.948614,4259.999896,4266.666562,4248.205024
15,0,4271.281947,4268.717844,4261.025537,4242.563999,4256.410152,4259.999896,4256.922973,4250.769127,4230.256307,4264.10246,4258.461434,4262.563998,4264.61528,4255.384511
16,0,4272.820408,4264.61528,4265.640921,4244.615281,4247.179383,4256.410152,4253.333229,4250.256306,4229.743486,4259.487075,4258.974255,4265.128101,4266.153742,4259.999896
17,0,4261.538357,4255.897332,4262.051178,4243.58964,4236.922973,4245.128101,4245.128101,4241.538358,4221.538358,4253.333229,4252.820409,4261.538357,4261.025537,4253.333229
18,0,4264.61528,4254.871691,4259.999896,4241.025537,4251.281947,4247.692204,4245.128101,4237.435794,4219.999897,4253.84605,4252.820409,4259.999896,4258.461434,4250.769127
19,0,4275.384511,4262.051178,4264.61528,4239.999896,4270.256306,4259.999896,4257.435793,4245.640922,4224.615281,4252.307588,4257.948614,4265.640921,4266.666562,4258.974255
20,0,4276.410152,4267.692203,4269.230665,4244.10246,4269.230665,4259.999896,4263.589639,4250.769127,4225.640922,4250.256306,4259.999896,4269.743485,4274.35887,4270.256306
21,0,4265.128101,4258.461434,4258.974255,4238.974255,4254.35887,4250.769127,4248.717845,4237.948614,4215.897333,4241.025537,4252.820409,4258.974255,4261.025537,4261.538357
22,0,4263.076819,4254.35887,4250.256306,4234.358871,4239.999896,4251.794768,4244.10246,4233.84605,4214.358871,4243.58964,4251.281947,4252.307588,4254.35887,4251.794768
23,0,4257.435793,4250.769127,4246.153742,4231.794768,4224.102461,4250.769127,4243.076819,4233.33323,4209.230666,4249.230665,4244.615281,4245.128101,4255.897332,4247.179383
24,0,4259.999896,4258.461434,4251.794768,4238.461435,4243.076819,4253.84605,4247.692204,4237.948614,4216.922974,4252.307588,4247.692204,4250.256306,4263.076819,4254.871691
25,0,4261.025537,4257.948614,4252.307588,4232.307589,4269.743485,4256.922973,4249.743486,4240.512717,4224.615281,4245.128101,4251.794768,4255.897332,4257.435793,4254.35887
26,0,4257.948614,4252.307588,4248.205024,4229.743486,4262.051178,4253.333229,4247.179383,4241.025537,4222.051179,4248.205024,4251.794768,4255.384511,4254.35887,4251.794768
27,0,4251.794768,4249.743486,4242.563999,4231.794768,4232.307589,4245.128101,4241.025537,4235.897332,4217.948615,4249.743486,4247.692204,4245.640922,4256.410152,4249.743486
28,0,4258.461434,4258.461434,4244.10246,4233.84605,4242.563999,4250.769127,4248.205024,4242.051178,4228.205025,4255.384511,4256.410152,4251.281947,4267.692203,4257.948614
29,0,4261.025537,4255.384511,4245.128101,4225.128102,4258.974255,4255.897332,4244.10246,4242.051178,4227.179384,4253.333229,4262.051178,4259.487075,4271.794767,4259.999896
30,0,4263.076819,4255.384511,4249.230665,4230.769127,4248.717845,4251.794768,4237.948614,4236.922973,4222.051179,4257.435793,4259.487075,4261.025537,4270.769126,4257.435793
31,0,4255.384511,4252.820409,4246.153742,4235.897332,4228.205025,4244.615281,4232.820409,4230.769127,4216.410153,4251.281947,4246.666563,4249.230665,4255.897332,4248.717845
32,0,4257.948614,4254.871691,4246.666563,4234.358871,4235.384512,4249.743486,4235.897332,4233.33323,4217.948615,4246.666563,4247.692204,4248.717845,4258.974255,4253.84605
33,0,4264.61528,4255.897332,4250.256306,4228.205025,4246.153742,4255.384511,4240.512717,4238.461435,4222.563999,4255.897332,4257.948614,4256.922973,4272.307588,4263.589639
34,0,4265.640921,4257.948614,4253.84605,4229.743486,4251.794768,4257.948614,4247.692204,4244.615281,4229.743486,4268.205024,4266.153742,4263.076819,4276.410152,4267.692203
35,0,4262.563998,4261.025537,4253.84605,4238.461435,4263.589639,4258.974255,4249.230665,4245.640922,4230.769127,4266.153742,4264.10246,4262.051178,4273.333229,4263.589639
36,0,4257.435793,4259.487075,4247.179383,4238.974255,4257.948614,4255.897332,4243.58964,4238.461435,4224.615281,4249.743486,4257.435793,4254.35887,4267.179383,4252.820409
37,0,4257.948614,4252.820409,4246.153742,4234.358871,4231.794768,4252.820409,4244.10246,4238.974255,4224.102461,4247.692204,4263.076819,4252.307588,4270.256306,4254.871691
38,0,4254.35887,4246.666563,4247.692204,4232.307589,4224.102461,4254.871691,4245.128101,4241.538358,4223.07682,4250.256306,4258.461434,4252.820409,4259.999896,4253.84605
39,0,4253.333229,4251.281947,4253.333229,4236.410153,4255.384511,4260.512716,4247.692204,4245.640922,4229.230666,4256.922973,4252.820409,4258.461434,4249.230665,4248.205024
40,0,4257.948614,4251.794768,4255.897332,4233.33323,4268.717844,4258.461434,4245.640922,4245.128101,4233.84605,4265.640921,4264.61528,4262.563998,4267.692203,4255.897332
41,0,4274.87169,4259.999896,4259.999896,4241.025537,4255.384511,4256.410152,4248.717845,4244.615281,4234.871691,4272.820408,4281.025536,4269.230665,4299.487074,4280.512716
42,0,4271.281947,4260.512716,4253.333229,4240.512717,4247.692204,4254.871691,4245.128101,4236.410153,4221.538358,4259.487075,4267.692203,4262.051178,4287.179382,4274.87169
43,0,4260.512716,4254.871691,4251.794768,4232.820409,4247.692204,4256.922973,4242.051178,4233.84605,4217.435794,4251.281947,4260.512716,4259.487075,4272.307588,4262.563998
44,0,4257.435793,4243.076819,4251.281947,4227.179384,4233.84605,4254.35887,4239.999896,4231.794768,4216.410153,4246.153742,4263.589639,4257.435793,4276.410152,4262.563998
45,0,4267.692203,4251.281947,4252.820409,4239.999896,4241.025537,4255.384511,4249.743486,4235.897332,4219.999897,4245.640922,4266.666562,4253.84605,4280.512716,4267.692203
46,0,4259.487075,4253.84605,4247.179383,4239.487076,4252.307588,4254.871691,4246.153742,4235.384512,4221.025538,4248.717845,4260.512716,4245.128101,4271.794767,4259.487075
47,0,4254.871691,4250.769127,4247.692204,4231.794768,4251.794768,4257.435793,4239.999896,4238.461435,4233.33323,4265.640921,4263.589639,4254.35887,4277.435793,4263.076819
48,0,4268.205024,4254.871691,4253.333229,4233.84605,4247.692204,4257.948614,4243.58964,4243.58964,4242.051178,4274.35887,4270.256306,4268.205024,4284.102459,4270.769126
49,0,4282.051177,4268.717844,4256.922973,4247.179383,4253.84605,4258.974255,4252.307588,4245.640922,4242.051178,4273.333229,4277.435793,4268.717844,4289.743485,4275.384511
50,0,4267.179383,4261.538357,4249.743486,4242.051178,4246.153742,4257.435793,4245.640922,4235.897332,4230.769127,4259.487075,4268.717844,4251.281947,4280.512716,4267.179383
51,0,4253.333229,4250.769127,4245.640922,4234.358871,4239.999896,4258.974255,4242.563999,4231.794768,4228.205025,4257.948614,4259.999896,4240.512717,4273.846049,4261.025537
52,0,4254.35887,4249.743486,4246.153742,4232.820409,4254.871691,4257.948614,4246.666563,4235.897332,4227.692204,4259.999896,4255.384511,4238.974255,4268.205024,4254.35887
53,0,4253.333229,4244.10246,4243.58964,4228.717845,4262.563998,4258.461434,4248.205024,4236.410153,4222.563999,4246.153742,4254.871691,4241.538358,4261.025537,4247.179383
54,0,4250.256306,4237.948614,4246.153742,4224.102461,4249.743486,4264.61528,4249.743486,4241.538358,4227.179384,4246.666563,4261.025537,4248.717845,4266.153742,4252.307588
55,0,4252.820409,4242.051178,4251.794768,4225.128102,4244.10246,4264.10246,4251.794768,4250.769127,4241.025537,4268.717844,4264.10246,4253.84605,4273.846049,4260.512716
56,0,4255.384511,4242.563999,4252.307588,4227.692204,4244.10246,4255.384511,4249.230665,4250.256306,4244.10246,4275.897331,4262.051178,4254.35887,4273.846049,4260.512716
57,0,4251.281947,4237.435794,4244.615281,4224.102461,4235.897332,4252.820409,4242.051178,4238.974255,4230.256307,4255.897332,4257.435793,4247.179383,4268.717844,4251.794768
58,0,4252.307588,4242.051178,4243.58964,4227.692204,4242.563999,4257.948614,4240.512717,4237.435794,4228.717845,4253.84605,4258.974255,4245.640922,4271.794767,4252.820409
59,0,4250.769127,4243.58964,4244.615281,4229.230666,4251.281947,4257.435793,4234.871691,4235.384512,4230.769127,4256.922973,4255.384511,4242.563999,4268.205024,4249.230665
60,0,4255.897332,4249.230665,4251.281947,4236.922973,4250.769127,4258.461434,4241.025537,4239.999896,4233.84605,4254.871691,4261.025537,4248.717845,4273.333229,4252.820409
61,0,4253.333229,4249.743486,4247.692204,4231.794768,4243.076819,4258.461434,4243.076819,4241.538358,4228.205025,4248.717845,4263.589639,4250.769127,4273.333229,4252.307588
62,0,4257.435793,4251.281947,4243.076819,4228.717845,4243.58964,4260.512716,4244.615281,4244.10246,4232.307589,4263.076819,4263.076819,4252.820409,4268.717844,4253.333229
63,0,4260.512716,4246.666563,4245.128101,4230.256307,4243.076819,4261.538357,4246.153742,4246.666563,4238.461435,4272.820408,4262.051178,4253.84605,4269.230665,4257.948614
64,0,4265.128101,4250.256306,4255.897332,4236.410153,4254.35887,4264.61528,4252.820409,4252.307588,4241.538358,4265.128101,4268.205024,4259.487075,4279.487075,4268.205024
65,0,4252.820409,4241.538358,4246.666563,4226.153743,4243.076819,4255.384511,4237.435794,4238.461435,4222.563999,4240.512717,4256.922973,4248.717845,4262.563998,4255.384511
66,0,4249.230665,4237.948614,4238.461435,4222.563999,4236.922973,4252.820409,4232.307589,4231.794768,4215.384512,4241.025537,4252.307588,4241.538358,4255.897332,4248.717845
67,0,4249.743486,4241.025537,4241.025537,4224.615281,4254.871691,4256.410152,4242.051178,4237.435794,4223.58964,4256.922973,4255.897332,4245.128101,4265.128101,4252.307588
68,0,4243.58964,4241.025537,4237.948614,4223.07682,4248.717845,4257.948614,4243.076819,4235.897332,4219.487076,4251.281947,4251.281947,4239.999896,4259.487075,4247.692204
69,0,4243.58964,4234.871691,4232.820409,4220.512717,4234.871691,4259.999896,4239.487076,4231.794768,4211.794769,4237.435794,4247.692204,4230.769127,4249.230665,4241.025537
70,0,4255.897332,4239.999896,4240.512717,4226.666563,4250.769127,4261.538357,4247.692204,4238.461435,4220.512717,4246.666563,4256.410152,4237.435794,4257.948614,4249.230665
71,0,4248.717845,4240.512717,4239.487076,4226.666563,4246.153742,4250.256306,4243.076819,4235.384512,4217.948615,4242.563999,4248.205024,4234.871691,4252.307588,4245.128101
72,0,4236.922973,4234.871691,4230.256307,4219.487076,4235.897332,4246.153742,4233.84605,4229.230666,4208.205025,4232.307589,4236.410153,4227.179384,4242.051178,4233.84605
73,0,4241.025537,4233.84605,4235.384512,4216.922974,4244.10246,4251.794768,4238.461435,4233.84605,4214.871692,4244.615281,4246.153742,4235.897332,4251.281947,4238.974255
74,0,4238.461435,4229.743486,4237.435794,4217.948615,4229.230666,4246.153742,4231.794768,4230.256307,4215.384512,4244.615281,4249.743486,4238.461435,4251.794768,4243.076819
75,0,4246.153742,4242.051178,4240.512717,4225.640922,4230.256307,4246.153742,4228.717845,4232.820409,4216.922974,4243.58964,4250.256306,4242.563999,4255.384511,4252.307588
76,0,4258.974255,4259.999896,4244.10246,4226.153743,4261.025537,4255.384511,4237.948614,4241.025537,4227.179384,4256.922973,4256.922973,4252.820409,4262.051178,4257.435793
77,0,4257.948614,4262.563998,4243.076819,4226.153743,4252.820409,4255.384511,4239.999896,4243.076819,4229.743486,4262.563998,4263.076819,4255.384511,4261.025537,4259.487075
78,0,4249.743486,4250.256306,4236.410153,4220.512717,4228.717845,4253.333229,4234.871691,4234.871691,4218.461435,4247.179383,4256.410152,4245.128101,4253.333229,4257.435793
79,0,4256.410152,4252.820409,4238.461435,4219.999897,4245.640922,4256.922973,4242.051178,4237.435794,4221.025538,4249.743486,4255.897332,4249.230665,4255.384511,4258.461434
80,0,4244.10246,4244.10246,4231.281948,4209.743487,4239.999896,4249.230665,4233.33323,4230.769127,4212.307589,4243.076819,4244.615281,4246.666563,4237.435794,4244.615281
81,0,4239.999896,4240.512717,4231.794768,4208.717846,4231.794768,4247.179383,4228.717845,4228.717845,4208.717846,4237.948614,4243.076819,4246.153742,4231.794768,4244.10246
82,0,4243.58964,4241.538358,4235.897332,4208.205025,4230.256307,4246.666563,4228.717845,4233.33323,4212.307589,4235.384512,4248.205024,4249.743486,4237.948614,4246.666563
83,0,4245.128101,4245.640922,4239.487076,4214.358871,4226.153743,4248.717845,4231.281948,4238.974255,4220.512717,4243.58964,4253.333229,4258.461434,4241.538358,4247.692204
84,0,4242.563999,4242.051178,4239.999896,4215.384512,4232.820409,4253.84605,4231.794768,4238.974255,4221.538358,4247.179383,4250.256306,4259.999896,4238.974255,4247.692204
85,0,4246.153742,4243.58964,4239.487076,4213.846051,4246.666563,4257.435793,4239.487076,4239.999896,4225.640922,4247.179383,4255.384511,4259.999896,4248.205024,4251.281947
86,0,4243.58964,4243.076819,4232.820409,4210.256307,4237.435794,4251.794768,4237.435794,4237.948614,4223.58964,4246.666563,4256.922973,4253.84605,4246.153742,4245.640922
87,0,4244.10246,4244.10246,4235.897332,4217.435794,4230.769127,4250.256306,4237.435794,4236.922973,4217.948615,4250.256306,4252.820409,4251.281947,4236.410153,4242.563999
88,0,4243.076819,4241.025537,4242.051178,4222.051179,4234.358871,4252.820409,4238.974255,4236.410153,4213.33323,4245.128101,4248.205024,4252.307588,4234.358871,4243.58964
89,0,4242.563999,4241.025537,4242.563999,4221.538358,4236.410153,4250.256306,4236.410153,4237.435794,4213.846051,4239.487076,4246.666563,4254.871691,4241.025537,4246.153742
90,0,4252.307588,4250.256306,4246.153742,4228.205025,4242.051178,4248.205024,4236.410153,4239.487076,4218.974256,4244.10246,4247.692204,4256.410152,4245.128101,4249.743486
91,0,4262.563998,4256.922973,4250.256306,4237.435794,4237.948614,4249.743486,4236.922973,4239.487076,4222.051179,4247.179383,4251.281947,4258.974255,4249.230665,4255.897332
92,0,4258.461434,4250.769127,4248.205024,4232.307589,4228.717845,4251.794768,4233.33323,4239.999896,4225.128102,4247.692204,4254.871691,4261.538357,4254.35887,4264.10246
93,0,4248.205024,4238.974255,4239.999896,4216.922974,4235.384512,4248.205024,4226.666563,4234.358871,4219.487076,4244.10246,4248.717845,4253.333229,4249.230665,4259.487075
94,0,4247.179383,4237.948614,4234.871691,4212.307589,4244.615281,4248.205024,4227.179384,4231.281948,4213.846051,4240.512717,4246.666563,4249.230665,4245.640922,4251.281947
95,0,4242.051178,4233.84605,4227.692204,4209.230666,4240.512717,4251.281947,4227.692204,4232.307589,4210.769128,4234.871691,4244.615281,4245.640922,4242.563999,4246.153742
96,0,4236.922973,4230.256307,4228.205025,4211.281948,4237.435794,4251.794768,4228.717845,4235.384512,4210.769128,4234.358871,4240.512717,4242.051178,4236.922973,4244.10246
97,0,4231.281948,4227.692204,4229.743486,4213.846051,4228.717845,4248.205024,4226.666563,4230.256307,4205.128102,4222.051179,4230.256307,4233.33323,4224.615281,4231.281948
98,0,4237.435794,4233.33323,4235.384512,4221.538358,4224.615281,4249.230665,4234.871691,4236.922973,4213.846051,4222.563999,4236.922973,4238.461435,4228.717845,4234.871691
99,0,4235.897332,4228.205025,4232.307589,4213.846051,4222.563999,4247.179383,4235.384512,4242.051178,4218.461435,4231.794768,4243.076819,4243.076819,4231.281948,4239.999896
100,0,4243.58964,4231.794768,4235.897332,4215.384512,4234.871691,4248.205024,4236.922973,4247.179383,4223.07682,4244.10246,4247.179383,4250.256306,4240.512717,4245.128101
101,0,4245.640922,4235.384512,4238.461435,4218.461435,4241.538358,4245.128101,4233.84605,4245.128101,4223.07682,4241.025537,4244.615281,4247.179383,4241.025537,4243.58964
102,0,4236.410153,4233.84605,4234.358871,4215.897333,4238.461435,4244.10246,4232.307589,4238.974255,4220.512717,4238.974255,4243.58964,4240.512717,4238.461435,4242.051178
103,0,4225.128102,4223.07682,4223.07682,4206.153743,4220.512717,4244.10246,4224.102461,4228.205025,4209.230666,4229.743486,4237.435794,4233.33323,4233.33323,4232.820409
104,0,4229.743486,4220.512717,4222.051179,4208.717846,4221.025538,4246.153742,4222.051179,4229.230666,4206.666564,4221.025538,4236.410153,4233.84605,4235.384512,4231.794768
105,0,4223.58964,4215.384512,4222.051179,4205.128102,4230.769127,4243.076819,4218.974256,4227.179384,4202.564,4215.897333,4228.717845,4228.717845,4227.179384,4229.230666
106,0,4217.435794,4213.846051,4222.051179,4200.512718,4230.256307,4241.025537,4221.025538,4223.07682,4203.589641,4218.974256,4222.563999,4224.615281,4222.563999,4226.153743
107,0,4234.871691,4227.692204,4231.794768,4213.33323,4229.743486,4241.538358,4228.205025,4229.743486,4211.281948,4226.666563,4233.84605,4235.897332,4234.871691,4237.435794
108,0,4252.820409,4244.10246,4241.025537,4226.153743,4234.358871,4243.076819,4230.256307,4236.922973,4217.435794,4230.769127,4248.205024,4248.205024,4247.692204,4252.820409
109,0,4241.538358,4238.974255,4233.84605,4217.948615,4229.743486,4240.512717,4222.051179,4230.256307,4213.33323,4228.717845,4242.563999,4240.512717,4242.563999,4248.205024
110,0,4226.666563,4226.153743,4222.051179,4207.692205,4219.487076,4237.435794,4216.922974,4224.102461,4204.615282,4221.025538,4231.281948,4229.230666,4230.769127,4234.358871
111,0,4229.743486,4224.615281,4225.640922,4211.281948,4227.692204,4242.051178,4222.563999,4231.281948,4208.205025,4217.948615,4235.897332,4234.871691,4232.820409,4236.922973
112,0,4226.666563,4219.999897,4226.666563,4204.615282,4234.871691,4246.666563,4224.615281,4227.692204,4206.666564,4211.794769,4232.307589,4233.84605,4229.230666,4236.922973
113,0,4225.128102,4221.025538,4223.58964,4200.512718,4232.307589,4248.205024,4228.717845,4225.640922,4208.717846,4216.922974,4226.153743,4230.256307,4224.102461,4231.281948
114,0,4225.640922,4223.07682,4221.538358,4204.102461,4222.563999,4243.58964,4225.640922,4224.102461,4206.153743,4219.487076,4223.07682,4227.692204,4218.461435,4224.102461
115,0,4230.256307,4223.58964,4228.205025,4210.769128,4213.33323,4241.025537,4220.512717,4222.051179,4197.948615,4217.948615,4225.128102,4230.256307,4219.999897,4228.717845
116,0,4225.128102,4214.871692,4225.128102,4203.589641,4199.999897,4235.897332,4213.846051,4216.410153,4187.692205,4207.179384,4217.435794,4227.179384,4212.82041,4224.102461
117,0,4230.256307,4222.051179,4223.58964,4205.640923,4216.922974,4238.461435,4221.538358,4223.07682,4199.487077,4213.846051,4223.58964,4235.384512,4217.435794,4227.692204
118,0,4236.922973,4228.205025,4228.717845,4207.179384,4242.563999,4243.58964,4224.615281,4227.692204,4208.205025,4214.358871,4235.897332,4241.538358,4224.102461,4235.384512
119,0,4242.563999,4231.794768,4239.487076,4214.871692,4237.435794,4243.58964,4226.153743,4232.820409,4208.205025,4213.33323,4239.999896,4245.128101,4228.205025,4239.487076
120,0,4235.384512,4225.128102,4235.897332,4215.897333,4211.794769,4235.897332,4222.563999,4231.281948,4204.102461,4216.410153,4226.153743,4237.948614,4219.999897,4228.717845
121,0,4232.820409,4225.640922,4231.281948,4215.897333,4213.846051,4241.025537,4225.128102,4229.230666,4208.717846,4220.512717,4222.051179,4235.384512,4218.974256,4227.692204
122,0,4236.922973,4225.128102,4231.794768,4212.307589,4223.58964,4248.205024,4226.153743,4228.205025,4209.743487,4215.384512,4229.743486,4237.435794,4227.179384,4234.871691
123,0,4246.153742,4228.717845,4235.897332,4216.410153,4225.128102,4246.666563,4228.717845,4232.307589,4212.307589,4226.153743,4238.974255,4245.128101,4241.025537,4244.615281
124,0,4246.666563,4231.281948,4235.897332,4217.435794,4222.563999,4240.512717,4231.794768,4233.33323,4213.846051,4236.410153,4237.435794,4242.563999,4238.461435,4241.025537
125,0,4242.563999,4232.820409,4231.281948,4213.33323,4227.179384,4243.076819,4235.897332,4232.820409,4214.871692,4223.07682,4235.384512,4237.435794,4229.743486,4234.871691
126,0,4233.84605,4225.640922,4222.563999,4205.640923,4233.84605,4241.025537,4229.230666,4230.256307,4212.82041,4209.743487,4233.84605,4231.794768,4225.640922,4229.743486
127,0,4228.717845,4217.948615,4217.435794,4202.051179,4232.307589,4237.435794,4222.563999,4230.256307,4212.307589,4220.512717,4229.743486,4226.666563,4226.153743,4226.153743
128,0,4234.871691,4215.384512,4224.102461,4206.153743,4223.07682,4240.512717,4227.179384,4233.84605,4214.871692,4230.256307,4229.743486,4231.794768,4227.692204,4230.256307
0,0,4238.974255,4216.410153,4229.743486,4208.717846,4214.358871,4239.487076,4226.666563,4231.281948,4209.743487,4221.538358,4234.871691,4239.999896,4232.820409,4236.410153
1,0,4240.512717,4224.102461,4232.307589,4211.794769,4217.435794,4238.974255,4225.128102,4229.743486,4208.717846,4219.487076,4242.051178,4242.051178,4237.948614,4238.974255
2,0,4234.358871,4223.58964,4229.743486,4211.281948,4222.563999,4242.051178,4226.666563,4231.794768,4209.743487,4225.128102,4232.820409,4233.33323,4228.717845,4229.230666
3,0,4235.897332,4224.615281,4233.84605,4216.922974,4231.794768,4245.640922,4232.307589,4237.435794,4216.410153,4231.281948,4228.717845,4234.871691,4229.743486,4229.743486
4,0,4235.384512,4222.563999,4234.871691,4217.435794,4230.769127,4241.538358,4228.205025,4230.256307,4208.717846,4217.948615,4232.307589,4235.897332,4236.922973,4232.307589
5,0,4240.512717,4228.205025,4234.358871,4217.948615,4236.410153,4246.153742,4235.897332,4233.33323,4211.281948,4221.538358,4242.051178,4238.974255,4245.128101,4238.974255
6,0,4238.974255,4226.666563,4232.307589,4210.769128,4236.410153,4249.230665,4240.512717,4239.487076,4220.512717,4233.33323,4238.461435,4235.897332,4242.051178,4236.410153
7,0,4239.999896,4226.666563,4236.410153,4216.410153,4227.179384,4245.128101,4234.358871,4234.871691,4217.435794,4227.692204,4235.384512,4235.384512,4241.538358,4235.384512
8,0,4232.307589,4219.487076,4229.230666,4215.897333,4225.128102,4236.922973,4219.487076,4221.538358,4198.974256,4209.230666,4232.307589,4230.769127,4233.84605,4227.692204
9,0,4237.435794,4227.179384,4229.743486,4215.897333,4243.58964,4240.512717,4226.666563,4228.205025,4209.743487,4226.153743,4241.025537,4234.358871,4242.563999,4233.84605
10,0,4246.666563,4231.281948,4236.410153,4215.384512,4241.538358,4245.128101,4233.33323,4236.410153,4225.128102,4244.615281,4245.128101,4237.435794,4252.307588,4240.512717
11,0,4242.563999,4222.563999,4235.384512,4217.435794,4223.58964,4241.025537,4229.743486,4233.33323,4219.487076,4234.871691,4236.922973,4234.358871,4245.128101,4231.794768
12,0,4226.666563,4210.256307,4226.666563,4213.846051,4215.384512,4232.307589,4222.563999,4224.102461,4202.564,4213.33323,4223.07682,4224.615281,4227.179384,4218.461435
13,0,4228.205025,4216.410153,4227.692204,4211.281948,4224.615281,4239.487076,4225.128102,4225.128102,4204.102461,4210.769128,4223.58964,4222.563999,4224.102461,4222.051179
14,0,4228.205025,4213.846051,4226.666563,4205.128102,4220.512717,4249.743486,4224.615281,4226.666563,4207.179384,4214.358871,4221.538358,4219.487076,4224.615281,4220.512717
15,0,4222.563999,4203.07682,4222.051179,4203.589641,4212.307589,4248.717845,4219.999897,4223.58964,4200.512718,4211.794769,4219.487076,4218.974256,4226.666563,4215.384512
16,0,4229.230666,4211.281948,4226.153743,4210.769128,4224.102461,4246.153742,4219.999897,4223.07682,4199.487077,4211.794769,4228.717845,4225.640922,4233.33323,4223.58964
17,0,4238.461435,4225.128102,4232.307589,4215.897333,4240.512717,4252.820409,4228.205025,4227.692204,4212.307589,4223.07682,4236.410153,4230.769127,4238.461435,4233.84605
18,0,4234.871691,4220.512717,4231.794768,4216.922974,4238.974255,4254.35887,4234.358871,4231.794768,4219.487076,4227.692204,4234.358871,4229.230666,4237.435794,4231.281948
19,0,4221.025538,4203.07682,4221.538358,4208.205025,4224.615281,4245.640922,4224.615281,4226.153743,4202.564,4209.230666,4224.102461,4218.461435,4223.58964,4217.948615
20,0,4217.435794,4201.538359,4217.435794,4203.07682,4216.922974,4244.615281,4221.025538,4222.563999,4196.922974,4207.179384,4216.922974,4212.82041,4212.82041,4212.307589
21,0,4217.948615,4206.666564,4215.897333,4204.102461,4209.230666,4243.076819,4221.025538,4214.358871,4195.384513,4204.615282,4209.743487,4210.256307,4207.179384,4207.179384
22,0,4224.102461,4215.897333,4221.538358,4212.307589,4215.384512,4239.487076,4218.461435,4213.846051,4191.794769,4196.922974,4217.435794,4217.435794,4213.846051,4211.794769
23,0,4221.025538,4211.281948,4223.07682,4207.179384,4225.640922,4238.461435,4210.256307,4215.897333,4192.30759,4202.051179,4222.563999,4221.538358,4220.512717,4217.435794
24,0,4224.615281,4212.307589,4230.256307,4208.717846,4231.281948,4246.153742,4217.435794,4221.538358,4207.692205,4223.58964,4228.205025,4229.230666,4230.769127,4226.666563
25,0,4232.820409,4219.999897,4234.871691,4214.871692,4224.102461,4247.692204,4228.205025,4221.025538,4210.256307,4217.948615,4227.179384,4231.281948,4226.153743,4223.58964
26,0,4239.487076,4226.666563,4237.435794,4221.025538,4227.692204,4246.666563,4235.897332,4225.640922,4205.640923,4211.794769,4227.179384,4231.794768,4222.051179,4220.512717
27,0,4222.051179,4210.769128,4226.153743,4208.717846,4223.58964,4242.563999,4225.128102,4222.051179,4197.435795,4209.230666,4219.487076,4221.025538,4213.846051,4209.230666
28,0,4214.358871,4209.743487,4219.999897,4205.640923,4215.897333,4242.563999,4222.563999,4220.512717,4200.512718,4204.615282,4221.025538,4217.948615,4215.384512,4208.205025
29,0,4223.07682,4220.512717,4225.128102,4212.307589,4226.153743,4246.153742,4229.743486,4225.128102,4205.640923,4205.640923,4228.205025,4224.102461,4219.999897,4213.33323
30,0,4234.358871,4225.128102,4233.33323,4218.974256,4242.563999,4252.820409,4235.384512,4233.33323,4213.846051,4225.640922,4235.384512,4230.769127,4228.205025,4217.948615
31,0,4230.256307,4218.461435,4229.230666,4213.33323,4225.128102,4249.743486,4230.256307,4228.717845,4210.769128,4231.794768,4229.743486,4225.128102,4227.692204,4214.871692
32,0,4223.58964,4215.384512,4219.487076,4210.769128,4209.743487,4244.615281,4226.153743,4221.025538,4202.051179,4218.974256,4219.999897,4218.974256,4219.999897,4209.230666
33,0,4218.461435,4211.794769,4214.358871,4210.769128,4220.512717,4240.512717,4216.922974,4213.846051,4193.846051,4201.538359,4215.897333,4214.871692,4211.794769,4202.051179
34,0,4222.051179,4213.33323,4216.922974,4209.743487,4230.256307,4240.512717,4213.846051,4211.794769,4192.82041,4201.025538,4218.461435,4213.846051,4216.922974,4201.025538
35,0,4228.717845,4220.512717,4220.512717,4210.256307,4230.256307,4244.615281,4228.205025,4216.922974,4202.564,4215.384512,4221.538358,4216.410153,4225.640922,4207.692205
36,0,4225.640922,4219.999897,4218.461435,4210.256307,4229.230666,4246.666563,4235.384512,4219.999897,4204.615282,4213.33323,4217.948615,4214.871692,4217.435794,4207.179384
37,0,4221.025538,4214.358871,4219.999897,4209.743487,4226.153743,4244.10246,4228.717845,4221.025538,4202.051179,4202.564,4212.307589,4212.82041,4207.692205,4201.538359
38,0,4214.358871,4204.102461,4218.974256,4206.153743,4217.435794,4236.922973,4220.512717,4214.358871,4196.922974,4193.846051,4202.051179,4207.692205,4202.564,4192.30759
39,0,4214.358871,4206.666564,4219.999897,4208.205025,4226.153743,4239.487076,4222.563999,4218.461435,4198.974256,4194.871692,4201.538359,4209.743487,4203.589641,4195.897333
40,0,4215.897333,4215.897333,4219.487076,4205.128102,4233.84605,4242.051178,4223.58964,4226.153743,4198.461436,4195.384513,4206.666564,4213.33323,4199.487077,4199.999897
41,0,4221.538358,4225.128102,4221.025538,4207.692205,4226.153743,4243.076819,4227.179384,4229.230666,4202.051179,4204.615282,4210.256307,4218.461435,4199.999897,4200.512718
42,0,4219.999897,4223.58964,4218.461435,4209.743487,4212.307589,4242.051178,4224.102461,4221.025538,4200.512718,4210.769128,4203.589641,4215.384512,4198.461436,4196.410154
43,0,4231.281948,4234.871691,4225.640922,4217.435794,4226.666563,4244.615281,4228.717845,4227.179384,4208.205025,4225.128102,4213.846051,4224.102461,4210.256307,4213.846051
44,0,4233.33323,4237.435794,4224.102461,4211.794769,4229.743486,4239.999896,4228.205025,4226.153743,4206.666564,4213.846051,4219.487076,4226.666563,4210.256307,4217.435794
45,0,4233.33323,4237.435794,4221.025538,4211.794769,4222.563999,4241.025537,4228.205025,4220.512717,4201.538359,4199.999897,4212.82041,4227.692204,4203.589641,4209.743487
46,0,4234.871691,4239.487076,4223.07682,4215.897333,4234.871691,4245.640922,4228.717845,4219.999897,4201.025538,4207.692205,4204.615282,4229.743486,4199.487077,4210.256307
47,0,4241.538358,4247.692204,4226.666563,4223.58964,4243.58964,4245.128101,4234.358871,4225.128102,4207.692205,4216.922974,4209.743487,4235.384512,4204.615282,4219.487076
48,0,4228.717845,4238.461435,4215.384512,4213.846051,4209.743487,4233.84605,4223.07682,4216.922974,4201.025538,4202.564,4205.128102,4226.666563,4199.999897,4209.743487
49,0,4221.538358,4232.820409,4210.769128,4207.179384,4201.538359,4231.794768,4212.82041,4210.256307,4193.846051,4199.999897,4202.564,4222.051179,4201.025538,4205.640923
50,0,4232.820409,4242.051178,4217.435794,4213.33323,4234.871691,4238.461435,4215.384512,4211.794769,4195.384513,4205.640923,4209.743487,4229.230666,4206.666564,4216.410153
51,0,4242.563999,4249.743486,4225.128102,4224.102461,4241.538358,4240.512717,4219.999897,4212.82041,4202.051179,4206.666564,4210.769128,4237.948614,4206.666564,4218.461435
52,0,4229.743486,4238.461435,4219.999897,4219.487076,4208.717846,4232.307589,4211.794769,4204.615282,4193.333231,4197.948615,4196.922974,4228.205025,4195.897333,4206.153743
53,0,4218.461435,4228.717845,4213.33323,4210.769128,4205.640923,4231.794768,4210.769128,4203.07682,4182.564,4186.153744,4191.281949,4217.948615,4192.82041,4202.564
54,0,4226.153743,4232.820409,4221.538358,4212.82041,4228.205025,4240.512717,4226.666563,4219.487076,4200.512718,4196.922974,4206.153743,4231.794768,4203.07682,4210.769128
55,0,4225.128102,4229.743486,4221.538358,4212.307589,4227.692204,4242.563999,4232.307589,4229.230666,4216.410153,4213.33323,4211.281948,4236.410153,4202.564,4210.769128
56,0,4219.487076,4225.128102,4213.846051,4210.769128,4223.58964,4240.512717,4224.615281,4225.640922,4205.640923,4209.230666,4204.615282,4224.615281,4198.974256,4207.692205
57,0,4223.07682,4224.102461,4216.922974,4211.794769,4227.692204,4239.999896,4221.025538,4221.025538,4197.948615,4202.051179,4204.102461,4222.563999,4206.153743,4208.717846
58,0,4233.84605,4229.230666,4227.692204,4215.384512,4224.615281,4237.948614,4230.256307,4225.128102,4208.205025,4212.82041,4212.307589,4232.307589,4218.461435,4216.922974
59,0,4226.666563,4222.563999,4219.999897,4208.205025,4209.743487,4230.769127,4226.153743,4221.538358,4201.538359,4208.717846,4207.179384,4227.179384,4209.743487,4211.794769
60,0,4231.281948,4227.692204,4222.563999,4216.410153,4216.410153,4232.307589,4226.153743,4224.102461,4206.153743,4214.871692,4213.846051,4237.948614,4214.358871,4219.487076
61,0,4243.076819,4236.922973,4233.84605,4225.640922,4223.58964,4234.871691,4229.230666,4225.128102,4215.384512,4222.051179,4223.07682,4251.794768,4228.717845,4232.820409
62,0,4248.205024,4243.076819,4236.410153,4228.717845,4226.153743,4238.461435,4229.743486,4223.58964,4213.846051,4222.051179,4229.230666,4251.794768,4240.512717,4241.025537
63,0,4233.84605,4234.358871,4224.102461,4219.487076,4219.999897,4236.410153,4218.461435,4220.512717,4205.640923,4212.82041,4223.58964,4239.487076,4230.256307,4229.230666
64,0,4231.281948,4235.897332,4221.538358,4217.948615,4222.563999,4237.948614,4221.538358,4223.58964,4211.794769,4212.307589,4222.563999,4237.948614,4228.205025,4226.666563
65,0,4236.410153,4242.563999,4225.128102,4219.999897,4229.230666,4238.974255,4224.102461,4221.025538,4211.794769,4213.33323,4221.025538,4234.871691,4234.358871,4229.743486
66,0,4236.410153,4243.076819,4226.153743,4224.615281,4232.820409,4238.974255,4221.025538,4219.999897,4210.256307,4223.07682,4218.461435,4231.281948,4231.794768,4227.179384
67,0,4217.948615,4225.128102,4215.384512,4214.358871,4215.384512,4231.281948,4212.82041,4217.435794,4208.717846,4224.615281,4209.230666,4222.563999,4216.922974,4212.307589
68,0,4213.33323,4221.025538,4213.846051,4211.794769,4207.692205,4233.33323,4219.487076,4221.025538,4214.358871,4227.179384,4209.230666,4221.025538,4221.025538,4210.256307
69,0,4223.07682,4228.205025,4216.922974,4215.897333,4223.07682,4239.999896,4228.205025,4227.692204,4217.435794,4230.256307,4214.358871,4220.512717,4229.743486,4213.846051
70,0,4225.128102,4228.717845,4214.871692,4215.897333,4238.461435,4239.999896,4228.717845,4230.769127,4216.410153,4226.666563,4216.922974,4222.563999,4226.666563,4213.846051
71,0,4216.922974,4223.07682,4209.743487,4212.307589,4228.205025,4233.33323,4218.974256,4223.58964,4210.769128,4214.871692,4210.256307,4220.512717,4219.487076,4209.743487
72,0,4215.384512,4225.128102,4207.179384,4213.846051,4212.307589,4230.769127,4213.33323,4214.358871,4200.512718,4204.615282,4197.435795,4210.256307,4214.871692,4207.179384
73,0,4226.666563,4232.820409,4214.871692,4221.538358,4219.999897,4233.33323,4221.025538,4216.410153,4199.999897,4210.769128,4201.025538,4210.769128,4221.025538,4218.461435
74,0,4235.897332,4236.922973,4223.07682,4226.153743,4229.230666,4236.410153,4224.102461,4222.563999,4208.205025,4224.102461,4214.871692,4222.051179,4232.820409,4230.769127
75,0,4237.948614,4241.025537,4224.615281,4227.692204,4226.666563,4237.435794,4220.512717,4225.640922,4216.410153,4225.640922,4217.948615,4227.692204,4232.820409,4231.281948
76,0,4228.205025,4234.358871,4215.897333,4222.563999,4213.846051,4231.281948,4214.358871,4217.948615,4203.589641,4212.307589,4209.230666,4214.871692,4219.487076,4219.487076
77,0,4232.307589,4237.435794,4221.025538,4231.794768,4217.435794,4235.384512,4226.153743,4221.538358,4205.640923,4216.922974,4218.974256,4216.410153,4227.179384,4223.58964
78,0,4233.84605,4237.435794,4224.102461,4231.794768,4230.769127,4241.538358,4233.33323,4223.58964,4216.410153,4216.922974,4221.538358,4224.102461,4231.794768,4227.179384
79,0,4227.179384,4232.820409,4216.410153,4222.051179,4233.84605,4238.974255,4227.179384,4217.948615,4213.33323,4211.281948,4213.846051,4223.58964,4227.179384,4225.128102
80,0,4214.871692,4222.563999,4203.07682,4209.230666,4214.871692,4230.256307,4207.179384,4206.153743,4190.769128,4200.512718,4201.025538,4208.717846,4212.307589,4212.82041
81,0,4224.615281,4230.256307,4208.717846,4214.871692,4211.794769,4233.84605,4209.230666,4209.230666,4193.333231,4208.205025,4203.589641,4210.769128,4214.871692,4214.871692
82,0,4230.256307,4230.256307,4215.897333,4216.410153,4212.82041,4234.871691,4215.897333,4213.33323,4205.640923,4211.794769,4207.179384,4217.435794,4221.025538,4218.461435
83,0,4227.179384,4224.615281,4216.922974,4216.410153,4217.948615,4233.33323,4216.922974,4219.487076,4210.256307,4212.82041,4213.846051,4223.58964,4227.179384,4222.051179
84,0,4217.948615,4221.025538,4211.794769,4209.743487,4225.640922,4231.281948,4214.871692,4222.563999,4205.128102,4212.307589,4213.33323,4220.512717,4222.051179,4220.512717
85,0,4218.461435,4221.538358,4208.717846,4207.692205,4224.102461,4232.820409,4217.948615,4221.538358,4201.025538,4214.871692,4212.307589,4213.846051,4221.025538,4218.974256
86,0,4219.487076,4214.871692,4205.128102,4208.205025,4209.230666,4229.743486,4216.410153,4214.871692,4195.897333,4208.205025,4206.153743,4208.717846,4219.487076,4214.871692
87,0,4221.025538,4218.461435,4208.717846,4213.33323,4211.794769,4229.230666,4220.512717,4213.33323,4197.948615,4198.974256,4202.564,4210.769128,4213.33323,4212.82041
88,0,4219.487076,4227.179384,4210.256307,4214.871692,4220.512717,4232.820409,4225.128102,4213.846051,4200.512718,4203.589641,4207.179384,4206.153743,4207.692205,4208.717846
89,0,4219.999897,4228.205025,4206.666564,4216.922974,4219.999897,4236.922973,4222.563999,4218.461435,4206.153743,4220.512717,4212.82041,4204.615282,4214.871692,4208.717846
90,0,4224.102461,4228.205025,4209.743487,4222.051179,4226.666563,4237.948614,4219.999897,4226.666563,4216.410153,4229.230666,4215.897333,4213.846051,4225.128102,4218.461435
91,0,4222.051179,4227.692204,4214.358871,4222.051179,4231.281948,4238.461435,4221.025538,4226.666563,4217.435794,4220.512717,4216.922974,4216.410153,4227.179384,4224.102461
92,0,4218.461435,4221.538358,4214.358871,4219.487076,4216.922974,4234.871691,4222.563999,4223.07682,4213.846051,4214.358871,4216.410153,4212.307589,4225.640922,4223.58964
93,0,4216.922974,4214.871692,4211.281948,4217.948615,4204.615282,4230.256307,4223.07682,4217.948615,4209.230666,4212.82041,4210.769128,4207.692205,4218.461435,4213.846051
94,0,4221.025538,4219.487076,4213.33323,4220.512717,4217.948615,4232.820409,4225.640922,4218.461435,4209.743487,4213.846051,4210.769128,4208.717846,4216.410153,4212.82041
95,0,4217.435794,4217.435794,4209.743487,4215.897333,4226.153743,4232.307589,4220.512717,4216.922974,4205.640923,4205.640923,4212.307589,4209.230666,4216.410153,4217.948615
96,0,4219.999897,4221.025538,4208.717846,4221.025538,4216.410153,4229.743486,4216.922974,4217.435794,4207.179384,4203.589641,4219.487076,4211.794769,4223.07682,4222.563999
97,0,4223.58964,4225.640922,4207.692205,4223.07682,4209.230666,4231.794768,4214.871692,4216.410153,4206.666564,4213.846051,4221.538358,4211.281948,4223.07682,4216.922974
98,0,4235.384512,4231.794768,4216.410153,4227.692204,4228.205025,4242.563999,4230.769127,4231.794768,4222.563999,4241.538358,4231.281948,4226.153743,4233.33323,4228.717845
99,0,4239.487076,4227.692204,4219.999897,4227.179384,4235.384512,4237.948614,4235.897332,4237.948614,4232.307589,4247.179383,4238.461435,4231.281948,4242.563999,4240.512717
100,0,4242.563999,4234.871691,4218.461435,4231.281948,4229.230666,4230.256307,4227.179384,4229.230666,4224.615281,4236.922973,4236.922973,4224.615281,4249.230665,4243.58964
101,0,4227.179384,4224.615281,4208.717846,4221.025538,4214.358871,4226.153743,4212.307589,4214.871692,4205.640923,4216.410153,4215.384512,4211.281948,4229.230666,4223.58964
102,0,4212.82041,4205.640923,4206.666564,4213.846051,4205.640923,4226.666563,4217.435794,4213.33323,4204.615282,4207.179384,4205.640923,4208.717846,4206.153743,4205.640923
103,0,4207.179384,4201.025538,4209.743487,4214.871692,4199.999897,4223.58964,4218.461435,4211.794769,4204.615282,4204.102461,4211.281948,4210.256307,4201.538359,4203.589641
104,0,4212.82041,4208.717846,4214.358871,4220.512717,4194.871692,4220.512717,4207.179384,4205.128102,4195.897333,4199.999897,4215.897333,4213.33323,4210.769128,4213.846051
105,0,4215.384512,4205.128102,4214.871692,4219.487076,4191.281949,4222.051179,4202.051179,4201.538359,4191.794769,4198.974256,4210.769128,4212.307589,4214.358871,4216.410153
106,0,4219.999897,4207.179384,4220.512717,4220.512717,4207.179384,4228.717845,4213.846051,4209.230666,4205.128102,4214.358871,4213.846051,4216.410153,4218.461435,4221.025538
107,0,4223.58964,4214.871692,4223.58964,4221.538358,4215.897333,4230.256307,4219.487076,4213.33323,4214.871692,4225.128102,4217.948615,4222.563999,4222.563999,4224.102461
108,0,4226.153743,4216.922974,4220.512717,4224.102461,4211.794769,4230.769127,4218.974256,4213.846051,4214.358871,4226.666563,4218.461435,4221.025538,4226.153743,4223.58964
109,0,4231.281948,4222.563999,4222.051179,4228.717845,4223.07682,4237.948614,4224.615281,4224.102461,4224.615281,4239.487076,4229.230666,4223.58964,4231.281948,4231.281948
110,0,4228.205025,4222.051179,4219.999897,4223.58964,4222.051179,4235.897332,4220.512717,4228.205025,4228.205025,4238.974255,4232.820409,4224.615281,4231.281948,4232.820409
111,0,4226.666563,4216.922974,4216.922974,4222.051179,4201.025538,4225.640922,4211.794769,4224.102461,4220.512717,4224.615281,4227.179384,4221.538358,4229.743486,4230.256307
112,0,4225.640922,4215.897333,4217.435794,4225.128102,4198.461436,4225.640922,4213.33323,4221.538358,4212.307589,4218.974256,4225.128102,4217.948615,4226.153743,4229.230666
113,0,4227.179384,4217.948615,4222.563999,4226.666563,4213.846051,4230.769127,4222.051179,4229.230666,4215.384512,4228.205025,4229.743486,4222.051179,4228.205025,4231.281948
114,0,4220.512717,4209.743487,4214.358871,4212.82041,4210.256307,4227.179384,4218.974256,4228.717845,4211.794769,4217.435794,4217.948615,4217.435794,4219.487076,4221.538358
115,0,4217.435794,4210.769128,4207.179384,4209.743487,4205.640923,4227.179384,4217.948615,4223.58964,4206.666564,4206.666564,4209.743487,4211.281948,4211.794769,4216.410153
116,0,4209.743487,4205.640923,4204.615282,4211.281948,4194.871692,4222.563999,4214.871692,4211.794769,4195.384513,4203.07682,4204.102461,4202.564,4204.102461,4209.230666
117,0,4213.33323,4202.564,4212.82041,4217.948615,4194.358872,4221.025538,4220.512717,4213.846051,4199.487077,4211.281948,4212.307589,4209.230666,4211.281948,4211.794769
118,0,4213.33323,4197.435795,4213.33323,4213.846051,4198.461436,4225.128102,4221.025538,4216.922974,4205.128102,4204.102461,4219.487076,4213.33323,4210.256307,4212.307589
119,0,4213.33323,4202.564,4211.281948,4214.358871,4207.692205,4233.33323,4226.153743,4220.512717,4209.230666,4209.230666,4220.512717,4211.281948,4209.743487,4211.281948
120,0,4209.230666,4204.102461,4206.666564,4213.846051,4215.384512,4229.230666,4222.051179,4215.897333,4206.153743,4221.025538,4211.794769,4204.615282,4208.717846,4204.102461
121,0,4211.794769,4205.640923,4208.717846,4218.461435,4221.025538,4225.640922,4216.922974,4216.922974,4209.743487,4222.563999,4216.922974,4210.256307,4217.435794,4212.307589
122,0,4210.256307,4193.333231,4212.82041,4215.384512,4209.230666,4227.692204,4216.922974,4224.615281,4213.846051,4217.435794,4222.563999,4211.281948,4215.897333,4214.871692
123,0,4217.948615,4197.948615,4218.974256,4220.512717,4205.128102,4234.358871,4226.153743,4233.33323,4220.512717,4223.07682,4224.102461,4214.358871,4212.82041,4214.358871
124,0,4228.717845,4217.435794,4219.999897,4227.692204,4210.256307,4233.33323,4226.153743,4230.256307,4221.538358,4221.538358,4225.640922,4220.512717,4223.07682,4221.025538
125,0,4233.84605,4222.563999,4222.051179,4229.743486,4207.692205,4230.769127,4225.128102,4227.179384,4224.615281,4218.974256,4230.256307,4224.615281,4235.384512,4228.205025
126,0,4229.230666,4210.256307,4224.615281,4227.179384,4207.692205,4232.820409,4229.230666,4230.256307,4229.743486,4228.205025,4228.717845,4221.025538,4224.615281,4224.615281
127,0,4219.487076,4201.538359,4217.948615,4223.58964,4217.948615,4234.358871,4228.205025,4227.692204,4221.538358,4226.153743,4219.999897,4212.307589,4210.256307,4215.897333
128,0,4212.82041,4202.051179,4211.794769,4219.999897,4217.435794,4229.743486,4224.102461,4219.487076,4210.256307,4214.871692,4214.871692,4207.179384,4209.743487,4210.256307
0,0,4212.307589,4203.589641,4211.281948,4219.487076,4202.051179,4226.153743,4224.102461,4212.307589,4208.717846,4214.358871,4212.82041,4204.102461,4209.230666,4207.179384
1,0,4218.974256,4208.717846,4215.384512,4224.615281,4198.974256,4228.205025,4223.58964,4216.410153,4212.82041,4216.410153,4217.435794,4205.128102,4210.769128,4212.82041
2,0,4211.794769,4199.999897,4209.230666,4214.358871,4207.179384,4225.640922,4212.82041,4215.384512,4204.615282,4204.615282,4212.82041,4199.999897,4206.666564,4207.179384
3,0,4206.153743,4197.435795,4203.589641,4210.256307,4209.743487,4223.58964,4212.82041,4210.256307,4200.512718,4202.564,4208.205025,4199.999897,4207.179384,4204.102461
4,0,4209.743487,4201.025538,4201.538359,4215.384512,4191.281949,4221.025538,4213.33323,4203.589641,4201.025538,4199.487077,4213.846051,4203.07682,4211.794769,4212.307589
5,0,4229.743486,4214.871692,4213.33323,4228.717845,4193.846051,4228.717845,4221.025538,4218.461435,4219.999897,4216.922974,4235.384512,4217.435794,4233.33323,4232.307589
6,0,4237.948614,4218.461435,4221.538358,4229.230666,4218.461435,4235.384512,4225.128102,4231.794768,4232.307589,4236.410153,4243.076819,4229.230666,4243.58964,4239.487076
7,0,4241.025537,4221.538358,4224.102461,4230.256307,4241.538358,4238.974255,4231.281948,4237.435794,4234.871691,4241.025537,4242.563999,4235.384512,4245.640922,4243.076819
8,0,4232.307589,4215.384512,4218.974256,4227.692204,4225.128102,4231.281948,4224.102461,4230.256307,4222.563999,4228.205025,4235.384512,4227.179384,4234.871691,4233.84605
9,0,4221.025538,4207.179384,4215.897333,4225.640922,4199.999897,4224.615281,4216.922974,4221.025538,4214.358871,4223.58964,4227.179384,4221.538358,4223.07682,4222.563999
10,0,4208.205025,4192.30759,4209.230666,4212.82041,4199.999897,4220.512717,4207.692205,4210.256307,4203.07682,4208.205025,4216.922974,4213.33323,4208.717846,4210.769128
11,0,4212.307589,4189.230667,4211.281948,4210.769128,4214.358871,4222.563999,4207.179384,4211.281948,4200.512718,4199.487077,4218.461435,4212.307589,4212.307589,4212.82041
12,0,4214.358871,4193.333231,4213.846051,4218.974256,4210.256307,4226.153743,4212.307589,4217.948615,4207.179384,4208.205025,4218.461435,4214.358871,4217.948615,4215.897333
13,0,4212.82041,4202.051179,4211.794769,4226.666563,4211.794769,4231.281948,4221.538358,4223.58964,4213.846051,4217.948615,4217.948615,4213.846051,4216.922974,4214.871692
14,0,4210.769128,4203.07682,4208.717846,4221.538358,4227.692204,4230.256307,4221.025538,4222.051179,4211.794769,4212.307589,4218.974256,4209.230666,4216.410153,4213.846051
15,0,4209.230666,4202.051179,4209.743487,4217.435794,4219.999897,4224.615281,4213.846051,4217.948615,4208.717846,4208.717846,4216.410153,4209.230666,4214.358871,4214.871692
16,0,4215.897333,4212.307589,4212.82041,4223.58964,4204.615282,4225.640922,4214.871692,4218.974256,4211.281948,4219.999897,4218.461435,4214.871692,4211.794769,4218.461435
17,0,4223.58964,4222.051179,4211.794769,4226.153743,4213.33323,4231.794768,4218.461435,4223.07682,4213.33323,4221.538358,4225.128102,4215.384512,4213.33323,4223.58964
18,0,4225.128102,4223.58964,4211.794769,4225.128102,4215.384512,4230.256307,4218.974256,4227.179384,4212.82041,4210.256307,4227.692204,4214.871692,4211.281948,4221.025538
19,0,4226.666563,4229.743486,4213.846051,4226.153743,4215.384512,4228.205025,4222.563999,4226.153743,4214.871692,4211.281948,4223.58964,4216.922974,4207.692205,4215.897333
20,0,4235.897332,4243.58964,4217.948615,4235.384512,4232.307589,4235.897332,4230.256307,4227.692204,4223.07682,4223.58964,4227.179384,4228.717845,4215.897333,4224.102461
21,0,4223.07682,4230.256307,4207.692205,4226.666563,4223.58964,4231.281948,4216.922974,4215.897333,4210.769128,4205.128102,4219.999897,4223.07682,4201.538359,4217.948615
22,0,4214.871692,4222.563999,4205.128102,4220.512717,4206.666564,4221.025538,4209.230666,4208.717846,4201.025538,4203.07682,4213.846051,4215.384512,4191.794769,4212.82041
23,0,4229.230666,4234.871691,4212.307589,4226.153743,4214.871692,4223.58964,4211.794769,4214.358871,4204.102461,4219.487076,4216.410153,4220.512717,4205.640923,4221.538358
24,0,4237.435794,4242.051178,4218.974256,4235.384512,4233.33323,4234.871691,4221.538358,4226.153743,4210.769128,4213.846051,4216.410153,4228.205025,4198.974256,4221.538358
25,0,4219.487076,4225.640922,4214.871692,4226.666563,4224.615281,4232.307589,4226.666563,4226.666563,4208.205025,4192.82041,4201.025538,4216.922974,4167.692206,4198.974256
26,0,4225.640922,4226.666563,4217.435794,4226.153743,4218.974256,4229.743486,4233.84605,4232.307589,4220.512717,4213.846051,4210.256307,4225.128102,4196.410154,4216.922974
27,0,4242.051178,4231.281948,4223.07682,4226.666563,4223.58964,4231.794768,4233.33323,4235.384512,4231.281948,4236.922973,4235.384512,4245.640922,4243.58964,4250.769127
28,0,4246.666563,4231.281948,4229.230666,4229.743486,4236.922973,4235.384512,4236.410153,4238.461435,4235.897332,4238.461435,4248.205024,4255.897332,4250.769127,4256.922973
29,0,4237.948614,4227.179384,4227.692204,4231.794768,4228.717845,4230.769127,4229.743486,4235.897332,4231.794768,4232.307589,4240.512717,4247.692204,4230.769127,4239.999896
30,0,4232.307589,4228.205025,4225.128102,4234.871691,4214.871692,4229.230666,4224.615281,4232.307589,4231.794768,4237.948614,4237.435794,4242.051178,4223.07682,4233.33323
31,0,4222.051179,4224.102461,4220.512717,4229.230666,4218.974256,4232.307589,4224.102461,4226.153743,4228.717845,4233.84605,4230.256307,4236.410153,4216.410153,4224.615281
32,0,4221.025538,4221.538358,4224.102461,4228.717845,4226.666563,4233.33323,4229.230666,4226.153743,4224.615281,4221.025538,4225.128102,4234.358871,4218.974256,4221.538358
33,0,4223.58964,4218.461435,4225.128102,4229.230666,4218.974256,4227.692204,4230.256307,4225.640922,4220.512717,4217.948615,4222.051179,4232.820409,4217.948615,4221.538358
34,0,4220.512717,4215.384512,4218.461435,4225.128102,4221.538358,4226.153743,4227.179384,4219.487076,4218.461435,4221.538358,4218.974256,4229.230666,4206.153743,4214.358871
35,0,4222.563999,4215.897333,4220.512717,4225.128102,4227.692204,4230.256307,4224.615281,4218.974256,4216.922974,4219.487076,4221.538358,4227.179384,4203.589641,4213.33323
36,0,4217.948615,4208.717846,4223.07682,4225.640922,4206.666564,4225.640922,4215.384512,4216.922974,4208.717846,4209.743487,4218.461435,4219.487076,4203.589641,4214.358871
37,0,4209.230666,4199.487077,4214.871692,4218.974256,4195.897333,4219.999897,4210.256307,4213.846051,4204.615282,4211.794769,4213.33323,4214.358871,4203.589641,4209.743487
38,0,4208.717846,4196.922974,4209.230666,4208.717846,4215.384512,4222.563999,4217.435794,4211.281948,4207.179384,4216.410153,4214.871692,4219.999897,4207.692205,4210.256307
39,0,4220.512717,4205.128102,4222.051179,4214.358871,4223.58964,4225.128102,4229.230666,4219.999897,4216.410153,4220.512717,4226.153743,4233.33323,4217.435794,4225.640922
40,0,4215.897333,4201.538359,4220.512717,4215.384512,4202.051179,4216.922974,4217.435794,4216.922974,4210.256307,4213.846051,4224.102461,4230.256307,4212.307589,4223.07682
41,0,4209.230666,4199.999897,4214.871692,4214.358871,4194.358872,4213.846051,4207.179384,4211.794769,4207.179384,4215.384512,4222.563999,4226.153743,4213.33323,4215.897333
42,0,4205.640923,4198.461436,4214.358871,4211.281948,4199.999897,4217.948615,4206.666564,4210.769128,4209.230666,4216.922974,4221.025538,4226.666563,4216.410153,4211.794769
43,0,4210.769128,4203.589641,4216.410153,4215.897333,4209.743487,4222.051179,4212.82041,4217.435794,4216.922974,4221.025538,4224.615281,4228.205025,4220.512717,4217.948615
44,0,4208.205025,4197.948615,4210.256307,4212.307589,4209.743487,4216.922974,4208.205025,4214.358871,4210.769128,4212.82041,4219.999897,4215.384512,4218.461435,4214.358871
45,0,4209.743487,4198.974256,4213.33323,4216.410153,4211.281948,4217.948615,4210.769128,4215.384512,4208.717846,4209.743487,4218.461435,4213.846051,4222.563999,4214.358871
46,0,4204.102461,4198.461436,4212.82041,4216.922974,4204.102461,4221.538358,4211.794769,4214.358871,4208.717846,4204.615282,4212.82041,4213.846051,4212.82041,4209.743487
47,0,4207.179384,4199.487077,4210.256307,4218.974256,4202.051179,4220.512717,4212.307589,4213.33323,4211.281948,4211.281948,4216.922974,4212.307589,4212.307589,4212.307589
48,0,4210.256307,4196.410154,4212.307589,4217.435794,4202.051179,4214.358871,4209.743487,4211.794769,4209.230666,4219.487076,4221.025538,4210.256307,4222.051179,4216.922974
49,0,4213.33323,4203.07682,4218.461435,4219.999897,4213.33323,4218.461435,4219.487076,4221.025538,4218.974256,4227.179384,4226.666563,4221.538358,4227.692204,4222.051179
50,0,4209.743487,4203.07682,4213.846051,4215.384512,4210.256307,4221.025538,4220.512717,4223.07682,4221.025538,4222.051179,4228.205025,4222.563999,4220.512717,4216.922974
51,0,4202.564,4193.846051,4205.128102,4209.230666,4198.461436,4218.461435,4210.256307,4217.948615,4213.846051,4215.384512,4226.666563,4214.358871,4218.461435,4211.281948
52,0,4198.974256,4190.769128,4207.179384,4209.743487,4205.640923,4216.922974,4207.692205,4218.461435,4216.410153,4222.563999,4223.07682,4215.897333,4220.512717,4215.384512
53,0,4201.538359,4196.410154,4209.230666,4210.256307,4213.846051,4217.435794,4210.769128,4217.948615,4217.948615,4221.538358,4221.538358,4216.922974,4217.435794,4217.435794
54,0,4206.153743,4200.512718,4208.205025,4213.33323,4199.999897,4217.435794,4210.256307,4211.794769,4210.256307,4214.358871,4222.563999,4216.410153,4216.922974,4216.410153
55,0,4203.07682,4196.922974,4207.179384,4212.307589,4182.564,4212.82041,4203.07682,4204.102461,4201.538359,4212.82041,4214.871692,4213.846051,4212.307589,4213.33323
