title:A                                                                               , recorded:02.07.20 12.31.25, sampling:128, subject:S                                                                               , labels:COUNTER INTERPOLATED AF3 F7 F3 FC5 T7 P7 O1 O2 P8 T8 FC6 F4 F8 AF4,, units:emotiv,,,,,,,,,
20,0,4099.487079,4109.743489,4112.307592,4119.999899,4127.692207,4109.743489,4095.384515,4107.692207,4113.846053,4119.487079,4128.205027,4081.025541,4101.025541,4102.564002
21,0,4104.615284,4113.846053,4115.384515,4123.589643,4129.230668,4113.333233,4103.076823,4112.307592,4115.384515,4119.487079,4131.28195,4087.179387,4100.51272,4107.179387
22,0,4098.974259,4107.179387,4113.333233,4115.897335,4122.564002,4109.230669,4097.948618,4109.743489,4112.307592,4116.922976,4127.692207,4083.076823,4098.461438,4101.538361
23,0,4078.974259,4088.717849,4096.410156,4098.974259,4106.153746,4099.487079,4083.589644,4099.9999,4107.179387,4107.692207,4113.846053,4067.179388,4087.179387,4085.128105
24,0,4074.358875,4084.102464,4085.640926,4097.435797,4097.948618,4096.410156,4082.051182,4095.897336,4105.128105,4106.153746,4104.102464,4063.076824,4078.461439,4079.9999
25,0,4092.307592,4098.974259,4098.461438,4111.281951,4109.230669,4099.9999,4090.769131,4102.051182,4107.692207,4112.820412,4114.871694,4074.358875,4087.179387,4094.358874
26,0,4099.487079,4107.179387,4110.76913,4114.871694,4121.538361,4102.564002,4091.794772,4106.666566,4108.717848,4111.794771,4124.102463,4079.48708,4095.897336,4105.128105
27,0,4094.871695,4106.153746,4109.743489,4110.76913,4124.615284,4107.179387,4093.846054,4105.640925,4110.76913,4113.846053,4119.999899,4076.922977,4096.410156,4101.538361
28,0,4092.820413,4104.615284,4106.153746,4111.794771,4119.487079,4107.179387,4096.410156,4106.153746,4114.871694,4116.922976,4118.461438,4079.9999,4092.307592,4096.410156
29,0,4099.487079,4107.179387,4113.846053,4123.589643,4123.076822,4106.153746,4099.9999,4110.76913,4118.461438,4114.871694,4130.76913,4089.74349,4095.384515,4108.205028
30,0,4107.692207,4115.384515,4126.153745,4130.76913,4131.794771,4113.333233,4109.743489,4114.358874,4123.076822,4124.615284,4141.02554,4096.922977,4107.179387,4121.538361
31,0,4105.128105,4113.846053,4119.999899,4122.051181,4125.128104,4115.384515,4112.307592,4113.846053,4123.076822,4133.846053,4128.205027,4091.794772,4106.666566,4114.871694
32,0,4101.538361,4113.846053,4115.897335,4124.102463,4127.692207,4114.358874,4112.820412,4118.974258,4126.153745,4131.794771,4118.461438,4091.794772,4102.564002,4111.794771
33,0,4105.128105,4118.461438,4127.179386,4129.230668,4139.999899,4116.922976,4116.922976,4123.589643,4129.743489,4128.717848,4124.615284,4094.871695,4106.666566,4117.948617
34,0,4101.025541,4108.205028,4126.153745,4115.897335,4129.230668,4108.205028,4113.333233,4114.871694,4125.128104,4122.564002,4120.51272,4084.615285,4101.025541,4109.743489
35,0,4084.615285,4084.615285,4104.102464,4097.948618,4104.102464,4088.717849,4097.948618,4102.564002,4115.897335,4102.564002,4098.461438,4066.666567,4074.871695,4086.153746
36,0,4086.153746,4090.769131,4106.153746,4111.281951,4116.410156,4094.358874,4103.589643,4110.25631,4118.974258,4104.615284,4098.461438,4076.922977,4078.974259,4086.666567
37,0,4094.871695,4105.128105,4118.974258,4125.128104,4137.435796,4105.640925,4120.51272,4120.51272,4127.179386,4122.564002,4110.76913,4093.333233,4098.461438,4098.461438
38,0,4096.410156,4103.076823,4118.974258,4122.051181,4135.384514,4094.871695,4119.999899,4119.487079,4130.256309,4125.640925,4117.435797,4090.769131,4099.487079,4102.564002
39,0,4099.487079,4106.666566,4118.461438,4120.51272,4128.717848,4083.589644,4111.794771,4117.435797,4128.205027,4119.487079,4118.461438,4084.615285,4094.871695,4103.589643
40,0,4103.076823,4119.999899,4123.589643,4129.743489,4132.307591,4091.794772,4120.51272,4123.589643,4130.256309,4131.28195,4121.02554,4093.846054,4106.666566,4109.743489
41,0,4090.25631,4112.820412,4115.384515,4124.615284,4125.640925,4088.205028,4124.102463,4123.589643,4128.717848,4136.410155,4117.948617,4093.846054,4106.153746,4104.615284
42,0,4095.897336,4114.871694,4118.461438,4125.128104,4132.307591,4084.102464,4126.153745,4128.205027,4130.76913,4138.461437,4124.102463,4093.333233,4103.076823,4103.589643
43,0,4117.435797,4135.897335,4131.794771,4138.974258,4151.28195,4092.820413,4135.384514,4139.999899,4137.948617,4150.256309,4136.410155,4103.589643,4118.974258,4115.384515
44,0,4118.461438,4139.487078,4133.333232,4145.128104,4155.384514,4099.9999,4139.999899,4144.102463,4143.076822,4158.974257,4141.02554,4110.25631,4131.794771,4118.461438
45,0,4108.205028,4128.717848,4128.717848,4137.948617,4149.743488,4094.871695,4137.435796,4142.564001,4144.102463,4161.025539,4141.02554,4109.743489,4129.230668,4116.922976
46,0,4117.435797,4135.384514,4137.435796,4136.922976,4155.897334,4094.871695,4140.512719,4147.179386,4147.692206,4169.743488,4147.179386,4115.897335,4134.871694,4126.666566
47,0,4128.205027,4145.128104,4151.28195,4145.640924,4170.256308,4103.076823,4148.717847,4150.769129,4155.384514,4181.025539,4151.28195,4126.153745,4138.461437,4132.820412
48,0,4124.102463,4142.051181,4154.358873,4153.846052,4169.230667,4101.538361,4150.769129,4144.615283,4155.384514,4173.333231,4140.512719,4126.153745,4129.230668,4129.743489
49,0,4128.205027,4143.589642,4149.230668,4157.948616,4160.512719,4095.897336,4148.717847,4139.487078,4147.179386,4161.53836,4136.410155,4119.999899,4132.307591,4134.871694
50,0,4144.102463,4152.820411,4152.307591,4157.948616,4169.230667,4099.9999,4149.230668,4147.179386,4150.256309,4170.769129,4155.897334,4125.128104,4151.28195,4151.79477
51,0,4155.897334,4155.384514,4165.128103,4158.461437,4184.615282,4105.640925,4155.384514,4157.435796,4165.640924,4190.256308,4173.333231,4141.02554,4165.128103,4170.769129
52,0,4154.358873,4149.230668,4165.640924,4156.922975,4174.871693,4096.922977,4150.769129,4149.230668,4161.025539,4184.615282,4166.153744,4141.02554,4159.999898,4175.897334
53,0,4157.948616,4153.846052,4165.640924,4160.512719,4173.846052,4097.435797,4147.692206,4141.53836,4153.333232,4176.410154,4165.128103,4140.512719,4162.05118,4176.922975
54,0,4162.05118,4157.948616,4172.820411,4161.53836,4188.717846,4107.179387,4155.897334,4150.256309,4161.025539,4186.153744,4173.333231,4150.769129,4171.281949,4177.948616
55,0,4155.897334,4150.256309,4170.256308,4158.461437,4179.487077,4101.538361,4156.410155,4155.897334,4163.589642,4191.281949,4169.230667,4150.256309,4171.281949,4176.410154
56,0,4142.051181,4139.999899,4150.769129,4154.871693,4159.999898,4088.717849,4144.615283,4145.640924,4152.307591,4179.999898,4152.307591,4127.692207,4156.410155,4165.128103
57,0,4136.410155,4144.615283,4149.230668,4156.410155,4174.358872,4094.871695,4150.256309,4146.153745,4152.820411,4179.487077,4151.28195,4122.051181,4152.307591,4161.025539
58,0,4135.384514,4145.128104,4154.871693,4148.717847,4181.025539,4099.9999,4155.384514,4153.846052,4157.948616,4177.435795,4159.999898,4127.179386,4151.79477,4156.922975
59,0,4139.999899,4142.051181,4148.205027,4145.640924,4168.717847,4093.333233,4149.743488,4149.743488,4156.410155,4170.769129,4160.512719,4124.102463,4147.179386,4151.28195
60,0,4145.640924,4144.615283,4146.666565,4153.333232,4167.692206,4088.205028,4148.205027,4141.02554,4154.871693,4176.922975,4157.435796,4123.076822,4150.769129,4154.871693
61,0,4145.640924,4143.589642,4155.897334,4152.307591,4175.384513,4089.230669,4148.205027,4142.051181,4156.410155,4181.025539,4159.999898,4130.256309,4158.974257,4162.05118
62,0,4139.487078,4131.794771,4152.820411,4138.461437,4166.666565,4087.692208,4141.53836,4142.051181,4153.846052,4167.179385,4155.897334,4126.666566,4153.846052,4158.974257
63,0,4139.999899,4138.461437,4149.743488,4142.051181,4162.05118,4089.230669,4145.128104,4141.53836,4152.820411,4163.076821,4151.79477,4121.02554,4150.769129,4157.435796
64,0,4150.256309,4156.410155,4159.999898,4159.487078,4170.256308,4093.333233,4154.871693,4145.128104,4159.487078,4175.384513,4156.410155,4130.76913,4161.025539,4163.589642
65,0,4159.487078,4161.025539,4170.769129,4167.179385,4174.358872,4099.487079,4161.025539,4154.871693,4167.692206,4185.640923,4167.692206,4144.102463,4171.281949,4171.281949
66,0,4163.076821,4162.564001,4176.922975,4170.256308,4181.025539,4106.666566,4168.717847,4164.615283,4170.256308,4192.30759,4176.922975,4149.230668,4176.410154,4176.922975
67,0,4167.692206,4176.410154,4183.076821,4178.461436,4200.512718,4112.307592,4177.948616,4168.717847,4173.333231,4204.102461,4180.512718,4153.846052,4186.153744,4183.076821
68,0,4173.333231,4180.512718,4180.512718,4179.487077,4209.230666,4115.897335,4181.538359,4171.79477,4178.974257,4216.922974,4186.153744,4157.435796,4194.358872,4188.717846
69,0,4172.30759,4172.820411,4176.922975,4178.974257,4196.922974,4114.358874,4177.948616,4171.281949,4177.948616,4211.794769,4190.256308,4152.307591,4191.281949,4187.179385
70,0,4173.333231,4176.922975,4183.589641,4188.205026,4193.333231,4114.358874,4177.435795,4167.692206,4173.333231,4200.512718,4190.769128,4153.333232,4189.743487,4185.640923
71,0,4174.871693,4179.999898,4183.076821,4186.153744,4197.948615,4112.307592,4173.333231,4163.076821,4168.717847,4197.948615,4179.999898,4157.435796,4188.205026,4185.128103
72,0,4169.230667,4174.358872,4179.999898,4175.897334,4196.922974,4110.76913,4169.743488,4161.025539,4167.692206,4199.999897,4173.846052,4156.922975,4183.589641,4183.076821
73,0,4157.435796,4163.076821,4175.897334,4163.076821,4179.999898,4104.615284,4162.564001,4155.384514,4163.076821,4187.692205,4172.30759,4149.230668,4174.358872,4175.384513
74,0,4159.999898,4163.076821,4177.435795,4163.076821,4169.743488,4101.025541,4159.999898,4158.461437,4164.102462,4186.666564,4177.435795,4152.307591,4176.922975,4178.461436
75,0,4169.230667,4170.769129,4179.999898,4172.820411,4178.974257,4103.076823,4169.230667,4165.128103,4171.281949,4198.974256,4184.615282,4156.922975,4186.666564,4184.102462
76,0,4174.358872,4178.974257,4185.640923,4181.538359,4196.410154,4110.25631,4180.512718,4165.640924,4173.846052,4205.640923,4189.230667,4157.435796,4194.358872,4184.615282
77,0,4167.179385,4167.179385,4181.025539,4172.30759,4192.82041,4105.640925,4171.281949,4156.922975,4168.205026,4198.461436,4185.128103,4155.384514,4188.717846,4178.461436
78,0,4162.05118,4157.948616,4172.820411,4166.153744,4183.076821,4097.948618,4161.025539,4154.871693,4168.205026,4194.358872,4183.076821,4156.410155,4183.589641,4179.999898
79,0,4159.999898,4163.076821,4169.230667,4167.179385,4181.538359,4099.487079,4162.564001,4156.922975,4167.692206,4193.333231,4184.615282,4149.230668,4182.05118,4179.487077
80,0,4164.102462,4174.358872,4179.999898,4171.281949,4187.179385,4109.230669,4173.333231,4165.640924,4170.769129,4204.102461,4189.743487,4153.333232,4189.230667,4183.589641
81,0,4177.435795,4182.564,4199.999897,4187.692205,4199.999897,4116.922976,4184.102462,4176.922975,4182.05118,4224.102461,4202.564,4178.461436,4204.102461,4202.051179
82,0,4186.666564,4187.179385,4204.102461,4201.538359,4205.640923,4120.51272,4190.256308,4178.461436,4186.153744,4228.205025,4210.769128,4189.230667,4208.717846,4210.256307
83,0,4186.153744,4190.256308,4197.435795,4197.948615,4199.999897,4121.02554,4191.794769,4175.384513,4182.05118,4218.461435,4208.717846,4176.922975,4205.128102,4201.538359
84,0,4184.615282,4190.256308,4198.461436,4193.846051,4202.564,4123.076822,4193.333231,4176.410154,4181.538359,4218.461435,4210.256307,4172.820411,4211.281948,4201.538359
85,0,4189.743487,4197.948615,4203.07682,4197.948615,4212.82041,4128.717848,4194.358872,4180.512718,4187.692205,4231.794768,4222.051179,4185.640923,4225.128102,4214.358871
86,0,4202.051179,4210.769128,4210.769128,4203.589641,4219.487076,4137.435796,4203.07682,4187.179385,4196.410154,4243.58964,4231.794768,4196.410154,4228.717845,4219.999897
87,0,4213.33323,4216.410153,4224.615281,4216.410153,4231.281948,4148.205027,4222.051179,4198.974256,4204.615282,4251.281947,4238.974255,4203.07682,4229.743486,4222.563999
88,0,4216.922974,4221.538358,4232.820409,4227.692204,4239.487076,4152.820411,4226.666563,4202.051179,4207.179384,4253.84605,4241.025537,4203.07682,4234.358871,4225.640922
89,0,4220.512717,4234.871691,4235.897332,4230.769127,4239.487076,4153.333232,4223.58964,4203.589641,4211.794769,4261.538357,4243.076819,4205.128102,4236.410153,4228.717845
90,0,4220.512717,4238.974255,4232.820409,4232.307589,4236.922973,4154.871693,4225.128102,4204.615282,4212.82041,4264.61528,4243.58964,4205.640923,4231.794768,4223.58964
91,0,4219.487076,4239.487076,4229.743486,4239.487076,4241.025537,4158.461437,4227.179384,4202.564,4210.769128,4262.051178,4246.666563,4206.666564,4235.897332,4222.563999
92,0,4213.846051,4237.435794,4226.153743,4235.384512,4237.948614,4155.384514,4221.025538,4199.999897,4210.769128,4262.051178,4247.692204,4206.666564,4238.974255,4226.153743
93,0,4209.230666,4232.820409,4227.179384,4226.666563,4234.358871,4152.820411,4218.461435,4203.589641,4211.794769,4265.128101,4250.769127,4209.230666,4236.922973,4230.256307
94,0,4215.384512,4237.948614,4231.281948,4231.794768,4236.922973,4159.487078,4222.051179,4206.153743,4210.769128,4259.487075,4251.281947,4213.33323,4240.512717,4235.897332
95,0,4230.769127,4253.333229,4240.512717,4245.640922,4241.538358,4171.79477,4232.820409,4209.743487,4217.435794,4262.051178,4257.435793,4224.615281,4255.384511,4245.128101
96,0,4223.07682,4242.563999,4236.410153,4236.922973,4234.358871,4169.230667,4231.281948,4205.128102,4214.871692,4264.10246,4258.974255,4223.58964,4252.307588,4237.948614
97,0,4210.769128,4230.769127,4230.769127,4223.58964,4231.281948,4162.05118,4222.563999,4198.974256,4206.153743,4259.999896,4257.948614,4213.33323,4243.076819,4230.256307
98,0,4211.281948,4230.256307,4232.307589,4222.051179,4228.205025,4157.948616,4215.897333,4198.974256,4202.564,4254.35887,4255.384511,4209.743487,4241.538358,4229.743486
99,0,4213.846051,4228.205025,4231.794768,4219.999897,4225.640922,4161.53836,4211.794769,4199.487077,4206.666564,4255.384511,4254.871691,4211.281948,4243.076819,4227.179384
100,0,4217.435794,4232.307589,4231.281948,4213.846051,4233.33323,4169.743488,4215.384512,4200.512718,4210.256307,4261.538357,4257.948614,4212.82041,4244.615281,4226.153743
101,0,4213.846051,4231.794768,4228.205025,4212.307589,4231.794768,4165.128103,4215.384512,4201.538359,4207.692205,4261.025537,4254.871691,4209.743487,4240.512717,4226.666563
102,0,4197.435795,4214.358871,4215.897333,4208.717846,4209.743487,4148.205027,4199.999897,4192.82041,4196.410154,4243.076819,4237.948614,4195.384513,4223.58964,4214.871692
103,0,4195.897333,4212.307589,4214.358871,4209.743487,4201.538359,4148.205027,4196.410154,4185.128103,4189.230667,4227.692204,4229.743486,4190.769128,4216.410153,4208.717846
104,0,4208.717846,4224.615281,4221.538358,4216.922974,4206.666564,4156.410155,4205.128102,4188.205026,4188.205026,4226.153743,4236.410153,4198.974256,4221.538358,4212.82041
105,0,4205.128102,4218.974256,4214.871692,4210.769128,4202.564,4149.230668,4199.487077,4189.230667,4186.153744,4221.025538,4232.307589,4193.846051,4214.871692,4212.307589
106,0,4202.564,4219.487076,4219.999897,4211.794769,4211.794769,4152.820411,4203.07682,4194.358872,4192.82041,4233.84605,4239.999896,4198.461436,4221.025538,4225.128102
107,0,4208.205025,4225.640922,4229.230666,4218.461435,4219.999897,4161.53836,4214.358871,4198.461436,4196.410154,4246.153742,4252.820409,4209.230666,4231.281948,4228.205025
108,0,4211.281948,4223.07682,4223.07682,4218.461435,4212.82041,4158.974257,4211.281948,4194.358872,4191.281949,4237.435794,4248.205024,4204.102461,4228.205025,4219.487076
109,0,4212.307589,4220.512717,4217.435794,4212.307589,4211.281948,4155.897334,4205.640923,4191.281949,4187.179385,4227.692204,4241.538358,4197.948615,4226.153743,4224.615281
110,0,4217.435794,4224.615281,4227.692204,4213.846051,4220.512717,4159.999898,4208.717846,4195.897333,4191.281949,4234.871691,4249.230665,4208.205025,4232.820409,4234.358871
111,0,4217.435794,4226.153743,4227.692204,4212.307589,4214.358871,4154.871693,4198.974256,4190.769128,4186.666564,4228.717845,4243.58964,4205.640923,4226.153743,4229.230666
112,0,4232.307589,4241.538358,4228.717845,4218.974256,4212.307589,4157.948616,4196.922974,4190.256308,4183.589641,4225.640922,4243.076819,4207.179384,4231.794768,4244.615281
113,0,4258.461434,4254.871691,4241.538358,4234.358871,4212.82041,4166.153744,4208.717846,4200.512718,4190.256308,4239.487076,4259.999896,4226.666563,4258.461434,4282.563998
114,0,4287.692203,4265.640921,4251.794768,4242.563999,4209.230666,4165.640924,4211.281948,4203.589641,4192.82041,4248.205024,4273.846049,4239.999896,4276.922972,4314.871689
115,0,4314.871689,4283.589639,4249.743486,4244.10246,4204.102461,4154.871693,4196.922974,4189.743487,4183.076821,4234.871691,4269.743485,4236.410153,4275.897331,4343.076817
116,0,4353.333227,4308.205023,4257.435793,4258.461434,4214.871692,4153.333232,4192.82041,4187.179385,4181.538359,4227.692204,4272.307588,4244.10246,4286.666562,4390.769123
117,0,4402.563995,4336.41015,4280.512716,4274.35887,4229.743486,4162.564001,4206.666564,4198.974256,4193.333231,4242.051178,4290.769126,4265.128101,4315.38451,4445.640917
118,0,4441.025532,4358.461432,4296.410151,4284.61528,4230.769127,4170.256308,4212.307589,4203.589641,4197.948615,4253.333229,4303.589638,4279.999895,4327.179381,4479.99989
119,0,4449.23066,4368.717842,4297.435792,4294.358869,4228.205025,4168.717847,4210.769128,4199.999897,4191.281949,4250.769127,4298.461433,4282.051177,4316.922971,4483.076813
120,0,4447.179378,4377.948611,4301.025536,4301.025536,4235.384512,4171.79477,4215.384512,4201.025538,4194.358872,4254.35887,4299.487074,4285.1281,4322.563997,4484.615275
121,0,4449.23066,4379.999893,4305.64092,4300.512715,4233.33323,4176.410154,4214.871692,4202.564,4200.512718,4261.025537,4308.205023,4287.692203,4332.820407,4487.179377
122,0,4439.487071,4367.17938,4302.563997,4297.948613,4228.205025,4173.333231,4208.717846,4198.461436,4196.410154,4252.820409,4300.512715,4281.538357,4317.948612,4467.692198
123,0,4417.94861,4355.897329,4296.410151,4290.256305,4234.871691,4172.30759,4211.794769,4198.461436,4192.30759,4244.10246,4287.179382,4276.922972,4306.153741,4440.512712
124,0,4397.43579,4348.717842,4291.794767,4278.974254,4238.974255,4176.922975,4213.846051,4198.974256,4191.281949,4248.205024,4287.692203,4271.794767,4310.256305,4424.102456
125,0,4386.153739,4335.89733,4293.333228,4285.640921,4238.974255,4182.564,4214.871692,4203.07682,4195.384513,4262.051178,4298.974254,4270.769126,4314.871689,4415.897328
126,0,4370.256303,4322.563997,4290.769126,4290.769126,4245.128101,4185.128103,4222.563999,4211.281948,4201.538359,4264.10246,4298.974254,4271.281947,4312.307587,4398.974251
127,0,4354.358868,4316.922971,4288.205023,4278.974254,4251.794768,4190.256308,4230.256307,4214.871692,4208.205025,4262.563998,4296.410151,4273.333229,4314.358869,4381.025534
128,0,4344.102458,4309.743484,4292.820408,4273.846049,4257.435793,4197.948615,4235.897332,4216.410153,4213.33323,4273.333229,4302.563997,4278.974254,4314.358869,4375.384508
0,0,4337.435791,4312.307587,4298.461433,4281.538357,4270.256306,4208.205025,4249.230665,4228.205025,4221.025538,4290.256305,4308.205023,4286.666562,4313.333228,4374.358867
1,0,4328.717843,4315.89733,4297.435792,4273.846049,4267.692203,4212.307589,4256.410152,4235.897332,4224.102461,4293.333228,4304.102459,4278.974254,4308.717843,4349.743483
2,0,4331.794766,4316.922971,4306.666561,4278.461434,4272.820408,4221.025538,4263.076819,4237.435794,4228.717845,4299.999895,4311.794766,4282.563998,4316.410151,4337.948612
3,0,4335.384509,4313.333228,4313.846048,4301.538356,4291.281946,4230.256307,4274.35887,4241.538358,4235.384512,4311.281946,4323.076817,4296.410151,4326.15374,4350.256304
4,0,4329.230663,4318.461433,4317.948612,4314.358869,4297.948613,4237.435794,4284.102459,4249.230665,4241.025537,4318.974253,4322.051176,4295.897331,4325.64092,4352.820406
5,0,4317.948612,4324.102458,4319.999894,4304.615279,4294.87169,4240.512717,4283.589639,4250.256306,4244.615281,4318.974253,4311.281946,4289.743485,4317.948612,4333.333227
6,0,4316.410151,4323.076817,4321.538356,4304.615279,4307.692202,4243.58964,4287.179382,4255.897332,4250.256306,4328.205022,4320.512715,4299.999895,4328.717843,4326.666561
7,0,4318.461433,4324.102458,4321.025535,4311.794766,4314.358869,4246.666563,4290.769126,4263.076819,4254.35887,4341.025535,4339.999894,4302.563997,4345.128099,4332.307586
8,0,4313.846048,4325.64092,4319.487074,4310.256305,4305.1281,4247.692204,4287.692203,4263.076819,4254.871691,4344.102458,4337.948612,4290.256305,4341.025535,4326.15374
9,0,4298.974254,4316.922971,4312.307587,4305.64092,4302.563997,4242.563999,4284.61528,4257.435793,4247.692204,4333.846048,4319.999894,4280.512716,4326.666561,4308.205023
10,0,4289.743485,4308.717843,4308.717843,4301.538356,4310.256305,4242.563999,4288.205023,4255.384511,4242.051178,4326.666561,4317.435792,4281.025536,4324.102458,4301.025536
11,0,4299.487074,4316.410151,4322.051176,4306.153741,4322.563997,4258.461434,4302.051177,4265.640921,4251.281947,4343.076817,4331.794766,4293.846049,4335.89733,4315.38451
12,0,4310.769125,4323.589638,4333.333227,4316.922971,4332.307586,4266.666562,4314.358869,4273.333229,4261.538357,4357.948611,4334.358868,4305.64092,4346.66656,4322.051176
13,0,4311.281946,4331.794766,4339.487073,4328.205022,4341.025535,4268.717844,4323.076817,4280.512716,4269.230665,4368.717842,4340.512714,4316.410151,4356.41015,4322.051176
14,0,4308.205023,4340.512714,4349.743483,4338.974253,4344.102458,4278.974254,4333.846048,4291.794767,4282.051177,4384.615277,4360.512714,4327.179381,4364.102457,4328.205022
15,0,4310.256305,4342.563996,4355.384509,4350.769124,4346.66656,4289.743485,4345.128099,4298.974254,4290.769126,4392.307585,4371.281944,4330.256304,4370.769124,4333.333227
16,0,4313.846048,4344.102458,4353.333227,4351.281945,4351.794765,4289.230664,4346.15374,4296.410151,4286.666562,4384.615277,4364.102457,4326.666561,4371.281944,4331.794766
17,0,4320.512715,4357.948611,4361.025534,4351.281945,4362.051175,4292.307587,4346.66656,4297.948613,4285.1281,4391.794764,4365.128098,4334.358868,4373.333226,4336.41015
18,0,4313.333228,4353.333227,4361.538355,4352.820406,4357.435791,4292.307587,4339.487073,4297.435792,4282.563998,4393.333226,4359.999893,4330.769125,4362.563996,4328.205022
19,0,4294.87169,4333.846048,4345.640919,4343.076817,4348.205022,4285.640921,4332.307586,4293.846049,4281.025536,4376.92297,4345.640919,4314.358869,4348.717842,4311.281946
20,0,4277.948613,4321.025535,4326.666561,4321.538356,4339.487073,4280.512716,4330.769125,4291.281946,4282.563998,4371.281944,4339.487073,4301.538356,4345.128099,4302.051177
21,0,4270.769126,4311.794766,4317.948612,4312.820407,4326.666561,4274.87169,4323.589638,4283.076818,4277.948613,4370.256303,4330.769125,4292.820408,4337.948612,4294.87169
22,0,4266.666562,4301.538356,4313.846048,4310.256305,4316.922971,4261.538357,4306.153741,4266.153742,4264.10246,4344.102458,4308.205023,4282.051177,4317.948612,4282.051177
23,0,4269.743485,4307.692202,4322.051176,4308.205023,4323.589638,4261.538357,4307.179382,4267.179383,4262.563998,4330.769125,4307.692202,4286.153741,4315.38451,4284.61528
24,0,4270.769126,4308.205023,4325.64092,4303.076818,4324.615279,4265.128101,4314.871689,4277.435793,4267.692203,4336.41015,4324.102458,4292.820408,4321.025535,4290.256305
25,0,4266.666562,4295.38451,4317.948612,4299.999895,4315.38451,4261.538357,4309.743484,4275.897331,4262.563998,4329.743484,4323.076817,4286.153741,4313.333228,4283.589639
26,0,4269.230665,4298.974254,4317.948612,4309.230664,4322.051176,4264.61528,4312.307587,4274.35887,4261.538357,4330.256304,4318.461433,4284.61528,4311.281946,4283.589639
27,0,4280.512716,4321.538356,4331.281945,4326.15374,4337.948612,4278.461434,4328.717843,4288.717844,4274.87169,4351.794765,4329.743484,4296.410151,4324.102458,4294.358869
28,0,4279.999895,4320.512715,4330.769125,4325.128099,4331.794766,4278.974254,4327.179381,4293.846049,4281.538357,4357.435791,4331.794766,4294.87169,4323.589638,4289.743485
29,0,4273.846049,4302.563997,4323.589638,4311.281946,4323.076817,4271.794767,4314.358869,4285.1281,4275.897331,4348.717842,4323.589638,4286.153741,4315.38451,4283.076818
30,0,4282.563998,4308.717843,4334.871689,4312.820407,4333.333227,4277.948613,4319.487074,4286.153741,4273.333229,4353.846047,4327.692202,4298.461433,4321.538356,4293.333228
31,0,4285.640921,4316.922971,4337.435791,4320.512715,4334.871689,4278.974254,4322.563997,4286.666562,4271.281947,4349.743483,4328.717843,4305.64092,4323.589638,4291.794767
32,0,4275.384511,4309.230664,4324.615279,4318.461433,4325.64092,4272.307588,4314.871689,4284.61528,4272.820408,4341.025535,4323.589638,4293.846049,4318.461433,4280.512716
33,0,4276.922972,4310.256305,4327.692202,4310.769125,4331.794766,4273.333229,4317.435792,4291.281946,4277.948613,4348.717842,4328.717843,4294.358869,4322.563997,4288.717844
34,0,4287.179382,4322.051176,4342.563996,4318.461433,4344.615278,4283.589639,4328.717843,4298.974254,4279.487075,4356.92297,4337.435791,4309.743484,4329.230663,4304.615279
35,0,4277.435793,4315.38451,4335.89733,4325.128099,4337.948612,4282.051177,4322.563997,4291.794767,4275.384511,4344.615278,4329.230663,4301.538356,4321.025535,4297.435792
36,0,4270.769126,4303.589638,4328.205022,4315.38451,4330.256304,4276.922972,4315.89733,4286.153741,4275.384511,4341.025535,4323.589638,4288.717844,4314.358869,4284.61528
37,0,4272.307588,4298.461433,4327.179381,4303.589638,4323.589638,4275.384511,4319.487074,4289.230664,4274.35887,4346.15374,4322.563997,4291.281946,4307.692202,4279.487075
38,0,4270.769126,4298.461433,4324.102458,4310.769125,4315.38451,4276.410152,4320.512715,4289.743485,4272.307588,4345.128099,4323.076817,4294.87169,4308.205023,4281.538357
39,0,4265.640921,4298.461433,4317.948612,4313.846048,4315.89733,4277.948613,4315.38451,4284.102459,4269.230665,4337.948612,4325.128099,4285.640921,4316.922971,4282.051177
40,0,4272.820408,4308.205023,4325.128099,4318.974253,4337.948612,4290.256305,4325.128099,4291.794767,4276.410152,4348.205022,4332.820407,4290.256305,4331.794766,4286.153741
41,0,4280.512716,4316.410151,4333.846048,4332.820407,4352.307586,4298.461433,4336.922971,4303.076818,4287.692203,4368.717842,4336.41015,4301.538356,4336.922971,4291.281946
42,0,4276.922972,4316.410151,4333.333227,4330.769125,4347.692201,4291.281946,4326.666561,4297.435792,4284.61528,4369.230662,4333.846048,4296.410151,4328.205022,4291.281946
43,0,4270.769126,4310.256305,4328.205022,4313.846048,4342.051176,4283.589639,4312.307587,4286.153741,4273.846049,4351.281945,4334.871689,4289.230664,4320.512715,4287.179382
44,0,4270.769126,4306.153741,4324.102458,4314.871689,4337.948612,4285.1281,4311.281946,4284.61528,4270.769126,4341.538355,4334.358868,4290.256305,4322.051176,4286.666562
45,0,4268.205024,4303.076818,4321.538356,4318.461433,4331.794766,4284.61528,4312.307587,4284.61528,4269.230665,4339.487073,4325.128099,4284.61528,4318.461433,4282.051177
46,0,4259.999896,4296.410151,4318.461433,4304.102459,4325.64092,4278.974254,4305.1281,4278.974254,4267.692203,4333.333227,4318.974253,4277.948613,4309.230664,4273.333229
47,0,4254.35887,4286.153741,4309.743484,4291.794767,4316.410151,4273.846049,4296.410151,4276.410152,4267.179383,4328.205022,4315.89733,4276.922972,4307.692202,4272.307588
48,0,4256.410152,4283.076818,4303.589638,4290.256305,4309.743484,4274.87169,4299.487074,4280.512716,4267.692203,4327.179381,4311.794766,4272.307588,4308.205023,4273.333229
49,0,4267.179383,4297.435792,4315.89733,4301.538356,4319.999894,4284.102459,4312.820407,4288.717844,4275.384511,4339.487073,4319.999894,4279.487075,4314.871689,4279.999895
50,0,4267.692203,4301.538356,4323.076817,4313.846048,4327.692202,4291.794767,4316.922971,4286.153741,4278.974254,4345.640919,4324.615279,4289.743485,4318.461433,4281.538357
51,0,4257.435793,4287.692203,4312.820407,4310.256305,4329.743484,4293.846049,4312.307587,4281.025536,4272.307588,4338.974253,4319.999894,4286.153741,4313.846048,4276.410152
52,0,4259.487075,4289.230664,4308.205023,4302.563997,4336.922971,4296.410151,4312.820407,4283.589639,4268.717844,4340.512714,4319.487074,4281.025536,4317.435792,4277.948613
53,0,4264.61528,4300.512715,4314.871689,4307.692202,4335.384509,4297.948613,4316.410151,4288.717844,4274.35887,4347.692201,4325.64092,4282.563998,4321.538356,4282.563998
54,0,4250.256306,4287.692203,4308.205023,4304.102459,4317.435792,4291.794767,4309.743484,4286.153741,4271.794767,4331.794766,4318.974253,4277.948613,4307.179382,4271.281947
55,0,4249.230665,4281.538357,4302.563997,4301.538356,4318.461433,4291.281946,4310.256305,4287.179382,4271.794767,4325.64092,4316.410151,4279.999895,4304.615279,4269.230665
56,0,4256.922973,4286.153741,4301.025536,4300.512715,4322.563997,4286.153741,4307.692202,4286.666562,4274.35887,4332.307586,4313.333228,4276.922972,4306.153741,4272.820408
57,0,4257.435793,4289.230664,4303.589638,4294.358869,4315.38451,4283.076818,4303.076818,4282.051177,4271.794767,4327.692202,4308.717843,4273.846049,4297.948613,4266.153742
58,0,4263.076819,4296.410151,4312.820407,4296.922972,4315.38451,4288.205023,4304.615279,4283.076818,4270.769126,4324.615279,4311.794766,4286.153741,4301.538356,4266.666562
59,0,4273.333229,4309.743484,4323.589638,4314.358869,4327.692202,4296.410151,4314.358869,4289.230664,4277.435793,4338.461432,4319.487074,4298.974254,4320.512715,4281.538357
60,0,4271.281947,4303.076818,4319.487074,4308.717843,4326.15374,4296.922972,4315.38451,4287.179382,4280.512716,4341.025535,4316.410151,4291.794767,4321.025535,4282.563998
61,0,4274.35887,4297.948613,4318.974253,4297.948613,4324.615279,4297.435792,4311.281946,4287.179382,4279.487075,4337.435791,4310.769125,4289.743485,4316.922971,4280.512716
62,0,4279.487075,4308.717843,4325.128099,4309.230664,4330.256304,4297.948613,4310.256305,4288.205023,4275.897331,4335.89733,4307.179382,4296.410151,4319.999894,4285.1281
63,0,4273.333229,4307.179382,4322.051176,4322.051176,4330.256304,4296.410151,4309.743484,4285.640921,4273.333229,4326.666561,4306.666561,4292.307587,4316.922971,4283.076818
64,0,4266.666562,4292.307587,4311.281946,4314.358869,4321.025535,4289.743485,4302.051177,4285.1281,4273.333229,4324.102458,4304.102459,4282.051177,4308.717843,4281.538357
65,0,4266.666562,4288.717844,4308.205023,4304.102459,4311.794766,4285.640921,4296.410151,4285.640921,4273.333229,4332.820407,4300.512715,4283.589639,4307.179382,4285.640921
66,0,4278.461434,4301.538356,4319.999894,4312.307587,4318.974253,4296.922972,4306.153741,4289.743485,4278.974254,4337.435791,4310.769125,4299.999895,4321.025535,4291.794767
67,0,4291.794767,4309.743484,4327.692202,4321.538356,4329.230663,4306.666561,4315.89733,4292.307587,4282.051177,4336.41015,4322.051176,4306.153741,4329.230663,4296.922972
68,0,4289.743485,4310.256305,4326.15374,4317.435792,4324.615279,4302.563997,4313.846048,4291.281946,4282.051177,4344.102458,4318.461433,4298.974254,4320.512715,4298.461433
69,0,4281.025536,4313.333228,4325.64092,4313.846048,4318.461433,4300.512715,4310.769125,4291.794767,4286.666562,4348.205022,4313.333228,4295.38451,4317.948612,4294.87169
70,0,4290.256305,4321.538356,4330.769125,4329.743484,4332.820407,4309.230664,4316.410151,4299.999895,4295.897331,4353.846047,4324.102458,4302.563997,4339.487073,4301.025536
71,0,4299.487074,4319.487074,4330.769125,4333.846048,4339.487073,4309.743484,4315.89733,4304.102459,4291.794767,4359.999893,4325.64092,4306.153741,4346.15374,4307.692202
72,0,4298.974254,4315.89733,4330.256304,4322.563997,4334.871689,4307.179382,4313.846048,4304.102459,4290.256305,4361.538355,4322.563997,4310.769125,4338.974253,4310.256305
73,0,4295.897331,4317.435792,4328.205022,4316.922971,4332.820407,4308.205023,4315.89733,4306.153741,4297.948613,4365.128098,4325.128099,4311.794766,4339.487073,4309.230664
74,0,4293.333228,4315.89733,4324.615279,4321.538356,4329.743484,4310.256305,4314.358869,4305.1281,4295.897331,4364.615278,4323.076817,4304.615279,4339.999894,4303.589638
75,0,4290.256305,4305.64092,4324.615279,4323.589638,4324.102458,4306.153741,4311.794766,4298.974254,4286.153741,4354.358868,4315.89733,4298.461433,4333.333227,4298.461433
76,0,4294.87169,4311.281946,4330.769125,4330.256304,4331.281945,4307.179382,4319.999894,4302.051177,4293.846049,4357.435791,4324.615279,4303.589638,4340.512714,4308.717843
77,0,4298.461433,4321.025535,4332.307586,4332.307586,4333.333227,4312.307587,4326.666561,4306.666561,4301.538356,4364.102457,4330.256304,4306.666561,4346.66656,4315.38451
78,0,4300.512715,4317.948612,4330.769125,4324.615279,4329.230663,4313.333228,4322.051176,4307.179382,4295.897331,4359.487073,4322.563997,4309.230664,4341.025535,4315.89733
79,0,4304.102459,4310.256305,4331.794766,4326.15374,4332.307586,4309.230664,4315.89733,4301.025536,4289.743485,4353.333227,4317.948612,4311.794766,4336.922971,4313.846048
80,0,4309.743484,4320.512715,4339.487073,4338.461432,4337.948612,4310.256305,4317.435792,4300.512715,4295.38451,4357.435791,4328.717843,4312.820407,4343.589637,4313.333228
81,0,4312.307587,4333.846048,4344.102458,4337.948612,4338.461432,4314.358869,4319.487074,4306.153741,4301.025536,4365.128098,4335.89733,4315.89733,4352.307586,4318.974253
82,0,4317.948612,4337.435791,4347.179381,4342.051176,4348.205022,4321.538356,4327.179381,4311.281946,4307.179382,4379.487072,4338.974253,4326.666561,4364.102457,4332.307586
83,0,4322.051176,4339.487073,4349.743483,4355.897329,4356.92297,4332.307586,4338.974253,4314.358869,4314.871689,4396.922969,4345.640919,4330.769125,4370.256303,4336.922971
84,0,4314.358869,4333.333227,4345.640919,4353.333227,4348.205022,4329.743484,4337.435791,4314.358869,4315.89733,4390.769123,4344.102458,4321.025535,4360.512714,4325.64092
85,0,4305.1281,4326.666561,4343.589637,4341.025535,4345.128099,4319.999894,4329.230663,4313.846048,4310.256305,4372.820406,4334.358868,4315.38451,4352.820406,4318.461433
86,0,4308.205023,4330.256304,4347.692201,4338.974253,4347.179381,4320.512715,4329.230663,4312.820407,4304.102459,4370.256303,4328.717843,4319.487074,4354.871688,4321.025535
87,0,4317.435792,4336.922971,4347.179381,4339.487073,4344.102458,4326.15374,4331.794766,4314.358869,4302.563997,4377.43579,4330.769125,4319.487074,4357.948611,4324.102458
88,0,4316.410151,4333.333227,4339.999894,4334.871689,4349.743483,4328.205022,4330.256304,4312.307587,4303.076818,4376.410149,4331.794766,4310.256305,4356.41015,4324.615279
89,0,4316.922971,4334.358868,4347.692201,4342.563996,4362.563996,4331.794766,4333.333227,4311.794766,4307.179382,4378.974252,4336.922971,4313.846048,4360.512714,4329.743484
90,0,4317.948612,4335.89733,4356.92297,4343.589637,4354.871688,4328.205022,4329.743484,4309.230664,4304.615279,4374.871688,4332.307586,4316.410151,4356.92297,4328.205022
91,0,4311.281946,4328.205022,4351.281945,4333.333227,4343.076817,4321.538356,4323.589638,4306.666561,4296.922972,4361.025534,4319.999894,4307.179382,4341.025535,4315.38451
92,0,4301.025536,4322.563997,4336.41015,4332.820407,4339.487073,4316.410151,4316.410151,4302.563997,4290.256305,4347.179381,4311.281946,4296.922972,4326.666561,4306.666561
93,0,4309.230664,4336.41015,4335.384509,4346.66656,4341.025535,4316.922971,4316.410151,4299.999895,4292.307587,4347.692201,4311.794766,4304.102459,4332.307586,4319.487074
94,0,4323.076817,4345.640919,4339.487073,4350.256304,4347.179381,4319.487074,4319.487074,4298.974254,4295.897331,4351.794765,4315.89733,4310.769125,4339.487073,4332.307586
95,0,4333.333227,4350.769124,4343.589637,4352.820406,4362.563996,4326.666561,4321.538356,4304.102459,4301.025536,4355.897329,4326.15374,4312.307587,4344.102458,4339.999894
96,0,4339.487073,4356.41015,4344.615278,4353.846047,4363.589637,4327.179381,4316.410151,4307.692202,4299.487074,4354.358868,4327.692202,4311.794766,4348.717842,4345.640919
97,0,4343.589637,4357.435791,4349.743483,4350.256304,4363.076816,4329.743484,4322.051176,4309.743484,4297.435792,4358.461432,4328.205022,4318.974253,4358.461432,4349.743483
98,0,4337.948612,4349.743483,4352.307586,4351.794765,4365.640919,4334.358868,4331.794766,4311.281946,4304.102459,4366.66656,4335.89733,4325.64092,4362.563996,4348.717842
99,0,4332.820407,4348.717842,4346.15374,4353.333227,4357.435791,4331.281945,4330.256304,4310.256305,4308.717843,4362.051175,4335.384509,4320.512715,4356.41015,4348.205022
100,0,4331.794766,4348.205022,4339.999894,4340.512714,4351.281945,4324.615279,4325.128099,4307.692202,4307.179382,4352.820406,4326.15374,4312.820407,4345.640919,4345.640919
101,0,4329.743484,4341.538355,4345.128099,4336.41015,4363.076816,4326.666561,4330.256304,4310.256305,4310.256305,4359.999893,4327.179381,4317.435792,4347.692201,4344.102458
102,0,4322.563997,4332.820407,4346.15374,4345.128099,4358.461432,4325.64092,4328.717843,4310.256305,4310.256305,4367.17938,4325.128099,4319.999894,4348.717842,4343.076817
103,0,4313.846048,4324.102458,4334.871689,4340.512714,4334.871689,4314.358869,4315.38451,4302.563997,4302.051177,4355.384509,4313.333228,4307.179382,4336.922971,4332.307586
104,0,4313.846048,4322.051176,4330.769125,4331.281945,4333.846048,4310.769125,4312.307587,4301.025536,4304.102459,4348.717842,4311.281946,4300.512715,4332.820407,4326.666561
105,0,4318.974253,4325.128099,4335.89733,4332.307586,4345.640919,4316.922971,4320.512715,4307.692202,4311.281946,4356.41015,4318.461433,4308.205023,4339.487073,4330.256304
106,0,4325.128099,4329.743484,4342.563996,4339.999894,4347.179381,4318.461433,4327.179381,4313.333228,4313.333228,4363.076816,4326.666561,4319.999894,4350.256304,4338.974253
107,0,4332.307586,4335.384509,4349.230663,4343.589637,4345.640919,4318.974253,4329.743484,4313.846048,4313.846048,4362.563996,4333.333227,4326.15374,4358.974252,4349.743483
108,0,4335.89733,4338.461432,4350.256304,4339.487073,4347.179381,4322.563997,4331.281945,4316.410151,4312.820407,4363.076816,4334.871689,4323.589638,4357.435791,4350.256304
109,0,4321.025535,4326.666561,4338.974253,4328.717843,4338.974253,4316.410151,4324.615279,4313.846048,4307.179382,4354.871688,4324.615279,4312.307587,4345.640919,4337.435791
110,0,4315.38451,4325.128099,4341.538355,4328.205022,4344.615278,4320.512715,4329.743484,4316.410151,4312.820407,4360.512714,4326.666561,4316.410151,4352.820406,4343.589637
111,0,4331.281945,4337.435791,4355.897329,4332.307586,4355.897329,4334.871689,4342.563996,4324.102458,4322.563997,4378.461431,4336.41015,4325.64092,4366.66656,4356.92297
112,0,4336.41015,4336.922971,4356.92297,4336.41015,4346.66656,4332.820407,4339.487073,4324.102458,4320.512715,4377.43579,4335.89733,4323.076817,4359.487073,4350.769124
113,0,4319.999894,4317.948612,4339.999894,4333.333227,4329.743484,4315.38451,4323.589638,4311.794766,4307.692202,4358.461432,4326.666561,4312.307587,4344.102458,4334.358868
114,0,4326.15374,4323.076817,4339.487073,4337.435791,4339.999894,4318.461433,4327.692202,4312.820407,4311.794766,4365.640919,4330.256304,4319.487074,4355.384509,4338.974253
115,0,4343.076817,4343.589637,4351.794765,4346.66656,4353.333227,4328.205022,4337.435791,4318.461433,4319.487074,4377.948611,4335.384509,4326.15374,4366.66656,4348.717842
116,0,4331.794766,4343.076817,4348.205022,4343.589637,4343.076817,4320.512715,4326.15374,4310.769125,4311.281946,4359.999893,4326.666561,4314.871689,4353.846047,4343.076817
117,0,4317.948612,4335.384509,4341.538355,4332.307586,4338.974253,4314.871689,4315.38451,4307.692202,4305.1281,4349.230663,4321.025535,4309.230664,4343.589637,4333.846048
118,0,4330.769125,4338.974253,4351.281945,4333.846048,4355.384509,4322.051176,4326.15374,4318.974253,4316.410151,4362.563996,4327.692202,4318.974253,4351.794765,4339.487073
119,0,4337.948612,4339.999894,4352.307586,4338.461432,4354.871688,4319.487074,4331.281945,4321.025535,4322.563997,4362.563996,4327.692202,4317.948612,4349.743483,4341.538355
120,0,4329.230663,4338.461432,4341.538355,4332.820407,4335.89733,4311.281946,4323.589638,4316.410151,4315.89733,4356.41015,4321.538356,4305.64092,4343.589637,4336.41015
121,0,4336.922971,4348.717842,4350.769124,4334.871689,4343.076817,4319.999894,4331.281945,4324.102458,4321.538356,4372.307585,4332.820407,4318.974253,4358.461432,4346.66656
122,0,4344.615278,4345.128099,4357.435791,4337.948612,4356.41015,4326.666561,4340.512714,4326.15374,4325.128099,4370.769124,4334.871689,4326.666561,4362.051175,4348.717842
123,0,4329.743484,4327.692202,4342.051176,4336.41015,4344.615278,4315.89733,4331.794766,4319.999894,4314.871689,4349.230663,4317.435792,4309.743484,4344.615278,4334.871689
124,0,4316.922971,4323.076817,4334.358868,4331.281945,4333.846048,4308.717843,4321.538356,4315.89733,4309.743484,4349.743483,4315.38451,4305.1281,4338.974253,4329.743484
125,0,4322.563997,4328.717843,4340.512714,4321.538356,4339.487073,4317.435792,4329.230663,4317.948612,4316.922971,4362.563996,4330.256304,4317.948612,4351.794765,4333.846048
126,0,4323.076817,4325.64092,4333.846048,4314.871689,4333.333227,4318.461433,4329.743484,4315.89733,4315.89733,4352.307586,4327.179381,4314.358869,4350.256304,4328.205022
127,0,4321.025535,4314.358869,4326.666561,4315.38451,4324.615279,4309.743484,4317.948612,4309.743484,4305.64092,4337.948612,4312.820407,4302.051177,4334.358868,4325.128099
128,0,4315.89733,4306.153741,4323.076817,4305.64092,4319.487074,4304.615279,4309.743484,4302.051177,4301.025536,4332.820407,4302.563997,4293.333228,4321.538356,4320.512715
0,0,4312.820407,4315.89733,4321.025535,4304.102459,4318.461433,4308.205023,4314.358869,4301.538356,4305.1281,4332.820407,4301.025536,4289.743485,4324.102458,4313.333228
1,0,4314.871689,4322.051176,4322.563997,4315.89733,4326.15374,4308.205023,4316.922971,4309.230664,4307.179382,4337.948612,4302.051177,4291.281946,4329.230663,4315.38451
2,0,4322.563997,4318.461433,4328.717843,4324.102458,4340.512714,4310.769125,4321.538356,4315.38451,4311.794766,4348.717842,4308.205023,4299.487074,4331.281945,4325.64092
3,0,4327.179381,4327.692202,4333.333227,4329.230663,4342.563996,4317.435792,4326.15374,4314.358869,4315.89733,4353.846047,4316.410151,4304.102459,4336.922971,4329.743484
4,0,4327.692202,4339.487073,4339.999894,4336.41015,4343.589637,4323.589638,4329.230663,4315.38451,4318.974253,4363.589637,4326.666561,4309.743484,4347.692201,4335.384509
5,0,4332.307586,4335.384509,4345.640919,4333.333227,4348.717842,4327.179381,4333.333227,4321.025535,4323.589638,4375.384508,4332.307586,4316.410151,4354.871688,4341.025535
6,0,4345.128099,4337.435791,4349.230663,4335.384509,4355.897329,4330.769125,4339.999894,4328.717843,4330.769125,4377.43579,4334.358868,4323.589638,4356.92297,4346.15374
7,0,4345.128099,4340.512714,4346.66656,4341.025535,4351.794765,4327.179381,4337.948612,4328.717843,4329.230663,4370.769124,4332.820407,4321.538356,4353.333227,4345.128099
8,0,4333.333227,4334.358868,4339.487073,4337.435791,4338.461432,4317.948612,4329.230663,4323.076817,4321.538356,4365.128098,4329.743484,4312.307587,4348.205022,4337.948612
9,0,4332.820407,4335.384509,4338.974253,4331.794766,4336.41015,4315.89733,4326.666561,4319.999894,4320.512715,4361.538355,4329.743484,4307.179382,4348.717842,4334.871689
10,0,4343.589637,4343.076817,4349.230663,4330.256304,4352.820406,4324.102458,4334.871689,4324.615279,4324.615279,4362.563996,4330.769125,4309.230664,4349.230663,4340.512714
11,0,4343.076817,4342.051176,4352.307586,4332.307586,4355.384509,4325.128099,4340.512714,4324.615279,4325.64092,4365.128098,4327.179381,4311.281946,4345.640919,4342.051176
12,0,4332.820407,4341.538355,4344.615278,4339.999894,4345.128099,4323.076817,4337.948612,4317.948612,4322.563997,4359.487073,4320.512715,4308.205023,4343.076817,4334.871689
13,0,4335.89733,4354.871688,4348.205022,4354.358868,4358.974252,4337.435791,4343.076817,4324.102458,4326.666561,4362.563996,4324.615279,4309.743484,4351.794765,4338.974253
14,0,4344.615278,4357.948611,4356.41015,4358.461432,4374.358867,4349.743483,4353.333227,4333.846048,4333.846048,4376.92297,4334.871689,4314.358869,4361.025534,4345.128099
15,0,4345.640919,4348.717842,4354.358868,4351.281945,4366.66656,4342.051176,4349.230663,4328.717843,4333.846048,4381.025534,4340.512714,4314.358869,4361.538355,4342.563996
16,0,4344.102458,4348.205022,4348.205022,4341.025535,4355.897329,4336.41015,4342.051176,4322.051176,4330.256304,4375.384508,4342.563996,4313.333228,4358.974252,4341.025535
17,0,4354.871688,4361.538355,4361.025534,4350.769124,4371.281944,4351.281945,4356.41015,4337.435791,4338.461432,4392.820405,4359.487073,4331.281945,4375.897329,4356.92297
18,0,4356.41015,4359.999893,4365.640919,4357.948611,4379.487072,4355.897329,4364.615278,4346.15374,4343.589637,4404.102456,4364.615278,4338.974253,4384.102457,4365.640919
19,0,4354.358868,4356.92297,4359.487073,4353.333227,4368.205021,4348.717842,4357.948611,4336.922971,4338.461432,4389.743482,4351.281945,4330.256304,4372.307585,4359.999893
20,0,4353.333227,4359.999893,4358.461432,4355.897329,4357.948611,4344.615278,4350.769124,4330.256304,4330.256304,4376.92297,4342.051176,4326.666561,4364.102457,4356.41015
21,0,4340.512714,4350.769124,4354.871688,4357.948611,4362.051175,4343.589637,4344.615278,4327.692202,4324.102458,4373.333226,4337.948612,4321.025535,4363.589637,4350.769124
22,0,4325.128099,4337.435791,4340.512714,4337.435791,4357.948611,4338.974253,4335.89733,4319.999894,4319.999894,4365.640919,4326.666561,4307.692202,4352.820406,4333.846048
23,0,4333.846048,4344.102458,4339.487073,4330.769125,4347.179381,4341.025535,4340.512714,4324.102458,4324.615279,4370.256303,4327.179381,4310.769125,4350.256304,4332.307586
24,0,4342.563996,4347.692201,4347.692201,4341.538355,4344.615278,4341.025535,4342.563996,4331.794766,4326.666561,4374.358867,4337.948612,4319.487074,4357.948611,4346.15374
25,0,4339.999894,4342.051176,4347.179381,4338.974253,4348.205022,4334.871689,4335.384509,4325.64092,4319.487074,4361.538355,4339.999894,4317.948612,4360.512714,4350.256304
26,0,4338.461432,4338.461432,4342.051176,4330.256304,4345.640919,4331.794766,4332.307586,4318.974253,4316.410151,4353.846047,4337.948612,4314.871689,4354.871688,4341.538355
27,0,4340.512714,4340.512714,4345.128099,4333.333227,4342.051176,4336.41015,4334.358868,4323.589638,4318.461433,4358.974252,4339.487073,4317.435792,4354.358868,4343.076817
28,0,4339.487073,4348.205022,4352.307586,4337.435791,4346.66656,4339.999894,4335.89733,4327.179381,4320.512715,4365.128098,4341.025535,4318.974253,4358.461432,4352.307586
29,0,4347.179381,4356.41015,4359.487073,4346.15374,4361.025534,4344.102458,4343.589637,4329.230663,4327.692202,4372.820406,4349.230663,4326.15374,4365.640919,4358.974252
30,0,4358.461432,4359.999893,4362.051175,4359.999893,4369.230662,4349.743483,4352.307586,4337.948612,4335.384509,4379.999893,4356.92297,4333.333227,4368.205021,4362.563996
31,0,4352.820406,4354.358868,4353.846047,4356.92297,4354.871688,4345.640919,4344.102458,4336.41015,4328.205022,4370.769124,4343.076817,4325.64092,4355.384509,4352.820406
32,0,4345.128099,4353.333227,4348.205022,4348.717842,4346.15374,4337.948612,4334.358868,4326.15374,4322.051176,4361.538355,4330.769125,4319.999894,4350.769124,4347.179381
33,0,4352.820406,4359.999893,4354.358868,4351.281945,4363.589637,4340.512714,4342.563996,4328.717843,4331.794766,4368.717842,4341.025535,4327.692202,4361.538355,4358.461432
34,0,4361.025534,4365.640919,4365.128098,4358.974252,4379.999893,4353.846047,4358.461432,4342.563996,4341.025535,4383.076816,4357.435791,4336.41015,4371.794765,4369.230662
35,0,4353.333227,4354.871688,4365.128098,4358.974252,4370.256303,4356.92297,4356.92297,4342.051176,4332.307586,4376.92297,4353.846047,4329.230663,4368.205021,4361.025534
36,0,4353.846047,4360.512714,4370.769124,4365.128098,4368.717842,4356.41015,4356.92297,4338.974253,4329.743484,4373.333226,4352.820406,4334.871689,4369.230662,4361.538355
37,0,4368.717842,4383.076816,4383.589636,4368.717842,4380.512713,4357.948611,4365.640919,4345.128099,4337.948612,4384.102457,4361.025534,4352.820406,4378.461431,4374.358867
38,0,4379.487072,4387.6922,4390.256303,4372.307585,4382.051175,4361.538355,4368.717842,4351.794765,4341.025535,4387.6922,4366.66656,4359.999893,4384.102457,4377.43579
39,0,4372.820406,4375.897329,4385.640918,4379.487072,4369.743483,4360.512714,4361.025534,4347.692201,4335.89733,4375.384508,4363.076816,4354.871688,4378.461431,4370.769124
40,0,4375.384508,4385.640918,4394.358867,4390.256303,4378.461431,4363.589637,4366.66656,4351.281945,4341.538355,4383.076816,4369.743483,4363.589637,4382.563995,4379.487072
41,0,4392.307585,4402.051174,4410.256302,4392.820405,4401.538354,4374.358867,4378.461431,4358.974252,4351.281945,4405.128097,4382.563995,4377.43579,4397.43579,4394.358867
42,0,4396.410149,4399.999892,4408.20502,4391.281944,4402.051174,4377.43579,4377.43579,4353.846047,4347.179381,4404.102456,4378.974252,4378.974252,4399.999892,4395.384508
43,0,4382.051175,4390.256303,4396.922969,4390.769123,4384.615277,4367.17938,4369.230662,4342.051176,4337.948612,4384.615277,4363.589637,4367.17938,4383.589636,4384.102457
44,0,4379.487072,4387.6922,4398.974251,4391.281944,4382.563995,4368.205021,4372.820406,4346.15374,4343.076817,4383.076816,4367.17938,4364.615278,4382.051175,4384.102457
45,0,4386.153739,4388.205021,4403.076815,4389.230662,4387.6922,4374.358867,4374.358867,4354.871688,4348.717842,4392.820405,4378.461431,4369.743483,4391.794764,4386.153739
46,0,4387.6922,4390.256303,4398.974251,4387.17938,4387.17938,4370.256303,4369.743483,4352.307586,4347.179381,4392.820405,4376.410149,4369.230662,4391.281944,4381.538354
47,0,4393.846046,4401.538354,4398.461431,4391.281944,4395.897328,4372.307585,4376.92297,4354.871688,4351.281945,4399.487072,4382.051175,4369.230662,4396.922969,4388.717841
48,0,4401.538354,4412.307584,4404.615277,4396.922969,4405.640918,4384.102457,4388.205021,4364.615278,4361.538355,4414.871687,4392.307585,4375.384508,4407.6922,4398.974251
49,0,4405.640918,4412.307584,4413.333225,4404.615277,4407.6922,4389.230662,4387.17938,4373.333226,4366.153739,4421.538353,4391.281944,4385.128098,4409.743482,4401.538354
50,0,4408.20502,4412.307584,4421.538353,4412.820405,4413.846046,4387.6922,4387.6922,4375.384508,4364.615278,4420.512712,4391.794764,4389.743482,4410.256302,4406.666559
51,0,4407.179379,4415.897328,4421.025533,4413.846046,4418.974251,4388.205021,4393.333226,4371.281944,4363.589637,4426.153738,4397.43579,4387.17938,4417.435789,4411.281943
52,0,4400.512713,4413.333225,4408.717841,4408.20502,4413.333225,4386.666559,4387.6922,4365.128098,4361.025534,4419.487071,4388.205021,4377.948611,4410.256302,4401.538354
53,0,4399.487072,4411.794764,4406.666559,4408.717841,4411.794764,4386.153739,4386.153739,4366.153739,4358.974252,4407.6922,4383.589636,4379.999893,4403.589636,4397.43579
54,0,4399.999892,4412.307584,4410.256302,4398.461431,4408.717841,4383.076816,4390.769123,4365.640919,4357.948611,4405.640918,4391.281944,4385.640918,4407.6922,4400.512713
55,0,4402.563995,4409.230661,4410.256302,4390.256303,4399.487072,4378.974252,4389.743482,4363.076816,4357.948611,4410.256302,4393.333226,4385.640918,4412.307584,4402.563995
56,0,4407.179379,4406.153738,4411.794764,4397.94861,4398.974251,4376.410149,4386.666559,4361.025534,4355.897329,4410.256302,4392.820405,4387.6922,4413.846046,4406.666559
57,0,4414.871687,4417.435789,4421.025533,4412.307584,4409.743482,4381.025534,4393.846046,4364.615278,4359.487073,4419.487071,4404.102456,4400.512713,4423.589635,4417.435789
58,0,4411.794764,4422.051174,4418.974251,4411.794764,4407.6922,4382.051175,4392.307585,4366.153739,4364.615278,4424.615276,4403.076815,4397.94861,4427.179379,4414.871687
59,0,4396.410149,4404.615277,4402.563995,4396.922969,4402.051174,4374.871688,4379.999893,4362.563996,4361.025534,4411.794764,4383.076816,4374.358867,4414.871687,4397.94861
60,0,4376.410149,4386.666559,4386.153739,4379.999893,4399.487072,4369.743483,4372.307585,4356.92297,4350.769124,4394.871687,4365.640919,4353.846047,4394.871687,4381.025534
61,0,4375.897329,4390.769123,4387.6922,4382.563995,4402.051174,4375.384508,4377.948611,4359.487073,4350.769124,4393.333226,4367.692201,4356.92297,4395.384508,4382.563995
62,0,4391.281944,4397.94861,4405.640918,4397.43579,4404.102456,4375.897329,4384.102457,4364.102457,4354.871688,4397.43579,4376.410149,4370.256303,4409.230661,4391.794764
63,0,4403.589636,4399.999892,4414.871687,4399.487072,4401.538354,4375.384508,4383.076816,4363.076816,4355.897329,4400.512713,4379.999893,4375.897329,4411.281943,4395.897328
64,0,4409.743482,4405.640918,4413.846046,4398.974251,4404.102456,4382.563995,4383.589636,4365.128098,4359.487073,4413.333225,4388.205021,4379.999893,4413.846046,4403.589636
65,0,4420.512712,4417.435789,4426.666558,4415.897328,4421.538353,4392.820405,4395.384508,4374.358867,4367.17938,4428.71784,4399.999892,4394.871687,4430.256302,4417.94861
66,0,4424.615276,4428.71784,4439.999891,4429.230661,4435.384507,4394.358867,4403.589636,4376.92297,4370.256303,4433.846045,4402.051174,4403.589636,4435.384507,4421.025533
67,0,4422.563994,4431.794763,4438.46143,4428.71784,4428.20502,4390.256303,4399.487072,4376.92297,4370.769124,4437.435789,4399.487072,4399.999892,4429.743481,4416.922969
68,0,4431.794763,4434.871686,4447.179378,4437.435789,4425.128097,4398.974251,4411.281943,4386.666559,4379.999893,4452.307583,4408.717841,4410.256302,4440.512712,4428.20502
69,0,4436.922968,4435.384507,4460.512711,4446.666558,4434.871686,4413.846046,4428.20502,4394.871687,4386.153739,4457.435788,4416.922969,4425.128097,4452.820404,4433.846045
70,0,4434.871686,4439.487071,4461.025532,4443.589635,4454.358865,4425.640917,4436.922968,4399.999892,4391.794764,4463.589634,4424.102456,4429.230661,4458.461429,4434.358866
71,0,4444.615276,4452.307583,4463.076814,4445.128096,4475.897326,4435.384507,4449.743481,4411.281943,4403.589636,4484.102454,4434.871686,4432.307584,4469.23066,4447.692199
72,0,4464.615275,4472.307583,4477.948608,4467.179378,4487.692198,4447.692199,4468.717839,4421.025533,4415.897328,4503.076813,4445.128096,4447.179378,4483.076813,4463.076814
73,0,4470.256301,4481.025531,4486.153736,4481.025531,4481.538352,4451.794763,4471.281942,4421.025533,4419.999892,4504.615274,4448.71784,4456.922968,4488.717839,4464.615275
74,0,4470.256301,4484.102454,4491.281941,4484.102454,4480.512711,4450.256301,4464.615275,4426.666558,4424.615276,4510.76912,4460.512711,4462.563993,4497.948608,4470.256301
75,0,4477.435788,4485.128095,4496.922967,4484.615275,4486.153736,4451.281942,4467.179378,4431.794763,4429.230661,4519.999889,4472.307583,4470.256301,4507.692197,4481.025531
76,0,4486.666557,4492.307582,4505.128095,4494.871685,4493.333223,4458.97425,4479.99989,4435.384507,4434.871686,4528.717838,4479.99989,4480.512711,4516.410146,4490.769121
77,0,4488.717839,4500.51271,4511.794761,4505.640915,4504.615274,4466.666557,4487.179377,4441.025532,4441.025532,4539.487068,4489.74348,4489.74348,4524.102453,4498.461428
78,0,4491.281941,4502.563992,4516.922966,4508.717838,4522.051171,4470.769121,4489.230659,4446.666558,4447.179378,4552.307581,4496.410146,4497.435787,4530.256299,4503.589633
79,0,4501.025531,4506.666556,4521.02553,4507.179377,4527.179376,4472.820403,4492.820403,4448.71784,4449.23066,4550.769119,4493.333223,4497.435787,4531.28194,4508.717838
80,0,4510.76912,4517.948607,4528.205017,4511.281941,4525.640915,4475.384506,4497.948608,4449.743481,4448.71784,4545.128094,4494.358864,4497.948608,4533.846043,4516.922966
81,0,4510.2563,4518.974248,4535.384504,4516.410146,4523.589633,4475.384506,4500.51271,4449.23066,4448.71784,4547.692196,4499.99989,4505.128095,4537.948607,4519.999889
82,0,4515.897325,4518.974248,4543.589632,4525.640915,4525.128094,4481.025531,4510.2563,4453.846045,4453.333224,4555.384504,4505.640915,4516.922966,4543.589632,4523.589633
83,0,4530.76912,4534.871684,4551.79476,4539.487068,4537.435786,4490.2563,4519.999889,4460.512711,4459.48707,4566.153734,4511.794761,4525.128094,4552.307581,4531.28194
84,0,4528.205017,4542.051171,4551.79476,4540.512709,4545.640914,4490.769121,4518.461428,4460.512711,4459.999891,4576.410145,4512.820402,4527.692197,4561.025529,4536.410145
85,0,4519.999889,4534.358863,4550.256299,4537.948607,4546.666555,4491.281941,4522.563992,4463.076814,4463.589634,4582.563991,4513.846043,4529.743479,4565.128093,4537.948607
86,0,4534.871684,4538.461427,4554.871683,4548.205017,4556.922965,4502.051172,4533.846043,4471.794762,4470.256301,4584.615273,4520.51271,4531.28194,4566.666555,4538.974248
87,0,4554.358863,4559.999888,4567.692196,4559.999888,4572.820401,4514.358864,4541.02553,4478.974249,4474.358865,4591.281939,4527.179376,4535.384504,4571.79476,4547.179376
88,0,4548.205017,4563.589632,4568.717837,4558.974247,4565.128093,4509.743479,4539.487068,4477.948608,4472.307583,4591.281939,4521.538351,4535.384504,4569.743478,4553.333222
89,0,4543.076812,4554.871683,4564.102452,4557.435786,4561.025529,4506.666556,4543.076812,4480.512711,4474.358865,4591.79476,4527.179376,4542.051171,4573.846042,4558.461427
90,0,4558.461427,4566.153734,4576.410145,4562.05117,4583.589632,4519.487069,4552.307581,4489.230659,4481.538352,4603.589631,4542.563991,4555.897324,4591.281939,4568.717837
91,0,4575.897324,4584.102452,4595.897324,4577.948606,4598.974247,4533.333222,4564.102452,4500.51271,4493.846044,4622.051169,4547.692196,4570.256298,4606.153734,4582.563991
92,0,4577.948606,4582.563991,4596.410144,4589.230657,4592.30758,4535.384504,4569.743478,4504.102454,4501.538351,4627.179374,4547.179376,4572.820401,4602.56399,4585.128093
93,0,4573.846042,4586.153734,4595.384503,4586.153734,4597.948606,4541.02553,4575.897324,4506.153736,4499.487069,4626.666554,4556.922965,4574.358863,4604.615272,4585.128093
94,0,4573.333222,4593.333221,4604.102452,4585.128093,4604.102452,4545.640914,4577.948606,4508.205018,4497.435787,4629.743477,4559.487068,4574.358863,4610.256298,4585.128093
95,0,4591.79476,4600.512708,4613.846041,4606.153734,4608.205016,4552.820401,4587.179375,4516.922966,4511.794761,4642.563989,4565.128093,4584.615273,4618.461426,4595.897324
96,0,4609.230657,4612.8204,4619.487067,4624.102451,4624.615272,4566.153734,4605.128093,4531.28194,4529.230658,4660.512707,4583.076811,4601.025529,4632.8204,4614.358862
97,0,4604.615272,4617.948605,4621.025528,4618.461426,4635.384502,4569.743478,4607.692195,4536.922966,4531.794761,4670.769117,4590.769119,4602.56399,4639.999887,4611.794759
98,0,4602.05117,4614.871682,4624.102451,4617.435785,4632.307579,4568.717837,4605.128093,4539.487068,4532.307581,4674.871681,4588.717837,4598.974247,4638.974246,4606.153734
99,0,4617.435785,4626.153733,4636.922964,4634.871682,4639.999887,4580.512709,4618.974246,4547.692196,4539.999889,4681.025527,4598.461426,4611.794759,4649.230656,4625.128092
100,0,4630.256297,4646.666553,4644.615271,4647.179374,4659.999886,4594.358862,4630.256297,4550.256299,4544.615273,4689.743475,4610.769118,4623.07681,4664.10245,4641.025528
101,0,4636.922964,4654.871681,4649.743476,4651.281938,4669.230655,4601.538349,4632.307579,4553.333222,4549.230658,4703.589629,4618.974246,4625.128092,4673.84604,4642.563989
102,0,4650.256297,4656.410143,4664.10245,4661.025527,4667.692194,4607.179375,4643.07681,4562.563991,4557.948606,4716.922962,4630.769118,4636.410143,4686.666552,4656.922963
103,0,4662.051168,4663.58963,4672.307578,4665.128091,4666.666553,4604.615272,4647.179374,4563.589632,4556.922965,4714.87168,4636.922964,4647.179374,4697.435783,4674.871681
104,0,4674.871681,4675.384501,4675.384501,4667.179373,4674.871681,4602.05117,4644.102451,4560.512709,4555.897324,4711.794757,4641.025528,4653.84604,4705.12809,4687.692193
105,0,4700.512706,4689.743475,4692.820398,4686.666552,4686.153732,4607.692195,4652.307579,4567.179375,4563.076811,4720.512705,4652.820399,4668.717835,4718.974244,4713.333218
106,0,4734.871679,4713.846039,4711.794757,4704.102449,4689.230655,4610.769118,4660.512707,4575.384504,4567.179375,4728.717833,4667.179373,4688.205014,4737.435782,4751.281935
107,0,4765.128089,4737.435782,4712.820398,4705.12809,4686.153732,4605.640913,4654.358861,4572.307581,4563.589632,4721.025526,4673.333219,4695.384501,4747.692192,4789.230652
108,0,4802.051165,4758.461422,4720.512705,4719.487064,4686.666552,4603.076811,4647.692194,4568.717837,4560.512709,4712.820398,4676.922963,4702.563988,4751.281935,4831.794754
109,0,4843.076805,4781.025524,4731.281936,4737.948602,4684.10245,4593.846042,4638.461425,4563.589632,4554.358863,4706.666552,4673.84604,4707.692193,4749.743474,4866.153727
110,0,4882.563983,4806.666549,4735.3845,4745.128089,4682.563988,4588.205016,4635.384502,4559.487068,4548.205017,4699.487065,4674.871681,4713.333218,4754.358858,4894.358855
111,0,4912.307572,4823.589626,4745.64091,4753.333217,4687.179373,4598.461426,4644.615271,4559.487068,4551.79476,4704.102449,4684.10245,4725.12809,4762.563986,4915.897316
112,0,4926.153726,4836.922959,4762.563986,4765.128089,4698.974244,4609.743477,4657.435784,4569.230657,4563.589632,4722.563987,4696.410142,4736.922961,4774.358858,4932.307572
113,0,4929.743469,4846.666548,4767.179371,4764.615268,4711.281936,4609.743477,4660.512707,4576.410145,4567.179375,4728.717833,4701.538347,4741.025525,4783.076806,4942.563982
114,0,4936.922956,4851.794753,4771.794755,4769.743473,4721.538346,4615.384503,4665.640912,4576.410145,4566.153734,4726.666551,4702.051167,4749.743474,4787.17937,4943.076802
115,0,4934.871674,4849.230651,4782.051165,4781.538345,4726.153731,4624.615272,4674.35886,4578.974247,4570.256298,4733.333218,4705.640911,4758.461422,4787.17937,4934.871674
116,0,4925.640905,4848.20501,4788.205011,4790.256293,4733.846038,4635.384502,4686.153732,4590.769119,4584.615273,4749.743474,4724.102449,4763.589627,4797.948601,4933.333213
117,0,4922.051162,4853.333215,4792.307575,4799.487062,4747.179371,4651.794758,4702.051167,4606.666554,4601.538349,4775.384499,4748.717833,4775.897319,4820.512703,4933.846033
118,0,4906.666547,4847.692189,4796.410139,4801.025524,4756.41014,4663.076809,4712.307577,4617.948605,4613.846041,4796.92296,4756.41014,4784.102447,4828.20501,4918.461418
119,0,4875.897317,4825.128087,4791.794755,4792.307575,4757.948602,4662.051168,4711.794757,4623.07681,4620.512708,4798.974242,4749.230653,4776.41014,4818.461421,4892.307573
120,0,4862.051163,4813.846036,4786.153729,4787.17937,4764.102448,4664.615271,4718.974244,4626.153733,4621.025528,4799.487062,4749.743474,4772.820396,4817.43578,4877.948599
121,0,4851.794753,4808.717831,4784.102447,4772.307576,4768.717832,4670.256296,4729.743474,4626.666554,4618.461426,4802.051165,4750.256294,4771.281935,4815.897318,4860.512702
122,0,4835.384497,4800.512703,4786.66655,4764.615268,4769.230653,4674.35886,4734.358859,4628.717836,4622.051169,4799.999883,4742.563987,4769.230653,4804.615267,4836.922959
123,0,4832.307574,4803.076806,4793.846037,4786.153729,4772.820396,4682.051168,4742.563987,4636.922964,4632.8204,4808.717831,4746.15373,4774.871678,4802.051165,4830.769113
124,0,4831.281933,4804.615267,4796.410139,4797.948601,4777.948601,4687.179373,4749.230653,4642.563989,4633.846041,4814.871677,4754.871679,4775.384499,4806.666549,4834.358856
125,0,4826.153728,4801.538344,4797.43578,4790.256293,4789.743473,4692.307578,4750.256294,4644.615271,4635.897323,4813.333216,4759.487063,4776.41014,4809.743472,4833.333215
126,0,4819.999882,4803.589626,4804.102447,4790.256293,4794.871678,4694.87168,4748.717833,4647.179374,4645.128092,4819.487062,4764.615268,4784.615268,4814.358857,4828.20501
127,0,4819.999882,4814.358857,4813.846036,4804.615267,4801.538344,4699.487065,4756.41014,4656.410143,4653.33322,4839.487061,4775.897319,4795.384498,4822.051164,4825.128087
128,0,4819.487062,4814.871677,4814.871677,4808.717831,4811.281934,4707.692193,4767.179371,4663.076809,4655.897322,4847.692189,4776.41014,4796.410139,4820.512703,4816.922959
0,0,4822.051164,4808.205011,4815.384498,4812.820395,4815.897318,4715.897321,4774.871678,4669.743476,4662.563989,4848.20501,4777.435781,4798.461421,4822.051164,4817.9486
1,0,4821.025523,4807.69219,4819.487062,4815.384498,4815.897318,4717.948603,4778.461422,4674.871681,4666.666553,4854.358856,4785.128088,4798.974242,4826.153728,4818.461421
2,0,4818.974241,4815.897318,4822.563985,4810.256293,4824.102446,4722.051167,4786.66655,4675.384501,4670.256296,4862.051163,4789.230652,4796.410139,4827.69219,4811.281934
3,0,4810.769113,4810.256293,4817.43578,4810.769113,4824.102446,4725.12809,4789.230652,4673.84604,4673.333219,4857.948599,4787.17937,4791.794755,4825.128087,4803.076806
4,0,4799.487062,4799.487062,4814.358857,4821.025523,4817.9486,4724.102449,4781.538345,4676.922963,4672.820399,4851.794753,4787.692191,4789.743473,4822.563985,4797.43578
5,0,4798.461421,4805.640908,4820.512703,4826.153728,4823.076805,4725.12809,4781.538345,4679.999886,4672.820399,4854.358856,4790.256293,4789.743473,4821.538344,4791.281934
6,0,4805.128088,4822.051164,4829.743472,4826.666549,4835.384497,4732.820397,4797.948601,4684.61527,4678.461424,4861.025522,4791.281934,4791.794755,4822.563985,4790.256293
7,0,4804.102447,4821.025523,4826.153728,4828.20501,4835.897318,4739.487064,4803.589626,4687.692193,4681.538347,4859.487061,4790.256293,4791.794755,4820.512703,4787.692191
8,0,4796.92296,4809.743472,4815.897318,4824.102446,4829.743472,4739.487064,4797.43578,4688.717834,4681.025527,4852.820394,4784.615268,4788.205011,4815.384498,4779.487063
9,0,4796.92296,4811.794754,4819.999882,4823.076805,4833.846036,4742.051166,4803.589626,4695.897321,4683.076809,4852.820394,4783.589627,4789.230652,4816.922959,4778.974242
10,0,4803.589626,4825.128087,4836.410138,4834.871677,4846.153728,4751.794756,4816.922959,4703.589629,4688.717834,4864.615266,4794.871678,4802.563985,4827.179369,4786.66655
11,0,4813.333216,4834.871677,4844.615266,4845.128087,4861.025522,4758.974243,4822.563985,4705.640911,4699.487065,4883.589624,4811.794754,4818.974241,4837.435779,4796.92296
12,0,4818.974241,4831.794754,4843.076805,4847.692189,4871.281932,4763.076807,4825.640908,4711.794757,4709.230654,4893.333214,4822.051164,4823.589626,4842.051164,4800.512703
13,0,4810.769113,4823.589626,4841.538343,4842.051164,4870.256291,4769.743473,4831.281933,4718.461423,4709.230654,4890.769111,4819.999882,4815.897318,4842.051164,4794.871678
14,0,4798.974242,4821.025523,4839.487061,4834.871677,4861.538343,4769.230653,4828.20501,4714.87168,4704.61527,4885.128086,4816.922959,4810.769113,4838.46142,4786.66655
15,0,4815.897318,4841.025523,4852.820394,4855.384497,4873.333214,4774.358858,4834.358856,4721.538346,4715.3845,4904.102444,4831.794754,4830.256292,4850.769112,4799.999883
16,0,4836.922959,4856.922958,4866.153727,4875.897317,4887.692188,4785.128088,4848.20501,4734.358859,4728.717833,4922.051162,4842.051164,4844.615266,4862.563984,4815.897318
17,0,4831.794754,4852.820394,4863.589625,4872.307573,4879.999881,4786.66655,4850.769112,4733.846038,4726.666551,4911.794752,4835.384497,4834.871677,4859.487061,4811.281934
18,0,4827.179369,4849.743471,4863.589625,4873.333214,4877.948599,4783.076806,4847.179369,4728.205013,4720.512705,4900.512701,4834.871677,4829.743472,4855.897317,4806.153729
19,0,4832.820395,4852.307574,4867.692189,4877.948599,4889.74347,4783.076806,4846.666548,4729.230654,4723.076808,4905.128085,4843.589625,4835.897318,4859.487061,4808.205011
20,0,4814.871677,4836.410138,4852.307574,4857.435779,4881.538342,4773.333217,4836.922959,4725.64091,4719.999885,4895.384496,4834.871677,4826.153728,4846.153728,4799.487062
21,0,4801.025524,4827.179369,4838.46142,4846.153728,4871.281932,4767.179371,4829.743472,4723.076808,4715.3845,4881.025522,4826.666549,4814.358857,4834.871677,4794.358857
22,0,4811.794754,4834.871677,4841.538343,4852.307574,4870.256291,4773.846037,4833.846036,4726.666551,4718.974244,4891.794752,4833.333215,4818.974241,4844.615266,4801.025524
23,0,4815.384498,4835.384497,4841.025523,4845.640907,4869.23065,4774.871678,4834.358856,4729.230654,4723.076808,4902.051162,4836.410138,4823.076805,4852.307574,4801.025524
24,0,4803.076806,4828.717831,4830.769113,4837.9486,4867.179368,4764.102448,4824.102446,4723.589628,4718.461423,4886.666547,4824.615267,4815.384498,4838.974241,4790.256293
25,0,4793.846037,4826.153728,4821.538344,4842.563984,4855.897317,4755.89732,4814.871677,4714.358859,4709.743475,4867.179368,4812.820395,4800.512703,4823.589626,4781.025524
26,0,4791.794755,4822.051164,4817.43578,4844.615266,4844.102446,4759.487063,4817.43578,4717.948603,4711.281936,4869.743471,4813.846036,4795.384498,4827.179369,4776.92296
27,0,4795.897319,4824.102446,4823.589626,4844.102446,4853.846035,4766.15373,4828.20501,4728.717833,4721.025526,4884.102445,4821.538344,4807.69219,4839.487061,4780.512704
28,0,4795.897319,4827.179369,4828.717831,4842.563984,4859.999881,4763.076807,4827.179369,4724.102449,4718.974244,4881.538342,4822.563985,4812.307575,4834.871677,4779.999883
29,0,4786.66655,4815.897318,4819.487062,4833.846036,4845.640907,4755.89732,4812.307575,4712.307577,4709.743475,4866.153727,4812.307575,4796.92296,4819.999882,4768.717832
30,0,4784.615268,4812.307575,4811.281934,4826.666549,4849.230651,4759.487063,4808.717831,4717.435782,4713.846039,4868.71783,4809.230652,4792.307575,4821.538344,4766.15373
31,0,4791.281934,4821.538344,4815.384498,4829.230651,4861.538343,4766.15373,4817.9486,4724.615269,4718.461423,4878.461419,4813.846036,4803.589626,4829.743472,4774.358858
32,0,4804.615267,4835.384497,4832.307574,4846.153728,4869.743471,4772.820396,4831.794754,4729.743474,4722.563987,4885.128086,4829.743472,4823.076805,4843.076805,4794.358857
33,0,4818.461421,4846.666548,4849.743471,4862.563984,4878.97424,4779.487063,4838.974241,4736.410141,4730.769115,4895.384496,4846.666548,4839.487061,4858.46142,4811.794754
34,0,4818.461421,4848.20501,4854.358856,4863.076804,4875.384496,4777.435781,4834.871677,4735.3845,4733.333218,4901.538342,4846.153728,4838.46142,4856.922958,4806.153729
35,0,4807.69219,4837.435779,4841.538343,4855.384497,4857.435779,4766.66655,4824.615267,4728.717833,4729.230654,4891.281932,4833.846036,4824.615267,4839.487061,4790.769114
36,0,4798.974242,4829.230651,4826.666549,4851.281933,4845.640907,4764.102448,4817.43578,4727.692192,4728.205013,4877.435778,4825.640908,4814.358857,4831.281933,4783.589627
37,0,4789.230652,4824.102446,4818.974241,4835.384497,4841.538343,4763.589627,4812.820395,4726.153731,4725.64091,4866.153727,4817.43578,4805.640908,4827.69219,4773.846037
38,0,4792.307575,4823.589626,4822.051164,4826.666549,4850.256292,4763.589627,4817.43578,4725.12809,4728.205013,4869.23065,4820.512703,4807.17937,4828.20501,4774.358858
39,0,4795.384498,4813.846036,4817.43578,4828.20501,4850.769112,4761.538345,4815.384498,4723.589628,4729.230654,4869.23065,4819.999882,4806.153729,4823.076805,4777.435781
40,0,4782.563986,4799.487062,4803.076806,4823.589626,4834.358856,4757.435781,4804.615267,4716.922962,4724.102449,4857.435779,4804.615267,4791.281934,4810.769113,4764.615268
41,0,4769.743473,4794.358857,4792.307575,4814.358857,4823.076805,4749.230653,4798.461421,4711.281936,4718.461423,4841.025523,4793.846037,4778.974242,4801.538344,4750.256294
42,0,4771.794755,4796.410139,4793.333216,4811.794754,4824.102446,4746.15373,4798.974242,4711.794757,4717.435782,4838.46142,4796.92296,4782.051165,4800.512703,4753.846038
43,0,4768.205012,4789.743473,4789.743473,4804.102447,4819.999882,4744.102448,4790.256293,4705.640911,4713.333218,4838.974241,4795.384498,4779.999883,4796.410139,4754.871679
44,0,4760.512704,4779.487063,4778.974242,4794.358857,4815.897318,4736.922961,4779.487063,4694.87168,4708.205013,4826.153728,4788.717832,4770.769114,4789.743473,4746.666551
45,0,4752.820397,4773.846037,4773.333217,4786.66655,4807.69219,4730.256295,4773.846037,4687.179373,4703.076808,4807.17937,4776.41014,4761.025525,4782.051165,4738.974243
46,0,4751.281935,4772.820396,4774.871678,4778.461422,4798.974242,4731.794756,4772.820396,4687.179373,4704.61527,4804.615267,4768.205012,4757.948602,4777.948601,4739.487064
47,0,4751.794756,4768.717832,4771.794755,4771.281935,4798.974242,4732.820397,4772.307576,4685.640911,4708.717834,4810.769113,4771.794755,4759.999884,4777.435781,4741.538346
48,0,4750.256294,4765.640909,4766.15373,4774.871678,4802.051165,4731.794756,4772.307576,4681.025527,4704.102449,4805.128088,4771.281935,4758.974243,4775.384499,4736.922961
49,0,4755.384499,4767.179371,4772.820396,4786.153729,4803.076806,4735.3845,4777.948601,4686.666552,4707.179372,4806.666549,4772.307576,4762.563986,4778.974242,4741.025525
50,0,4761.025525,4765.640909,4778.974242,4791.794755,4800.512703,4735.89732,4777.948601,4692.820398,4713.333218,4817.9486,4782.563986,4769.230653,4788.205011,4748.717833
51,0,4759.999884,4770.769114,4773.846037,4786.153729,4805.640908,4735.89732,4775.384499,4691.794757,4710.256295,4822.051164,4788.717832,4766.66655,4793.846037,4746.666551
52,0,4752.820397,4775.384499,4765.128089,4775.897319,4809.230652,4739.487064,4775.384499,4689.743475,4708.205013,4816.922959,4781.538345,4756.41014,4789.230652,4741.025525
53,0,4746.666551,4767.179371,4758.461422,4774.871678,4798.974242,4740.512705,4772.820396,4690.769116,4711.281936,4807.69219,4772.820396,4751.794756,4777.948601,4738.461423
54,0,4733.333218,4751.281935,4745.64091,4768.717832,4782.563986,4733.333218,4762.563986,4683.589629,4700.512706,4789.743473,4759.487063,4738.974243,4760.512704,4723.076808
55,0,4722.563987,4737.435782,4736.922961,4753.333217,4779.999883,4728.717833,4756.922961,4675.897322,4690.769116,4775.384499,4746.666551,4722.051167,4748.717833,4706.153731
56,0,4730.256295,4738.461423,4741.025525,4749.743474,4785.640909,4727.179372,4754.871679,4677.948604,4694.87168,4773.846037,4747.692192,4722.051167,4752.820397,4712.820398
57,0,4742.563987,4757.435781,4751.281935,4764.615268,4791.281934,4732.307577,4755.89732,4684.10245,4700.512706,4783.589627,4758.461422,4733.333218,4763.589627,4724.615269
58,0,4731.794756,4755.89732,4745.64091,4754.871679,4782.051165,4732.820397,4753.333217,4683.076809,4693.846039,4778.461422,4747.179371,4723.076808,4750.769115,4710.256295
59,0,4719.487064,4739.999884,4737.435782,4733.333218,4768.205012,4729.230654,4750.769115,4682.563988,4686.666552,4765.128089,4730.256295,4707.692193,4733.846038,4697.948603
60,0,4726.153731,4739.487064,4735.89732,4742.563987,4769.743473,4725.64091,4747.179371,4686.666552,4688.205014,4761.538345,4733.333218,4710.256295,4737.435782,4702.563988
61,0,4734.358859,4747.692192,4736.922961,4763.076807,4778.974242,4725.64091,4745.64091,4689.743475,4690.769116,4764.102448,4741.025525,4716.922962,4746.15373,4706.153731
62,0,4732.307577,4749.230653,4734.871679,4759.999884,4779.999883,4729.230654,4748.205012,4692.820398,4689.743475,4766.66655,4741.538346,4716.410141,4746.666551,4704.61527
63,0,4733.333218,4753.333217,4734.871679,4752.820397,4783.589627,4733.846038,4753.846038,4697.435783,4691.281937,4779.487063,4744.102448,4718.974244,4750.769115,4709.230654
64,0,4725.64091,4741.538346,4728.205013,4747.179371,4775.384499,4726.666551,4744.102448,4693.846039,4690.256296,4774.871678,4737.948602,4714.358859,4743.076807,4703.076808
65,0,4709.230654,4718.974244,4715.3845,4731.794756,4755.384499,4713.333218,4726.666551,4682.051168,4679.487065,4748.717833,4721.025526,4700.512706,4726.153731,4687.179373
66,0,4707.692193,4720.512705,4712.307577,4724.615269,4753.333217,4712.307577,4727.692192,4677.435783,4676.410142,4746.666551,4718.461423,4699.487065,4729.743474,4687.179373
67,0,4711.281936,4727.179372,4717.435782,4728.717833,4753.846038,4713.846039,4732.307577,4679.999886,4682.563988,4756.41014,4722.563987,4706.153731,4737.435782,4692.820398
68,0,4704.61527,4716.410141,4711.794757,4723.076808,4741.025525,4707.179372,4723.076808,4677.948604,4679.487065,4744.615269,4714.87168,4697.948603,4723.076808,4682.051168
69,0,4703.589629,4707.692193,4703.076808,4713.333218,4741.025525,4702.051167,4717.435782,4675.384501,4672.820399,4733.846038,4706.153731,4684.10245,4711.794757,4673.333219
70,0,4713.846039,4717.948603,4708.205013,4716.922962,4755.384499,4704.61527,4723.589628,4681.025527,4676.410142,4742.563987,4714.87168,4689.230655,4723.589628,4687.179373
71,0,4709.230654,4715.897321,4710.256295,4717.435782,4748.205012,4705.640911,4722.563987,4680.512706,4679.487065,4742.563987,4716.410141,4691.281937,4724.102449,4689.743475
72,0,4695.384501,4701.025526,4697.435783,4707.179372,4732.820397,4699.999885,4715.3845,4672.307578,4674.871681,4728.717833,4705.12809,4683.076809,4709.743475,4670.769117
73,0,4694.35886,4695.384501,4688.717834,4702.563988,4728.205013,4692.820398,4709.743475,4669.743476,4666.666553,4715.897321,4698.461424,4678.974245,4702.051167,4662.563989
74,0,4699.999885,4699.999885,4695.897321,4707.179372,4734.871679,4696.410142,4710.256295,4675.384501,4666.153732,4719.999885,4703.076808,4681.538347,4705.12809,4668.717835
75,0,4691.794757,4697.435783,4698.974244,4703.076808,4732.820397,4697.435783,4711.281936,4671.794758,4665.640912,4722.051167,4699.487065,4675.897322,4701.025526,4666.666553
76,0,4682.563988,4692.820398,4689.743475,4697.948603,4716.922962,4688.717834,4706.153731,4663.076809,4662.051168,4708.205013,4691.281937,4669.743476,4694.35886,4661.538348
77,0,4674.871681,4676.922963,4673.333219,4676.922963,4701.538347,4674.871681,4687.692193,4654.358861,4654.358861,4691.794757,4678.461424,4659.999886,4682.051168,4654.358861
78,0,4666.666553,4658.974245,4662.051168,4651.281938,4697.948603,4668.205014,4672.307578,4647.179374,4645.128092,4684.10245,4659.487066,4644.102451,4663.076809,4640.512707
79,0,4656.410143,4651.794758,4653.84604,4650.256297,4689.743475,4663.076809,4668.717835,4637.948605,4634.358861,4666.153732,4647.179374,4631.794759,4646.153733,4625.640913
80,0,4655.384502,4653.33322,4652.307579,4660.512707,4680.512706,4659.487066,4669.743476,4634.871682,4633.33322,4650.769117,4650.769117,4635.384502,4646.666553,4628.717836
81,0,4656.410143,4651.794758,4653.33322,4655.384502,4682.563988,4659.487066,4668.717835,4637.948605,4640.512707,4652.307579,4654.871681,4638.461425,4651.281938,4634.871682
82,0,4653.84604,4649.743476,4655.384502,4651.794758,4685.640911,4661.025527,4668.717835,4641.538348,4639.999887,4658.461425,4651.281938,4634.358861,4650.769117,4631.794759
83,0,4658.974245,4652.307579,4663.076809,4659.999886,4683.589629,4661.025527,4674.35886,4644.102451,4638.461425,4666.666553,4659.487066,4640.512707,4657.435784,4635.897323
84,0,4671.794758,4659.487066,4673.333219,4665.640912,4691.281937,4663.58963,4679.487065,4647.692194,4645.640912,4675.897322,4672.307578,4655.384502,4666.666553,4651.281938
85,0,4672.307578,4665.640912,4673.333219,4666.153732,4702.051167,4668.205014,4679.487065,4650.256297,4648.717835,4676.410142,4670.769117,4659.487066,4664.615271,4651.794758
86,0,4665.128091,4666.153732,4668.205014,4664.615271,4698.974244,4669.230655,4678.461424,4650.256297,4646.153733,4675.897322,4667.692194,4655.384502,4663.58963,4643.58963
87,0,4664.10245,4656.410143,4665.128091,4657.435784,4688.717834,4661.025527,4674.871681,4648.717835,4646.153733,4680.512706,4668.717835,4656.410143,4670.256296,4644.102451
88,0,4659.487066,4638.974246,4653.33322,4647.179374,4674.871681,4650.256297,4665.128091,4643.58963,4641.538348,4669.230655,4657.948604,4652.307579,4662.051168,4638.974246
89,0,4651.794758,4632.8204,4646.666553,4644.102451,4663.076809,4649.230656,4658.974245,4638.461425,4635.897323,4654.358861,4646.153733,4644.102451,4646.153733,4629.230656
90,0,4656.410143,4642.051169,4654.358861,4647.692194,4667.179373,4655.897322,4661.025527,4637.435784,4636.410143,4655.897322,4647.692194,4643.58963,4647.179374,4633.33322
91,0,4664.10245,4651.794758,4663.076809,4654.358861,4684.61527,4659.999886,4670.769117,4641.025528,4641.025528,4664.10245,4652.820399,4650.256297,4657.435784,4642.051169
92,0,4657.948604,4648.717835,4658.974245,4652.307579,4683.589629,4657.435784,4670.769117,4641.025528,4642.051169,4661.025527,4651.794758,4649.230656,4655.384502,4637.948605
93,0,4653.33322,4639.487066,4657.948604,4649.230656,4670.256296,4655.384502,4662.051168,4641.538348,4644.615271,4665.128091,4659.999886,4648.205015,4659.999886,4639.487066
94,0,4655.384502,4632.307579,4655.897322,4649.230656,4668.717835,4653.84604,4657.435784,4645.128092,4646.666553,4673.333219,4668.717835,4650.769117,4668.205014,4644.615271
95,0,4652.307579,4636.410143,4649.743476,4646.153733,4673.333219,4650.769117,4658.974245,4642.051169,4647.179374,4671.794758,4662.051168,4649.230656,4663.58963,4639.999887
96,0,4638.461425,4629.230656,4638.974246,4630.256297,4661.025527,4642.563989,4649.743476,4627.692195,4637.948605,4651.794758,4641.538348,4632.8204,4645.128092,4628.717836
97,0,4636.922964,4618.974246,4631.794759,4621.025528,4648.717835,4638.461425,4642.051169,4619.487067,4626.153733,4636.922964,4637.435784,4625.128092,4640.512707,4623.07681
98,0,4645.640912,4621.538349,4633.33322,4624.615272,4651.794758,4638.974246,4643.58963,4623.07681,4624.615272,4643.07681,4646.666553,4635.897323,4646.666553,4625.640913
99,0,4637.948605,4615.384503,4630.256297,4618.974246,4648.205015,4634.871682,4638.461425,4621.025528,4621.538349,4641.025528,4636.410143,4634.358861,4638.461425,4625.128092
100,0,4619.999887,4595.897324,4613.846041,4604.102452,4631.794759,4626.153733,4625.128092,4609.743477,4610.256298,4621.025528,4613.846041,4613.333221,4621.025528,4611.281939
101,0,4613.333221,4588.205016,4601.025529,4596.922965,4625.640913,4619.999887,4616.922964,4602.05117,4605.128093,4608.717836,4604.102452,4597.435785,4608.717836,4596.922965
102,0,4613.333221,4591.281939,4599.999888,4594.871683,4627.179374,4615.897323,4610.769118,4600.512708,4605.640913,4606.153734,4602.05117,4592.30758,4602.05117,4591.79476
103,0,4614.871682,4590.256298,4604.615272,4592.820401,4621.025528,4614.358862,4607.179375,4604.102452,4604.615272,4597.948606,4598.461426,4591.281939,4599.999888,4590.769119
104,0,4617.948605,4590.256298,4609.230657,4593.846042,4620.512708,4619.999887,4614.358862,4609.743477,4607.692195,4598.461426,4601.538349,4599.487067,4604.615272,4595.897324
105,0,4611.794759,4591.79476,4606.666554,4593.333221,4629.743477,4622.051169,4618.974246,4612.30758,4610.769118,4606.666554,4608.717836,4607.179375,4609.743477,4603.076811
106,0,4602.56399,4584.102452,4594.871683,4582.05117,4627.179374,4613.333221,4608.717836,4610.256298,4609.230657,4606.153734,4604.102452,4598.974247,4602.56399,4594.358862
107,0,4599.999888,4571.281939,4584.615273,4572.307581,4610.769118,4603.589631,4596.410144,4603.076811,4604.102452,4600.512708,4590.769119,4585.640914,4587.692196,4580.512709
108,0,4601.025529,4572.307581,4583.589632,4578.974247,4609.230657,4607.692195,4596.922965,4599.999888,4601.025529,4597.948606,4587.179375,4587.179375,4586.153734,4582.563991
109,0,4594.358862,4576.410145,4582.05117,4577.435786,4614.358862,4610.769118,4598.974247,4599.487067,4601.538349,4588.205016,4583.589632,4585.640914,4585.128093,4580.512709
110,0,4584.102452,4564.102452,4575.384504,4561.025529,4610.256298,4602.56399,4594.358862,4595.897324,4597.948606,4580.512709,4572.820401,4573.333222,4571.281939,4567.692196
111,0,4582.05117,4557.435786,4570.769119,4561.53835,4608.205016,4597.948606,4587.179375,4590.769119,4591.79476,4579.999888,4571.79476,4568.205016,4566.153734,4566.153734
112,0,4587.692196,4567.692196,4575.384504,4575.897324,4606.153734,4599.487067,4582.563991,4590.256298,4592.820401,4576.410145,4578.974247,4575.384504,4575.897324,4573.333222
113,0,4585.640914,4565.128093,4573.846042,4568.717837,4596.410144,4594.871683,4577.435786,4587.179375,4590.769119,4569.230657,4571.79476,4572.307581,4571.281939,4566.666555
114,0,4575.384504,4552.820401,4566.153734,4552.307581,4594.871683,4588.717837,4572.820401,4584.615273,4585.640914,4567.692196,4564.102452,4564.102452,4562.563991,4559.999888
115,0,4565.128093,4542.563991,4557.948606,4544.615273,4592.30758,4585.128093,4564.102452,4582.05117,4581.025529,4557.435786,4559.487068,4557.435786,4559.999888,4556.922965
116,0,4562.563991,4537.435786,4551.28194,4541.02553,4581.53835,4581.53835,4558.974247,4573.846042,4574.358863,4541.53835,4545.640914,4546.666555,4550.256299,4544.102453
117,0,4558.461427,4533.846043,4544.102453,4532.820402,4570.256298,4575.897324,4558.974247,4570.256298,4570.769119,4537.948607,4534.871684,4535.897325,4535.897325,4526.153735
118,0,4557.948606,4532.820402,4543.076812,4527.179376,4568.717837,4572.820401,4558.461427,4571.79476,4572.820401,4541.02553,4536.410145,4538.974248,4538.461427,4529.743479
119,0,4567.179375,4531.794761,4547.179376,4532.820402,4569.230657,4573.333222,4555.897324,4570.769119,4571.281939,4539.487068,4542.051171,4550.256299,4550.769119,4552.307581
120,0,4574.871683,4533.333222,4554.358863,4542.051171,4571.79476,4574.358863,4554.871683,4572.307581,4571.79476,4545.128094,4548.717837,4554.871683,4559.487068,4566.153734
121,0,4572.820401,4536.410145,4558.461427,4545.128094,4574.358863,4572.820401,4551.79476,4573.333222,4577.435786,4549.743478,4554.358863,4553.846042,4560.512709,4562.05117
122,0,4571.281939,4533.846043,4554.358863,4543.076812,4568.717837,4570.769119,4549.230658,4567.179375,4573.846042,4542.563991,4551.79476,4552.307581,4558.461427,4555.384504
123,0,4569.230657,4528.205017,4547.179376,4536.410145,4566.153734,4572.820401,4553.333222,4566.666555,4568.717837,4538.461427,4546.153735,4546.153735,4555.384504,4550.769119
124,0,4558.461427,4524.102453,4543.076812,4527.692197,4568.717837,4571.79476,4553.333222,4570.769119,4570.769119,4539.999889,4543.589632,4540.512709,4550.769119,4545.128094
125,0,4558.974247,4530.76912,4548.205017,4537.435786,4574.871683,4572.820401,4552.820401,4571.79476,4574.871683,4545.128094,4549.230658,4546.666555,4555.384504,4550.256299
126,0,4573.333222,4539.487068,4555.384504,4549.230658,4581.53835,4581.53835,4559.999888,4574.871683,4583.589632,4556.410145,4556.410145,4553.846042,4565.640914,4559.999888
127,0,4574.358863,4541.02553,4552.820401,4542.051171,4581.53835,4586.153734,4563.076811,4577.435786,4586.153734,4563.076811,4559.487068,4552.820401,4566.666555,4558.461427
128,0,4556.922965,4526.666556,4537.435786,4528.717838,4563.589632,4574.358863,4545.640914,4564.615273,4570.256298,4547.692196,4546.666555,4539.999889,4551.28194,4542.563991
0,0,4546.153735,4508.717838,4522.563992,4522.563992,4551.79476,4564.615273,4531.28194,4552.307581,4557.948606,4532.820402,4528.205017,4531.28194,4541.53835,4532.820402
1,0,4548.205017,4507.179377,4522.563992,4513.846043,4557.435786,4563.076811,4532.820402,4551.79476,4558.974247,4527.692197,4523.589633,4533.333222,4543.076812,4536.922966
2,0,4541.02553,4509.743479,4523.076812,4505.128095,4553.333222,4558.461427,4531.794761,4548.717837,4554.358863,4516.922966,4526.666556,4530.256299,4535.897325,4532.307581
3,0,4521.02553,4490.2563,4508.205018,4497.948608,4526.153735,4544.102453,4512.820402,4533.333222,4541.53835,4493.846044,4511.794761,4514.871684,4515.897325,4510.76912
4,0,4507.692197,4468.205019,4490.769121,4486.666557,4506.153736,4528.717838,4493.846044,4519.999889,4532.307581,4473.333224,4487.692198,4500.51271,4495.897326,4494.358864
5,0,4507.179377,4466.153737,4486.153736,4475.384506,4504.615274,4524.102453,4489.74348,4520.51271,4529.743479,4469.74348,4481.025531,4492.820403,4489.230659,4490.2563
6,0,4503.589633,4464.102455,4487.692198,4471.794762,4504.615274,4526.666556,4490.2563,4523.076812,4529.743479,4472.820403,4484.615275,4490.2563,4490.769121,4489.230659
7,0,4496.922967,4451.794763,4483.589634,4467.179378,4495.384505,4523.076812,4485.640916,4517.948607,4529.230658,4468.205019,4481.025531,4489.74348,4487.692198,4487.179377
8,0,4497.435787,4451.794763,4483.076813,4464.102455,4491.281941,4517.948607,4485.640916,4511.281941,4525.128094,4463.076814,4476.922967,4488.717839,4487.692198,4489.230659
9,0,4495.897326,4458.461429,4485.128095,4465.128096,4491.794762,4516.922966,4484.615275,4508.717838,4517.948607,4461.025532,4474.871685,4485.128095,4487.179377,4487.179377
10,0,4492.307582,4456.410147,4479.48707,4466.666557,4489.230659,4512.307582,4476.410147,4506.666556,4516.922966,4456.922968,4470.256301,4479.48707,4481.538352,4483.076813
11,0,4490.2563,4451.794763,4472.307583,4461.538352,4487.179377,4507.179377,4469.74348,4502.051172,4516.922966,4450.256301,4464.615275,4476.922967,4478.461429,4482.051172
12,0,4483.589634,4446.666558,4466.666557,4449.23066,4479.48707,4503.076813,4466.666557,4494.358864,4507.692197,4438.97425,4457.948609,4472.307583,4472.820403,4474.358865
13,0,4481.025531,4442.563994,4459.48707,4450.256301,4470.256301,4501.025531,4463.076814,4491.281941,4503.076813,4433.846045,4455.384506,4464.615275,4464.615275,4467.179378
14,0,4477.948608,4434.871686,4445.640917,4449.743481,4459.999891,4496.410146,4450.769122,4488.205018,4501.538351,4428.71784,4447.692199,4449.743481,4456.922968,4460.512711
15,0,4471.281942,4425.640917,4441.538353,4438.46143,4457.948609,4492.307582,4442.563994,4487.692198,4498.461428,4421.025533,4439.999891,4442.563994,4453.846045,4452.307583
16,0,4476.922967,4432.307584,4455.897327,4443.589635,4470.256301,4498.461428,4453.333224,4493.333223,4503.589633,4431.281943,4450.769122,4455.897327,4462.051173,4457.435788
17,0,4483.589634,4444.102455,4464.615275,4459.999891,4476.410147,4506.153736,4464.615275,4496.410146,4509.230659,4443.076814,4459.48707,4467.692198,4467.692198,4467.692198
18,0,4467.692198,4428.71784,4449.23066,4439.487071,4458.97425,4494.358864,4449.23066,4485.640916,4495.897326,4422.563994,4438.97425,4450.769122,4450.769122,4456.410147
19,0,4455.897327,4416.922969,4437.435789,4416.410148,4450.256301,4484.102454,4436.410148,4477.948608,4486.153736,4407.6922,4428.20502,4436.410148,4437.435789,4444.615276
20,0,4462.563993,4430.769122,4444.615276,4433.846045,4458.97425,4490.2563,4446.153737,4483.076813,4495.897326,4426.153738,4444.615276,4450.256301,4450.256301,4451.794763
21,0,4468.205019,4435.384507,4448.71784,4443.589635,4457.948609,4489.74348,4450.769122,4487.179377,4502.051172,4432.820404,4450.769122,4458.97425,4458.97425,4456.410147
22,0,4466.153737,4417.435789,4439.999891,4426.153738,4447.692199,4480.512711,4442.563994,4483.589634,4493.846044,4415.384507,4437.948609,4445.640917,4444.102455,4449.743481
23,0,4455.897327,4406.153738,4427.692199,4416.410148,4438.46143,4476.410147,4434.871686,4474.358865,4485.128095,4404.615277,4425.640917,4430.256302,4428.71784,4439.999891
24,0,4445.640917,4403.076815,4421.025533,4417.435789,4429.743481,4473.846044,4426.666558,4465.128096,4481.025531,4399.999892,4416.922969,4423.076815,4424.615276,4429.230661
25,0,4451.281942,4401.538354,4422.051174,4418.46143,4427.692199,4473.333224,4424.615276,4465.128096,4482.563993,4396.410149,4418.974251,4423.589635,4430.769122,4430.256302
26,0,4457.435788,4401.538354,4421.538353,4419.999892,4430.256302,4471.794762,4427.179379,4466.666557,4484.615275,4395.384508,4426.153738,4423.589635,4433.846045,4434.871686
27,0,4450.769122,4402.051174,4417.435789,4417.435789,4424.615276,4467.692198,4422.563994,4464.102455,4479.99989,4389.230662,4419.487071,4420.512712,4427.692199,4431.794763
28,0,4441.025532,4396.922969,4411.794764,4404.102456,4417.435789,4463.589634,4410.769123,4455.897327,4470.769121,4375.897329,4404.102456,4416.410148,4418.46143,4424.615276
29,0,4433.333225,4387.6922,4403.589636,4391.794764,4410.769123,4461.025532,4404.102456,4445.128096,4462.051173,4368.205021,4396.922969,4408.717841,4409.230661,4418.46143
30,0,4426.153738,4383.076816,4395.384508,4390.256303,4399.999892,4455.897327,4403.589636,4438.97425,4457.435788,4363.589637,4397.43579,4399.999892,4402.563995,4415.897328
31,0,4421.538353,4382.051175,4390.769123,4388.205021,4395.384508,4450.769122,4399.487072,4435.897327,4453.846045,4356.41015,4392.820405,4395.897328,4395.897328,4410.769123
32,0,4418.974251,4372.307585,4385.128098,4376.92297,4393.846046,4445.640917,4392.307585,4435.384507,4450.769122,4349.230663,4384.615277,4391.794764,4391.281944,4401.538354
33,0,4410.769123,4358.974252,4376.410149,4369.230662,4380.512713,4437.948609,4382.563995,4429.743481,4445.128096,4339.999894,4375.897329,4379.487072,4383.589636,4395.384508
34,0,4404.102456,4359.999893,4367.692201,4373.333226,4370.769124,4433.333225,4375.897329,4422.563994,4438.97425,4333.846048,4367.692201,4366.153739,4373.333226,4392.820405
35,0,4399.999892,4354.871688,4363.589637,4367.692201,4376.410149,4432.820404,4375.384508,4424.615276,4438.97425,4334.358868,4363.589637,4364.102457,4367.17938,4385.640918
36,0,4395.384508,4343.589637,4361.538355,4356.92297,4378.974252,4433.333225,4376.410149,4427.692199,4439.999891,4335.384509,4364.102457,4371.281944,4370.256303,4383.589636
37,0,4390.769123,4347.692201,4353.846047,4353.846047,4368.205021,4428.20502,4368.717842,4418.974251,4432.820404,4325.64092,4361.025534,4365.128098,4370.256303,4383.589636
38,0,4389.743482,4355.897329,4352.820406,4359.487073,4364.102457,4423.589635,4363.076816,4413.846046,4426.666558,4321.025535,4354.358868,4350.769124,4357.435791,4371.794765
39,0,4383.076816,4347.179381,4352.307586,4357.435791,4361.025534,4421.538353,4360.512714,4412.307584,4423.589635,4317.435792,4340.512714,4342.051176,4339.999894,4354.871688
40,0,4373.846047,4338.461432,4342.563996,4345.128099,4354.871688,4417.94861,4356.92297,4408.20502,4421.025533,4311.281946,4330.769125,4338.461432,4337.435791,4354.871688
41,0,4364.102457,4331.794766,4330.256304,4330.769125,4342.051176,4411.794764,4348.717842,4405.128097,4417.435789,4304.615279,4329.743484,4330.769125,4335.89733,4352.307586
42,0,4354.358868,4319.999894,4327.692202,4324.102458,4331.281945,4409.743482,4341.025535,4402.051174,4413.846046,4299.487074,4327.179381,4320.512715,4323.589638,4333.846048
43,0,4348.205022,4313.846048,4323.076817,4323.076817,4329.230663,4404.102456,4335.89733,4397.94861,4409.230661,4292.820408,4321.538356,4313.846048,4318.974253,4327.179381
44,0,4348.205022,4315.38451,4316.922971,4318.461433,4330.769125,4399.487072,4336.922971,4397.94861,4409.230661,4291.281946,4319.487074,4314.871689,4325.64092,4338.974253
45,0,4338.974253,4303.589638,4312.820407,4303.589638,4322.051176,4398.461431,4335.384509,4392.307585,4406.153738,4285.640921,4313.846048,4310.769125,4314.871689,4331.794766
46,0,4317.948612,4279.487075,4296.410151,4285.1281,4303.589638,4386.153739,4317.435792,4375.384508,4390.256303,4260.512716,4292.820408,4289.230664,4286.153741,4302.051177
47,0,4313.846048,4275.384511,4285.640921,4287.179382,4299.487074,4378.974252,4306.666561,4371.281944,4383.076816,4250.256306,4285.1281,4279.487075,4282.563998,4296.410151
48,0,4321.538356,4282.051177,4289.230664,4295.897331,4302.051177,4381.025534,4308.717843,4375.384508,4387.6922,4255.897332,4292.820408,4289.743485,4292.820408,4307.179382
49,0,4319.999894,4271.794767,4289.743485,4288.205023,4297.435792,4376.410149,4308.205023,4372.307585,4383.076816,4249.743486,4287.692203,4291.281946,4287.179382,4304.102459
50,0,4310.256305,4263.076819,4278.461434,4276.410152,4292.307587,4370.769124,4303.076818,4364.615278,4372.820406,4237.435794,4276.410152,4282.051177,4275.384511,4295.897331
51,0,4304.615279,4271.281947,4272.307588,4276.410152,4294.87169,4374.358867,4303.076818,4363.076816,4373.333226,4237.435794,4276.410152,4276.410152,4273.333229,4295.38451
52,0,4293.846049,4266.666562,4264.61528,4268.205024,4282.051177,4368.205021,4298.974254,4361.025534,4374.358867,4233.84605,4271.794767,4267.179383,4266.666562,4285.1281
53,0,4280.512716,4248.205024,4249.743486,4250.769127,4258.974255,4352.820406,4281.538357,4354.871688,4368.717842,4219.999897,4261.025537,4252.820409,4254.35887,4268.717844
54,0,4278.974254,4242.563999,4240.512717,4241.025537,4258.461434,4350.256304,4270.256306,4348.717842,4364.615278,4211.794769,4256.922973,4246.153742,4248.717845,4265.640921
55,0,4275.384511,4241.538358,4241.538358,4240.512717,4268.717844,4356.41015,4274.87169,4345.640919,4366.66656,4214.358871,4255.384511,4247.692204,4248.205024,4267.179383
56,0,4264.61528,4230.256307,4235.384512,4239.487076,4261.538357,4354.358868,4272.820408,4338.461432,4360.512714,4210.256307,4245.640922,4239.487076,4240.512717,4255.384511
57,0,4265.640921,4225.640922,4227.692204,4236.410153,4249.230665,4346.15374,4260.512716,4329.230663,4351.794765,4195.384513,4237.948614,4230.256307,4230.769127,4246.666563
58,0,4279.487075,4235.384512,4235.384512,4239.487076,4253.333229,4343.076817,4260.512716,4331.794766,4352.307586,4190.769128,4244.10246,4234.871691,4234.358871,4256.922973
59,0,4281.025536,4239.999896,4242.051178,4245.640922,4259.999896,4346.15374,4265.640921,4333.333227,4351.794765,4195.897333,4238.974255,4241.025537,4240.512717,4264.10246
60,0,4265.640921,4230.256307,4232.307589,4240.512717,4249.743486,4343.076817,4255.897332,4324.102458,4341.538355,4187.179385,4214.871692,4233.84605,4228.205025,4251.281947
61,0,4252.820409,4217.948615,4220.512717,4225.640922,4232.820409,4333.846048,4247.179383,4318.974253,4335.384509,4173.333231,4204.102461,4223.58964,4212.82041,4235.897332
62,0,4255.897332,4217.948615,4218.461435,4222.051179,4232.820409,4333.846048,4249.743486,4321.025535,4337.435791,4174.358872,4214.871692,4221.538358,4216.410153,4237.435794
63,0,4267.692203,4226.666563,4224.102461,4233.84605,4244.615281,4342.051176,4253.84605,4321.538356,4337.948612,4184.615282,4220.512717,4225.128102,4229.230666,4249.743486
64,0,4263.076819,4222.563999,4223.58964,4233.84605,4244.615281,4340.512714,4253.333229,4319.999894,4336.41015,4187.692205,4215.384512,4225.640922,4228.717845,4251.281947
65,0,4245.128101,4208.205025,4210.769128,4212.307589,4226.666563,4328.717843,4243.58964,4315.38451,4331.794766,4177.435795,4205.640923,4215.897333,4213.33323,4238.461435
66,0,4243.076819,4205.640923,4202.564,4202.051179,4214.871692,4323.076817,4233.84605,4310.769125,4329.230663,4164.615283,4199.999897,4209.743487,4205.640923,4232.820409
67,0,4247.179383,4201.538359,4205.128102,4208.717846,4216.410153,4321.025535,4229.230666,4308.205023,4328.717843,4162.05118,4197.435795,4210.256307,4207.692205,4234.358871
68,0,4235.897332,4186.153744,4196.410154,4198.974256,4210.256307,4311.794766,4222.051179,4303.076818,4322.051176,4161.025539,4184.615282,4203.589641,4197.948615,4225.640922
69,0,4221.538358,4176.410154,4182.564,4182.05118,4190.256308,4300.512715,4213.33323,4294.358869,4310.769125,4142.051181,4166.153744,4190.256308,4179.999898,4210.256307
70,0,4224.102461,4180.512718,4184.102462,4188.717846,4184.615282,4297.948613,4208.717846,4290.769126,4306.666561,4127.692207,4165.128103,4191.794769,4179.999898,4208.717846
71,0,4224.615281,4178.974257,4188.205026,4189.743487,4190.769128,4293.333228,4202.051179,4282.051177,4298.974254,4130.256309,4166.153744,4194.358872,4183.589641,4210.256307
72,0,4215.384512,4173.846052,4183.589641,4175.384513,4188.717846,4291.794767,4199.487077,4275.897331,4292.820408,4130.256309,4160.512719,4187.179385,4177.435795,4207.692205
73,0,4208.205025,4171.281949,4172.820411,4175.384513,4179.999898,4291.281946,4200.512718,4273.333229,4292.820408,4113.846053,4150.256309,4173.333231,4165.640924,4197.948615
74,0,4206.666564,4165.128103,4164.615283,4178.974257,4175.897334,4288.205023,4194.871692,4269.230665,4289.230664,4101.538361,4142.051181,4162.05118,4155.384514,4186.666564
75,0,4200.512718,4153.333232,4157.435796,4160.512719,4166.153744,4280.512716,4184.615282,4266.666562,4283.589639,4102.051182,4140.512719,4159.999898,4148.717847,4181.025539
76,0,4190.769128,4144.102463,4147.179386,4141.02554,4154.871693,4271.794767,4178.974257,4265.640921,4282.563998,4103.589643,4140.512719,4161.53836,4148.717847,4177.948616
77,0,4182.564,4132.307591,4135.897335,4134.871694,4145.128104,4264.61528,4168.717847,4256.410152,4277.435793,4097.435797,4132.820412,4151.79477,4144.615283,4168.205026
78,0,4174.358872,4121.02554,4130.76913,4133.846053,4129.743489,4256.922973,4157.948616,4246.153742,4267.179383,4086.153746,4119.999899,4135.384514,4134.358873,4162.05118
79,0,4169.743488,4121.02554,4130.256309,4131.28195,4119.999899,4249.743486,4152.820411,4241.538358,4261.025537,4083.076823,4114.358874,4131.28195,4128.205027,4161.53836
80,0,4168.205026,4122.564002,4126.153745,4123.076822,4120.51272,4247.179383,4145.128104,4235.897332,4258.974255,4081.538362,4112.820412,4132.307591,4127.179386,4157.948616
81,0,4168.205026,4121.538361,4125.128104,4119.487079,4122.564002,4248.205024,4141.02554,4229.743486,4253.84605,4069.74349,4111.281951,4128.205027,4124.102463,4156.922975
82,0,4174.358872,4126.153745,4128.205027,4126.153745,4125.128104,4247.179383,4144.102463,4230.256307,4249.743486,4062.564003,4109.743489,4129.230668,4123.589643,4162.564001
83,0,4193.333231,4140.512719,4140.512719,4145.128104,4144.102463,4258.461434,4158.974257,4243.076819,4263.589639,4087.692208,4127.692207,4145.128104,4146.666565,4177.948616
84,0,4210.769128,4156.922975,4159.487078,4159.999898,4163.076821,4277.948613,4181.025539,4263.589639,4284.61528,4126.153745,4156.410155,4168.205026,4179.487077,4196.922974
85,0,4209.230666,4165.640924,4169.230667,4157.948616,4162.564001,4281.538357,4189.743487,4267.692203,4285.1281,4137.435796,4162.05118,4178.461436,4185.640923,4201.025538
86,0,4192.82041,4153.846052,4156.410155,4145.640924,4145.640924,4266.666562,4172.30759,4254.871691,4268.205024,4117.435797,4138.461437,4162.564001,4166.666565,4183.589641
87,0,4180.512718,4133.846053,4137.948617,4141.53836,4126.153745,4253.84605,4154.358873,4244.615281,4259.999896,4098.461438,4123.589643,4145.640924,4154.871693,4170.769129
88,0,4180.512718,4129.230668,4134.871694,4142.051181,4119.487079,4250.769127,4153.846052,4239.487076,4256.410152,4097.948618,4126.153745,4145.640924,4154.358873,4170.256308
89,0,4187.179385,4135.384514,4137.948617,4139.999899,4123.589643,4252.307588,4154.871693,4235.384512,4248.717845,4096.410156,4126.153745,4145.128104,4151.79477,4170.256308
90,0,4200.512718,4147.179386,4142.051181,4143.589642,4125.128104,4248.205024,4149.743488,4233.84605,4245.128101,4086.666567,4122.564002,4141.02554,4152.820411,4179.999898
91,0,4225.128102,4165.640924,4151.28195,4154.358873,4124.102463,4241.538358,4147.692206,4235.384512,4250.256306,4087.179387,4130.76913,4151.28195,4165.128103,4206.153743
92,0,4243.58964,4172.30759,4148.205027,4153.846052,4113.333233,4229.743486,4140.512719,4225.640922,4243.076819,4081.538362,4128.717848,4150.769129,4160.512719,4219.487076
93,0,4245.128101,4163.589642,4126.153745,4136.922976,4087.692208,4208.205025,4116.410156,4201.025538,4215.897333,4049.743491,4101.025541,4123.589643,4136.410155,4217.948615
94,0,4254.35887,4157.948616,4108.717848,4116.410156,4063.589644,4187.179385,4090.25631,4181.025539,4198.461436,4024.102466,4083.076823,4107.692207,4129.743489,4233.33323
95,0,4281.025536,4162.564001,4107.692207,4101.025541,4055.897337,4180.512718,4081.025541,4176.922975,4198.461436,4018.46144,4086.666567,4114.358874,4138.461437,4262.563998
96,0,4305.64092,4168.717847,4105.640925,4096.922977,4048.71785,4174.871693,4076.922977,4170.769129,4189.230667,4004.102466,4079.48708,4114.871694,4130.76913,4275.384511
97,0,4316.410151,4176.922975,4104.615284,4110.25631,4036.922978,4169.743488,4072.820413,4161.025539,4176.922975,3988.717851,4067.179388,4110.25631,4120.51272,4282.051177
98,0,4317.948612,4183.076821,4108.205028,4122.051181,4028.20503,4170.769129,4072.307593,4165.128103,4178.461436,3992.820415,4070.256311,4111.281951,4124.102463,4289.743485
99,0,4318.974253,4177.948616,4108.205028,4119.487079,4027.179389,4166.666565,4073.333234,4167.692206,4180.512718,3999.487082,4076.922977,4110.76913,4126.153745,4289.743485
100,0,4306.153741,4159.999898,4103.589643,4106.153746,4030.256312,4155.897334,4065.128106,4158.461437,4170.256308,3988.717851,4070.769131,4107.179387,4116.922976,4279.487075
101,0,4282.563998,4147.179386,4097.948618,4089.74349,4026.666568,4148.205027,4052.307593,4150.769129,4164.615283,3976.410159,4058.461439,4102.564002,4104.615284,4258.974255
102,0,4265.640921,4142.051181,4087.179387,4077.948618,4012.820415,4139.999899,4040.512722,4145.128104,4164.102462,3970.769134,4048.71785,4091.794772,4095.384515,4242.051178
103,0,4249.743486,4127.692207,4068.205029,4068.205029,3998.974261,4128.717848,4032.307594,4134.358873,4156.410155,3958.974262,4039.487081,4073.333234,4088.205028,4230.769127
104,0,4229.743486,4106.666566,4056.922978,4058.97426,3999.999902,4127.179386,4035.384517,4131.28195,4149.743488,3951.281955,4034.358876,4061.538362,4078.974259,4210.769128
105,0,4206.153743,4089.74349,4049.743491,4046.666568,3995.897338,4126.153745,4031.794773,4130.76913,4144.615283,3947.692211,4025.640927,4052.820414,4064.102465,4182.05118
106,0,4178.461436,4066.666567,4029.743491,4025.128107,3973.846057,4116.922976,4013.333235,4119.487079,4133.333232,3933.846058,4010.769133,4037.948619,4044.102465,4155.897334
107,0,4149.743488,4037.435799,4002.564005,4004.102466,3953.333237,4102.564002,3998.461441,4104.102464,4121.02554,3908.205033,3986.666569,4016.410158,4018.974261,4128.205027
108,0,4128.205027,4019.999902,3989.743492,3996.410159,3954.358878,4096.922977,3998.461441,4099.487079,4118.461438,3897.948623,3970.256313,4001.538364,4002.564005,4101.538361
109,0,4096.922977,4001.025543,3975.897339,3967.692211,3943.589647,4090.25631,3989.743492,4092.820413,4113.846053,3889.230674,3957.948621,3982.564005,3986.666569,4074.358875
110,0,4073.333234,3978.974262,3959.487083,3937.948622,3919.487084,4077.435798,3974.871698,4084.615285,4103.589643,3873.846059,3947.179391,3966.153749,3973.333236,4054.358875
111,0,4067.692208,3961.538365,3951.794775,3939.999904,3912.820417,4070.256311,3966.153749,4079.9999,4094.358874,3863.076829,3936.922981,3959.487083,3964.102467,4038.97426
112,0,4057.435798,3957.435801,3951.281955,3946.15375,3917.435802,4073.846054,3965.640929,4081.025541,4093.846054,3860.512726,3929.743494,3958.461442,3954.871698,4024.102466
113,0,4041.025542,3956.41016,3951.281955,3934.358878,3912.307597,4072.820413,3967.17939,4082.051182,4095.897336,3862.051188,3927.692212,3955.384519,3950.769134,4019.487081
114,0,4036.410158,3950.769134,3950.256314,3927.179391,3910.256315,4066.666567,3962.564006,4078.974259,4092.307592,3869.230675,3928.205032,3954.358878,3954.358878,4022.051184
115,0,4030.769132,3938.461442,3942.051186,3928.717853,3911.794776,4062.564003,3952.820416,4071.794772,4088.717849,3866.153752,3926.15375,3952.307596,3954.358878,4012.820415
116,0,4029.743491,3938.974263,3944.102468,3938.974263,3914.871699,4065.640926,3956.41016,4076.410157,4093.333233,3862.564008,3929.743494,3955.384519,3959.487083,4013.333235
117,0,4039.487081,3950.256314,3957.435801,3948.717852,3922.051186,4073.846054,3968.717852,4084.615285,4097.435797,3876.410162,3934.871699,3966.153749,3968.717852,4025.640927
118,0,4043.076824,3950.256314,3958.461442,3940.512724,3922.564007,4074.871695,3969.743493,4079.48708,4094.871695,3888.205033,3934.358878,3973.846057,3968.205031,4022.564004
119,0,4035.897337,3945.128109,3954.358878,3936.922981,3912.820417,4066.153747,3961.025544,4072.307593,4093.333233,3881.538367,3931.281955,3972.307595,3962.564006,4009.743492
120,0,4028.20503,3945.640929,3954.871698,3940.512724,3916.922981,4061.538362,3959.999903,4075.897336,4094.358874,3877.948623,3929.743494,3965.128108,3962.564006,4007.69221
121,0,4029.230671,3948.205032,3954.358878,3933.333237,3930.769135,4063.076824,3971.794775,4084.102464,4098.974259,3889.230674,3933.333237,3965.640929,3968.205031,4013.846056
122,0,4027.179389,3945.128109,3954.358878,3932.307596,3925.64093,4065.640926,3978.974262,4086.666567,4098.461438,3895.897341,3935.89734,3974.358877,3971.281954,4015.384517
123,0,4009.230671,3937.435801,3951.794775,3942.564006,3916.922981,4063.589644,3972.307595,4082.051182,4088.717849,3889.230674,3926.666571,3968.717852,3963.076826,4001.025543
124,0,3988.205031,3925.64093,3934.871699,3933.846058,3911.281956,4052.307593,3959.999903,4069.23067,4078.974259,3871.281957,3908.717853,3943.589647,3946.15375,3976.92298
125,0,3988.205031,3918.461443,3927.692212,3915.89734,3905.64093,4046.666568,3956.92298,4064.615285,4075.384516,3859.999906,3903.076828,3931.794776,3939.487083,3965.128108
126,0,3987.17939,3914.871699,3929.230673,3910.769135,3905.64093,4050.256311,3961.025544,4069.74349,4075.384516,3863.589649,3905.64093,3934.358878,3937.435801,3961.025544
127,0,3970.769134,3906.666571,3920.512725,3909.230674,3909.230674,4049.23067,3961.025544,4070.256311,4079.9999,3869.743495,3902.051187,3930.769135,3935.384519,3955.384519
128,0,3960.512724,3901.025546,3913.333238,3903.589648,3910.256315,4044.102465,3954.871698,4065.640926,4086.666567,3874.35888,3899.999905,3926.666571,3937.435801,3950.769134
0,0,3962.564006,3909.230674,3915.38452,3908.205033,3911.794776,4044.102465,3953.846057,4067.179388,4090.25631,3881.538367,3906.153751,3929.743494,3937.948622,3948.717852
1,0,3958.974262,3911.281956,3913.846058,3916.922981,3907.692212,4043.076824,3955.384519,4069.23067,4086.153746,3874.8717,3900.512725,3926.15375,3929.230673,3943.076827
2,0,3955.897339,3905.64093,3914.871699,3910.769135,3908.205033,4046.666568,3960.512724,4068.717849,4085.128105,3870.256316,3891.794777,3926.15375,3929.743494,3941.025545
3,0,3948.205032,3896.922982,3916.410161,3892.307597,3911.794776,4045.640927,3961.538365,4063.589644,4081.025541,3873.846059,3890.769136,3927.692212,3925.64093,3934.358878
4,0,3936.922981,3885.640931,3910.256315,3892.820418,3902.564007,4031.794773,3952.307596,4054.871696,4067.692208,3859.999906,3888.205033,3919.487084,3911.281956,3918.461443
5,0,3940.512724,3887.692213,3910.256315,3905.12811,3893.333238,4027.179389,3947.179391,4051.281952,4064.102465,3848.717855,3887.179392,3914.871699,3911.281956,3917.948622
6,0,3951.281955,3906.153751,3924.102468,3907.692212,3903.589648,4038.46144,3955.897339,4057.948619,4071.794772,3864.61529,3896.922982,3927.179391,3930.256314,3934.358878
7,0,3951.794775,3911.281956,3931.281955,3911.281956,3913.333238,4041.538363,3959.487083,4059.48708,4070.769131,3869.743495,3901.025546,3934.358878,3935.384519,3937.948622
8,0,3958.461442,3910.769135,3934.871699,3928.717853,3921.025545,4043.076824,3962.564006,4057.435798,4067.692208,3865.128111,3904.102469,3937.435801,3934.358878,3935.89734
9,0,3971.281954,3926.15375,3948.205032,3941.538365,3932.307596,4052.820414,3972.307595,4066.153747,4075.897336,3884.61529,3915.38452,3948.205032,3944.102468,3945.128109
10,0,3965.128108,3926.666571,3944.615288,3932.820417,3922.564007,4045.128106,3964.102467,4065.640926,4075.384516,3888.717854,3911.794776,3944.102468,3941.538365,3941.538365
11,0,3954.358878,3911.281956,3929.230673,3925.64093,3907.692212,4028.71785,3949.743493,4053.333234,4066.153747,3868.205034,3899.999905,3931.281955,3929.230673,3928.205032
12,0,3959.487083,3913.333238,3931.281955,3933.846058,3917.435802,4032.820414,3954.358878,4054.358875,4066.153747,3866.666572,3905.64093,3932.820417,3930.769135,3927.692212
13,0,3963.589647,3926.15375,3942.564006,3939.487083,3932.307596,4043.076824,3964.615288,4062.564003,4071.794772,3883.589649,3913.333238,3938.974263,3939.999904,3932.820417
14,0,3947.179391,3915.38452,3935.89734,3926.666571,3923.589648,4040.512722,3962.564006,4059.48708,4073.846054,3885.12811,3897.948623,3932.307596,3924.102468,3916.410161
15,0,3929.743494,3895.38452,3924.102468,3912.820417,3911.794776,4038.97426,3957.948621,4055.897337,4073.846054,3879.487085,3888.205033,3925.128109,3907.692212,3900.512725
16,0,3928.205032,3889.743495,3920.512725,3913.333238,3913.846058,4042.051183,3955.897339,4055.384516,4073.846054,3881.025546,3902.051187,3927.692212,3924.102468,3913.846058
17,0,3933.846058,3890.256315,3919.487084,3916.410161,3917.435802,4043.076824,3958.461442,4057.435798,4077.435798,3889.743495,3917.435802,3932.820417,3950.256314,3934.358878
18,0,3921.025545,3871.794777,3911.281956,3898.974264,3906.666571,4039.487081,3957.435801,4056.410157,4075.897336,3890.256315,3913.846058,3929.743494,3950.256314,3926.666571
19,0,3908.717853,3857.948624,3911.281956,3891.794777,3903.589648,4041.025542,3956.92298,4057.435798,4075.384516,3889.743495,3913.333238,3929.230673,3947.179391,3919.999904
20,0,3918.974263,3868.205034,3922.051186,3905.64093,3915.38452,4047.692209,3963.076826,4063.589644,4082.051182,3909.230674,3928.205032,3939.487083,3964.102467,3930.256314
21,0,3929.743494,3878.461444,3928.717853,3908.717853,3922.564007,4050.769132,3967.692211,4067.179388,4085.128105,3926.666571,3936.922981,3946.66657,3972.307595,3931.281955
22,0,3917.435802,3864.61529,3927.179391,3899.999905,3919.999904,4046.666568,3966.66657,4058.461439,4077.435798,3913.333238,3929.743494,3940.512724,3960.512724,3919.487084
23,0,3909.743494,3858.974265,3929.743494,3909.230674,3922.051186,4046.666568,3974.358877,4056.922978,4074.871695,3906.153751,3927.179391,3938.974263,3960.512724,3918.974263
24,0,3917.948622,3873.846059,3931.281955,3922.051186,3921.538366,4048.205029,3977.948621,4064.102465,4077.948618,3916.922981,3932.307596,3943.076827,3964.102467,3918.461443
25,0,3920.512725,3878.461444,3925.128109,3916.922981,3913.846058,4045.640927,3969.743493,4059.999901,4073.846054,3912.820417,3925.64093,3938.461442,3954.871698,3909.743494
26,0,3918.974263,3872.820418,3927.692212,3907.692212,3920.512725,4048.205029,3972.820416,4056.922978,4070.769131,3902.564007,3919.487084,3936.41016,3949.230673,3910.256315
27,0,3918.461443,3872.307598,3932.307596,3906.153751,3933.846058,4050.769132,3981.025544,4059.999901,4073.846054,3905.12811,3925.64093,3941.538365,3951.794775,3914.871699
28,0,3911.794776,3874.35888,3927.692212,3911.281956,3930.256314,4045.128106,3975.384518,4062.051183,4073.846054,3906.153751,3930.769135,3941.025545,3949.743493,3908.205033
29,0,3914.358879,3882.051187,3929.230673,3918.974263,3927.179391,4046.666568,3974.871698,4062.051183,4071.281952,3912.307597,3934.358878,3943.076827,3955.384519,3908.205033
30,0,3924.615289,3890.769136,3937.948622,3920.512725,3942.564006,4053.846055,3985.128108,4061.538362,4074.871695,3927.179391,3936.41016,3951.281955,3963.589647,3919.999904
31,0,3918.461443,3884.61529,3934.871699,3909.743494,3952.307596,4052.820414,3983.589646,4060.512721,4078.974259,3927.692212,3932.820417,3949.230673,3958.461442,3919.999904
32,0,3905.64093,3874.35888,3925.128109,3905.64093,3937.435801,4046.666568,3971.794775,4057.435798,4072.820413,3915.89734,3927.692212,3938.461442,3947.179391,3905.12811
33,0,3905.12811,3873.333239,3921.025545,3918.461443,3923.076827,4039.999901,3964.102467,4050.769132,4062.051183,3906.153751,3922.564007,3930.769135,3940.512724,3892.307597
34,0,3905.64093,3871.281957,3921.025545,3923.076827,3921.025545,4035.897337,3962.564006,4043.589645,4059.999901,3904.615289,3915.89734,3930.256314,3936.41016,3894.8717
35,0,3892.820418,3858.461444,3912.820417,3905.64093,3911.794776,4030.256312,3957.948621,4035.384517,4053.846055,3895.38452,3905.12811,3922.051186,3925.128109,3894.358879
36,0,3888.205033,3857.948624,3909.230674,3898.461443,3909.230674,4025.640927,3955.897339,4031.281953,4046.666568,3881.025546,3902.051187,3912.307597,3918.974263,3887.692213
37,0,3897.948623,3877.948623,3916.922981,3910.256315,3924.102468,4028.20503,3959.999903,4036.410158,4053.333234,3878.974264,3910.256315,3914.871699,3928.205032,3892.820418
38,0,3912.820417,3898.461443,3931.794776,3928.717853,3942.564006,4039.999901,3973.333236,4049.23067,4065.128106,3900.512725,3927.179391,3934.871699,3945.640929,3913.846058
39,0,3929.230673,3908.717853,3946.15375,3947.692211,3956.92298,4052.307593,3991.281954,4059.999901,4071.281952,3927.179391,3943.589647,3951.281955,3959.999903,3928.717853
40,0,3959.487083,3939.487083,3975.384518,3977.948621,3987.17939,4077.948618,4017.94862,4078.461439,4091.281951,3962.564006,3974.358877,3976.410159,3991.794774,3950.256314
41,0,3979.487082,3965.640929,3996.410159,3995.384518,4007.179389,4096.922977,4032.820414,4095.897336,4113.333233,3992.307595,4003.076825,4004.102466,4019.999902,3975.384518
42,0,3965.640929,3948.205032,3982.564005,3979.999903,3992.820415,4086.666567,4022.051184,4091.281951,4108.205028,3984.615287,3997.4358,3996.922979,4007.69221,3968.717852
43,0,3943.076827,3924.102468,3961.025544,3962.051185,3967.692211,4069.23067,4004.615287,4075.384516,4087.692208,3958.461442,3974.871698,3971.281954,3980.512723,3947.179391
44,0,3936.922981,3923.589648,3956.41016,3966.153749,3955.384519,4061.538362,3993.846056,4065.128106,4077.948618,3947.179391,3966.153749,3966.66657,3977.4358,3945.128109
45,0,3939.487083,3924.615289,3957.435801,3966.66657,3956.92298,4055.384516,3986.666569,4061.538362,4078.461439,3946.15375,3966.153749,3971.794775,3983.076826,3953.333237
46,0,3939.999904,3919.999904,3957.948621,3958.974262,3956.92298,4053.333234,3988.205031,4062.051183,4078.461439,3948.205032,3963.589647,3968.205031,3979.487082,3949.743493
47,0,3936.922981,3917.435802,3954.871698,3956.41016,3949.743493,4053.846055,3989.743492,4059.48708,4073.333234,3944.102468,3958.461442,3961.025544,3971.794775,3941.538365
48,0,3931.281955,3912.820417,3949.230673,3950.769134,3951.281955,4048.71785,3980.512723,4053.333234,4067.179388,3929.743494,3952.307596,3957.435801,3967.17939,3940.512724
49,0,3927.692212,3908.717853,3951.794775,3940.512724,3962.051185,4047.692209,3979.487082,4054.871696,4067.692208,3926.666571,3955.384519,3958.461442,3969.230672,3943.589647
50,0,3923.589648,3900.512725,3947.692211,3933.846058,3953.846057,4042.051183,3982.051185,4055.384516,4069.23067,3932.307596,3955.897339,3954.358878,3966.153749,3936.922981
51,0,3912.307597,3890.256315,3929.230673,3934.871699,3930.769135,4029.230671,3973.333236,4045.640927,4062.564003,3926.15375,3941.538365,3939.999904,3951.281955,3921.538366
52,0,3907.692212,3894.8717,3922.051186,3934.358878,3927.179391,4030.769132,3970.256313,4041.025542,4057.948619,3922.564007,3933.846058,3933.333237,3945.640929,3914.358879
53,0,3913.846058,3902.564007,3931.794776,3932.820417,3937.435801,4039.487081,3976.92298,4048.71785,4063.076824,3932.307596,3943.589647,3943.589647,3958.461442,3924.102468
54,0,3909.230674,3893.846059,3928.717853,3927.692212,3932.820417,4030.256312,3966.153749,4045.640927,4059.999901,3928.205032,3943.076827,3942.051186,3956.92298,3924.615289
55,0,3899.999905,3887.179392,3917.435802,3920.512725,3924.102468,4022.051184,3955.384519,4037.435799,4051.281952,3920.512725,3935.89734,3929.743494,3944.615288,3914.871699
56,0,3895.38452,3879.487085,3911.281956,3909.230674,3913.333238,4020.512722,3952.820416,4032.820414,4048.205029,3921.025545,3929.743494,3921.538366,3938.974263,3906.153751
57,0,3895.38452,3873.846059,3908.205033,3908.717853,3909.230674,4015.897338,3948.205032,4026.666568,4046.153747,3911.794776,3923.589648,3921.538366,3934.358878,3903.076828
58,0,3896.922982,3879.999905,3905.64093,3918.461443,3920.512725,4015.384517,3944.615288,4023.076825,4039.487081,3893.333238,3920.512725,3921.538366,3925.128109,3904.102469
59,0,3904.102469,3893.333238,3912.820417,3925.128109,3929.230673,4018.974261,3948.205032,4026.153748,4037.948619,3889.230674,3921.538366,3924.102468,3923.589648,3908.205033
60,0,3910.769135,3899.999905,3921.025545,3925.64093,3922.564007,4013.846056,3945.640929,4025.640927,4038.97426,3896.410161,3922.051186,3928.205032,3928.717853,3911.281956
61,0,3917.435802,3903.589648,3923.589648,3929.743494,3922.564007,4009.743492,3946.15375,4023.589645,4039.487081,3905.64093,3924.615289,3934.871699,3934.871699,3919.999904
62,0,3920.512725,3907.179392,3932.307596,3940.512724,3930.769135,4015.384517,3957.948621,4027.179389,4042.051183,3916.922981,3928.205032,3944.102468,3941.538365,3928.717853
63,0,3918.974263,3904.102469,3941.025545,3946.15375,3929.230673,4019.999902,3960.512724,4031.794773,4042.564004,3923.076827,3929.743494,3945.128109,3946.15375,3923.589648
64,0,3923.589648,3899.487084,3938.974263,3939.999904,3932.820417,4019.999902,3957.435801,4034.358876,4043.076824,3927.692212,3935.89734,3945.128109,3949.743493,3921.025545
65,0,3935.384519,3908.205033,3939.999904,3935.384519,3943.589647,4022.564004,3963.076826,4039.999901,4048.71785,3937.948622,3942.564006,3954.358878,3956.92298,3933.333237
66,0,3939.999904,3922.564007,3947.179391,3942.564006,3942.051186,4029.230671,3970.769134,4047.692209,4055.897337,3946.66657,3947.692211,3959.999903,3962.564006,3938.974263
67,0,3934.358878,3922.564007,3948.205032,3952.820416,3942.051186,4033.333235,3974.358877,4050.256311,4057.435798,3949.230673,3953.333237,3958.974262,3964.102467,3936.922981
68,0,3939.487083,3924.615289,3953.333237,3959.487083,3961.538365,4039.999901,3985.128108,4052.820414,4061.538362,3958.461442,3960.512724,3966.66657,3973.333236,3949.743493
69,0,3954.358878,3936.922981,3964.615288,3962.564006,3976.410159,4047.179388,3998.461441,4059.999901,4064.615285,3967.692211,3969.230672,3977.948621,3983.589646,3961.538365
70,0,3958.461442,3944.615288,3971.794775,3970.769134,3973.846057,4047.179388,3997.94862,4061.538362,4062.564003,3965.640929,3975.384518,3981.538364,3984.615287,3958.461442
71,0,3955.384519,3941.025545,3970.256313,3979.487082,3964.615288,4038.46144,3984.102467,4052.820414,4058.461439,3958.461442,3968.205031,3978.461441,3976.92298,3954.871698
