title:A                                                                               , recorded:02.07.20 12.19.30, sampling:128, subject:S                                                                               , labels:COUNTER INTERPOLATED AF3 F7 F3 FC5 T7 P7 O1 O2 P8 T8 FC6 F4 F8 AF4,, units:emotiv,,,,,,,,,
54,0,4255.897332,4242.563999,3890.256315,4281.025536,4182.05118,4227.179384,4176.922975,4189.743487,4182.564,4170.769129,4361.538355,3515.384529,4263.076819,4283.076818
55,0,4243.58964,4230.769127,3882.051187,4270.256306,4147.692206,4242.563999,4172.30759,4171.79477,4175.897334,4193.333231,4301.025536,3491.794786,4199.999897,4257.948614
56,0,4165.640924,4152.820411,3806.666574,4205.640923,4139.999899,4142.564001,4128.205027,4127.179386,4135.897335,4251.281947,4228.205025,3409.743506,4104.615284,4174.871693
57,0,4213.33323,4195.897333,3854.35888,4246.153742,4235.384512,4170.256308,4172.30759,4151.79477,4181.538359,4303.076818,4325.64092,3485.12812,4202.051179,4233.84605
58,0,4260.512716,4245.128101,3894.358879,4290.256305,4270.256306,4229.230666,4198.974256,4158.461437,4199.999897,4233.33323,4344.102458,3534.871708,4230.769127,4273.846049
59,0,4267.692203,4255.384511,3897.435802,4303.076818,4229.230666,4227.692204,4201.538359,4150.769129,4202.564,4264.10246,4325.64092,3537.948631,4210.256307,4273.846049
60,0,4290.256305,4265.640921,3927.179391,4320.512715,4241.025537,4242.051178,4232.820409,4160.512719,4229.743486,4295.897331,4368.205021,3579.487092,4242.051178,4304.615279
61,0,4290.769126,4269.743485,3931.281955,4313.333228,4269.230665,4269.230665,4243.58964,4158.461437,4245.128101,4293.333228,4377.948611,3594.358886,4257.435793,4310.256305
62,0,4256.922973,4258.974255,3892.820418,4287.179382,4289.230664,4249.230665,4215.897333,4136.922976,4242.563999,4347.692201,4356.41015,3563.589656,4231.281948,4281.025536
63,0,4286.153741,4286.666562,3923.076827,4326.666561,4343.589637,4256.922973,4237.948614,4143.589642,4255.384511,4400.512713,4398.461431,3594.358886,4270.769126,4312.820407
64,0,4341.025535,4324.615279,3985.640928,4384.615277,4349.743483,4284.102459,4279.999895,4167.692206,4277.435793,4449.743481,4453.846045,3654.871705,4335.89733,4363.589637
65,0,4367.692201,4351.281945,4016.922979,4404.102456,4327.179381,4307.179382,4306.666561,4183.076821,4296.922972,4430.769122,4462.563993,3687.179397,4348.717842,4387.17938
66,0,4374.358867,4362.051175,4026.153748,4405.640918,4378.461431,4325.128099,4318.461433,4181.025539,4309.230664,4349.743483,4443.589635,3699.99991,4335.89733,4397.43579
67,0,4328.205022,4319.999894,3977.4358,4375.384508,4356.41015,4271.794767,4276.922972,4140.512719,4273.846049,4423.589635,4400.512713,3651.281962,4288.717844,4350.769124
68,0,4287.179382,4289.230664,3930.256314,4337.435791,4276.410152,4209.743487,4236.922973,4106.153746,4243.58964,4489.74348,4379.487072,3607.179399,4264.61528,4307.179382
69,0,4351.281945,4344.615278,3987.69221,4375.897329,4316.922971,4275.897331,4289.743485,4137.435796,4285.640921,4319.999894,4424.615276,3674.358885,4330.256304,4375.384508
70,0,4422.563994,4401.025533,4061.025542,4441.538353,4402.563995,4366.66656,4349.230663,4170.769129,4335.89733,4341.025535,4469.23066,3750.769139,4400.512713,4448.205019
71,0,4348.205022,4331.794766,3990.256313,4393.333226,4396.410149,4292.307587,4288.717844,4111.281951,4287.179382,4518.461428,4405.128097,3673.846064,4314.871689,4368.205021
72,0,4291.794767,4291.794767,3933.333237,4349.230663,4332.307586,4224.615281,4246.666563,4064.615285,4245.128101,4456.410147,4369.230662,3619.999911,4271.794767,4313.846048
73,0,4356.92297,4364.102457,3994.358877,4386.666559,4265.128101,4303.589638,4297.948613,4099.9999,4287.179382,4354.358868,4422.563994,3693.846064,4348.205022,4381.538354
74,0,4365.128098,4357.948611,4005.128107,4377.948611,4270.769126,4336.922971,4301.538356,4101.025541,4294.358869,4384.615277,4411.281943,3697.948628,4348.205022,4384.615277
75,0,4268.205024,4241.538358,3913.333238,4294.87169,4315.38451,4249.230665,4229.743486,4035.897337,4241.538358,4366.66656,4324.615279,3598.974271,4246.153742,4286.153741
38,0,4489.74348,4485.640916,4483.589634,4487.692198,4503.076813,4465.128096,4481.538352,4404.615277,4453.333224,4501.025531,4503.589633,4473.333224,4520.51271,4491.281941
39,0,4476.410147,4462.563993,4472.307583,4481.025531,4462.563993,4460.512711,4469.74348,4398.461431,4460.512711,4483.076813,4485.128095,4455.897327,4508.205018,4475.384506
40,0,4418.974251,4411.281943,4419.999892,4433.333225,4411.794764,4423.589635,4421.538353,4382.051175,4422.563994,4429.230661,4433.333225,4403.589636,4452.307583,4418.974251
41,0,4391.281944,4384.615277,4392.307585,4399.487072,4417.435789,4412.820405,4400.512713,4390.769123,4405.640918,4404.102456,4414.358866,4386.666559,4428.71784,4404.102456
42,0,4372.820406,4350.256304,4364.615278,4363.589637,4391.794764,4395.897328,4381.025534,4387.6922,4403.589636,4387.17938,4395.897328,4367.17938,4412.307584,4389.230662
43,0,4336.922971,4314.358869,4322.051176,4322.051176,4333.846048,4369.230662,4354.358868,4369.743483,4374.871688,4335.89733,4357.435791,4319.487074,4371.281944,4343.589637
44,0,4299.487074,4284.61528,4289.743485,4290.769126,4297.948613,4348.717842,4324.615279,4358.461432,4339.487073,4294.358869,4326.666561,4284.102459,4325.64092,4311.281946
45,0,4284.102459,4261.538357,4273.333229,4272.820408,4281.538357,4342.563996,4310.769125,4354.358868,4328.717843,4275.384511,4303.076818,4268.717844,4300.512715,4302.051177
46,0,4286.153741,4262.051178,4275.897331,4274.87169,4282.051177,4338.974253,4313.333228,4357.435791,4334.871689,4276.922972,4304.102459,4268.717844,4301.025536,4293.333228
47,0,4265.128101,4246.153742,4261.538357,4263.076819,4275.384511,4313.333228,4296.410151,4339.487073,4318.461433,4252.307588,4292.307587,4248.717845,4287.692203,4265.128101
48,0,4281.025536,4262.051178,4282.051177,4286.153741,4299.999895,4326.15374,4313.846048,4347.179381,4338.461432,4283.589639,4313.333228,4269.743485,4312.307587,4289.743485
49,0,4301.025536,4283.076818,4298.461433,4300.512715,4312.820407,4349.230663,4330.769125,4352.307586,4347.179381,4312.820407,4329.230663,4290.769126,4327.692202,4312.820407
50,0,4363.589637,4350.256304,4354.871688,4353.333227,4366.66656,4394.358867,4377.948611,4376.410149,4377.948611,4362.051175,4375.384508,4340.512714,4377.43579,4363.076816
51,0,4404.102456,4387.6922,4385.640918,4385.128098,4399.487072,4409.230661,4404.102456,4384.615277,4393.846046,4384.102457,4389.230662,4361.538355,4403.589636,4390.769123
52,0,4453.846045,4441.538353,4434.358866,4443.589635,4448.71784,4439.999891,4445.128096,4402.563995,4421.538353,4432.307584,4431.281943,4405.640918,4443.589635,4439.487071
53,0,4471.281942,4469.23066,4454.358865,4476.410147,4469.23066,4433.846045,4445.128096,4391.281944,4415.384507,4452.307583,4449.743481,4422.563994,4451.281942,4455.384506
54,0,4502.051172,4501.025531,4479.99989,4501.025531,4488.717839,4433.846045,4452.307583,4395.897328,4425.640917,4467.692198,4466.666557,4444.615276,4470.256301,4474.358865
55,0,4506.153736,4498.461428,4477.435788,4492.820403,4483.589634,4425.128097,4448.71784,4374.871688,4417.435789,4459.48707,4454.871686,4444.102455,4464.102455,4470.769121
56,0,4519.487069,4514.871684,4490.2563,4506.666556,4507.179377,4448.205019,4471.281942,4386.666559,4436.922968,4484.102454,4469.74348,4462.051173,4479.48707,4486.666557
57,0,4507.179377,4503.589633,4482.051172,4489.74348,4495.897326,4457.948609,4469.23066,4406.153738,4451.794763,4488.717839,4474.358865,4457.948609,4478.974249,4481.538352
58,0,4495.897326,4479.48707,4470.769121,4467.179378,4470.256301,4459.48707,4456.922968,4416.922969,4448.71784,4453.846045,4459.48707,4440.512712,4458.461429,4469.23066
59,0,4444.615276,4425.128097,4420.512712,4424.615276,4412.820405,4411.794764,4410.769123,4390.256303,4400.512713,4375.384508,4390.256303,4379.487072,4389.743482,4414.871687
60,0,4393.846046,4386.666559,4372.307585,4388.717841,4365.128098,4372.307585,4372.820406,4367.17938,4363.589637,4337.948612,4345.128099,4329.743484,4345.640919,4368.205021
61,0,4350.769124,4338.461432,4330.769125,4336.922971,4312.820407,4352.307586,4337.948612,4355.897329,4342.563996,4310.256305,4329.743484,4301.538356,4316.410151,4335.89733
62,0,4321.538356,4290.769126,4297.948613,4289.230664,4274.35887,4340.512714,4319.487074,4354.358868,4329.230663,4266.666562,4301.538356,4276.410152,4282.563998,4307.179382
63,0,4297.948613,4270.256306,4279.999895,4271.281947,4272.307588,4318.974253,4308.205023,4352.307586,4322.563997,4249.230665,4281.025536,4256.922973,4259.487075,4283.076818
64,0,4271.794767,4249.230665,4257.435793,4254.35887,4257.948614,4300.512715,4289.743485,4338.461432,4305.1281,4224.102461,4262.563998,4235.384512,4239.999896,4258.461434
65,0,4287.692203,4261.025537,4269.743485,4265.640921,4256.410152,4317.435792,4303.076818,4350.256304,4316.922971,4235.897332,4273.333229,4245.640922,4252.820409,4268.205024
66,0,4305.64092,4283.076818,4282.563998,4273.846049,4262.051178,4326.15374,4314.358869,4351.794765,4328.717843,4259.999896,4278.974254,4250.769127,4261.538357,4276.922972
67,0,4333.846048,4321.025535,4316.410151,4313.333228,4306.666561,4340.512714,4340.512714,4353.846047,4345.640919,4295.897331,4306.153741,4277.435793,4294.87169,4308.205023
68,0,4330.769125,4321.025535,4316.410151,4324.102458,4328.205022,4326.15374,4337.435791,4334.871689,4321.538356,4284.61528,4302.563997,4275.384511,4294.87169,4309.743484
69,0,4387.17938,4372.307585,4376.410149,4379.999893,4385.640918,4363.076816,4373.846047,4361.025534,4359.487073,4351.794765,4361.025534,4337.948612,4353.333227,4367.17938
70,0,4432.820404,4414.871687,4427.692199,4426.666558,4415.384507,4398.974251,4405.640918,4381.025534,4401.538354,4416.922969,4410.256302,4393.333226,4405.640918,4412.820405
71,0,4469.74348,4470.256301,4466.666557,4475.897326,4447.179378,4427.692199,4447.692199,4399.487072,4422.051174,4447.179378,4445.640917,4432.307584,4448.71784,4446.153737
72,0,4488.717839,4497.948608,4485.640916,4494.358864,4467.692198,4427.179379,4459.48707,4395.384508,4411.794764,4452.820404,4457.948609,4445.128096,4467.692198,4460.512711
73,0,4539.487068,4528.717838,4534.871684,4532.820402,4525.640915,4468.205019,4499.487069,4426.153738,4461.538352,4509.743479,4502.563992,4495.384505,4520.51271,4510.2563
74,0,4538.974248,4521.02553,4530.76912,4528.205017,4527.692197,4477.435788,4509.230659,4426.666558,4486.666557,4519.999889,4511.794761,4498.461428,4524.102453,4516.410146
75,0,4516.922966,4514.358864,4504.615274,4507.179377,4498.461428,4470.769121,4498.461428,4425.640917,4470.769121,4492.820403,4494.871685,4471.281942,4495.897326,4497.948608
76,0,4481.538352,4474.871685,4466.153737,4473.333224,4461.538352,4449.23066,4466.153737,4422.051174,4438.97425,4450.769122,4450.769122,4430.769122,4452.307583,4459.48707
77,0,4475.897326,4464.615275,4463.076814,4472.307583,4466.153737,4451.281942,4468.717839,4433.333225,4446.666558,4446.666558,4448.71784,4430.769122,4449.743481,4451.794763
78,0,4433.333225,4430.769122,4428.20502,4428.71784,4420.512712,4424.102456,4436.410148,4421.538353,4430.769122,4414.358866,4429.743481,4401.025533,4416.410148,4418.46143
79,0,4391.794764,4379.999893,4382.051175,4380.512713,4370.256303,4396.410149,4396.410149,4404.615277,4401.538354,4355.897329,4386.666559,4355.384509,4371.281944,4378.974252
80,0,4375.384508,4359.999893,4359.487073,4367.692201,4361.538355,4384.102457,4379.487072,4397.94861,4393.846046,4335.89733,4363.076816,4334.358868,4348.717842,4362.051175
81,0,4350.769124,4342.051176,4336.41015,4345.128099,4341.538355,4373.333226,4365.640919,4393.846046,4382.563995,4335.89733,4346.15374,4313.333228,4324.102458,4340.512714
82,0,4328.717843,4311.794766,4313.846048,4317.435792,4312.307587,4353.846047,4346.15374,4381.538354,4367.17938,4319.999894,4323.589638,4286.153741,4299.999895,4314.358869
83,0,4324.615279,4301.025536,4303.076818,4306.666561,4298.461433,4347.179381,4334.358868,4371.794765,4356.92297,4281.025536,4306.666561,4272.307588,4291.794767,4300.512715
84,0,4357.435791,4343.589637,4345.640919,4346.66656,4333.846048,4386.153739,4365.128098,4404.102456,4385.640918,4311.794766,4346.15374,4316.922971,4331.281945,4342.051176
85,0,4370.769124,4359.487073,4365.128098,4364.102457,4351.281945,4399.487072,4383.589636,4410.769123,4396.922969,4352.307586,4367.692201,4335.384509,4350.256304,4364.615278
86,0,4422.563994,4410.769123,4420.512712,4415.897328,4412.820405,4432.307584,4433.333225,4432.820404,4438.97425,4418.974251,4428.71784,4393.846046,4411.794764,4414.871687
87,0,4445.128096,4444.615276,4448.205019,4448.71784,4455.384506,4450.769122,4456.922968,4446.153737,4451.794763,4434.871686,4459.999891,4428.20502,4442.563994,4434.871686
88,0,4485.128095,4492.820403,4484.102454,4496.922967,4492.820403,4476.922967,4490.769121,4464.615275,4478.461429,4481.538352,4495.897326,4465.640916,4479.48707,4474.871685
89,0,4510.76912,4521.538351,4504.615274,4521.538351,4506.666556,4471.794762,4500.51271,4454.358865,4488.205018,4524.615274,4509.743479,4480.512711,4504.102454,4499.487069
90,0,4541.02553,4551.28194,4549.230658,4554.871683,4554.358863,4504.615274,4532.307581,4471.281942,4513.846043,4553.333222,4541.53835,4519.999889,4546.666555,4531.794761
91,0,4558.461427,4558.461427,4570.769119,4570.256298,4571.79476,4526.666556,4547.179376,4470.769121,4519.487069,4557.948606,4556.410145,4542.563991,4563.589632,4548.717837
92,0,4588.717837,4584.102452,4581.025529,4589.230657,4577.948606,4533.846043,4555.897324,4473.846044,4524.102453,4585.128093,4565.128093,4547.179376,4570.256298,4570.256298
93,0,4559.999888,4560.512709,4543.076812,4555.897324,4540.512709,4508.205018,4528.205017,4455.384506,4499.99989,4550.769119,4523.589633,4503.076813,4524.102453,4535.384504
94,0,4534.871684,4538.974248,4528.717838,4532.820402,4519.999889,4508.205018,4522.051171,4455.897327,4497.435787,4508.205018,4509.230659,4492.820403,4506.666556,4517.948607
95,0,4507.179377,4507.692197,4497.948608,4496.922967,4495.384505,4478.974249,4490.2563,4448.205019,4478.461429,4476.410147,4490.769121,4474.358865,4480.512711,4496.922967
96,0,4483.076813,4479.99989,4461.538352,4466.153737,4468.717839,4445.128096,4456.922968,4432.820404,4447.179378,4445.128096,4455.384506,4434.871686,4439.487071,4461.538352
97,0,4434.358866,4425.640917,4413.846046,4414.358866,4405.640918,4421.538353,4421.025533,4412.820405,4418.974251,4396.922969,4407.179379,4384.102457,4387.17938,4406.666559
98,0,4401.025533,4385.128098,4377.948611,4379.487072,4375.384508,4415.384507,4401.025533,4415.897328,4409.743482,4366.153739,4382.563995,4351.281945,4356.92297,4381.538354
99,0,4385.640918,4369.230662,4363.589637,4373.333226,4376.92297,4393.846046,4382.051175,4416.922969,4399.487072,4348.205022,4368.717842,4329.230663,4339.999894,4365.640919
100,0,4370.769124,4354.358868,4355.384509,4361.025534,4348.717842,4381.025534,4370.769124,4408.717841,4393.333226,4323.076817,4351.794765,4316.922971,4323.589638,4345.128099
101,0,4382.563995,4368.717842,4372.820406,4369.230662,4345.640919,4404.615277,4388.205021,4423.589635,4413.333225,4339.999894,4373.333226,4343.076817,4342.051176,4367.692201
102,0,4373.846047,4363.076816,4358.461432,4357.948611,4346.15374,4397.43579,4373.333226,4409.230661,4390.769123,4334.358868,4366.66656,4332.307586,4333.333227,4363.076816
103,0,4375.897329,4369.230662,4362.051175,4368.205021,4356.92297,4386.666559,4371.794765,4401.025533,4384.102457,4349.230663,4370.769124,4335.89733,4341.538355,4360.512714
104,0,4384.615277,4383.076816,4378.461431,4381.025534,4371.794765,4392.820405,4387.6922,4402.051174,4397.43579,4366.66656,4385.128098,4352.820406,4359.999893,4370.256303
105,0,4453.333224,4459.999891,4445.640917,4444.102455,4450.769122,4446.666558,4448.205019,4440.512712,4446.153737,4438.46143,4448.71784,4416.410148,4425.128097,4433.846045
106,0,4476.922967,4482.051172,4464.615275,4470.256301,4467.692198,4454.358865,4461.538352,4443.076814,4446.666558,4461.025532,4452.307583,4427.692199,4441.025532,4447.692199
107,0,4502.563992,4497.948608,4491.794762,4505.640915,4478.974249,4473.846044,4490.2563,4445.640917,4467.692198,4482.051172,4466.666557,4453.333224,4468.717839,4469.74348
108,0,4523.589633,4517.435787,4516.922966,4528.717838,4507.692197,4483.589634,4506.153736,4435.897327,4476.922967,4498.974249,4491.281941,4482.051172,4492.820403,4492.820403
109,0,4557.948606,4554.358863,4549.743478,4555.384504,4548.205017,4506.153736,4521.02553,4452.820404,4497.948608,4541.02553,4528.205017,4518.461428,4525.640915,4533.333222
110,0,4546.666555,4546.153735,4535.384504,4542.051171,4532.307581,4494.871685,4506.666556,4440.512712,4492.307582,4534.871684,4523.589633,4507.692197,4519.487069,4526.153735
111,0,4534.871684,4544.615273,4529.230658,4541.53835,4535.897325,4493.333223,4513.846043,4439.487071,4485.640916,4516.922966,4521.02553,4502.051172,4515.897325,4514.358864
112,0,4515.897325,4528.205017,4512.820402,4524.615274,4516.922966,4489.74348,4510.2563,4445.128096,4475.897326,4495.384505,4498.974249,4482.051172,4490.2563,4496.922967
113,0,4517.435787,4518.461428,4508.205018,4515.384505,4494.871685,4493.846044,4502.563992,4454.871686,4491.794762,4503.076813,4491.794762,4470.256301,4486.153736,4495.897326
114,0,4468.205019,4465.640916,4452.307583,4462.051173,4453.333224,4441.538353,4443.076814,4423.589635,4458.97425,4462.563993,4449.743481,4418.974251,4439.999891,4442.051173
115,0,4418.974251,4419.487071,4401.025533,4411.794764,4426.153738,4403.589636,4405.640918,4404.102456,4410.769123,4391.281944,4401.025533,4373.333226,4387.6922,4398.461431
116,0,4394.871687,4388.717841,4382.563995,4382.051175,4383.589636,4403.589636,4395.897328,4404.102456,4397.94861,4345.128099,4371.794765,4351.281945,4364.615278,4387.6922
117,0,4370.769124,4354.358868,4353.846047,4357.435791,4327.179381,4396.410149,4375.384508,4392.820405,4388.205021,4315.89733,4343.076817,4319.999894,4334.871689,4355.897329
118,0,4348.205022,4337.435791,4328.717843,4343.589637,4317.435792,4372.307585,4352.307586,4385.128098,4370.769124,4308.205023,4327.692202,4302.051177,4304.102459,4324.102458
119,0,4341.538355,4338.461432,4321.025535,4329.230663,4330.769125,4371.281944,4350.256304,4394.871687,4365.128098,4302.051177,4327.179381,4297.948613,4297.948613,4322.051176
120,0,4355.384509,4344.615278,4336.41015,4338.974253,4329.743484,4383.076816,4364.615278,4408.20502,4383.589636,4315.38451,4342.051176,4309.230664,4318.974253,4342.051176
121,0,4346.66656,4326.15374,4329.230663,4339.487073,4312.307587,4352.307586,4347.179381,4378.461431,4364.102457,4307.692202,4329.230663,4297.435792,4310.769125,4328.205022
122,0,4402.051174,4385.128098,4382.563995,4391.794764,4381.538354,4381.538354,4384.615277,4397.43579,4391.281944,4369.230662,4382.563995,4350.769124,4366.66656,4378.461431
123,0,4445.128096,4433.846045,4422.563994,4423.589635,4428.20502,4427.179379,4424.102456,4422.051174,4421.025533,4416.410148,4419.999892,4393.846046,4413.333225,4426.666558
124,0,4486.666557,4478.974249,4465.640916,4469.23066,4464.102455,4462.051173,4466.666557,4439.487071,4453.846045,4451.281942,4453.333224,4433.333225,4458.97425,4471.281942
125,0,4494.871685,4488.205018,4476.922967,4483.589634,4481.025531,4452.820404,4463.589634,4425.128097,4447.179378,4454.871686,4462.563993,4442.051173,4473.333224,4477.435788
126,0,4511.794761,4507.692197,4496.922967,4502.563992,4509.230659,4470.769121,4475.897326,4428.71784,4454.358865,4486.153736,4491.281941,4470.256301,4496.922967,4501.025531
127,0,4508.205018,4505.128095,4493.333223,4496.922967,4504.102454,4464.615275,4474.871685,4410.256302,4444.615276,4492.307582,4488.205018,4467.179378,4492.820403,4497.948608
128,0,4545.640914,4542.051171,4528.717838,4535.384504,4542.563991,4483.076813,4507.179377,4435.384507,4470.769121,4523.076812,4517.435787,4495.897326,4530.76912,4527.692197
0,0,4555.897324,4550.769119,4536.922966,4550.769119,4544.615273,4490.769121,4514.871684,4448.71784,4486.153736,4536.410145,4526.666556,4508.205018,4541.02553,4537.435786
1,0,4539.487068,4533.333222,4516.922966,4531.28194,4511.281941,4488.717839,4508.205018,4444.615276,4489.74348,4520.51271,4510.2563,4494.358864,4519.999889,4517.435787
2,0,4496.922967,4491.794762,4475.897326,4480.512711,4475.384506,4464.615275,4478.461429,4433.846045,4464.615275,4458.97425,4471.281942,4448.71784,4475.384506,4472.307583
3,0,4486.153736,4481.025531,4473.333224,4471.794762,4489.230659,4467.179378,4476.922967,4446.666558,4455.897327,4447.692199,4463.076814,4442.051173,4467.179378,4470.769121
4,0,4458.461429,4445.128096,4449.743481,4449.743481,4449.23066,4449.743481,4455.384506,4441.025532,4446.666558,4437.435789,4437.948609,4420.512712,4441.538353,4451.281942
5,0,4418.974251,4395.897328,4401.538354,4403.076815,4380.512713,4422.051174,4418.974251,4425.640917,4423.076815,4375.384508,4397.94861,4372.820406,4397.94861,4403.589636
6,0,4367.692201,4345.128099,4346.66656,4348.205022,4336.41015,4383.589636,4372.307585,4403.076815,4378.461431,4318.461433,4356.41015,4324.615279,4344.615278,4354.871688
7,0,4326.666561,4302.563997,4304.615279,4309.743484,4302.051177,4354.358868,4339.487073,4382.563995,4349.230663,4283.589639,4316.922971,4287.692203,4299.487074,4322.051176
8,0,4333.333227,4309.743484,4317.435792,4316.922971,4299.487074,4362.051175,4347.179381,4391.794764,4369.230662,4291.281946,4326.15374,4299.487074,4311.794766,4327.692202
9,0,4342.563996,4325.64092,4332.820407,4321.538356,4320.512715,4370.256303,4353.333227,4399.999892,4373.846047,4295.38451,4338.461432,4309.230664,4326.666561,4334.358868
10,0,4368.205021,4354.871688,4354.871688,4351.281945,4372.307585,4386.666559,4377.43579,4414.871687,4386.153739,4329.230663,4359.487073,4328.205022,4349.230663,4359.487073
11,0,4381.025534,4367.17938,4364.102457,4373.846047,4382.563995,4390.256303,4391.281944,4404.615277,4386.666559,4347.179381,4364.102457,4337.435791,4359.999893,4369.743483
12,0,4432.307584,4420.512712,4425.128097,4430.256302,4412.820405,4423.076815,4431.794763,4420.512712,4424.615276,4399.999892,4413.846046,4392.820405,4418.46143,4421.025533
13,0,4457.948609,4443.076814,4454.871686,4449.23066,4432.307584,4441.538353,4449.23066,4434.871686,4445.640917,4430.769122,4442.051173,4419.999892,4450.769122,4449.23066
14,0,4515.897325,4497.948608,4507.692197,4505.640915,4498.461428,4489.74348,4504.615274,4471.794762,4487.692198,4492.820403,4504.615274,4477.435788,4512.820402,4509.230659
15,0,4554.871683,4544.102453,4548.717837,4548.717837,4541.53835,4509.743479,4535.384504,4479.48707,4506.153736,4547.692196,4550.769119,4521.538351,4555.384504,4550.256299
16,0,4575.384504,4578.461427,4572.307581,4572.307581,4565.640914,4515.384505,4544.102453,4488.717839,4517.435787,4577.435786,4569.230657,4543.589632,4575.897324,4567.179375
17,0,4555.897324,4563.076811,4546.666555,4551.79476,4548.717837,4492.307582,4521.02553,4461.538352,4494.358864,4549.230658,4534.871684,4518.461428,4548.717837,4539.999889
18,0,4569.743478,4565.640914,4554.358863,4563.076811,4548.717837,4507.692197,4536.410145,4463.589634,4509.230659,4548.205017,4541.02553,4526.666556,4557.948606,4550.769119
19,0,4561.53835,4546.666555,4551.79476,4555.897324,4528.205017,4517.948607,4535.384504,4481.025531,4518.974248,4527.692197,4543.076812,4523.589633,4553.333222,4544.615273
20,0,4558.461427,4544.615273,4551.28194,4550.769119,4539.487068,4532.307581,4539.487068,4506.666556,4525.128094,4530.76912,4544.102453,4523.076812,4548.205017,4545.128094
21,0,4527.179376,4517.435787,4518.461428,4517.435787,4526.666556,4498.974249,4514.358864,4488.717839,4503.076813,4512.820402,4508.205018,4487.179377,4514.871684,4516.410146
22,0,4488.717839,4479.48707,4479.48707,4480.512711,4481.025531,4459.48707,4482.563993,4456.410147,4476.922967,4470.256301,4474.871685,4446.666558,4483.589634,4477.948608
23,0,4445.640917,4427.692199,4437.435789,4435.384507,4412.820405,4443.076814,4444.615276,4446.666558,4451.794763,4426.153738,4454.358865,4419.999892,4443.589635,4445.128096
24,0,4421.538353,4390.769123,4405.640918,4398.974251,4374.358867,4441.025532,4424.102456,4457.435788,4439.487071,4393.333226,4427.692199,4398.974251,4405.640918,4424.102456
25,0,4399.487072,4371.794765,4382.051175,4376.410149,4367.692201,4409.743482,4404.102456,4444.615276,4425.128097,4375.384508,4397.94861,4368.205021,4381.025534,4390.256303
26,0,4369.743483,4348.717842,4354.358868,4354.358868,4349.743483,4378.974252,4376.410149,4418.46143,4401.025533,4338.461432,4369.743483,4333.333227,4354.871688,4354.871688
27,0,4382.051175,4355.384509,4364.615278,4363.076816,4342.051176,4395.897328,4380.512713,4427.692199,4410.769123,4332.820407,4374.358867,4342.051176,4357.948611,4368.205021
28,0,4382.051175,4359.999893,4362.051175,4360.512714,4339.999894,4392.307585,4376.92297,4417.94861,4401.538354,4327.692202,4363.589637,4337.948612,4351.794765,4362.563996
29,0,4403.076815,4394.358867,4391.281944,4391.281944,4397.43579,4404.615277,4403.076815,4422.051174,4418.46143,4376.92297,4395.384508,4365.128098,4386.666559,4387.6922
30,0,4425.128097,4411.794764,4416.410148,4412.307584,4428.20502,4427.692199,4428.71784,4431.794763,4435.897327,4408.717841,4416.410148,4387.6922,4413.333225,4416.922969
31,0,4478.974249,4462.051173,4474.871685,4466.666557,4458.461429,4475.384506,4476.410147,4464.615275,4477.948608,4457.948609,4463.076814,4445.128096,4466.153737,4473.333224
32,0,4489.74348,4489.74348,4490.2563,4492.820403,4478.974249,4474.358865,4478.974249,4458.97425,4479.99989,4480.512711,4485.640916,4463.589634,4482.563993,4480.512711
33,0,4522.051171,4533.846043,4521.538351,4530.256299,4537.435786,4489.74348,4505.128095,4466.666557,4493.333223,4511.794761,4518.974248,4490.2563,4514.871684,4502.563992
34,0,4551.79476,4558.461427,4553.333222,4553.846042,4553.846042,4502.051172,4522.051171,4464.102455,4496.410146,4536.922966,4533.333222,4512.820402,4543.589632,4526.666556
35,0,4593.333221,4595.384503,4598.461426,4599.487067,4572.307581,4534.358863,4558.974247,4493.333223,4534.358863,4588.717837,4568.205016,4559.487068,4589.230657,4572.307581
36,0,4593.333221,4589.743478,4593.846042,4598.461426,4576.922965,4540.512709,4571.281939,4498.461428,4553.846042,4583.589632,4572.307581,4564.102452,4587.692196,4577.435786
37,0,4592.30758,4582.05117,4584.615273,4583.589632,4584.615273,4550.256299,4571.281939,4497.435787,4553.846042,4567.179375,4572.820401,4558.461427,4582.05117,4577.948606
38,0,4551.79476,4539.487068,4542.051171,4537.435786,4533.333222,4521.02553,4523.589633,4481.538352,4517.948607,4534.358863,4532.307581,4515.384505,4541.53835,4539.999889
39,0,4519.999889,4510.76912,4511.281941,4512.820402,4497.435787,4499.99989,4505.640915,4479.99989,4505.128095,4503.076813,4501.538351,4486.153736,4505.640915,4507.179377
40,0,4479.99989,4476.922967,4477.435788,4475.897326,4473.333224,4478.461429,4486.666557,4471.794762,4490.769121,4458.97425,4476.922967,4456.410147,4461.538352,4471.794762
41,0,4457.948609,4454.358865,4446.153737,4439.487071,4457.435788,4463.589634,4458.461429,4465.128096,4467.692198,4428.20502,4456.410147,4428.71784,4437.435789,4447.692199
42,0,4435.897327,4429.743481,4413.846046,4410.769123,4428.71784,4441.025532,4430.769122,4456.410147,4447.179378,4407.6922,4423.076815,4395.384508,4414.358866,4414.358866
43,0,4397.43579,4388.717841,4381.025534,4377.43579,4388.205021,4418.974251,4408.717841,4447.692199,4430.256302,4368.717842,4382.563995,4357.948611,4370.256303,4377.948611
44,0,4384.615277,4369.743483,4381.538354,4366.153739,4366.66656,4412.820405,4398.974251,4450.769122,4429.743481,4356.41015,4379.999893,4352.820406,4360.512714,4376.92297
45,0,4382.563995,4358.461432,4376.410149,4358.461432,4347.692201,4407.179379,4387.6922,4434.871686,4419.487071,4342.563996,4373.333226,4344.615278,4361.538355,4367.692201
46,0,4384.615277,4361.538355,4375.897329,4370.256303,4368.205021,4405.128097,4390.256303,4404.102456,4412.307584,4342.563996,4369.743483,4347.179381,4362.563996,4367.17938
47,0,4373.846047,4358.974252,4366.66656,4365.128098,4375.384508,4392.307585,4381.538354,4359.487073,4401.025533,4336.41015,4363.589637,4342.563996,4350.769124,4369.743483
48,0,4422.051174,4415.897328,4417.94861,4412.307584,4399.487072,4426.153738,4419.487071,4373.333226,4443.589635,4394.871687,4427.179379,4397.43579,4409.230661,4423.076815
49,0,4452.820404,4453.333224,4451.281942,4449.23066,4419.999892,4451.794763,4448.205019,4383.589636,4453.333224,4429.230661,4459.999891,4430.256302,4445.128096,4444.102455
50,0,4506.666556,4504.102454,4504.615274,4503.589633,4502.563992,4502.563992,4502.051172,4404.615277,4484.102454,4484.615275,4504.102454,4485.128095,4495.384505,4491.281941
51,0,4546.153735,4538.974248,4543.589632,4539.487068,4554.358863,4521.02553,4529.743479,4414.358866,4517.435787,4538.461427,4539.487068,4522.563992,4539.999889,4530.76912
52,0,4570.256298,4569.743478,4568.717837,4568.717837,4572.820401,4519.487069,4543.589632,4418.46143,4536.922966,4572.820401,4563.076811,4543.076812,4572.307581,4555.897324
53,0,4557.435786,4560.512709,4561.53835,4563.589632,4570.256298,4499.487069,4531.794761,4381.538354,4510.76912,4551.79476,4548.717837,4534.871684,4559.487068,4545.128094
54,0,4588.717837,4589.230657,4594.358862,4592.30758,4590.769119,4540.512709,4567.179375,4406.153738,4537.948607,4576.922965,4574.358863,4565.640914,4585.640914,4577.948606
55,0,4589.230657,4587.692196,4581.025529,4578.461427,4557.435786,4551.28194,4566.666555,4425.640917,4551.28194,4580.512709,4569.743478,4556.922965,4575.384504,4575.897324
56,0,4573.333222,4568.717837,4556.410145,4556.922965,4543.589632,4542.563991,4548.717837,4422.051174,4549.743478,4562.563991,4555.897324,4541.02553,4557.948606,4561.53835
57,0,4532.307581,4521.538351,4522.563992,4519.999889,4531.794761,4514.871684,4517.948607,4409.743482,4524.615274,4518.461428,4523.076812,4510.2563,4521.02553,4527.692197
58,0,4510.76912,4498.461428,4498.461428,4497.948608,4511.281941,4496.922967,4501.538351,4409.230661,4500.51271,4482.563993,4494.358864,4478.974249,4492.307582,4497.435787
59,0,4473.846044,4461.538352,4452.307583,4457.435788,4446.153737,4461.025532,4459.999891,4383.589636,4471.794762,4437.948609,4456.410147,4430.769122,4443.589635,4450.769122
60,0,4426.666558,4413.846046,4404.102456,4405.640918,4406.666559,4432.820404,4422.563994,4362.051175,4443.589635,4393.333226,4415.384507,4386.666559,4393.846046,4413.333225
61,0,4394.358867,4383.076816,4381.538354,4376.410149,4402.051174,4417.94861,4405.128097,4358.461432,4418.974251,4363.076816,4384.615277,4359.999893,4368.717842,4390.769123
62,0,4387.17938,4373.846047,4378.461431,4370.769124,4375.384508,4416.922969,4398.974251,4357.948611,4414.358866,4343.076817,4375.897329,4349.230663,4364.102457,4378.974252
63,0,4414.871687,4397.94861,4406.153738,4392.820405,4369.743483,4433.846045,4413.333225,4384.102457,4448.71784,4381.025534,4418.974251,4384.102457,4396.410149,4411.281943
64,0,4419.999892,4401.538354,4404.615277,4390.256303,4386.153739,4432.307584,4413.333225,4393.333226,4450.769122,4398.461431,4427.179379,4392.820405,4400.512713,4423.076815
65,0,4435.384507,4421.025533,4419.999892,4413.846046,4430.769122,4442.051173,4428.71784,4394.871687,4451.794763,4412.307584,4427.692199,4403.076815,4412.820405,4430.769122
66,0,4441.025532,4429.743481,4423.589635,4428.71784,4426.153738,4445.128096,4430.256302,4371.794765,4442.051173,4414.358866,4422.051174,4399.999892,4413.846046,4422.563994
67,0,4483.589634,4480.512711,4464.615275,4476.410147,4457.435788,4482.563993,4469.74348,4389.743482,4476.922967,4471.281942,4470.769121,4443.076814,4459.999891,4463.076814
68,0,4507.692197,4515.897325,4496.410146,4509.230659,4501.025531,4499.487069,4498.974249,4412.820405,4502.051172,4498.974249,4494.358864,4470.769121,4495.384505,4494.358864
69,0,4562.05117,4568.205016,4550.769119,4558.974247,4564.102452,4533.846043,4546.666555,4439.999891,4537.948607,4542.051171,4536.922966,4521.02553,4554.358863,4546.153735
70,0,4594.358862,4583.589632,4573.333222,4573.846042,4585.128093,4533.333222,4553.846042,4425.640917,4535.384504,4570.256298,4564.615273,4548.205017,4583.076811,4576.922965
71,0,4633.33322,4612.8204,4603.076811,4606.153734,4614.871682,4541.02553,4568.717837,4433.846045,4545.128094,4596.922965,4594.871683,4578.461427,4615.384503,4626.666554
72,0,4667.692194,4645.640912,4618.461426,4629.743477,4604.615272,4541.02553,4571.281939,4430.256302,4546.666555,4594.871683,4606.666554,4596.410144,4631.794759,4667.692194
73,0,4730.769115,4691.794757,4651.794758,4660.512707,4590.769119,4564.102452,4588.717837,4444.615276,4570.256298,4614.358862,4641.538348,4637.948605,4664.615271,4727.179372
74,0,4743.076807,4672.820399,4637.435784,4631.281938,4586.153734,4554.871683,4572.307581,4449.23066,4567.692196,4593.846042,4625.128092,4625.128092,4648.205015,4739.999884
75,0,4738.461423,4652.307579,4609.230657,4601.025529,4585.128093,4542.563991,4551.28194,4452.307583,4553.846042,4561.025529,4592.30758,4593.846042,4622.051169,4741.025525
76,0,4691.281937,4608.717836,4546.153735,4555.897324,4509.230659,4492.307582,4499.99989,4422.051174,4500.51271,4505.640915,4537.948607,4533.846043,4559.999888,4690.256296
77,0,4656.922963,4574.358863,4513.846043,4531.28194,4478.461429,4459.48707,4473.333224,4403.076815,4461.025532,4467.179378,4503.589633,4491.794762,4518.461428,4645.128092
78,0,4638.974246,4553.333222,4514.871684,4516.922966,4477.948608,4466.153737,4462.563993,4411.281943,4468.717839,4441.025532,4495.897326,4485.128095,4513.846043,4634.358861
79,0,4602.56399,4525.128094,4489.230659,4482.563993,4434.358866,4468.205019,4439.999891,4411.281943,4469.74348,4393.333226,4475.897326,4470.256301,4491.281941,4611.281939
80,0,4567.692196,4503.076813,4460.512711,4462.563993,4410.769123,4448.71784,4427.692199,4408.717841,4453.333224,4389.743482,4458.461429,4448.71784,4458.461429,4568.717837
81,0,4553.846042,4492.307582,4449.23066,4458.461429,4416.410148,4447.179378,4436.922968,4423.589635,4450.769122,4412.307584,4452.820404,4431.794763,4444.615276,4541.53835
82,0,4548.205017,4491.794762,4453.333224,4455.897327,4428.20502,4461.025532,4447.692199,4436.922968,4470.769121,4428.20502,4458.97425,4435.897327,4454.871686,4541.53835
83,0,4511.281941,4465.640916,4430.769122,4426.666558,4427.179379,4437.948609,4430.256302,4403.076815,4450.256301,4397.43579,4428.20502,4411.794764,4434.871686,4508.717838
84,0,4544.102453,4504.102454,4477.435788,4476.922967,4471.794762,4460.512711,4466.153737,4415.384507,4469.23066,4434.871686,4464.615275,4449.743481,4476.410147,4536.922966
85,0,4582.563991,4545.640914,4523.076812,4532.307581,4484.615275,4490.2563,4492.820403,4436.410148,4493.333223,4481.538352,4508.205018,4494.358864,4522.051171,4569.743478
86,0,4626.153733,4601.538349,4573.846042,4583.589632,4530.256299,4527.692197,4531.794761,4457.948609,4534.358863,4543.589632,4554.358863,4545.640914,4575.897324,4610.256298
87,0,4627.692195,4607.179375,4588.205016,4588.717837,4565.128093,4536.410145,4546.666555,4456.410147,4543.076812,4557.435786,4566.153734,4558.461427,4590.256298,4618.974246
88,0,4646.666553,4619.999887,4611.281939,4613.333221,4607.692195,4564.615273,4576.922965,4472.820403,4562.05117,4588.717837,4596.922965,4585.128093,4614.871682,4639.487066
89,0,4646.666553,4628.717836,4609.230657,4620.512708,4607.692195,4556.410145,4574.358863,4452.820404,4552.307581,4615.384503,4591.79476,4581.53835,4613.333221,4629.743477
90,0,4657.435784,4657.948604,4628.205015,4636.410143,4623.589631,4565.640914,4593.846042,4459.48707,4564.615273,4632.8204,4603.076811,4597.435785,4634.871682,4640.512707
91,0,4636.922964,4635.384502,4616.410144,4616.922964,4620.512708,4563.589632,4591.79476,4461.538352,4563.589632,4591.79476,4597.435785,4590.256298,4622.56399,4627.692195
92,0,4629.743477,4613.333221,4603.076811,4607.692195,4614.871682,4568.717837,4589.743478,4470.769121,4569.230657,4581.53835,4591.281939,4578.974247,4609.230657,4615.384503
93,0,4599.999888,4584.615273,4570.769119,4577.948606,4576.410145,4548.205017,4560.512709,4467.692198,4553.333222,4569.743478,4558.974247,4545.128094,4578.974247,4579.487068
94,0,4566.153734,4561.025529,4546.666555,4548.205017,4541.53835,4531.28194,4537.435786,4460.512711,4529.230658,4541.02553,4530.76912,4520.51271,4549.230658,4546.666555
95,0,4494.871685,4485.128095,4484.615275,4480.512711,4469.23066,4488.205018,4484.615275,4428.71784,4483.589634,4467.179378,4465.640916,4457.948609,4477.435788,4483.589634
96,0,4424.615276,4408.20502,4411.281943,4408.717841,4402.563995,4443.076814,4435.384507,4403.076815,4446.666558,4384.615277,4396.410149,4383.076816,4408.20502,4417.435789
97,0,4388.205021,4375.897329,4369.230662,4372.307585,4380.512713,4419.999892,4406.666559,4400.512713,4433.333225,4364.102457,4376.410149,4350.256304,4376.410149,4383.076816
98,0,4379.999893,4366.66656,4352.307586,4357.435791,4371.794765,4421.025533,4394.871687,4409.230661,4424.615276,4361.538355,4370.769124,4338.974253,4362.051175,4369.743483
99,0,4387.17938,4377.43579,4364.102457,4363.589637,4372.307585,4428.71784,4404.615277,4418.974251,4427.692199,4350.256304,4375.897329,4346.15374,4369.743483,4369.230662
100,0,4373.846047,4374.358867,4365.128098,4361.538355,4368.717842,4416.922969,4402.563995,4408.717841,4423.589635,4333.333227,4364.102457,4344.615278,4366.66656,4357.948611
101,0,4388.717841,4389.743482,4384.615277,4382.051175,4388.205021,4431.794763,4418.974251,4417.94861,4441.025532,4373.333226,4376.410149,4360.512714,4383.589636,4379.487072
102,0,4394.871687,4389.743482,4379.487072,4384.102457,4392.307585,4436.922968,4421.025533,4408.20502,4439.487071,4378.461431,4375.384508,4352.820406,4383.076816,4380.512713
103,0,4425.128097,4424.615276,4412.820405,4425.640917,4431.794763,4454.871686,4445.640917,4413.846046,4464.102455,4407.6922,4410.769123,4386.153739,4421.538353,4408.717841
104,0,4436.410148,4442.563994,4438.46143,4442.563994,4447.179378,4460.512711,4453.333224,4413.333225,4470.769121,4440.512712,4429.230661,4407.6922,4444.615276,4429.743481
105,0,4482.051172,4484.615275,4489.230659,4479.99989,4486.153736,4494.358864,4495.384505,4435.897327,4499.487069,4486.666557,4473.333224,4454.871686,4492.307582,4477.435788
106,0,4502.563992,4505.128095,4506.153736,4501.538351,4504.615274,4496.410146,4507.179377,4428.20502,4496.922967,4490.2563,4488.717839,4476.922967,4512.307582,4489.230659
107,0,4526.666556,4536.410145,4528.717838,4537.948607,4531.28194,4512.307582,4524.102453,4437.948609,4509.230659,4526.153735,4511.794761,4503.076813,4539.999889,4507.692197
108,0,4525.128094,4538.974248,4527.179376,4536.922966,4534.358863,4507.692197,4525.128094,4428.71784,4508.717838,4543.589632,4515.384505,4499.487069,4538.974248,4510.2563
109,0,4535.897325,4546.153735,4529.743479,4536.922966,4551.28194,4513.333223,4534.871684,4433.333225,4520.51271,4541.53835,4516.922966,4507.179377,4544.615273,4522.051171
110,0,4508.205018,4507.692197,4492.820403,4501.025531,4518.461428,4488.717839,4501.025531,4413.333225,4495.897326,4492.307582,4474.871685,4476.922967,4509.230659,4489.230659
111,0,4481.025531,4470.256301,4465.640916,4473.333224,4475.384506,4481.025531,4478.974249,4407.179379,4474.358865,4461.025532,4452.307583,4449.743481,4479.48707,4462.563993
112,0,4425.128097,4413.333225,4420.512712,4419.999892,4407.6922,4448.205019,4439.999891,4394.871687,4442.051173,4409.230661,4411.281943,4401.538354,4431.281943,4415.897328
113,0,4377.43579,4375.384508,4374.358867,4370.769124,4372.307585,4408.20502,4398.974251,4371.794765,4409.743482,4353.333227,4364.102457,4356.92297,4385.128098,4370.769124
114,0,4334.871689,4331.281945,4326.15374,4323.589638,4350.769124,4378.974252,4361.538355,4352.820406,4384.102457,4318.974253,4330.256304,4321.025535,4337.435791,4332.307586
115,0,4303.589638,4288.717844,4290.769126,4285.1281,4310.256305,4374.358867,4344.615278,4359.487073,4369.743483,4287.179382,4305.1281,4291.794767,4299.999895,4304.615279
116,0,4286.666562,4274.35887,4273.333229,4271.794767,4278.974254,4361.025534,4331.281945,4358.974252,4357.435791,4264.10246,4285.640921,4268.205024,4279.487075,4282.051177
117,0,4263.076819,4251.794768,4247.692204,4250.256306,4258.974255,4335.89733,4302.051177,4336.41015,4340.512714,4234.871691,4260.512716,4237.948614,4257.435793,4251.794768
118,0,4244.615281,4226.666563,4231.281948,4230.256307,4244.10246,4317.948612,4280.512716,4325.128099,4330.769125,4219.999897,4244.10246,4221.025538,4248.717845,4238.461435
119,0,4211.794769,4196.410154,4195.897333,4199.487077,4212.82041,4278.461434,4248.205024,4287.692203,4281.538357,4174.871693,4204.102461,4186.153744,4212.307589,4209.743487
120,0,4239.487076,4234.871691,4223.58964,4234.871691,4233.84605,4290.256305,4264.61528,4278.974254,4284.61528,4186.666564,4224.102461,4214.358871,4235.384512,4236.410153
121,0,4266.153742,4264.61528,4252.820409,4258.974255,4246.153742,4317.435792,4282.051177,4287.692203,4311.281946,4216.922974,4245.640922,4241.538358,4269.230665,4262.563998
122,0,4299.487074,4295.897331,4287.692203,4283.589639,4284.102459,4345.128099,4312.820407,4306.153741,4341.538355,4274.87169,4283.076818,4275.897331,4308.717843,4300.512715
123,0,4309.743484,4303.076818,4292.820408,4294.87169,4302.563997,4336.922971,4317.948612,4291.794767,4331.281945,4293.846049,4291.794767,4284.61528,4314.871689,4308.717843
124,0,4352.820406,4342.563996,4329.743484,4343.589637,4350.769124,4356.41015,4350.769124,4297.435792,4352.820406,4327.692202,4317.948612,4317.948612,4354.871688,4337.948612
125,0,4362.563996,4359.999893,4345.128099,4352.307586,4372.307585,4361.025534,4361.025534,4293.333228,4357.948611,4346.66656,4323.589638,4325.64092,4373.333226,4347.692201
126,0,4374.358867,4372.307585,4365.640919,4361.538355,4378.974252,4383.076816,4383.589636,4309.743484,4377.948611,4372.820406,4349.743483,4349.743483,4396.410149,4369.230662
127,0,4358.974252,4344.615278,4343.589637,4348.205022,4351.281945,4365.128098,4368.717842,4288.205023,4361.025534,4339.999894,4337.435791,4335.89733,4374.871688,4348.717842
128,0,4349.230663,4338.461432,4318.461433,4337.948612,4353.333227,4356.41015,4345.640919,4276.922972,4340.512714,4311.794766,4313.333228,4310.256305,4348.205022,4330.769125
0,0,4316.922971,4314.358869,4283.076818,4298.461433,4320.512715,4345.128099,4309.743484,4265.640921,4324.102458,4293.333228,4278.974254,4278.461434,4318.461433,4303.076818
1,0,4290.256305,4283.076818,4254.35887,4265.128101,4279.999895,4325.64092,4293.333228,4258.461434,4313.846048,4264.10246,4257.948614,4253.84605,4296.410151,4274.35887
2,0,4219.999897,4206.666564,4185.640923,4202.051179,4224.615281,4262.563998,4235.897332,4225.640922,4258.974255,4174.358872,4192.82041,4176.410154,4217.948615,4201.025538
3,0,4169.743488,4156.922975,4139.487078,4156.410155,4163.076821,4227.692204,4185.128103,4207.692205,4220.512717,4109.230669,4132.820412,4121.02554,4165.128103,4153.846052
4,0,4151.28195,4139.487078,4123.076822,4127.179386,4111.794771,4218.461435,4162.05118,4206.666564,4216.410153,4107.179387,4115.897335,4109.743489,4150.769129,4137.435796
5,0,4108.205028,4095.897336,4079.48708,4077.948618,4094.871695,4196.922974,4133.333232,4189.743487,4191.794769,4068.717849,4083.076823,4070.769131,4098.461438,4092.307592
6,0,4063.589644,4047.692209,4040.512722,4043.589645,4083.076823,4171.79477,4102.564002,4170.769129,4160.512719,4007.69221,4041.538363,4029.743491,4048.205029,4049.743491
7,0,4051.794773,4028.71785,4029.743491,4032.820414,4042.051183,4162.564001,4094.358874,4158.461437,4143.589642,3986.666569,4023.076825,4013.846056,4040.512722,4034.871696
8,0,4078.461439,4058.461439,4058.97426,4060.512721,4050.769132,4180.512718,4117.948617,4175.384513,4166.153744,4029.230671,4053.333234,4038.97426,4071.281952,4061.538362
9,0,4069.23067,4048.71785,4048.205029,4052.820414,4064.102465,4161.025539,4104.102464,4156.410155,4152.307591,4017.94862,4035.897337,4028.20503,4057.435798,4049.23067
10,0,4092.307592,4074.358875,4068.205029,4075.897336,4098.461438,4166.153744,4119.999899,4150.256309,4155.897334,4042.564004,4048.205029,4051.794773,4078.974259,4073.333234
11,0,4116.410156,4106.666566,4096.410156,4099.487079,4119.999899,4189.743487,4145.640924,4161.53836,4171.79477,4079.48708,4075.897336,4075.384516,4108.717848,4105.128105
12,0,4152.820411,4142.051181,4146.153745,4143.076822,4169.230667,4226.153743,4190.769128,4179.487077,4211.281948,4129.743489,4122.051181,4119.487079,4158.974257,4142.051181
13,0,4163.589642,4151.28195,4156.922975,4161.025539,4179.487077,4216.410153,4191.794769,4165.128103,4208.205025,4144.102463,4137.948617,4137.435796,4178.461436,4149.230668
14,0,4206.153743,4211.281948,4193.333231,4214.871692,4212.82041,4239.487076,4213.33323,4181.025539,4223.07682,4192.82041,4179.487077,4178.461436,4219.487076,4193.333231
15,0,4207.179384,4229.743486,4198.461436,4224.615281,4234.358871,4236.922973,4210.769128,4165.640924,4209.230666,4197.948615,4168.205026,4172.820411,4212.82041,4184.615282
16,0,4207.692205,4227.692204,4196.922974,4219.487076,4251.281947,4234.871691,4216.410153,4162.564001,4206.666564,4191.281949,4156.922975,4163.589642,4206.153743,4161.025539
17,0,4205.128102,4217.948615,4189.230667,4209.743487,4231.794768,4233.84605,4216.410153,4164.615283,4213.846051,4185.640923,4161.025539,4163.589642,4207.179384,4159.487078
18,0,4209.230666,4222.563999,4197.435795,4214.871692,4224.615281,4250.769127,4229.230666,4186.153744,4230.769127,4189.230667,4169.743488,4174.871693,4215.897333,4181.538359
19,0,4161.025539,4179.487077,4153.846052,4170.769129,4177.948616,4223.07682,4197.435795,4169.743488,4202.564,4143.076822,4122.051181,4128.205027,4169.743488,4137.948617
20,0,4130.76913,4152.307591,4122.564002,4138.974258,4147.179386,4207.179384,4174.871693,4161.53836,4187.692205,4103.589643,4099.9999,4099.487079,4144.102463,4109.230669
21,0,4096.410156,4111.794771,4095.897336,4106.153746,4126.153745,4189.743487,4146.666565,4162.05118,4174.358872,4069.74349,4087.692208,4082.051182,4112.820412,4088.717849
22,0,4062.051183,4064.615285,4058.461439,4068.717849,4093.333233,4168.717847,4115.897335,4156.410155,4147.692206,4030.256312,4053.333234,4047.692209,4065.128106,4053.333234
23,0,4044.615286,4043.589645,4033.333235,4044.102465,4060.512721,4152.307591,4095.897336,4154.871693,4135.897335,4016.410158,4028.20503,4020.512722,4043.076824,4027.179389
24,0,4022.051184,4028.71785,4014.871697,4020.512722,4043.589645,4140.512719,4085.640926,4149.230668,4124.615284,3997.94862,4009.743492,3999.487082,4031.281953,4008.717851
25,0,4019.999902,4026.153748,4011.794774,4023.076825,4036.410158,4137.948617,4085.128105,4157.435796,4124.102463,3991.281954,4012.307594,3997.94862,4030.256312,4009.743492
26,0,4016.410158,4013.846056,3997.94862,4021.025543,4014.871697,4121.538361,4069.74349,4140.512719,4108.205028,3977.948621,3994.358877,3982.564005,4016.922979,3995.897338
27,0,4031.794773,4039.999901,4025.128107,4042.051183,4052.307593,4136.410155,4087.692208,4137.948617,4118.974258,4012.820415,4008.717851,4003.589646,4043.076824,4016.410158
28,0,4041.025542,4063.589644,4044.615286,4055.384516,4073.846054,4149.230668,4106.666566,4142.051181,4129.230668,4029.230671,4030.769132,4029.230671,4064.615285,4040.512722
29,0,4091.794772,4113.333233,4088.205028,4108.205028,4117.948617,4171.79477,4141.53836,4156.922975,4161.025539,4071.281952,4084.102464,4078.974259,4112.820412,4088.717849
30,0,4111.281951,4132.820412,4103.589643,4127.179386,4152.820411,4176.922975,4148.205027,4149.743488,4161.53836,4102.564002,4101.538361,4091.281951,4129.230668,4098.974259
31,0,4163.589642,4192.30759,4167.179385,4180.512718,4204.615282,4227.179384,4200.512718,4181.025539,4200.512718,4176.922975,4153.333232,4150.769129,4189.230667,4153.333232
32,0,4203.07682,4229.743486,4206.666564,4222.563999,4217.435794,4244.615281,4228.205025,4195.384513,4223.07682,4210.256307,4181.538359,4187.179385,4227.692204,4189.230667
33,0,4230.769127,4249.743486,4225.128102,4247.179383,4245.128101,4246.666563,4244.615281,4201.538359,4236.410153,4226.153743,4198.461436,4199.487077,4249.230665,4205.640923
34,0,4219.487076,4236.410153,4217.948615,4235.897332,4243.58964,4232.820409,4235.384512,4181.538359,4221.538358,4227.179384,4191.281949,4189.743487,4243.58964,4195.897333
35,0,4223.58964,4246.666563,4226.666563,4248.205024,4252.820409,4252.820409,4247.692204,4192.82041,4226.666563,4232.307589,4197.948615,4200.512718,4255.897332,4210.256307
36,0,4202.564,4230.769127,4203.07682,4227.692204,4253.84605,4251.794768,4238.974255,4186.666564,4217.948615,4199.487077,4175.384513,4177.948616,4231.281948,4194.358872
37,0,4204.102461,4226.153743,4205.128102,4225.128102,4259.487075,4257.948614,4246.153742,4201.538359,4236.410153,4200.512718,4181.025539,4181.538359,4225.128102,4192.82041
38,0,4183.076821,4199.999897,4187.692205,4206.153743,4212.82041,4237.435794,4221.538358,4209.230666,4230.256307,4192.30759,4174.358872,4170.769129,4203.07682,4174.871693
39,0,4149.230668,4166.153744,4143.589642,4159.999898,4163.589642,4221.538358,4185.128103,4198.974256,4199.487077,4147.179386,4138.461437,4131.28195,4161.025539,4139.999899
40,0,4114.358874,4127.692207,4103.076823,4112.820412,4126.666566,4198.974256,4155.897334,4183.589641,4177.948616,4098.461438,4096.922977,4089.74349,4117.435797,4102.051182
41,0,4077.435798,4084.615285,4069.23067,4084.102464,4087.692208,4162.564001,4127.692207,4169.230667,4156.410155,4064.102465,4056.410157,4052.820414,4080.512721,4068.205029
42,0,4042.051183,4044.102465,4038.46144,4054.871696,4060.512721,4136.410155,4095.897336,4162.05118,4135.384514,4039.487081,4025.640927,4024.102466,4049.743491,4037.948619
43,0,4021.025543,4019.999902,4017.435799,4025.128107,4047.692209,4130.256309,4075.384516,4147.692206,4118.974258,4004.102466,4005.128107,4004.615287,4024.102466,4012.820415
44,0,4051.794773,4056.922978,4043.589645,4053.846055,4066.666567,4150.256309,4099.9999,4164.102462,4136.410155,4019.999902,4032.820414,4029.230671,4046.153747,4034.871696
45,0,4067.179388,4073.333234,4057.948619,4070.256311,4071.794772,4150.256309,4108.717848,4166.666565,4141.02554,4040.512722,4047.179388,4042.051183,4064.102465,4052.307593
46,0,4088.717849,4089.230669,4089.230669,4093.846054,4101.025541,4159.999898,4124.615284,4166.153744,4157.948616,4089.74349,4078.974259,4071.794772,4100.51272,4077.435798
47,0,4092.307592,4097.948618,4092.820413,4100.51272,4103.076823,4164.102462,4128.205027,4160.512719,4148.205027,4096.922977,4085.640926,4077.948618,4104.615284,4076.410157
48,0,4139.999899,4152.307591,4136.410155,4151.28195,4156.922975,4199.999897,4166.666565,4177.948616,4169.230667,4125.128104,4121.02554,4120.51272,4141.02554,4117.435797
49,0,4166.153744,4176.922975,4165.640924,4177.948616,4214.871692,4203.07682,4186.666564,4165.640924,4178.461436,4147.179386,4137.435796,4139.999899,4166.153744,4140.512719
50,0,4217.435794,4232.820409,4214.358871,4229.230666,4264.61528,4229.230666,4228.717845,4182.564,4210.769128,4215.384512,4188.717846,4188.717846,4223.58964,4190.769128
51,0,4250.256306,4268.717844,4241.025537,4259.487075,4260.512716,4256.922973,4246.153742,4203.589641,4232.820409,4256.922973,4217.435794,4223.58964,4257.948614,4224.615281
52,0,4278.974254,4298.974254,4277.435793,4292.820408,4290.256305,4291.281946,4275.384511,4226.666563,4265.128101,4288.205023,4246.666563,4256.410152,4291.794767,4261.538357
53,0,4268.717844,4291.281946,4274.87169,4291.281946,4298.974254,4276.410152,4275.384511,4206.666564,4254.35887,4290.256305,4246.666563,4253.84605,4290.769126,4259.487075
54,0,4274.87169,4291.281946,4276.410152,4294.358869,4298.461433,4284.61528,4283.589639,4222.563999,4264.10246,4286.666562,4252.820409,4261.538357,4297.948613,4262.051178
55,0,4251.794768,4261.025537,4252.820409,4265.128101,4269.230665,4285.640921,4264.10246,4229.743486,4262.051178,4249.230665,4230.256307,4237.948614,4268.205024,4233.33323
56,0,4223.58964,4239.487076,4228.717845,4238.974255,4245.128101,4277.435793,4248.205024,4225.640922,4245.128101,4226.153743,4205.128102,4211.794769,4232.307589,4210.769128
57,0,4180.512718,4201.025538,4184.102462,4195.384513,4202.051179,4235.897332,4211.281948,4212.82041,4215.897333,4188.717846,4161.025539,4169.743488,4187.179385,4172.820411
58,0,4158.974257,4171.281949,4152.820411,4163.076821,4184.102462,4211.794769,4186.153744,4208.205025,4196.410154,4151.79477,4130.256309,4133.846053,4159.999898,4141.53836
59,0,4142.564001,4148.205027,4135.897335,4143.589642,4166.153744,4212.307589,4175.897334,4208.205025,4186.666564,4137.435796,4119.487079,4118.461438,4138.974258,4125.640925
60,0,4103.076823,4103.589643,4101.025541,4108.205028,4106.666566,4197.435795,4153.846052,4196.922974,4170.769129,4095.384515,4093.333233,4091.794772,4105.640925,4098.461438
61,0,4088.717849,4090.769131,4092.307592,4099.9999,4082.564003,4184.102462,4141.53836,4203.589641,4169.230667,4078.461439,4090.769131,4081.025541,4101.538361,4088.717849
62,0,4097.435797,4104.102464,4098.461438,4110.25631,4113.846053,4183.589641,4141.53836,4211.794769,4172.30759,4104.102464,4096.410156,4082.564003,4105.640925,4094.871695
63,0,4121.538361,4130.76913,4119.999899,4136.410155,4161.025539,4197.948615,4165.128103,4225.640922,4197.435795,4146.153745,4119.487079,4105.640925,4131.794771,4116.922976
64,0,4121.02554,4133.333232,4120.51272,4133.333232,4146.666565,4189.230667,4160.512719,4206.666564,4187.179385,4124.102463,4122.564002,4105.640925,4138.974258,4111.794771
65,0,4165.128103,4185.640923,4172.30759,4179.487077,4179.999898,4214.871692,4185.640923,4211.281948,4202.564,4155.384514,4160.512719,4148.717847,4181.538359,4156.922975
66,0,4192.82041,4215.897333,4195.384513,4212.82041,4226.666563,4229.743486,4214.871692,4214.871692,4214.358871,4198.974256,4172.30759,4168.205026,4202.051179,4182.05118
67,0,4258.461434,4275.384511,4250.769127,4276.410152,4291.281946,4274.87169,4281.025536,4247.179383,4259.999896,4274.87169,4236.922973,4231.794768,4267.179383,4237.948614
68,0,4319.999894,4328.717843,4314.871689,4326.666561,4324.615279,4312.820407,4316.410151,4272.820408,4294.358869,4322.563997,4295.38451,4293.846049,4326.15374,4294.87169
69,0,4357.948611,4373.846047,4365.128098,4369.230662,4365.640919,4339.999894,4343.589637,4288.205023,4325.64092,4361.025534,4325.128099,4334.358868,4365.128098,4338.461432
70,0,4326.15374,4351.794765,4344.615278,4353.333227,4358.461432,4314.358869,4330.769125,4261.025537,4305.64092,4354.871688,4306.153741,4316.410151,4346.66656,4317.948612
71,0,4334.358868,4349.743483,4350.769124,4359.999893,4359.999893,4331.794766,4344.615278,4274.87169,4316.410151,4361.025534,4323.076817,4332.820407,4354.871688,4323.589638
72,0,4336.922971,4345.128099,4344.102458,4352.307586,4354.871688,4342.051176,4339.999894,4275.384511,4318.974253,4350.769124,4320.512715,4328.205022,4345.128099,4317.948612
73,0,4323.076817,4340.512714,4330.256304,4340.512714,4358.461432,4340.512714,4330.256304,4276.922972,4315.38451,4344.102458,4308.717843,4308.205023,4331.281945,4311.281946
74,0,4274.35887,4298.461433,4287.692203,4298.974254,4308.205023,4301.538356,4288.717844,4264.10246,4287.179382,4299.999895,4270.769126,4267.179383,4292.307587,4272.820408
75,0,4243.076819,4261.025537,4246.666563,4259.999896,4251.794768,4270.769126,4256.922973,4247.179383,4254.871691,4254.35887,4234.358871,4236.410153,4255.384511,4234.358871
76,0,4205.128102,4210.769128,4202.564,4206.153743,4207.692205,4247.692204,4222.051179,4231.794768,4228.717845,4215.897333,4194.358872,4193.846051,4204.615282,4197.435795
77,0,4157.948616,4154.358873,4158.974257,4158.461437,4175.384513,4224.615281,4185.640923,4222.563999,4209.743487,4160.512719,4152.820411,4145.640924,4157.435796,4155.384514
78,0,4124.615284,4122.564002,4123.589643,4129.743489,4141.53836,4195.384513,4155.897334,4208.205025,4187.692205,4115.384515,4126.153745,4117.435797,4129.743489,4119.487079
79,0,4115.897335,4117.435797,4107.179387,4106.666566,4119.999899,4186.666564,4146.153745,4201.538359,4177.435795,4108.205028,4114.358874,4105.128105,4113.846053,4108.205028
80,0,4138.974258,4138.974258,4134.871694,4133.333232,4151.28195,4205.640923,4167.179385,4230.769127,4206.666564,4144.615283,4137.435796,4123.076822,4135.897335,4130.76913
81,0,4132.307591,4135.897335,4134.871694,4152.307591,4158.461437,4193.846051,4165.128103,4222.563999,4193.846051,4135.384514,4134.871694,4120.51272,4137.948617,4123.076822
82,0,4157.948616,4167.692206,4161.53836,4180.512718,4171.281949,4206.153743,4189.743487,4222.563999,4195.897333,4155.384514,4163.076821,4150.256309,4169.230667,4150.769129
83,0,4199.487077,4205.640923,4198.974256,4200.512718,4200.512718,4233.33323,4215.384512,4239.487076,4219.487076,4188.205026,4194.358872,4183.076821,4206.666564,4188.717846
84,0,4254.871691,4263.589639,4258.461434,4256.410152,4275.897331,4271.281947,4254.35887,4264.61528,4262.051178,4260.512716,4251.281947,4243.076819,4265.640921,4245.128101
85,0,4258.974255,4273.846049,4266.153742,4275.897331,4284.102459,4267.179383,4259.999896,4247.692204,4256.410152,4284.61528,4255.897332,4254.35887,4274.87169,4257.948614
86,0,4302.051177,4317.948612,4305.64092,4322.051176,4307.179382,4293.846049,4300.512715,4258.974255,4282.563998,4321.538356,4284.102459,4288.717844,4318.974253,4295.897331
87,0,4326.15374,4339.487073,4333.333227,4343.076817,4337.435791,4305.64092,4317.948612,4262.051178,4295.38451,4342.563996,4309.743484,4308.717843,4348.205022,4310.769125
88,0,4336.922971,4350.769124,4350.256304,4353.333227,4363.589637,4321.025535,4331.794766,4266.153742,4305.1281,4362.051175,4332.820407,4325.64092,4363.589637,4322.563997
89,0,4326.666561,4339.999894,4331.794766,4344.102458,4346.15374,4307.179382,4319.487074,4252.307588,4291.794767,4349.743483,4316.410151,4313.333228,4347.179381,4315.38451
90,0,4339.487073,4350.256304,4332.820407,4348.205022,4355.897329,4318.974253,4322.051176,4269.230665,4300.512715,4349.230663,4316.922971,4317.435792,4349.230663,4326.666561
91,0,4312.307587,4321.025535,4307.179382,4313.333228,4327.179381,4309.230664,4305.1281,4261.025537,4289.230664,4323.076817,4294.87169,4290.256305,4321.025535,4294.87169
92,0,4298.974254,4304.102459,4295.897331,4304.102459,4293.846049,4302.051177,4300.512715,4263.076819,4290.256305,4310.769125,4287.692203,4281.025536,4309.743484,4278.974254
93,0,4270.769126,4271.281947,4268.205024,4278.461434,4263.076819,4276.922972,4265.640921,4263.076819,4278.461434,4282.051177,4266.153742,4258.461434,4280.512716,4261.538357
94,0,4224.615281,4227.179384,4221.538358,4226.666563,4237.435794,4248.205024,4227.179384,4248.717845,4243.076819,4224.615281,4217.948615,4209.743487,4233.33323,4221.025538
95,0,4178.974257,4181.538359,4173.846052,4181.538359,4194.358872,4219.487076,4197.435795,4230.769127,4209.230666,4171.79477,4171.281949,4161.53836,4185.128103,4168.717847
96,0,4153.333232,4144.615283,4143.076822,4149.230668,4151.28195,4202.051179,4170.256308,4223.58964,4194.358872,4135.897335,4145.128104,4132.820412,4147.179386,4136.410155
97,0,4146.153745,4130.76913,4138.461437,4136.410155,4135.384514,4193.333231,4153.333232,4226.153743,4192.30759,4126.666566,4137.435796,4124.102463,4137.435796,4131.28195
98,0,4123.589643,4113.846053,4119.487079,4121.02554,4123.589643,4174.871693,4138.461437,4208.205025,4168.205026,4104.615284,4113.846053,4099.487079,4120.51272,4108.717848
99,0,4118.974258,4113.333233,4122.051181,4121.02554,4132.820412,4181.025539,4145.128104,4212.307589,4171.281949,4111.281951,4116.410156,4102.051182,4121.02554,4107.692207
100,0,4125.640925,4115.384515,4128.205027,4120.51272,4129.230668,4182.05118,4148.717847,4211.281948,4173.333231,4115.897335,4121.02554,4104.615284,4127.179386,4114.871694
101,0,4169.743488,4165.640924,4170.769129,4172.820411,4156.410155,4201.538359,4181.025539,4217.435794,4193.333231,4160.512719,4163.589642,4144.615283,4173.333231,4158.461437
102,0,4167.179385,4175.384513,4171.79477,4182.564,4172.820411,4197.948615,4178.461436,4196.922974,4183.589641,4158.461437,4161.025539,4149.230668,4172.820411,4163.589642
103,0,4194.358872,4201.538359,4202.564,4204.615282,4222.051179,4219.999897,4203.589641,4196.410154,4196.410154,4185.128103,4177.435795,4179.999898,4202.051179,4192.30759
104,0,4225.640922,4227.179384,4233.33323,4228.205025,4234.358871,4232.307589,4223.58964,4195.384513,4204.102461,4222.051179,4201.538359,4211.794769,4235.384512,4219.487076
105,0,4259.487075,4264.61528,4270.769126,4270.769126,4255.897332,4245.128101,4244.10246,4202.564,4220.512717,4261.025537,4241.538358,4249.743486,4270.256306,4252.820409
106,0,4250.769127,4258.974255,4259.487075,4268.205024,4261.025537,4219.487076,4226.153743,4178.974257,4199.487077,4256.922973,4234.358871,4235.897332,4264.10246,4239.999896
107,0,4258.461434,4265.640921,4254.35887,4265.640921,4270.769126,4228.717845,4229.743486,4179.999898,4196.922974,4261.538357,4232.307589,4228.205025,4266.666562,4236.922973
108,0,4244.10246,4249.230665,4232.820409,4239.999896,4243.58964,4228.205025,4222.563999,4169.230667,4187.179385,4236.922973,4214.358871,4211.281948,4244.615281,4219.487076
109,0,4225.640922,4226.666563,4217.435794,4222.051179,4230.256307,4216.922974,4212.307589,4170.769129,4187.692205,4212.82041,4197.435795,4195.897333,4229.230666,4210.256307
110,0,4165.640924,4161.53836,4159.487078,4166.666565,4173.846052,4170.256308,4156.922975,4142.051181,4153.846052,4157.948616,4139.487078,4131.794771,4174.358872,4156.922975
111,0,4126.666566,4121.538361,4119.999899,4124.615284,4125.640925,4156.410155,4130.76913,4125.128104,4135.384514,4112.820412,4106.666566,4095.897336,4134.358873,4121.538361
112,0,4093.846054,4089.74349,4091.794772,4087.179387,4091.281951,4141.02554,4106.666566,4119.999899,4122.564002,4082.564003,4091.281951,4081.025541,4101.025541,4097.435797
113,0,4056.410157,4044.615286,4044.615286,4038.97426,4057.435798,4099.487079,4057.948619,4108.717848,4092.820413,4036.410158,4047.692209,4038.97426,4054.358875,4055.384516
114,0,4019.487081,4003.589646,3999.487082,3995.897338,4014.358876,4057.948619,4017.94862,4089.74349,4063.589644,3977.948621,3998.461441,3988.717851,4007.69221,4012.307594
115,0,3996.922979,3981.538364,3976.92298,3972.820416,3962.564006,4049.23067,4004.615287,4068.717849,4039.487081,3932.820417,3968.717852,3961.025544,3982.051185,3985.640928
116,0,4001.025543,3981.538364,3982.051185,3976.410159,3957.948621,4066.153747,4004.102466,4081.538362,4038.97426,3940.512724,3970.769134,3965.128108,3987.69221,3989.230672
117,0,3988.205031,3968.205031,3969.230672,3964.615288,3968.205031,4047.179388,3987.69221,4074.358875,4020.512722,3932.820417,3956.41016,3947.692211,3976.410159,3977.948621
118,0,3988.205031,3978.974262,3978.461441,3976.92298,3985.128108,4032.307594,3992.820415,4058.461439,4018.46144,3949.743493,3963.589647,3955.897339,3987.17939,3986.153749
119,0,3973.846057,3966.66657,3972.307595,3970.256313,3976.92298,4021.025543,3981.025544,4031.281953,4001.538364,3953.333237,3952.820416,3952.307596,3982.051185,3976.92298
120,0,4009.230671,3995.897338,4009.230671,4002.051184,4010.256312,4048.71785,4010.769133,4042.051183,4028.71785,3994.871697,3983.589646,3985.640928,4015.897338,4007.69221
121,0,4043.589645,4033.333235,4034.871696,4032.820414,4022.564004,4070.769131,4039.487081,4056.922978,4056.922978,4018.974261,4015.384517,4013.333235,4040.512722,4036.410158
122,0,4092.307592,4093.333233,4080.512721,4086.666567,4077.948618,4097.435797,4078.461439,4073.333234,4072.820413,4059.999901,4068.205029,4064.102465,4089.74349,4083.076823
123,0,4097.435797,4100.51272,4094.871695,4086.666567,4115.897335,4083.589644,4079.9999,4058.461439,4051.281952,4073.333234,4073.846054,4071.281952,4105.640925,4087.692208
124,0,4114.358874,4112.307592,4113.846053,4100.51272,4121.02554,4089.74349,4092.307592,4058.97426,4062.564003,4101.025541,4077.435798,4076.922977,4125.128104,4097.435797
125,0,4110.76913,4108.205028,4102.564002,4110.25631,4096.922977,4081.538362,4080.512721,4043.589645,4050.256311,4095.384515,4063.076824,4066.153747,4118.974258,4088.717849
126,0,4120.51272,4118.974258,4111.794771,4124.102463,4119.999899,4094.871695,4091.281951,4061.538362,4059.48708,4101.025541,4078.461439,4084.615285,4127.179386,4104.102464
127,0,4109.743489,4101.538361,4105.640925,4101.538361,4109.743489,4090.25631,4085.128105,4062.564003,4063.076824,4094.871695,4076.410157,4082.051182,4115.384515,4100.51272
128,0,4089.230669,4077.435798,4083.589644,4075.897336,4075.897336,4089.230669,4075.897336,4059.48708,4058.97426,4074.358875,4061.538362,4065.128106,4098.461438,4086.153746
0,0,4024.102466,4014.871697,4023.076825,4015.897338,4021.538363,4051.281952,4027.179389,4030.769132,4022.564004,4009.230671,4005.640928,4008.717851,4038.46144,4030.769132
1,0,3992.820415,3977.4358,3986.153749,3978.461441,3993.846056,4032.307594,3997.4358,4020.512722,4010.256312,3969.743493,3968.205031,3970.256313,3993.333236,3991.794774
2,0,3969.743493,3949.743493,3953.333237,3944.615288,3956.92298,4017.435799,3971.794775,4013.846056,3995.897338,3943.589647,3942.564006,3938.461442,3953.846057,3955.384519
3,0,3911.794776,3896.410161,3889.743495,3879.999905,3896.922982,3975.897339,3919.999904,3984.102467,3949.230673,3873.846059,3885.12811,3879.487085,3893.846059,3897.435802
4,0,3880.512726,3865.128111,3857.435803,3855.897342,3869.230675,3954.871698,3894.8717,3975.384518,3938.461442,3838.974265,3856.410162,3848.205034,3870.769136,3874.35888
5,0,3888.205033,3870.256316,3863.076829,3870.769136,3873.846059,3960.512724,3902.051187,3978.461441,3944.615288,3849.230675,3862.564008,3849.230675,3878.461444,3881.025546
6,0,3898.461443,3886.666572,3876.922982,3879.999905,3891.794777,3969.743493,3909.743494,3985.128108,3949.230673,3859.999906,3871.794777,3860.512726,3886.153751,3889.743495
7,0,3872.820418,3866.153752,3858.974265,3858.974265,3880.512726,3949.743493,3889.230674,3966.153749,3926.666571,3833.33324,3851.281957,3842.564009,3869.743495,3871.281957
8,0,3892.820418,3884.61529,3887.179392,3887.692213,3901.538366,3957.948621,3906.153751,3964.615288,3936.922981,3871.794777,3880.512726,3872.820418,3903.589648,3898.974264
9,0,3909.743494,3903.076828,3898.974264,3897.948623,3913.333238,3961.025544,3912.820417,3958.461442,3939.999904,3891.794777,3892.307597,3889.743495,3914.871699,3910.769135
10,0,3954.358878,3953.846057,3940.512724,3942.564006,3961.025544,3983.589646,3944.615288,3977.4358,3959.487083,3930.769135,3933.846058,3930.769135,3956.92298,3952.307596
11,0,3983.589646,3982.051185,3974.871698,3981.538364,3990.769133,3993.846056,3967.692211,3978.461441,3965.128108,3962.564006,3962.564006,3955.897339,3991.794774,3982.564005
12,0,4035.384517,4037.435799,4032.307594,4036.410158,4042.051183,4022.564004,4009.230671,3991.281954,3992.307595,4017.94862,4004.102466,4007.69221,4048.71785,4029.230671
13,0,4054.358875,4063.589644,4053.846055,4057.948619,4054.358875,4030.769132,4025.640927,3997.4358,4002.564005,4039.999901,4023.076825,4032.820414,4075.897336,4049.23067
14,0,4066.666567,4071.794772,4063.589644,4071.794772,4062.051183,4039.487081,4039.487081,4011.794774,4013.333235,4051.794773,4033.846055,4041.538363,4087.179387,4065.128106
15,0,4048.71785,4049.23067,4040.512722,4042.564004,4051.281952,4005.640928,4007.179389,3984.102467,3977.948621,4028.20503,4003.076825,4013.846056,4054.358875,4039.999901
16,0,4048.71785,4053.333234,4047.692209,4037.435799,4065.128106,4017.435799,4015.897338,3996.410159,3985.128108,4038.97426,4014.871697,4023.589645,4056.922978,4042.051183
17,0,4027.692209,4030.256312,4033.846055,4025.640927,4045.128106,4019.999902,4020.512722,4006.666569,3997.94862,4032.820414,4016.410158,4014.871697,4048.205029,4034.358876
18,0,4016.922979,4009.230671,4006.666569,4013.333235,4009.230671,4010.769133,4008.20503,4003.076825,3996.922979,3993.333236,3991.794774,3987.69221,4022.564004,4014.358876
19,0,3981.538364,3975.384518,3959.487083,3968.717852,3953.333237,3991.794774,3966.66657,3987.17939,3974.358877,3943.589647,3949.743493,3944.615288,3968.205031,3966.66657
20,0,3945.640929,3939.487083,3923.076827,3927.179391,3931.794776,3986.153749,3941.025545,3977.948621,3957.435801,3912.820417,3917.948622,3907.692212,3932.307596,3931.281955
21,0,3934.358878,3916.410161,3910.769135,3915.38452,3938.974263,3976.92298,3937.948622,3976.92298,3957.948621,3899.999905,3903.589648,3888.717854,3926.666571,3921.538366
22,0,3918.974263,3895.38452,3894.358879,3898.974264,3911.794776,3961.025544,3929.230673,3972.307595,3943.076827,3875.384521,3886.666572,3871.794777,3910.256315,3909.743494
23,0,3892.307597,3879.487085,3878.461444,3876.410162,3873.333239,3957.435801,3909.743494,3972.307595,3934.871699,3859.487085,3871.794777,3858.461444,3885.12811,3896.410161
24,0,3867.692213,3856.922983,3855.384521,3853.333239,3854.35888,3938.461442,3875.897341,3954.871698,3912.307597,3836.922983,3852.307598,3839.487086,3861.538367,3872.820418
25,0,3891.794777,3879.487085,3879.999905,3877.948623,3873.333239,3944.615288,3888.717854,3962.564006,3919.487084,3853.84606,3882.051187,3867.179393,3889.230674,3892.820418
26,0,3905.12811,3898.974264,3896.410161,3889.743495,3884.102469,3943.589647,3905.12811,3962.564006,3920.512725,3868.205034,3889.230674,3880.512726,3902.564007,3906.666571
27,0,3946.15375,3942.564006,3941.025545,3935.384519,3949.230673,3971.794775,3944.102468,3979.487082,3946.15375,3927.179391,3927.692212,3924.102468,3946.15375,3946.66657
28,0,3975.384518,3967.17939,3969.230672,3974.358877,3991.281954,4001.025543,3970.769134,3985.640928,3966.66657,3952.820416,3953.846057,3950.769134,3977.948621,3967.17939
29,0,4026.666568,4023.076825,4020.512722,4027.692209,4030.256312,4026.153748,4007.69221,3999.487082,3992.820415,4004.615287,3996.410159,3995.384518,4031.794773,4014.871697
30,0,4041.025542,4041.025542,4038.97426,4030.769132,4025.128107,4017.94862,4006.666569,3989.230672,3985.128108,4042.564004,4011.794774,4014.358876,4048.71785,4035.897337
31,0,4064.102465,4060.512721,4067.692208,4056.410157,4063.076824,4029.230671,4024.102466,3995.897338,3994.871697,4065.128106,4039.487081,4045.640927,4071.794772,4066.153747
32,0,4067.179388,4065.640926,4072.307593,4072.307593,4092.820413,4013.846056,4019.487081,3986.666569,3982.051185,4047.692209,4034.871696,4047.692209,4073.846054,4068.205029
33,0,4089.74349,4102.051182,4096.922977,4099.487079,4110.76913,4038.97426,4049.743491,4012.307594,4008.20503,4086.153746,4061.538362,4075.384516,4107.179387,4095.384515
34,0,4099.9999,4113.846053,4110.76913,4106.666566,4096.410156,4063.076824,4074.871695,4029.230671,4035.384517,4124.615284,4087.692208,4093.846054,4123.076822,4111.281951
35,0,4113.846053,4108.717848,4111.794771,4109.743489,4105.128105,4079.9999,4083.589644,4041.025542,4050.256311,4119.487079,4090.769131,4093.846054,4117.435797,4112.820412
36,0,4054.358875,4042.051183,4036.922978,4038.97426,4062.051183,4031.794773,4021.025543,4003.589646,3992.820415,4039.999901,4023.076825,4024.102466,4044.102465,4042.051183
37,0,3992.820415,3992.307595,3978.461441,3981.538364,3993.333236,3994.358877,3975.384518,3969.230672,3950.256314,3972.307595,3966.153749,3962.564006,3987.17939,3985.128108
38,0,3977.4358,3973.846057,3972.820416,3973.846057,3964.102467,3991.794774,3966.66657,3971.281954,3964.615288,3946.66657,3950.256314,3944.102468,3976.410159,3976.410159
39,0,3968.717852,3948.717852,3957.435801,3954.358878,3953.846057,3991.281954,3957.435801,3984.102467,3969.230672,3924.615289,3933.846058,3932.307596,3963.076826,3965.640929
40,0,3936.41016,3917.948622,3925.64093,3922.564007,3934.358878,3981.538364,3938.974263,3986.153749,3955.897339,3909.230674,3915.38452,3912.307597,3935.384519,3939.487083
41,0,3892.307597,3887.179392,3894.358879,3893.846059,3912.820417,3951.794775,3912.820417,3963.589647,3927.692212,3881.025546,3886.666572,3874.8717,3896.922982,3904.102469
42,0,3896.410161,3889.230674,3898.974264,3898.461443,3904.102469,3943.076827,3911.794776,3971.794775,3930.769135,3873.846059,3885.12811,3873.333239,3896.922982,3903.076828
43,0,3929.743494,3915.89734,3916.922981,3915.38452,3901.538366,3952.820416,3923.589648,3989.743492,3937.435801,3889.743495,3897.948623,3893.846059,3916.922981,3923.589648
44,0,3973.846057,3971.794775,3962.564006,3960.512724,3955.384519,3990.256313,3957.948621,4005.640928,3961.025544,3958.461442,3946.15375,3937.948622,3964.615288,3968.717852
45,0,3957.435801,3962.051185,3954.358878,3957.435801,3972.820416,3983.076826,3951.281955,3978.461441,3947.692211,3951.794775,3942.051186,3928.205032,3959.999903,3960.512724
46,0,3993.846056,3992.307595,3989.743492,3996.410159,4003.076825,3996.922979,3981.025544,3986.153749,3968.205031,3969.230672,3974.358877,3966.153749,3999.487082,3993.846056
47,0,4053.333234,4050.256311,4052.307593,4051.794773,4046.666568,4041.538363,4032.307594,4015.384517,4010.256312,4030.256312,4032.307594,4031.794773,4064.615285,4052.820414
48,0,4107.179387,4109.230669,4114.358874,4112.307592,4111.794771,4081.538362,4083.076823,4042.051183,4046.666568,4112.820412,4087.692208,4091.794772,4126.666566,4110.76913
49,0,4093.846054,4100.51272,4097.948618,4103.076823,4106.666566,4050.256311,4061.025542,4019.487081,4026.666568,4117.948617,4069.74349,4076.410157,4106.666566,4094.871695
50,0,4102.564002,4121.02554,4106.153746,4113.846053,4119.999899,4049.743491,4068.717849,4019.999902,4033.333235,4128.205027,4081.538362,4086.153746,4108.205028,4102.051182
51,0,4113.846053,4138.461437,4122.564002,4131.794771,4137.948617,4049.23067,4078.974259,4016.922979,4028.20503,4134.358873,4097.948618,4100.51272,4128.717848,4115.897335
52,0,4143.589642,4150.256309,4139.999899,4147.692206,4159.487078,4072.820413,4093.846054,4036.922978,4045.640927,4142.051181,4115.384515,4116.410156,4156.410155,4136.410155
53,0,4123.589643,4115.897335,4110.25631,4108.717848,4124.615284,4070.256311,4075.897336,4024.615286,4038.46144,4107.179387,4089.230669,4087.179387,4118.974258,4109.230669
54,0,4085.640926,4081.025541,4082.564003,4079.9999,4083.589644,4059.999901,4062.051183,4013.333235,4019.999902,4069.23067,4058.97426,4059.48708,4080.512721,4081.538362
55,0,4039.999901,4037.435799,4044.615286,4046.666568,4044.102465,4027.179389,4027.179389,4004.102466,3994.871697,4027.692209,4015.897338,4021.025543,4048.205029,4048.71785
56,0,4020.512722,4019.999902,4018.974261,4019.487081,4032.820414,4014.358876,4008.717851,4005.128107,3993.846056,3997.94862,3994.871697,3995.897338,4026.666568,4026.666568
57,0,3982.564005,3988.205031,3987.17939,3987.17939,3993.333236,4001.538364,3987.17939,4001.538364,3987.17939,3968.205031,3977.948621,3966.153749,3986.153749,3992.820415
58,0,3932.820417,3930.256314,3938.974263,3941.025545,3925.64093,3976.92298,3948.717852,3986.666569,3959.999903,3930.256314,3937.435801,3921.538366,3941.025545,3947.692211
59,0,3930.769135,3914.871699,3931.794776,3923.076827,3913.846058,3977.4358,3937.435801,3994.358877,3965.640929,3918.461443,3925.128109,3915.89734,3937.948622,3941.538365
60,0,3932.307596,3919.999904,3932.820417,3916.922981,3927.179391,3978.974262,3935.384519,3993.333236,3958.461442,3902.051187,3919.487084,3911.794776,3932.307596,3937.948622
61,0,3933.333237,3932.307596,3937.435801,3930.769135,3945.128109,3983.589646,3943.076827,3995.384518,3955.897339,3919.487084,3927.179391,3913.846058,3933.846058,3938.974263
62,0,3929.743494,3929.230673,3928.717853,3934.358878,3946.15375,3966.66657,3938.461442,3978.461441,3940.512724,3925.64093,3914.871699,3905.64093,3928.205032,3931.794776
63,0,3975.897339,3973.846057,3977.948621,3981.025544,3975.384518,3984.615287,3972.307595,3987.17939,3968.205031,3969.743493,3953.333237,3951.794775,3976.410159,3977.948621
64,0,3996.922979,3991.281954,4010.769133,4002.051184,3977.4358,4001.538364,3991.794774,3996.922979,3990.769133,3999.487082,3987.69221,3984.102467,4007.69221,4007.179389
65,0,4036.410158,4030.769132,4055.897337,4046.153747,4030.256312,4024.615286,4025.128107,4010.256312,4009.230671,4053.846055,4033.846055,4029.230671,4055.897337,4050.256311
66,0,4061.025542,4059.48708,4070.769131,4070.256311,4067.179388,4026.666568,4032.307594,3997.94862,3998.461441,4071.794772,4046.666568,4044.615286,4076.922977,4067.692208
67,0,4107.179387,4114.871694,4111.794771,4115.384515,4111.281951,4058.461439,4070.769131,4016.922979,4027.692209,4105.128105,4090.769131,4088.205028,4121.02554,4107.179387
68,0,4120.51272,4139.999899,4133.333232,4136.922976,4144.615283,4066.666567,4087.692208,4025.128107,4041.538363,4131.28195,4108.717848,4106.666566,4136.922976,4122.051181
69,0,4138.461437,4156.410155,4148.717847,4155.897334,4175.897334,4085.640926,4103.589643,4036.922978,4057.948619,4161.53836,4113.333233,4113.846053,4149.230668,4137.435796
70,0,4131.794771,4137.435796,4128.717848,4134.871694,4143.076822,4076.410157,4094.358874,4023.589645,4043.589645,4133.333232,4095.897336,4097.948618,4134.871694,4123.589643
71,0,4124.102463,4128.205027,4124.615284,4128.205027,4112.820412,4078.461439,4098.461438,4036.922978,4039.487081,4107.692207,4096.410156,4097.948618,4131.28195,4119.487079
72,0,4089.230669,4093.333233,4102.564002,4106.153746,4078.974259,4065.128106,4072.307593,4031.281953,4029.230671,4084.615285,4071.281952,4067.692208,4103.076823,4092.820413
73,0,4078.461439,4073.846054,4084.102464,4086.666567,4076.922977,4065.640926,4061.025542,4030.256312,4041.538363,4077.948618,4062.051183,4050.769132,4086.153746,4084.615285
74,0,4045.640927,4039.487081,4043.589645,4041.538363,4045.128106,4042.564004,4031.794773,4026.666568,4032.307594,4051.794773,4048.71785,4032.820414,4052.307593,4062.564003
75,0,4003.076825,3995.384518,3997.94862,3991.794774,3985.128108,4014.358876,3988.205031,4007.179389,3996.410159,3999.487082,4007.69221,3992.307595,4007.69221,4021.538363
76,0,3989.743492,3966.66657,3970.769134,3967.692211,3958.461442,3991.794774,3958.974262,3990.769133,3977.948621,3960.512724,3970.256313,3958.461442,3978.974262,3997.94862
77,0,3975.897339,3942.051186,3938.974263,3938.461442,3921.538366,3959.487083,3927.179391,3969.230672,3950.256314,3913.846058,3932.820417,3925.128109,3946.66657,3982.564005
78,0,3976.410159,3942.564006,3928.717853,3923.076827,3884.102469,3949.743493,3909.230674,3965.128108,3935.89734,3888.717854,3919.487084,3910.256315,3937.948622,3991.794774
79,0,3995.384518,3948.205032,3934.358878,3920.512725,3885.640931,3943.076827,3904.102469,3956.41016,3922.564007,3877.948623,3911.794776,3906.153751,3939.999904,4006.666569
80,0,4047.692209,3979.487082,3974.358877,3962.564006,3939.999904,3958.974262,3932.307596,3965.640929,3937.948622,3922.051186,3941.025545,3948.717852,3973.846057,4056.410157
81,0,4063.589644,3988.205031,3984.615287,3976.410159,3946.15375,3955.897339,3933.333237,3956.41016,3934.358878,3933.846058,3948.717852,3966.153749,3987.17939,4081.025541
82,0,4117.435797,4043.589645,4029.743491,4020.512722,3974.358877,3982.564005,3969.230672,3974.358877,3963.589647,3984.102467,4004.102466,4009.743492,4039.999901,4134.358873
83,0,4166.666565,4093.333233,4068.205029,4057.948619,4022.051184,4015.897338,4007.179389,4000.512723,3997.4358,4043.076824,4058.97426,4050.256311,4082.564003,4177.435795
84,0,4211.794769,4142.564001,4120.51272,4109.230669,4096.410156,4044.615286,4046.666568,4016.922979,4016.410158,4087.692208,4105.640925,4106.666566,4131.794771,4228.717845
85,0,4221.025538,4153.333232,4136.410155,4128.205027,4095.897336,4030.769132,4047.692209,3995.384518,3994.871697,4075.897336,4098.461438,4112.820412,4144.102463,4235.897332
86,0,4272.307588,4201.025538,4178.461436,4174.871693,4108.717848,4059.999901,4083.076823,4020.512722,4033.333235,4129.743489,4131.794771,4145.128104,4189.230667,4273.333229
87,0,4285.640921,4215.897333,4186.666564,4186.666564,4134.871694,4068.205029,4090.25631,4031.281953,4052.307593,4170.769129,4152.307591,4160.512719,4208.205025,4288.717844
88,0,4270.769126,4211.281948,4185.640923,4186.153744,4167.692206,4075.897336,4096.922977,4040.512722,4057.948619,4162.05118,4158.974257,4167.692206,4209.743487,4288.717844
89,0,4241.538358,4185.640923,4173.846052,4166.666565,4144.102463,4076.922977,4096.410156,4037.948619,4052.820414,4132.820412,4145.640924,4153.846052,4190.769128,4262.051178
90,0,4239.999896,4175.384513,4179.999898,4165.128103,4130.256309,4098.461438,4112.307592,4057.948619,4071.281952,4151.79477,4154.871693,4157.948616,4195.384513,4255.384511
91,0,4178.974257,4122.564002,4130.256309,4117.435797,4079.9999,4068.717849,4067.179388,4039.487081,4050.769132,4119.487079,4118.461438,4111.281951,4143.076822,4202.051179
92,0,4109.230669,4075.897336,4060.512721,4054.358875,4033.846055,4036.922978,4016.410158,4008.717851,4013.846056,4044.102465,4055.384516,4046.153747,4071.281952,4131.794771
93,0,4061.538362,4028.20503,4010.769133,4001.025543,4007.69221,4014.871697,3989.743492,3993.333236,3985.128108,3984.615287,4006.153748,3999.999902,4017.94862,4072.820413
94,0,4031.794773,3978.461441,3987.69221,3972.820416,3972.820416,3998.461441,3976.410159,3990.256313,3972.820416,3958.974262,3983.589646,3969.230672,3991.794774,4040.512722
95,0,4019.999902,3972.820416,3991.281954,3970.769134,3959.487083,4001.025543,3975.897339,4007.179389,3991.794774,3970.256313,3984.615287,3964.102467,3993.846056,4041.538363
96,0,3994.871697,3967.17939,3969.743493,3949.230673,3950.769134,3983.589646,3959.999903,4001.025543,3978.461441,3947.692211,3958.974262,3944.102468,3970.256313,4017.435799
97,0,3994.871697,3964.615288,3966.66657,3952.820416,3961.538365,3984.615287,3962.051185,4006.153748,3976.92298,3951.794775,3964.615288,3948.205032,3964.615288,4009.230671
98,0,3992.820415,3956.92298,3972.820416,3956.41016,3968.717852,3982.051185,3954.358878,3996.922979,3972.307595,3971.794775,3976.410159,3957.435801,3971.281954,4009.230671
99,0,4011.281953,3985.128108,4007.179389,3982.564005,3988.205031,3991.794774,3969.230672,3993.333236,3979.999903,3998.974261,3997.94862,3984.102467,4005.128107,4026.666568
100,0,4029.230671,4011.794774,4026.666568,4007.179389,3992.820415,4010.769133,3998.461441,4005.128107,3990.769133,4006.153748,4008.20503,3996.410159,4022.051184,4034.871696
101,0,4091.794772,4078.974259,4085.640926,4075.897336,4060.512721,4062.051183,4061.025542,4044.102465,4039.999901,4085.128105,4078.974259,4061.538362,4084.102464,4097.435797
102,0,4110.25631,4098.974259,4102.051182,4094.358874,4103.076823,4064.102465,4068.205029,4028.20503,4044.102465,4114.871694,4096.410156,4080.512721,4108.717848,4115.897335
103,0,4134.871694,4126.666566,4131.28195,4120.51272,4140.512719,4068.717849,4085.128105,4021.538363,4047.179388,4133.846053,4106.153746,4102.051182,4136.410155,4137.435796
104,0,4149.230668,4143.076822,4154.871693,4141.53836,4146.666565,4075.384516,4097.435797,4029.230671,4046.153747,4154.358873,4123.076822,4123.589643,4153.846052,4154.871693
105,0,4169.743488,4168.717847,4178.461436,4173.846052,4165.128103,4102.051182,4123.076822,4053.333234,4071.794772,4187.179385,4157.435796,4154.871693,4181.538359,4179.487077
106,0,4144.102463,4147.179386,4153.333232,4151.28195,4150.769129,4082.564003,4112.307592,4032.307594,4056.922978,4167.179385,4134.871694,4131.28195,4159.487078,4155.897334
107,0,4128.205027,4130.256309,4148.717847,4130.256309,4143.589642,4081.025541,4116.410156,4033.333235,4054.871696,4150.256309,4125.128104,4122.051181,4146.666565,4144.615283
108,0,4109.743489,4110.25631,4131.28195,4110.76913,4109.743489,4074.358875,4098.974259,4031.794773,4050.256311,4131.28195,4121.02554,4110.25631,4130.76913,4123.589643
109,0,4115.897335,4116.410156,4114.871694,4114.358874,4113.333233,4080.512721,4092.820413,4044.102465,4062.051183,4125.128104,4117.435797,4097.948618,4125.128104,4113.333233
110,0,4083.589644,4084.615285,4076.410157,4080.512721,4107.692207,4056.922978,4062.564003,4041.538363,4056.410157,4097.948618,4073.846054,4053.333234,4082.051182,4075.897336
111,0,4042.051183,4040.512722,4044.615286,4039.999901,4065.128106,4038.97426,4035.897337,4030.256312,4032.820414,4065.128106,4032.307594,4011.281953,4045.640927,4037.435799
112,0,4017.94862,4012.820415,4024.102466,4015.897338,4022.564004,4035.384517,4027.692209,4029.230671,4022.051184,4041.538363,4021.025543,3994.358877,4031.794773,4020.512722
113,0,3991.794774,3984.102467,3998.461441,3989.230672,4007.69221,4023.589645,4015.897338,4030.256312,4018.974261,4005.128107,4009.230671,3978.974262,4008.717851,4005.128107
114,0,3983.076826,3977.948621,3998.974261,3989.230672,4002.564005,4025.640927,4013.333235,4045.640927,4024.615286,4004.615287,4007.69221,3978.461441,3997.94862,3999.999902
115,0,3981.025544,3985.128108,3999.999902,3989.743492,3984.102467,4023.076825,4009.230671,4041.025542,4002.051184,4005.640928,3999.487082,3972.307595,3990.256313,3990.256313
116,0,4006.153748,4013.333235,4025.640927,4012.820415,4024.102466,4033.333235,4028.71785,4052.307593,4014.871697,4029.230671,4024.102466,3994.358877,4016.922979,4010.769133
117,0,4015.384517,4016.410158,4032.307594,4026.153748,4049.23067,4029.743491,4033.333235,4050.769132,4027.179389,4048.71785,4031.794773,4002.051184,4030.769132,4017.435799
118,0,4056.410157,4062.051183,4074.871695,4074.871695,4070.769131,4056.922978,4066.666567,4062.564003,4053.333234,4097.435797,4067.179388,4044.102465,4077.435798,4056.410157
119,0,4084.615285,4092.820413,4100.51272,4097.435797,4085.128105,4075.897336,4087.692208,4061.025542,4061.538362,4103.076823,4081.538362,4066.153747,4104.615284,4082.564003
120,0,4135.384514,4147.179386,4155.897334,4148.205027,4167.179385,4112.307592,4138.974258,4082.564003,4098.461438,4154.358873,4125.128104,4112.307592,4153.846052,4127.692207
121,0,4159.487078,4180.512718,4194.871692,4182.564,4216.922974,4133.846053,4168.717847,4098.974259,4124.615284,4213.846051,4162.05118,4150.256309,4185.128103,4153.333232
122,0,4209.743487,4233.33323,4250.769127,4239.487076,4254.871691,4170.769129,4209.230666,4126.153745,4165.128103,4277.948613,4231.281948,4218.974256,4255.384511,4218.974256
123,0,4225.640922,4252.307588,4263.076819,4258.461434,4257.948614,4168.205026,4207.692205,4117.948617,4159.487078,4291.281946,4259.999896,4239.487076,4286.666562,4243.076819
124,0,4225.640922,4259.999896,4264.61528,4260.512716,4258.461434,4177.948616,4211.281948,4128.205027,4164.102462,4301.025536,4263.589639,4238.974255,4286.666562,4236.410153
125,0,4199.999897,4224.615281,4237.435794,4230.769127,4245.640922,4168.717847,4203.07682,4118.974258,4161.025539,4284.102459,4236.922973,4212.307589,4253.84605,4206.153743
126,0,4200.512718,4211.794769,4228.717845,4222.563999,4252.307588,4168.205026,4207.692205,4122.564002,4166.153744,4267.692203,4225.640922,4199.487077,4241.025537,4198.461436
127,0,4169.743488,4185.128103,4198.974256,4191.794769,4208.717846,4148.717847,4182.05118,4120.51272,4148.717847,4215.897333,4186.666564,4163.076821,4203.589641,4162.05118
128,0,4131.28195,4149.743488,4164.615283,4163.589642,4174.871693,4138.974258,4164.615283,4113.333233,4133.846053,4171.281949,4152.820411,4131.794771,4172.820411,4135.897335
0,0,4093.333233,4102.564002,4123.589643,4123.076822,4151.28195,4119.999899,4137.435796,4101.538361,4115.897335,4147.179386,4130.76913,4102.564002,4138.461437,4112.820412
1,0,4072.307593,4077.435798,4102.051182,4091.794772,4107.179387,4105.640925,4112.307592,4107.179387,4104.615284,4123.589643,4116.410156,4086.153746,4113.333233,4088.717849
2,0,4053.846055,4065.640926,4093.333233,4080.512721,4072.307593,4091.281951,4097.948618,4112.820412,4099.487079,4101.538361,4102.564002,4075.384516,4098.461438,4072.307593
3,0,4025.128107,4034.871696,4056.922978,4048.71785,4067.692208,4070.256311,4073.846054,4090.25631,4073.846054,4070.769131,4068.205029,4033.846055,4060.512721,4045.640927
4,0,4038.46144,4038.97426,4059.999901,4053.846055,4075.897336,4082.051182,4077.435798,4107.179387,4081.025541,4085.640926,4074.871695,4037.435799,4067.179388,4052.820414
5,0,4053.846055,4059.48708,4082.051182,4079.48708,4059.48708,4081.538362,4088.205028,4111.794771,4089.230669,4099.9999,4089.230669,4059.48708,4095.384515,4061.025542
6,0,4071.794772,4091.281951,4115.897335,4110.76913,4097.948618,4088.205028,4107.179387,4106.153746,4103.589643,4128.205027,4116.922976,4088.205028,4124.102463,4085.640926
7,0,4085.640926,4101.538361,4125.640925,4115.384515,4139.487078,4102.051182,4116.922976,4104.102464,4102.564002,4138.974258,4126.153745,4094.358874,4127.692207,4103.076823
8,0,4154.358873,4169.743488,4193.333231,4178.461436,4206.153743,4156.410155,4183.076821,4144.615283,4152.820411,4219.999897,4195.897333,4165.640924,4199.487077,4169.743488
9,0,4169.230667,4192.82041,4220.512717,4199.999897,4221.538358,4170.256308,4204.102461,4146.153745,4174.871693,4259.999896,4227.179384,4199.999897,4229.230666,4193.333231
10,0,4189.743487,4215.897333,4250.256306,4235.384512,4244.615281,4188.717846,4220.512717,4140.512719,4185.640923,4278.461434,4242.563999,4223.58964,4256.410152,4220.512717
11,0,4218.461435,4248.717845,4274.35887,4274.35887,4266.153742,4193.846051,4231.281948,4138.461437,4183.076821,4293.333228,4252.820409,4241.025537,4277.435793,4237.435794
12,0,4259.487075,4292.307587,4301.538356,4306.153741,4298.461433,4210.769128,4259.487075,4159.487078,4210.256307,4338.974253,4294.87169,4277.948613,4310.256305,4265.128101
13,0,4248.717845,4274.35887,4289.230664,4285.1281,4297.948613,4195.384513,4251.794768,4142.564001,4200.512718,4337.435791,4298.461433,4272.307588,4306.666561,4259.999896
14,0,4243.076819,4264.10246,4287.179382,4277.435793,4293.846049,4197.435795,4247.692204,4144.615283,4193.333231,4321.025535,4286.153741,4258.974255,4302.563997,4256.410152
15,0,4215.384512,4232.820409,4255.384511,4249.743486,4249.743486,4185.640923,4223.07682,4131.794771,4178.461436,4282.563998,4239.487076,4216.410153,4262.563998,4221.025538
16,0,4210.256307,4227.179384,4245.128101,4242.563999,4238.974255,4193.333231,4226.666563,4140.512719,4186.666564,4274.87169,4230.769127,4211.794769,4255.897332,4216.410153
17,0,4187.692205,4211.794769,4226.153743,4218.461435,4218.461435,4178.974257,4206.666564,4151.28195,4184.102462,4253.333229,4228.717845,4206.153743,4242.563999,4207.692205
18,0,4150.256309,4172.30759,4193.846051,4183.589641,4184.102462,4155.897334,4170.769129,4145.640924,4166.153744,4201.025538,4203.07682,4174.871693,4205.640923,4174.871693
19,0,4112.307592,4123.589643,4157.435796,4146.666565,4152.820411,4132.307591,4142.564001,4129.230668,4138.461437,4158.974257,4162.564001,4131.28195,4162.05118,4132.307591
20,0,4084.615285,4089.74349,4116.922976,4104.102464,4128.717848,4115.897335,4124.102463,4122.051181,4117.435797,4132.307591,4127.179386,4095.384515,4123.589643,4099.487079
21,0,4067.179388,4072.307593,4094.871695,4084.615285,4105.128105,4104.615284,4111.794771,4124.102463,4118.974258,4115.384515,4114.358874,4081.538362,4105.128105,4082.564003
22,0,4046.666568,4056.922978,4083.589644,4079.48708,4078.974259,4092.307592,4095.897336,4108.717848,4104.615284,4089.230669,4096.410156,4061.538362,4093.333233,4059.48708
23,0,4049.23067,4067.179388,4093.333233,4087.692208,4083.589644,4104.615284,4101.025541,4119.487079,4109.743489,4114.358874,4103.076823,4068.717849,4102.564002,4067.692208
24,0,4049.23067,4063.076824,4090.25631,4080.512721,4080.512721,4100.51272,4103.076823,4111.281951,4108.205028,4138.974258,4102.564002,4070.769131,4103.076823,4075.897336
25,0,4094.871695,4109.743489,4138.974258,4129.230668,4134.871694,4121.02554,4142.051181,4117.435797,4133.846053,4187.179385,4153.846052,4118.974258,4150.256309,4122.564002
26,0,4121.02554,4146.153745,4163.076821,4156.922975,4169.743488,4141.53836,4161.025539,4128.717848,4141.02554,4194.358872,4180.512718,4144.615283,4173.846052,4144.102463
27,0,4165.128103,4194.358872,4207.692205,4206.153743,4224.102461,4182.564,4203.07682,4151.79477,4176.410154,4240.512717,4213.846051,4191.794769,4218.974256,4188.205026
28,0,4189.743487,4219.487076,4234.358871,4241.538358,4262.563998,4184.615282,4220.512717,4149.230668,4193.333231,4283.076818,4238.461435,4216.410153,4247.692204,4211.794769
29,0,4248.717845,4281.025536,4287.179382,4295.38451,4300.512715,4214.871692,4257.948614,4173.333231,4223.07682,4345.128099,4303.076818,4270.256306,4304.615279,4264.10246
30,0,4285.640921,4316.922971,4326.15374,4324.615279,4305.64092,4244.10246,4283.076818,4190.256308,4236.410153,4381.025534,4334.871689,4307.179382,4343.076817,4296.410151
31,0,4307.179382,4328.717843,4351.794765,4352.307586,4335.89733,4269.743485,4307.179382,4208.205025,4257.435793,4397.43579,4344.615278,4320.512715,4364.615278,4315.89733
32,0,4280.512716,4300.512715,4319.487074,4322.563997,4327.692202,4249.743486,4291.794767,4183.589641,4241.025537,4364.102457,4318.974253,4288.717844,4336.41015,4295.897331
33,0,4264.61528,4294.87169,4303.589638,4297.435792,4311.794766,4244.615281,4289.743485,4181.538359,4233.33323,4344.102458,4313.333228,4284.102459,4327.179381,4290.256305
34,0,4231.281948,4256.410152,4273.333229,4266.666562,4289.230664,4222.563999,4255.384511,4175.897334,4214.358871,4302.563997,4286.153741,4257.948614,4291.281946,4257.435793
35,0,4222.563999,4230.769127,4253.84605,4254.35887,4266.666562,4212.82041,4233.33323,4179.999898,4209.743487,4275.897331,4265.128101,4233.84605,4265.128101,4236.410153
36,0,4194.871692,4207.692205,4224.102461,4219.999897,4194.871692,4191.794769,4208.205025,4179.999898,4203.589641,4255.897332,4233.84605,4204.102461,4232.820409,4207.179384
37,0,4138.974258,4161.53836,4170.256308,4165.640924,4148.717847,4162.564001,4169.743488,4162.564001,4175.384513,4212.307589,4190.256308,4157.948616,4180.512718,4156.922975
38,0,4108.205028,4119.999899,4134.358873,4135.384514,4152.307591,4145.640924,4146.153745,4149.743488,4148.717847,4173.846052,4159.999898,4123.076822,4148.717847,4128.717848
39,0,4109.230669,4114.871694,4137.435796,4133.846053,4150.256309,4152.307591,4152.307591,4153.333232,4145.640924,4161.025539,4147.179386,4114.871694,4149.230668,4132.307591
40,0,4109.743489,4127.692207,4146.153745,4138.974258,4141.02554,4156.410155,4156.410155,4165.128103,4156.410155,4168.205026,4158.974257,4121.02554,4147.692206,4134.871694
41,0,4094.871695,4111.281951,4126.666566,4121.538361,4117.948617,4135.897335,4132.820412,4146.153745,4135.384514,4152.820411,4156.410155,4110.25631,4128.205027,4113.846053
42,0,4127.179386,4132.820412,4157.948616,4147.179386,4145.640924,4150.256309,4153.846052,4157.435796,4153.333232,4196.410154,4184.615282,4141.53836,4168.205026,4144.615283
43,0,4136.922976,4147.179386,4170.769129,4157.435796,4168.717847,4159.999898,4163.589642,4160.512719,4165.640924,4214.358871,4190.769128,4150.256309,4182.564,4162.05118
44,0,4170.769129,4193.333231,4204.102461,4204.102461,4210.769128,4183.076821,4191.794769,4168.717847,4192.82041,4243.076819,4223.58964,4183.589641,4214.871692,4191.794769
45,0,4196.410154,4221.538358,4227.179384,4237.435794,4231.281948,4188.717846,4207.179384,4164.615283,4197.948615,4263.076819,4239.487076,4202.051179,4236.922973,4203.589641
46,0,4249.743486,4277.948613,4284.102459,4285.1281,4291.794767,4233.84605,4254.871691,4189.230667,4227.179384,4324.615279,4293.333228,4259.487075,4290.769126,4256.922973
47,0,4289.743485,4324.615279,4328.205022,4322.563997,4326.666561,4266.153742,4288.717844,4205.640923,4247.692204,4372.820406,4340.512714,4309.230664,4341.025535,4303.589638
48,0,4340.512714,4372.820406,4378.461431,4381.538354,4376.410149,4290.769126,4329.743484,4226.153743,4281.025536,4420.512712,4381.025534,4351.281945,4393.846046,4352.820406
49,0,4333.333227,4358.974252,4369.230662,4377.948611,4391.281944,4275.384511,4326.666561,4205.640923,4269.230665,4406.666559,4365.640919,4337.948612,4377.948611,4343.589637
50,0,4336.41015,4367.17938,4376.92297,4375.384508,4390.256303,4294.358869,4341.538355,4222.563999,4279.487075,4403.076815,4379.999893,4354.358868,4386.153739,4351.281945
51,0,4333.846048,4362.563996,4377.43579,4366.66656,4368.717842,4295.897331,4335.89733,4231.794768,4289.743485,4398.461431,4387.17938,4358.461432,4388.205021,4353.333227
52,0,4328.205022,4345.128099,4362.051175,4356.41015,4358.461432,4293.333228,4322.563997,4236.410153,4293.846049,4393.333226,4371.281944,4340.512714,4366.153739,4343.589637
53,0,4278.461434,4297.435792,4303.076818,4305.64092,4297.948613,4262.563998,4279.487075,4224.615281,4263.589639,4341.025535,4312.820407,4286.153741,4306.666561,4288.717844
54,0,4255.897332,4283.589639,4284.61528,4286.153741,4270.256306,4250.256306,4266.666562,4227.179384,4249.230665,4310.769125,4298.974254,4266.666562,4294.87169,4269.743485
55,0,4245.128101,4257.435793,4281.025536,4270.256306,4263.589639,4241.538358,4257.435793,4229.743486,4251.794768,4308.205023,4301.025536,4263.076819,4287.179382,4270.256306
56,0,4204.615282,4203.589641,4233.33323,4215.897333,4222.563999,4210.769128,4226.666563,4211.281948,4228.717845,4267.179383,4259.999896,4223.07682,4236.922973,4232.820409
57,0,4163.589642,4177.948616,4194.871692,4178.974257,4192.82041,4184.102462,4196.410154,4196.410154,4199.999897,4222.051179,4226.153743,4184.102462,4199.999897,4189.230667
58,0,4151.28195,4171.79477,4189.743487,4179.487077,4188.205026,4182.05118,4185.128103,4190.769128,4191.281949,4205.640923,4214.871692,4172.30759,4194.358872,4175.897334
59,0,4172.30759,4186.666564,4201.025538,4199.999897,4192.82041,4187.179385,4194.358872,4199.999897,4201.538359,4228.717845,4225.128102,4185.128103,4207.692205,4194.871692
60,0,4172.820411,4185.640923,4184.615282,4186.153744,4178.461436,4165.640924,4179.487077,4181.538359,4171.79477,4212.307589,4212.307589,4168.717847,4194.358872,4191.281949
61,0,4228.205025,4238.461435,4240.512717,4240.512717,4229.230666,4204.615282,4219.999897,4203.07682,4201.025538,4253.333229,4256.922973,4216.410153,4252.307588,4250.769127
62,0,4282.563998,4287.179382,4289.743485,4290.769126,4274.35887,4241.025537,4259.487075,4228.205025,4244.10246,4303.589638,4297.948613,4266.666562,4308.205023,4311.794766
63,0,4339.999894,4338.974253,4334.358868,4331.794766,4315.38451,4260.512716,4290.769126,4243.076819,4270.256306,4354.358868,4350.769124,4319.487074,4357.435791,4377.948611
64,0,4375.897329,4356.41015,4359.487073,4350.769124,4318.974253,4262.563998,4298.974254,4232.307589,4264.10246,4360.512714,4369.743483,4339.487073,4378.461431,4417.94861
65,0,4458.97425,4426.153738,4424.102456,4421.025533,4381.538354,4308.205023,4355.384509,4258.461434,4306.666561,4412.307584,4415.384507,4394.871687,4443.589635,4491.794762
66,0,4507.692197,4474.871685,4453.846045,4457.948609,4431.794763,4316.922971,4370.256303,4259.999896,4318.974253,4455.384506,4444.102455,4427.692199,4479.99989,4536.922966
67,0,4537.435786,4491.281941,4474.358865,4471.281942,4436.922968,4323.076817,4378.461431,4263.589639,4328.717843,4469.74348,4465.128096,4454.358865,4499.487069,4567.692196
68,0,4522.051171,4458.97425,4450.256301,4439.487071,4395.384508,4307.179382,4364.615278,4243.076819,4318.461433,4427.179379,4444.615276,4435.384507,4472.307583,4549.743478
69,0,4523.589633,4456.922968,4440.512712,4434.358866,4401.025533,4322.563997,4365.128098,4260.512716,4325.128099,4430.769122,4446.153737,4429.743481,4468.205019,4552.307581
70,0,4504.615274,4437.435789,4418.46143,4420.512712,4388.205021,4315.38451,4344.102458,4265.640921,4312.820407,4423.589635,4429.230661,4407.6922,4450.769122,4536.922966
71,0,4475.384506,4414.358866,4392.820405,4397.94861,4376.92297,4289.743485,4329.230663,4254.871691,4296.922972,4388.717841,4402.051174,4381.538354,4420.512712,4507.179377
72,0,4415.384507,4361.025534,4341.025535,4338.461432,4331.281945,4245.128101,4288.205023,4236.922973,4265.640921,4334.358868,4350.769124,4331.281945,4356.41015,4451.281942
73,0,4401.025533,4334.358868,4323.076817,4313.846048,4285.1281,4245.128101,4274.87169,4245.640922,4258.461434,4304.615279,4330.769125,4311.794766,4337.435791,4429.743481
74,0,4404.102456,4331.281945,4327.692202,4316.410151,4268.717844,4262.051178,4282.563998,4264.61528,4273.333229,4305.1281,4339.999894,4316.410151,4346.15374,4423.589635
75,0,4358.461432,4299.487074,4298.461433,4284.102459,4251.794768,4249.743486,4264.61528,4257.948614,4264.10246,4292.307587,4317.435792,4290.769126,4310.769125,4390.256303
76,0,4327.692202,4269.743485,4274.35887,4259.999896,4233.33323,4233.33323,4244.615281,4246.153742,4247.179383,4271.794767,4290.256305,4264.10246,4281.025536,4362.051175
77,0,4309.743484,4249.230665,4255.897332,4245.640922,4217.948615,4218.461435,4225.128102,4227.692204,4225.128102,4236.410153,4270.769126,4241.538358,4264.61528,4328.205022
78,0,4308.717843,4269.230665,4279.999895,4268.205024,4248.205024,4232.820409,4242.563999,4242.051178,4241.025537,4262.563998,4297.435792,4262.563998,4288.205023,4337.948612
79,0,4312.307587,4285.640921,4299.487074,4283.589639,4273.333229,4246.153742,4267.179383,4247.179383,4247.692204,4292.820408,4313.846048,4277.435793,4305.64092,4353.333227
80,0,4366.153739,4330.256304,4346.15374,4329.743484,4329.743484,4281.025536,4314.358869,4271.281947,4286.666562,4350.769124,4362.051175,4330.256304,4353.846047,4397.43579
81,0,4394.358867,4359.999893,4375.384508,4362.563996,4358.974252,4304.615279,4339.999894,4295.38451,4321.538356,4389.743482,4391.794764,4365.640919,4385.640918,4416.922969
82,0,4445.128096,4429.743481,4444.102455,4434.358866,4409.230661,4350.769124,4398.974251,4329.230663,4369.230662,4459.999891,4454.358865,4426.666558,4454.358865,4470.256301
83,0,4473.846044,4460.512711,4478.974249,4467.692198,4443.076814,4357.435791,4417.435789,4320.512715,4369.230662,4490.769121,4482.051172,4455.384506,4488.205018,4495.897326
84,0,4493.333223,4474.871685,4499.487069,4486.666557,4475.384506,4374.358867,4432.820404,4319.999894,4383.076816,4502.051172,4490.769121,4475.897326,4505.128095,4507.692197
85,0,4487.179377,4476.410147,4501.538351,4491.794762,4474.871685,4378.461431,4441.538353,4314.871689,4384.615277,4498.461428,4486.153736,4475.897326,4506.666556,4501.025531
86,0,4494.358864,4491.794762,4510.76912,4501.538351,4490.2563,4390.256303,4451.794763,4329.230663,4394.871687,4521.02553,4500.51271,4483.076813,4516.922966,4509.230659
87,0,4468.205019,4461.025532,4476.922967,4465.640916,4470.769121,4376.92297,4426.666558,4314.871689,4384.615277,4506.153736,4478.461429,4453.846045,4480.512711,4479.99989
88,0,4457.948609,4450.256301,4462.563993,4456.410147,4459.999891,4386.153739,4432.307584,4326.15374,4387.6922,4496.922967,4472.820403,4445.640917,4467.692198,4469.74348
89,0,4417.94861,4417.94861,4428.71784,4424.102456,4425.128097,4360.512714,4404.102456,4327.179381,4362.563996,4451.281942,4445.128096,4415.384507,4434.871686,4439.999891
90,0,4386.666559,4386.666559,4395.384508,4393.846046,4397.43579,4333.333227,4371.794765,4312.820407,4341.025535,4398.461431,4411.281943,4378.461431,4404.615277,4403.589636
91,0,4351.794765,4349.230663,4360.512714,4361.538355,4354.358868,4321.025535,4351.281945,4303.589638,4332.820407,4374.358867,4380.512713,4342.563996,4370.256303,4361.538355
92,0,4315.89733,4313.333228,4324.102458,4318.461433,4314.358869,4311.794766,4330.256304,4307.179382,4323.589638,4366.66656,4349.743483,4310.769125,4336.41015,4331.794766
93,0,4287.179382,4281.538357,4287.692203,4282.563998,4301.025536,4279.487075,4293.333228,4289.743485,4296.410151,4323.589638,4316.410151,4275.897331,4305.64092,4298.461433
94,0,4261.538357,4244.10246,4258.974255,4257.948614,4267.179383,4254.871691,4266.153742,4262.563998,4263.589639,4266.153742,4286.666562,4241.538358,4266.666562,4255.384511
95,0,4259.999896,4242.051178,4275.384511,4263.589639,4239.999896,4268.205024,4276.410152,4276.410152,4274.35887,4292.820408,4295.38451,4251.281947,4265.640921,4264.10246
96,0,4252.307588,4250.256306,4272.307588,4258.974255,4239.999896,4262.563998,4272.307588,4268.205024,4271.281947,4302.051177,4289.230664,4244.10246,4265.128101,4269.743485
97,0,4278.974254,4288.205023,4291.794767,4291.794767,4295.38451,4276.410152,4290.256305,4271.794767,4283.076818,4310.769125,4316.922971,4266.153742,4296.410151,4288.205023
98,0,4292.820408,4298.461433,4313.333228,4314.358869,4318.461433,4294.87169,4312.307587,4279.487075,4293.846049,4317.948612,4333.846048,4286.666562,4315.89733,4294.358869
99,0,4335.89733,4341.538355,4368.205021,4366.153739,4366.153739,4328.717843,4358.974252,4308.717843,4335.384509,4381.538354,4381.538354,4339.487073,4367.17938,4343.076817
100,0,4355.897329,4364.102457,4382.563995,4381.538354,4385.128098,4324.615279,4362.051175,4307.179382,4335.384509,4405.128097,4397.43579,4358.974252,4385.128098,4361.025534
101,0,4404.102456,4413.333225,4429.743481,4418.974251,4415.897328,4364.102457,4406.153738,4327.692202,4365.128098,4447.179378,4430.256302,4408.717841,4430.256302,4403.589636
102,0,4439.999891,4451.281942,4476.410147,4458.97425,4454.358865,4397.43579,4448.71784,4345.128099,4401.025533,4502.051172,4467.179378,4452.307583,4479.48707,4446.666558
103,0,4473.846044,4484.102454,4507.179377,4496.922967,4512.307582,4424.102456,4471.794762,4368.205021,4430.769122,4551.79476,4512.307582,4483.589634,4516.922966,4485.640916
104,0,4474.358865,4489.230659,4495.384505,4493.846044,4508.717838,4421.025533,4462.563993,4356.92297,4425.640917,4547.692196,4515.384505,4476.410147,4508.717838,4482.563993
105,0,4483.589634,4508.205018,4507.692197,4508.717838,4506.153736,4434.871686,4483.589634,4371.281944,4437.948609,4552.307581,4523.589633,4487.179377,4519.487069,4491.794762
106,0,4453.846045,4471.794762,4484.102454,4481.538352,4482.051172,4415.384507,4463.589634,4365.128098,4417.435789,4524.615274,4493.333223,4461.025532,4488.205018,4465.640916
107,0,4439.999891,4444.102455,4463.589634,4460.512711,4464.102455,4407.6922,4443.589635,4357.948611,4408.717841,4495.384505,4470.256301,4438.46143,4465.128096,4446.666558
108,0,4401.025533,4406.666559,4426.153738,4420.512712,4420.512712,4386.666559,4411.281943,4350.769124,4398.461431,4452.307583,4436.922968,4402.051174,4430.256302,4408.20502
109,0,4348.205022,4356.41015,4377.948611,4368.717842,4381.538354,4354.871688,4375.384508,4339.999894,4369.743483,4406.153738,4389.230662,4361.025534,4379.999893,4359.999893
110,0,4313.333228,4310.769125,4338.461432,4330.256304,4333.846048,4321.025535,4342.051176,4315.38451,4335.89733,4358.461432,4345.128099,4320.512715,4338.974253,4322.051176
111,0,4299.487074,4293.846049,4318.974253,4312.820407,4289.230664,4311.794766,4329.230663,4307.692202,4324.615279,4321.538356,4337.948612,4289.743485,4324.615279,4303.076818
112,0,4277.435793,4285.1281,4307.179382,4303.076818,4286.666562,4310.769125,4318.461433,4318.461433,4323.589638,4315.89733,4343.589637,4279.487075,4314.871689,4291.281946
113,0,4254.871691,4270.769126,4280.512716,4282.563998,4300.512715,4302.051177,4304.615279,4306.666561,4305.1281,4302.563997,4311.794766,4257.435793,4286.153741,4270.256306
114,0,4277.948613,4300.512715,4298.461433,4306.153741,4326.666561,4320.512715,4327.179381,4319.999894,4323.589638,4338.974253,4327.179381,4273.846049,4306.666561,4284.61528
115,0,4283.589639,4311.794766,4308.205023,4319.487074,4329.230663,4325.64092,4331.794766,4323.589638,4331.281945,4362.051175,4343.076817,4287.179382,4321.538356,4285.1281
116,0,4321.025535,4348.717842,4351.281945,4358.974252,4375.897329,4350.769124,4363.076816,4340.512714,4357.435791,4404.615277,4378.461431,4332.820407,4360.512714,4322.563997
117,0,4350.256304,4370.769124,4386.153739,4384.102457,4403.589636,4369.230662,4390.769123,4347.692201,4367.17938,4418.974251,4395.897328,4357.435791,4385.128098,4353.333227
118,0,4391.281944,4415.897328,4432.307584,4435.384507,4453.846045,4397.43579,4428.20502,4367.17938,4398.461431,4451.794763,4437.435789,4398.461431,4430.256302,4392.820405
119,0,4398.461431,4429.743481,4434.871686,4448.71784,4470.256301,4392.307585,4424.102456,4358.461432,4400.512713,4470.256301,4448.71784,4409.230661,4443.076814,4397.43579
120,0,4439.999891,4470.769121,4472.307583,4481.538352,4495.384505,4429.230661,4458.461429,4377.948611,4424.615276,4523.076812,4491.281941,4449.743481,4482.051172,4443.589635
121,0,4479.48707,4513.333223,4515.897325,4521.538351,4519.999889,4458.461429,4496.410146,4392.307585,4444.102455,4557.948606,4527.179376,4487.692198,4518.461428,4484.615275
122,0,4506.153736,4549.230658,4546.666555,4561.025529,4564.102452,4475.897326,4528.205017,4412.307584,4465.640916,4584.102452,4550.769119,4514.358864,4548.205017,4506.153736
123,0,4469.23066,4510.2563,4509.230659,4523.589633,4547.179376,4445.640917,4500.51271,4384.102457,4444.102455,4555.384504,4515.384505,4476.410147,4511.281941,4467.179378
124,0,4463.076814,4495.897326,4499.99989,4503.076813,4516.922966,4442.051173,4491.794762,4377.948611,4450.769122,4533.333222,4502.051172,4466.153737,4501.538351,4459.48707
125,0,4454.358865,4487.179377,4489.230659,4490.769121,4481.025531,4442.051173,4477.435788,4396.410149,4453.333224,4507.179377,4494.358864,4461.538352,4492.820403,4453.333224
126,0,4423.589635,4455.897327,4458.97425,4468.717839,4475.897326,4439.487071,4457.948609,4407.6922,4438.46143,4492.307582,4476.410147,4438.97425,4470.256301,4433.846045
127,0,4360.512714,4381.538354,4396.922969,4404.102456,4424.615276,4391.794764,4406.666559,4371.281944,4401.538354,4438.46143,4412.820405,4371.281944,4407.179379,4372.307585
128,0,4317.948612,4335.89733,4350.769124,4348.717842,4361.025534,4349.230663,4367.692201,4339.487073,4368.717842,4371.794765,4358.974252,4317.948612,4352.820406,4318.461433
0,0,4282.563998,4305.1281,4318.974253,4315.38451,4339.999894,4327.692202,4338.461432,4328.205022,4336.41015,4338.461432,4333.846048,4294.358869,4315.89733,4291.281946
1,0,4256.410152,4273.846049,4290.769126,4287.692203,4313.333228,4315.89733,4316.410151,4319.487074,4314.358869,4312.307587,4309.743484,4270.256306,4287.692203,4272.820408
2,0,4274.87169,4293.846049,4307.179382,4302.051177,4291.281946,4324.615279,4327.179381,4337.948612,4338.974253,4327.179381,4327.692202,4285.1281,4307.692202,4287.179382
3,0,4288.205023,4311.794766,4323.076817,4321.538356,4308.717843,4328.205022,4335.384509,4343.076817,4346.15374,4348.717842,4346.15374,4301.025536,4327.179381,4297.948613
4,0,4311.281946,4334.871689,4347.692201,4353.333227,4364.615278,4346.15374,4364.102457,4349.743483,4353.846047,4382.051175,4367.17938,4323.589638,4352.820406,4319.999894
5,0,4318.461433,4340.512714,4351.281945,4355.897329,4361.025534,4349.230663,4371.794765,4343.076817,4353.846047,4368.205021,4364.615278,4323.076817,4352.820406,4322.563997
6,0,4374.871688,4397.43579,4405.640918,4406.666559,4405.640918,4387.17938,4412.820405,4374.358867,4398.461431,4417.94861,4417.94861,4376.410149,4409.743482,4377.43579
7,0,4409.230661,4426.666558,4440.512712,4437.435789,4456.410147,4403.589636,4435.897327,4388.717841,4417.435789,4475.384506,4452.307583,4413.846046,4448.71784,4411.794764
8,0,4449.23066,4467.692198,4483.076813,4484.102454,4503.589633,4431.281943,4473.846044,4405.640918,4443.589635,4516.922966,4494.358864,4457.948609,4491.794762,4453.333224
9,0,4474.871685,4507.179377,4508.205018,4518.974248,4519.999889,4445.640917,4492.820403,4410.769123,4456.410147,4536.410145,4519.999889,4483.589634,4520.51271,4476.410147
10,0,4515.897325,4552.820401,4548.717837,4556.922965,4559.999888,4476.410147,4525.640915,4440.512712,4486.153736,4595.384503,4560.512709,4524.615274,4564.615273,4514.358864
11,0,4511.281941,4543.589632,4546.666555,4548.717837,4563.076811,4472.307583,4523.589633,4426.153738,4482.051172,4599.487067,4553.333222,4521.538351,4558.974247,4512.820402
12,0,4517.948607,4542.563991,4550.256299,4557.948606,4558.974247,4482.563993,4533.846043,4423.589635,4497.948608,4584.615273,4548.205017,4524.102453,4561.025529,4516.410146
13,0,4498.974249,4523.076812,4529.743479,4540.512709,4534.871684,4476.922967,4521.538351,4424.102456,4490.769121,4552.820401,4533.846043,4505.640915,4544.102453,4495.384505
14,0,4477.948608,4510.2563,4513.846043,4521.02553,4529.230658,4471.794762,4503.589633,4428.71784,4475.384506,4537.435786,4522.051171,4488.205018,4524.615274,4482.563993
15,0,4442.563994,4470.256301,4476.922967,4487.692198,4491.281941,4439.487071,4461.538352,4410.256302,4449.23066,4504.102454,4478.974249,4445.128096,4481.538352,4445.640917
16,0,4425.128097,4439.487071,4450.256301,4463.076814,4457.948609,4420.512712,4444.102455,4400.512713,4433.846045,4480.512711,4456.922968,4422.051174,4459.48707,4417.94861
17,0,4384.102457,4398.461431,4413.333225,4414.871687,4411.281943,4398.974251,4415.897328,4392.307585,4410.769123,4440.512712,4437.948609,4401.025533,4423.076815,4392.820405
18,0,4341.025535,4357.948611,4369.743483,4369.230662,4368.717842,4378.974252,4387.17938,4381.538354,4391.794764,4386.153739,4399.999892,4362.051175,4377.43579,4361.025534
19,0,4328.205022,4345.128099,4352.820406,4358.461432,4374.871688,4365.128098,4379.487072,4377.43579,4387.6922,4378.974252,4383.589636,4338.461432,4362.051175,4338.461432
20,0,4312.307587,4334.871689,4339.999894,4346.15374,4364.102457,4350.769124,4365.128098,4368.717842,4368.717842,4368.717842,4367.17938,4319.487074,4345.640919,4318.974253
21,0,4316.922971,4342.051176,4348.717842,4349.230663,4340.512714,4357.435791,4364.102457,4371.281944,4372.820406,4370.256303,4369.230662,4325.128099,4346.15374,4325.128099
22,0,4327.692202,4339.487073,4355.384509,4349.743483,4346.66656,4360.512714,4368.205021,4366.153739,4379.999893,4368.205021,4372.820406,4328.717843,4350.769124,4327.692202
23,0,4369.230662,4378.974252,4399.999892,4397.94861,4407.6922,4381.538354,4406.153738,4387.17938,4406.153738,4409.743482,4411.794764,4368.717842,4399.487072,4370.769124
24,0,4372.307585,4394.358867,4407.179379,4416.410148,4401.025533,4377.948611,4411.281943,4379.999893,4395.897328,4422.051174,4414.871687,4377.43579,4409.743482,4381.538354
25,0,4405.640918,4430.256302,4447.179378,4448.205019,4419.487071,4413.333225,4442.051173,4396.410149,4423.589635,4470.769121,4452.820404,4420.512712,4445.128096,4419.487071
26,0,4443.589635,4462.051173,4480.512711,4476.410147,4475.384506,4440.512712,4469.74348,4414.358866,4453.333224,4513.333223,4486.153736,4456.922968,4476.922967,4453.333224
27,0,4496.922967,4522.051171,4526.153735,4534.871684,4552.820401,4466.666557,4516.410146,4434.871686,4482.051172,4557.435786,4532.820402,4498.974249,4529.743479,4494.358864
28,0,4511.281941,4549.743478,4546.666555,4558.461427,4558.461427,4463.589634,4525.640915,4425.640917,4474.358865,4576.410145,4550.256299,4515.897325,4555.897324,4502.563992
29,0,4534.358863,4566.153734,4576.410145,4576.922965,4555.384504,4486.666557,4540.512709,4444.615276,4498.461428,4605.640913,4570.256298,4547.692196,4586.153734,4531.28194
30,0,4524.102453,4539.487068,4556.922965,4559.999888,4547.179376,4485.128095,4532.307581,4433.333225,4501.538351,4572.820401,4552.820401,4533.846043,4569.230657,4526.153735
31,0,4518.974248,4535.897325,4538.461427,4549.743478,4566.153734,4484.615275,4527.692197,4427.692199,4496.922967,4551.28194,4545.640914,4517.435787,4552.307581,4516.922966
32,0,4488.205018,4510.2563,4507.692197,4512.307582,4528.717838,4458.461429,4496.922967,4420.512712,4475.384506,4533.846043,4518.461428,4486.666557,4517.948607,4484.102454
33,0,4467.692198,4482.563993,4496.410146,4494.358864,4489.74348,4450.769122,4483.589634,4423.076815,4468.717839,4515.897325,4502.563992,4477.435788,4501.025531,4470.769121
34,0,4430.769122,4438.46143,4464.102455,4460.512711,4453.333224,4434.358866,4451.794763,4417.94861,4445.128096,4471.281942,4476.410147,4453.333224,4463.076814,4445.128096
35,0,4404.615277,4411.794764,4422.563994,4419.999892,4420.512712,4415.897328,4424.615276,4410.256302,4420.512712,4433.846045,4447.692199,4417.435789,4427.692199,4413.333225
36,0,4371.281944,4377.948611,4382.563995,4378.461431,4386.666559,4386.666559,4398.974251,4389.743482,4399.999892,4415.897328,4415.384507,4373.846047,4393.333226,4373.846047
37,0,4333.333227,4337.435791,4351.794765,4346.66656,4361.025534,4367.17938,4368.717842,4373.333226,4378.461431,4379.487072,4378.461431,4338.461432,4355.384509,4341.025535
38,0,4333.846048,4338.974253,4350.769124,4352.820406,4355.897329,4365.640919,4362.051175,4374.358867,4375.897329,4363.589637,4372.820406,4336.41015,4352.307586,4338.974253
39,0,4324.102458,4330.769125,4339.487073,4348.205022,4337.435791,4348.205022,4360.512714,4364.102457,4369.230662,4347.692201,4364.102457,4324.102458,4348.205022,4325.64092
40,0,4333.333227,4342.563996,4357.948611,4364.102457,4351.794765,4358.974252,4373.846047,4376.410149,4386.153739,4370.256303,4383.589636,4341.025535,4368.205021,4344.102458
41,0,4350.256304,4362.051175,4372.820406,4372.307585,4362.051175,4374.871688,4378.974252,4378.974252,4392.307585,4387.17938,4394.871687,4353.846047,4379.487072,4365.128098
42,0,4397.43579,4417.94861,4421.025533,4417.435789,4410.256302,4404.615277,4417.94861,4398.461431,4422.051174,4433.333225,4442.051173,4403.076815,4427.179379,4414.358866
43,0,4414.358866,4441.538353,4435.897327,4437.948609,4442.051173,4408.20502,4431.281943,4399.487072,4423.589635,4452.307583,4460.512711,4421.538353,4449.23066,4435.384507
44,0,4471.794762,4489.74348,4474.871685,4485.640916,4496.410146,4447.179378,4470.256301,4419.487071,4452.820404,4503.076813,4506.666556,4470.769121,4498.461428,4491.794762
45,0,4528.205017,4531.28194,4518.974248,4528.205017,4537.948607,4465.640916,4494.358864,4422.563994,4471.281942,4545.128094,4539.999889,4510.76912,4546.153735,4544.102453
46,0,4587.692196,4584.102452,4573.333222,4581.025529,4575.897324,4481.025531,4525.640915,4437.948609,4494.358864,4575.384504,4568.205016,4549.743478,4594.871683,4599.487067
47,0,4619.487067,4603.076811,4585.640914,4592.820401,4558.461427,4477.435788,4530.256299,4432.820404,4489.74348,4570.769119,4570.769119,4559.999888,4604.102452,4631.794759
48,0,4675.384501,4637.435784,4614.358862,4613.333221,4570.769119,4508.205018,4552.820401,4462.051173,4519.999889,4614.871682,4614.358862,4599.999888,4640.512707,4695.384501
49,0,4684.10245,4627.692195,4611.281939,4604.615272,4572.307581,4511.794761,4546.153735,4476.922967,4535.384504,4618.974246,4626.153733,4604.615272,4642.563989,4711.794757
50,0,4678.974245,4619.487067,4606.153734,4603.589631,4567.179375,4512.820402,4546.666555,4482.563993,4529.743479,4586.666555,4610.769118,4594.871683,4627.692195,4703.076808
51,0,4644.615271,4588.717837,4574.871683,4570.256298,4530.76912,4490.2563,4521.02553,4467.179378,4495.384505,4549.230658,4571.281939,4562.563991,4585.128093,4666.666553
52,0,4627.692195,4567.692196,4551.28194,4548.205017,4509.230659,4471.794762,4498.461428,4455.897327,4477.948608,4538.974248,4554.358863,4541.53835,4563.076811,4650.769117
53,0,4589.743478,4526.153735,4506.666556,4509.230659,4466.666557,4437.435789,4461.538352,4437.948609,4455.384506,4489.230659,4518.461428,4502.051172,4520.51271,4612.30758
54,0,4546.666555,4485.128095,4464.615275,4461.538352,4442.563994,4416.922969,4435.384507,4428.20502,4435.897327,4428.20502,4478.461429,4456.410147,4473.846044,4565.128093
55,0,4519.487069,4459.48707,4451.281942,4438.46143,4439.487071,4408.717841,4425.128097,4426.666558,4433.333225,4421.538353,4463.076814,4431.794763,4457.435788,4538.461427
56,0,4488.205018,4431.281943,4434.871686,4421.538353,4390.256303,4398.974251,4409.230661,4419.999892,4419.999892,4411.281943,4445.640917,4414.871687,4446.153737,4518.461428
57,0,4477.435788,4428.71784,4438.97425,4423.076815,4368.205021,4409.230661,4411.281943,4425.640917,4419.999892,4410.769123,4452.307583,4423.589635,4451.794763,4517.948607
58,0,4467.179378,4419.487071,4434.358866,4415.384507,4394.871687,4412.820405,4412.820405,4423.076815,4418.974251,4408.20502,4450.256301,4422.051174,4441.025532,4498.974249
59,0,4496.922967,4453.333224,4467.179378,4450.769122,4452.307583,4434.871686,4446.153737,4446.153737,4448.71784,4458.461429,4478.974249,4454.358865,4472.820403,4519.487069
60,0,4504.615274,4474.871685,4472.820403,4458.461429,4452.307583,4443.076814,4459.48707,4447.692199,4451.794763,4480.512711,4487.179377,4462.051173,4487.179377,4525.128094
61,0,4534.358863,4513.846043,4511.794761,4496.922967,4488.205018,4476.410147,4498.461428,4469.74348,4485.128095,4524.102453,4532.820402,4503.076813,4525.128094,4554.871683
62,0,4566.153734,4546.666555,4557.948606,4548.205017,4536.410145,4494.871685,4526.666556,4487.179377,4512.820402,4561.025529,4566.666555,4539.487068,4559.487068,4580.512709
63,0,4627.692195,4613.333221,4620.512708,4616.410144,4610.769118,4537.948607,4579.487068,4518.974248,4556.922965,4622.051169,4615.897323,4593.333221,4621.538349,4633.846041
64,0,4643.58963,4635.384502,4640.512707,4637.435784,4637.435784,4551.79476,4598.461426,4515.384505,4565.128093,4656.922963,4636.410143,4618.461426,4652.307579,4652.307579
65,0,4655.897322,4646.666553,4662.051168,4659.999886,4650.256297,4569.230657,4616.410144,4529.230658,4583.076811,4691.281937,4659.487066,4639.999887,4676.410142,4668.717835
66,0,4647.179374,4641.538348,4655.384502,4646.153733,4637.948605,4568.717837,4616.410144,4531.28194,4586.666555,4676.922963,4656.922963,4629.230656,4661.538348,4661.538348
67,0,4640.512707,4649.230656,4652.820399,4637.435784,4634.871682,4577.948606,4623.589631,4538.974248,4589.230657,4659.999886,4655.897322,4631.794759,4656.410143,4657.948604
