title:A                                                                               , recorded:02.07.20 12.25.52, sampling:128, subject:S                                                                               , labels:COUNTER INTERPOLATED AF3 F7 F3 FC5 T7 P7 O1 O2 P8 T8 FC6 F4 F8 AF4 ,, units:emotiv,,,,,,,,,
1,0,4092.820413,4086.153746,4073.846054,4081.025541,4080.512721,4118.461438,4085.128105,4130.256309,4113.333233,4066.153747,4072.820413,4050.256311,4052.820414,4072.820413
2,0,4132.820412,4129.743489,4123.076822,4129.230668,4124.615284,4150.769129,4125.128104,4154.358873,4138.974258,4121.02554,4117.948617,4096.922977,4101.538361,4112.820412
3,0,4135.897335,4130.76913,4141.02554,4145.128104,4128.717848,4148.717847,4138.461437,4151.79477,4143.589642,4131.794771,4126.666566,4113.333233,4112.307592,4119.487079
4,0,4170.256308,4165.128103,4173.333231,4179.487077,4162.564001,4169.230667,4170.769129,4170.769129,4165.640924,4161.025539,4154.358873,4151.28195,4145.640924,4147.692206
5,0,4187.692205,4185.640923,4186.153744,4193.846051,4183.589641,4187.179385,4186.153744,4179.487077,4169.743488,4175.897334,4165.640924,4167.179385,4168.717847,4167.692206
6,0,4235.384512,4233.33323,4234.358871,4246.153742,4238.974255,4224.102461,4231.281948,4200.512718,4200.512718,4233.33323,4211.281948,4210.256307,4227.692204,4222.563999
7,0,4252.820409,4251.281947,4257.435793,4268.205024,4259.999896,4227.692204,4242.563999,4197.948615,4207.692205,4266.153742,4235.384512,4232.307589,4252.307588,4245.128101
8,0,4296.410151,4301.025536,4304.102459,4314.871689,4296.922972,4263.076819,4275.897331,4229.230666,4235.384512,4315.89733,4279.487075,4280.512716,4294.358869,4287.179382
9,0,4311.794766,4318.461433,4312.307587,4326.666561,4306.153741,4263.076819,4284.102459,4223.58964,4228.717845,4328.205022,4284.61528,4287.179382,4302.051177,4293.846049
10,0,4318.461433,4322.563997,4316.410151,4326.666561,4320.512715,4267.692203,4298.974254,4229.743486,4241.538358,4333.846048,4293.333228,4297.948613,4307.692202,4301.025536
11,0,4285.640921,4288.717844,4290.256305,4295.38451,4291.281946,4254.871691,4282.051177,4218.974256,4232.820409,4297.435792,4269.230665,4278.461434,4280.512716,4273.846049
12,0,4273.333229,4274.87169,4275.384511,4286.153741,4271.281947,4252.820409,4271.281947,4216.922974,4222.563999,4273.846049,4252.820409,4256.410152,4262.563998,4254.35887
13,0,4229.743486,4228.205025,4229.230666,4241.538358,4228.717845,4216.922974,4222.051179,4197.435795,4195.384513,4232.820409,4210.769128,4205.640923,4214.871692,4211.794769
14,0,4201.025538,4199.487077,4205.128102,4211.281948,4204.102461,4203.589641,4198.461436,4195.897333,4192.82041,4203.589641,4184.102462,4182.564,4192.30759,4192.82041
15,0,4167.179385,4166.153744,4168.717847,4175.897334,4163.076821,4181.538359,4171.79477,4177.435795,4176.922975,4169.743488,4154.358873,4148.205027,4155.384514,4157.435796
16,0,4121.02554,4114.358874,4117.435797,4125.640925,4112.307592,4148.205027,4131.28195,4145.128104,4141.02554,4115.897335,4114.871694,4096.410156,4098.974259,4106.666566
17,0,4087.179387,4078.974259,4090.25631,4092.820413,4086.153746,4123.589643,4103.076823,4128.717848,4119.999899,4076.410157,4087.692208,4070.256311,4068.717849,4078.974259
18,0,4075.897336,4066.153747,4074.358875,4077.948618,4073.846054,4110.25631,4093.846054,4118.974258,4111.281951,4053.333234,4068.205029,4056.922978,4055.897337,4067.179388
19,0,4082.051182,4069.23067,4080.512721,4083.076823,4073.333234,4111.794771,4094.871695,4123.076822,4116.410156,4060.512721,4073.846054,4063.076824,4058.461439,4074.871695
20,0,4081.025541,4071.794772,4089.74349,4089.230669,4072.820413,4109.230669,4093.333233,4119.487079,4109.230669,4059.999901,4077.948618,4069.74349,4068.717849,4083.589644
21,0,4126.666566,4123.589643,4136.922976,4138.974258,4122.564002,4138.461437,4132.307591,4141.53836,4134.358873,4116.922976,4126.153745,4118.461438,4124.615284,4132.820412
22,0,4147.179386,4144.615283,4151.79477,4152.820411,4134.871694,4147.179386,4142.051181,4138.974258,4135.897335,4135.384514,4138.974258,4134.871694,4135.897335,4145.640924
23,0,4197.948615,4202.564,4209.230666,4209.230666,4190.256308,4190.769128,4191.281949,4171.79477,4169.743488,4183.076821,4186.153744,4189.230667,4186.153744,4192.82041
24,0,4234.871691,4246.666563,4248.717845,4250.769127,4243.076819,4221.025538,4228.205025,4201.025538,4194.871692,4232.307589,4226.666563,4226.666563,4229.743486,4231.794768
25,0,4277.435793,4292.820408,4295.897331,4299.487074,4293.333228,4258.974255,4270.769126,4224.615281,4229.743486,4305.64092,4281.538357,4276.922972,4284.102459,4284.102459
26,0,4272.307588,4290.256305,4295.38451,4302.563997,4285.1281,4247.692204,4267.179383,4196.410154,4216.922974,4315.38451,4272.820408,4278.461434,4286.666562,4278.461434
27,0,4309.230664,4325.64092,4312.820407,4331.281945,4321.538356,4268.205024,4298.974254,4211.794769,4234.358871,4339.999894,4286.153741,4298.461433,4311.281946,4293.846049
28,0,4328.205022,4333.846048,4317.948612,4335.89733,4338.974253,4277.948613,4312.307587,4223.07682,4242.563999,4349.743483,4302.563997,4307.179382,4321.025535,4307.179382
29,0,4337.948612,4340.512714,4337.435791,4346.15374,4344.615278,4294.87169,4322.051176,4244.615281,4256.410152,4352.307586,4326.15374,4324.615279,4337.435791,4329.743484
30,0,4293.333228,4297.948613,4298.461433,4302.563997,4294.87169,4266.153742,4279.487075,4220.512717,4231.281948,4303.589638,4285.1281,4279.999895,4290.769126,4286.666562
31,0,4267.692203,4265.128101,4267.179383,4275.897331,4259.999896,4245.128101,4255.384511,4209.230666,4225.640922,4271.281947,4256.410152,4249.230665,4257.435793,4257.948614
32,0,4230.769127,4227.179384,4234.358871,4243.076819,4217.435794,4210.256307,4223.07682,4198.461436,4209.230666,4232.820409,4229.230666,4220.512717,4226.666563,4231.794768
33,0,4201.025538,4203.589641,4204.102461,4204.615282,4193.333231,4194.871692,4194.358872,4187.692205,4183.589641,4197.948615,4200.512718,4190.256308,4195.384513,4202.564
34,0,4159.487078,4157.948616,4166.666565,4158.461437,4157.948616,4174.358872,4156.410155,4165.640924,4160.512719,4160.512719,4164.102462,4149.230668,4148.205027,4159.487078
35,0,4126.153745,4118.974258,4137.435796,4132.307591,4119.999899,4152.820411,4133.333232,4153.846052,4151.79477,4122.564002,4136.410155,4113.333233,4114.358874,4130.256309
36,0,4107.179387,4105.640925,4116.922976,4112.820412,4102.051182,4142.051181,4119.487079,4159.487078,4150.256309,4112.307592,4124.102463,4098.461438,4093.846054,4112.820412
37,0,4075.384516,4067.692208,4081.538362,4069.74349,4072.820413,4127.179386,4091.794772,4144.615283,4126.153745,4085.128105,4090.25631,4066.153747,4055.384516,4074.358875
38,0,4088.717849,4073.846054,4092.307592,4083.076823,4087.179387,4134.358873,4106.153746,4150.769129,4135.897335,4092.820413,4097.435797,4069.23067,4069.74349,4081.538362
39,0,4117.435797,4114.871694,4119.487079,4115.897335,4121.538361,4147.692206,4130.256309,4156.922975,4149.230668,4119.487079,4125.128104,4094.358874,4099.9999,4110.25631
40,0,4162.05118,4163.589642,4170.769129,4167.692206,4169.230667,4177.948616,4168.205026,4174.358872,4172.820411,4173.333231,4168.205026,4149.230668,4148.205027,4156.410155
41,0,4168.205026,4155.384514,4171.79477,4169.743488,4171.281949,4176.410154,4170.256308,4169.743488,4162.05118,4169.743488,4161.025539,4150.769129,4153.846052,4156.922975
42,0,4221.538358,4210.769128,4219.999897,4217.435794,4225.128102,4214.358871,4213.33323,4199.999897,4195.897333,4225.640922,4213.33323,4198.974256,4208.205025,4212.82041
43,0,4257.948614,4257.948614,4263.076819,4261.538357,4255.384511,4233.33323,4238.974255,4212.307589,4218.461435,4269.743485,4250.769127,4241.538358,4251.794768,4255.897332
44,0,4303.589638,4305.1281,4307.179382,4313.846048,4296.410151,4258.461434,4276.922972,4224.102461,4235.897332,4309.743484,4279.487075,4282.051177,4302.563997,4294.358869
45,0,4321.538356,4321.025535,4312.307587,4323.589638,4313.333228,4258.461434,4283.589639,4210.769128,4225.128102,4324.615279,4285.640921,4287.692203,4313.333228,4304.615279
46,0,4361.538355,4357.435791,4351.281945,4357.435791,4342.563996,4285.640921,4313.846048,4235.384512,4252.820409,4362.051175,4327.692202,4330.769125,4348.205022,4355.384509
47,0,4368.205021,4352.820406,4346.15374,4355.384509,4329.743484,4274.87169,4307.692202,4224.102461,4245.640922,4345.640919,4325.64092,4333.333227,4344.615278,4368.205021
48,0,4391.794764,4368.717842,4345.640919,4358.974252,4335.89733,4284.102459,4304.615279,4230.256307,4249.230665,4345.640919,4330.256304,4334.358868,4349.743483,4394.871687
49,0,4391.794764,4360.512714,4330.769125,4339.999894,4305.64092,4270.256306,4276.922972,4220.512717,4237.948614,4328.205022,4315.89733,4314.358869,4338.974253,4410.769123
50,0,4401.538354,4352.820406,4317.435792,4324.615279,4278.461434,4253.333229,4262.051178,4214.358871,4230.256307,4299.487074,4303.589638,4308.717843,4329.230663,4424.615276
51,0,4370.256303,4301.025536,4264.10246,4264.61528,4224.102461,4205.128102,4209.230666,4190.769128,4192.82041,4232.820409,4248.205024,4263.589639,4267.179383,4388.205021
52,0,4350.769124,4262.563998,4234.358871,4226.153743,4183.589641,4178.461436,4177.435795,4178.461436,4170.769129,4181.538359,4209.743487,4221.025538,4230.769127,4364.615278
53,0,4342.051176,4247.179383,4222.051179,4212.82041,4163.076821,4169.230667,4164.102462,4172.30759,4171.79477,4165.640924,4206.153743,4204.615282,4222.051179,4355.897329
54,0,4317.948612,4228.717845,4193.846051,4186.666564,4144.102463,4157.435796,4140.512719,4161.025539,4164.102462,4135.384514,4176.922975,4184.615282,4187.179385,4332.820407
55,0,4289.230664,4207.179384,4180.512718,4171.281949,4124.102463,4142.051181,4123.076822,4154.871693,4148.717847,4102.051182,4134.871694,4165.128103,4163.076821,4310.769125
56,0,4265.128101,4185.128103,4170.256308,4164.615283,4106.666566,4133.333232,4119.487079,4148.205027,4134.358873,4074.871695,4117.435797,4151.28195,4158.461437,4288.205023
57,0,4271.794767,4201.538359,4185.640923,4183.076821,4132.307591,4152.307591,4137.435796,4163.076821,4151.28195,4103.589643,4145.128104,4172.820411,4176.410154,4290.769126
58,0,4268.205024,4206.153743,4185.640923,4183.076821,4144.615283,4155.384514,4141.53836,4156.922975,4148.717847,4116.922976,4139.999899,4168.205026,4174.358872,4275.384511
59,0,4297.948613,4244.10246,4224.102461,4224.102461,4186.666564,4184.615282,4181.025539,4171.281949,4174.358872,4168.717847,4179.487077,4207.692205,4217.435794,4301.538356
60,0,4305.1281,4261.538357,4248.205024,4247.692204,4215.897333,4203.589641,4199.999897,4179.999898,4189.743487,4196.410154,4205.640923,4235.384512,4242.051178,4315.38451
61,0,4334.358868,4297.948613,4289.743485,4288.717844,4265.128101,4228.205025,4239.487076,4187.179385,4203.07682,4243.58964,4236.410153,4268.205024,4284.61528,4343.589637
62,0,4343.589637,4308.717843,4295.897331,4297.435792,4276.410152,4232.820409,4254.871691,4178.461436,4195.897333,4275.384511,4246.666563,4275.897331,4301.538356,4345.128099
63,0,4376.92297,4353.333227,4332.820407,4337.948612,4322.051176,4266.153742,4291.794767,4209.230666,4224.615281,4330.256304,4287.179382,4317.948612,4345.128099,4380.512713
64,0,4378.461431,4365.640919,4339.487073,4351.794765,4346.15374,4258.974255,4295.897331,4204.102461,4217.435794,4339.487073,4289.743485,4317.435792,4351.794765,4379.999893
65,0,4386.666559,4378.974252,4349.743483,4367.692201,4364.102457,4269.743485,4315.38451,4214.871692,4228.717845,4354.358868,4304.102459,4326.15374,4366.153739,4380.512713
66,0,4371.794765,4368.717842,4342.051176,4356.92297,4344.102458,4263.076819,4312.307587,4210.769128,4225.128102,4345.640919,4298.974254,4322.563997,4356.92297,4365.640919
67,0,4377.43579,4369.743483,4350.256304,4359.487073,4345.128099,4272.820408,4318.461433,4223.07682,4240.512717,4347.692201,4307.692202,4328.717843,4358.974252,4367.692201
68,0,4330.769125,4311.794766,4306.666561,4311.794766,4304.102459,4249.743486,4278.461434,4204.102461,4221.538358,4302.051177,4271.794767,4287.179382,4315.38451,4324.102458
69,0,4295.897331,4282.563998,4281.025536,4286.153741,4285.1281,4249.743486,4260.512716,4205.128102,4215.897333,4270.256306,4249.743486,4267.692203,4295.897331,4301.025536
70,0,4258.461434,4256.922973,4249.743486,4254.35887,4258.974255,4235.897332,4235.384512,4200.512718,4212.307589,4243.58964,4229.230666,4241.025537,4261.538357,4265.640921
71,0,4226.666563,4218.974256,4215.897333,4214.871692,4220.512717,4216.410153,4210.769128,4195.897333,4204.615282,4205.640923,4203.07682,4204.615282,4216.410153,4228.717845
72,0,4202.564,4185.128103,4196.922974,4193.333231,4185.640923,4198.974256,4197.948615,4196.410154,4194.358872,4173.846052,4173.846052,4176.922975,4192.82041,4206.153743
73,0,4185.640923,4171.281949,4180.512718,4177.948616,4169.743488,4193.333231,4189.743487,4199.487077,4191.794769,4154.871693,4154.871693,4156.922975,4175.897334,4183.589641
74,0,4172.820411,4163.076821,4168.205026,4161.53836,4166.666565,4193.333231,4173.846052,4200.512718,4196.922974,4152.307591,4150.769129,4148.717847,4161.53836,4167.692206
75,0,4156.410155,4147.179386,4157.435796,4152.820411,4157.948616,4181.538359,4158.461437,4190.256308,4181.538359,4130.76913,4132.820412,4134.358873,4149.230668,4155.384514
76,0,4184.102462,4181.025539,4188.205026,4194.871692,4192.30759,4201.025538,4186.666564,4209.230666,4200.512718,4168.717847,4161.025539,4164.102462,4182.564,4182.05118
77,0,4196.410154,4201.538359,4199.487077,4206.153743,4206.153743,4212.82041,4200.512718,4211.281948,4206.153743,4194.871692,4177.948616,4178.974257,4192.30759,4193.333231
78,0,4228.717845,4237.435794,4237.435794,4235.897332,4241.538358,4226.666563,4229.230666,4209.230666,4204.615282,4231.281948,4210.769128,4211.281948,4227.692204,4228.717845
79,0,4241.538358,4251.281947,4254.871691,4255.384511,4261.538357,4228.205025,4237.435794,4193.846051,4195.897333,4243.58964,4222.051179,4225.128102,4249.230665,4238.461435
80,0,4283.076818,4296.410151,4303.076818,4307.179382,4308.205023,4253.84605,4275.897331,4209.230666,4224.102461,4302.563997,4262.563998,4275.384511,4301.025536,4278.974254
81,0,4297.435792,4310.256305,4316.410151,4318.461433,4317.948612,4249.743486,4288.205023,4205.640923,4222.051179,4331.281945,4271.794767,4291.281946,4315.89733,4293.333228
82,0,4330.769125,4352.307586,4343.589637,4348.717842,4356.92297,4272.820408,4317.948612,4228.205025,4238.974255,4371.281944,4305.64092,4323.589638,4349.743483,4324.102458
83,0,4327.692202,4357.435791,4342.563996,4353.846047,4372.307585,4267.692203,4312.820407,4221.025538,4228.205025,4372.307585,4299.487074,4322.051176,4351.794765,4321.538356
84,0,4333.846048,4357.948611,4354.358868,4368.205021,4384.615277,4270.769126,4318.461433,4217.435794,4226.153743,4368.205021,4295.38451,4323.076817,4350.256304,4324.615279
85,0,4311.281946,4330.256304,4331.281945,4342.563996,4350.769124,4247.692204,4296.410151,4199.999897,4203.07682,4334.871689,4278.461434,4298.461433,4322.051176,4301.025536
86,0,4311.281946,4329.743484,4324.615279,4331.794766,4339.487073,4255.897332,4301.025536,4210.769128,4212.307589,4336.922971,4287.179382,4304.615279,4328.717843,4305.1281
87,0,4277.948613,4291.794767,4292.307587,4294.87169,4306.666561,4243.076819,4274.35887,4205.128102,4207.692205,4309.230664,4258.461434,4276.410152,4295.38451,4273.846049
88,0,4265.640921,4273.333229,4284.102459,4285.640921,4295.38451,4242.051178,4262.563998,4221.025538,4217.948615,4289.230664,4246.666563,4261.538357,4273.333229,4261.025537
89,0,4236.410153,4243.076819,4257.435793,4257.435793,4259.487075,4228.205025,4239.487076,4223.07682,4213.33323,4256.922973,4228.205025,4231.794768,4241.538358,4233.33323
90,0,4196.922974,4204.102461,4216.922974,4216.922974,4218.974256,4228.717845,4218.974256,4218.461435,4212.82041,4208.205025,4194.871692,4190.769128,4204.102461,4191.281949
91,0,4175.384513,4186.153744,4199.487077,4197.948615,4204.102461,4233.33323,4208.717846,4214.871692,4214.358871,4181.538359,4176.410154,4173.846052,4186.666564,4175.384513
92,0,4177.948616,4185.640923,4205.640923,4193.333231,4203.589641,4237.948614,4213.33323,4227.179384,4218.461435,4185.128103,4181.025539,4175.384513,4183.589641,4183.076821
93,0,4185.640923,4185.640923,4209.743487,4195.384513,4201.538359,4237.435794,4214.358871,4227.179384,4220.512717,4201.538359,4189.230667,4180.512718,4182.05118,4182.05118
94,0,4189.230667,4188.717846,4203.589641,4199.999897,4205.128102,4244.10246,4213.846051,4228.717845,4224.615281,4198.461436,4188.717846,4179.487077,4186.153744,4177.435795
95,0,4202.564,4214.871692,4218.461435,4221.025538,4232.820409,4243.076819,4225.640922,4236.922973,4230.256307,4222.051179,4203.07682,4190.769128,4212.307589,4198.461436
96,0,4201.025538,4216.922974,4218.974256,4222.051179,4238.974255,4226.153743,4225.128102,4226.666563,4220.512717,4229.743486,4203.07682,4189.230667,4212.307589,4196.410154
97,0,4233.33323,4248.205024,4256.410152,4263.589639,4275.897331,4235.897332,4243.076819,4234.871691,4233.84605,4276.410152,4226.153743,4229.743486,4253.333229,4219.487076
98,0,4234.871691,4252.307588,4263.076819,4270.769126,4283.589639,4224.615281,4235.384512,4219.487076,4215.897333,4286.153741,4212.82041,4233.84605,4265.128101,4216.922974
99,0,4219.999897,4250.256306,4253.333229,4261.025537,4274.87169,4207.692205,4225.640922,4203.589641,4197.435795,4286.153741,4199.487077,4217.435794,4255.897332,4207.179384
100,0,4206.153743,4245.640922,4235.384512,4246.666563,4255.897332,4191.281949,4205.128102,4185.128103,4179.487077,4280.512716,4187.692205,4200.512718,4245.128101,4196.410154
101,0,4238.974255,4281.025536,4266.666562,4278.974254,4293.333228,4215.384512,4226.153743,4206.666564,4202.564,4314.358869,4219.487076,4233.33323,4280.512716,4229.230666
102,0,4207.692205,4251.281947,4239.487076,4254.871691,4276.410152,4190.256308,4206.153743,4185.128103,4178.974257,4280.512716,4192.82041,4204.102461,4248.205024,4202.051179
103,0,4205.128102,4249.743486,4238.461435,4258.461434,4277.435793,4195.897333,4214.871692,4186.666564,4179.999898,4275.384511,4195.897333,4206.666564,4248.205024,4204.615282
104,0,4202.564,4245.640922,4236.410153,4254.35887,4271.281947,4197.948615,4210.256307,4193.846051,4184.102462,4279.487075,4194.871692,4209.230666,4249.743486,4203.07682
105,0,4218.974256,4257.948614,4254.871691,4264.10246,4283.589639,4212.82041,4220.512717,4210.769128,4199.999897,4292.307587,4205.128102,4222.563999,4258.461434,4215.384512
106,0,4201.025538,4233.84605,4239.487076,4240.512717,4255.897332,4204.102461,4205.128102,4197.435795,4187.179385,4259.487075,4184.102462,4198.461436,4229.743486,4191.281949
107,0,4205.128102,4232.307589,4241.538358,4239.999896,4248.717845,4228.717845,4227.692204,4217.948615,4206.666564,4247.692204,4195.384513,4201.538359,4231.281948,4195.897333
108,0,4201.538359,4220.512717,4235.897332,4230.256307,4243.076819,4236.410153,4235.897332,4234.871691,4223.07682,4242.051178,4206.153743,4204.102461,4227.692204,4199.999897
109,0,4209.743487,4213.33323,4246.153742,4231.281948,4250.769127,4245.128101,4244.10246,4245.128101,4233.84605,4243.076819,4220.512717,4211.794769,4225.640922,4210.769128
110,0,4211.794769,4210.256307,4255.897332,4230.256307,4253.333229,4245.640922,4247.179383,4243.076819,4234.358871,4246.666563,4223.58964,4216.922974,4223.07682,4211.794769
111,0,4216.922974,4221.025538,4257.948614,4229.230666,4256.410152,4253.84605,4256.922973,4247.692204,4240.512717,4249.230665,4223.07682,4218.974256,4225.640922,4212.82041
112,0,4219.999897,4230.256307,4257.435793,4237.435794,4258.974255,4252.820409,4257.435793,4247.692204,4240.512717,4257.948614,4227.179384,4218.974256,4232.820409,4215.384512
113,0,4212.82041,4219.999897,4252.820409,4234.871691,4257.435793,4248.717845,4252.820409,4244.615281,4235.897332,4248.205024,4223.58964,4211.794769,4229.743486,4210.256307
114,0,4211.281948,4221.025538,4253.84605,4232.307589,4267.692203,4245.128101,4250.769127,4245.640922,4236.922973,4253.84605,4221.538358,4214.871692,4233.84605,4210.769128
115,0,4199.999897,4214.871692,4233.33323,4219.999897,4253.333229,4228.205025,4232.307589,4230.769127,4216.922974,4244.615281,4201.538359,4197.435795,4217.948615,4193.846051
116,0,4200.512718,4219.487076,4232.307589,4232.820409,4244.10246,4227.179384,4229.743486,4230.769127,4215.897333,4252.307588,4204.615282,4194.358872,4218.461435,4194.358872
117,0,4188.205026,4211.281948,4222.563999,4224.102461,4232.307589,4219.487076,4217.435794,4220.512717,4210.769128,4242.051178,4194.871692,4184.102462,4213.846051,4189.230667
118,0,4194.871692,4222.563999,4230.256307,4226.153743,4249.230665,4228.717845,4225.640922,4226.153743,4218.974256,4253.84605,4199.999897,4194.871692,4227.179384,4199.487077
119,0,4176.922975,4206.666564,4213.846051,4210.256307,4234.871691,4219.999897,4216.922974,4218.974256,4207.692205,4241.538358,4185.640923,4177.948616,4211.281948,4182.05118
120,0,4201.025538,4230.256307,4243.076819,4244.10246,4265.128101,4241.538358,4244.615281,4241.538358,4231.794768,4273.846049,4219.999897,4205.128102,4244.10246,4208.717846
121,0,4195.897333,4214.871692,4238.974255,4228.717845,4261.025537,4234.871691,4235.897332,4235.384512,4227.179384,4263.589639,4212.307589,4195.384513,4236.410153,4201.538359
122,0,4201.538359,4217.948615,4241.025537,4220.512717,4255.897332,4232.820409,4234.871691,4233.84605,4226.153743,4261.538357,4207.179384,4194.871692,4228.205025,4203.589641
123,0,4191.794769,4212.307589,4225.640922,4212.307589,4237.435794,4219.487076,4221.025538,4224.102461,4217.948615,4246.666563,4197.435795,4187.692205,4213.33323,4193.846051
124,0,4219.999897,4238.461435,4251.794768,4239.999896,4265.128101,4244.10246,4243.076819,4244.10246,4237.948614,4265.640921,4223.58964,4215.384512,4243.58964,4218.974256
125,0,4210.256307,4226.666563,4246.666563,4227.179384,4253.84605,4241.025537,4237.435794,4245.128101,4235.897332,4257.948614,4216.410153,4205.640923,4233.84605,4209.743487
126,0,4198.974256,4224.615281,4238.974255,4227.179384,4251.794768,4239.487076,4239.487076,4243.076819,4232.820409,4256.922973,4209.743487,4195.384513,4226.666563,4202.564
127,0,4204.615282,4231.794768,4238.974255,4235.384512,4263.076819,4241.025537,4241.538358,4239.487076,4230.769127,4256.922973,4204.615282,4193.846051,4227.179384,4203.589641
128,0,4241.025537,4264.61528,4273.333229,4262.563998,4282.563998,4256.922973,4260.512716,4259.487075,4248.205024,4278.974254,4227.179384,4224.102461,4252.820409,4232.307589
0,0,4245.640922,4268.205024,4285.1281,4271.794767,4276.410152,4254.871691,4264.10246,4267.692203,4253.84605,4291.794767,4247.179383,4237.948614,4267.179383,4244.10246
1,0,4260.512716,4273.846049,4291.794767,4286.153741,4300.512715,4263.589639,4275.897331,4271.794767,4264.10246,4306.666561,4269.230665,4250.256306,4287.692203,4261.025537
2,0,4280.512716,4285.640921,4298.974254,4291.794767,4313.333228,4265.640921,4272.820408,4269.230665,4269.230665,4312.820407,4274.35887,4257.948614,4293.333228,4275.897331
3,0,4294.87169,4296.410151,4305.64092,4292.307587,4290.256305,4261.538357,4267.692203,4263.589639,4258.974255,4297.948613,4268.717844,4263.076819,4295.38451,4296.922972
4,0,4329.230663,4317.435792,4325.64092,4306.153741,4290.256305,4263.589639,4278.974254,4265.640921,4257.948614,4306.153741,4288.717844,4284.61528,4323.076817,4348.205022
5,0,4377.948611,4342.051176,4342.051176,4314.871689,4311.281946,4261.538357,4279.999895,4268.205024,4262.051178,4317.435792,4308.717843,4303.076818,4346.15374,4407.179379
6,0,4438.97425,4378.974252,4363.076816,4335.89733,4317.435792,4262.563998,4275.897331,4276.410152,4269.230665,4324.615279,4325.64092,4330.256304,4369.230662,4473.333224
7,0,4479.99989,4399.487072,4367.692201,4342.051176,4293.846049,4255.384511,4268.717844,4268.717844,4257.948614,4305.64092,4322.563997,4340.512714,4371.794765,4516.410146
8,0,4527.179376,4434.358866,4393.846046,4364.615278,4312.307587,4262.563998,4284.102459,4275.897331,4265.640921,4323.076817,4342.563996,4368.205021,4391.794764,4561.53835
9,0,4535.897325,4429.230661,4391.281944,4362.051175,4307.179382,4249.230665,4270.769126,4266.666562,4255.897332,4308.717843,4329.230663,4358.461432,4380.512713,4563.589632
10,0,4553.333222,4435.384507,4401.025533,4374.871688,4303.589638,4255.384511,4275.897331,4268.205024,4261.025537,4312.307587,4330.256304,4359.999893,4387.6922,4573.333222
11,0,4541.02553,4428.20502,4388.717841,4356.41015,4292.307587,4257.948614,4273.846049,4261.538357,4255.897332,4306.153741,4324.615279,4345.128099,4376.92297,4557.948606
12,0,4542.563991,4446.153737,4396.410149,4367.692201,4326.15374,4282.051177,4293.846049,4276.410152,4268.205024,4326.15374,4343.589637,4355.897329,4394.358867,4563.076811
13,0,4523.589633,4436.410148,4384.615277,4368.205021,4327.179381,4279.999895,4292.820408,4277.948613,4267.179383,4321.538356,4338.461432,4348.717842,4391.794764,4545.128094
14,0,4511.794761,4429.743481,4384.615277,4366.153739,4317.948612,4278.974254,4297.435792,4283.076818,4271.794767,4326.666561,4339.487073,4347.692201,4389.230662,4525.640915
15,0,4474.871685,4394.871687,4361.025534,4335.384509,4291.794767,4267.179383,4279.999895,4268.717844,4255.897332,4302.563997,4318.974253,4322.563997,4361.025534,4484.615275
16,0,4462.563993,4385.128098,4363.076816,4334.871689,4304.615279,4273.846049,4283.076818,4272.820408,4261.538357,4306.153741,4320.512715,4327.692202,4362.563996,4477.435788
17,0,4395.384508,4316.922971,4313.333228,4273.846049,4252.307588,4227.179384,4233.33323,4241.025537,4226.153743,4256.922973,4269.743485,4279.487075,4303.589638,4411.794764
18,0,4336.41015,4264.10246,4267.692203,4228.205025,4206.153743,4197.435795,4199.999897,4215.897333,4191.281949,4207.692205,4224.615281,4230.256307,4251.794768,4347.692201
19,0,4352.307586,4295.897331,4296.922972,4271.794767,4253.84605,4237.435794,4240.512717,4243.076819,4223.58964,4248.205024,4258.461434,4262.563998,4289.230664,4366.66656
20,0,4422.563994,4378.974252,4376.410149,4354.358868,4342.051176,4302.563997,4313.333228,4294.87169,4291.281946,4340.512714,4336.41015,4342.563996,4369.743483,4431.281943
21,0,4435.384507,4399.487072,4396.922969,4374.358867,4349.230663,4313.333228,4324.102458,4306.666561,4304.615279,4369.230662,4358.461432,4357.948611,4383.589636,4435.384507
22,0,4398.974251,4366.66656,4369.230662,4343.589637,4325.128099,4298.974254,4308.717843,4296.922972,4287.179382,4349.230663,4336.922971,4330.769125,4360.512714,4404.102456
23,0,4392.307585,4366.66656,4379.999893,4337.435791,4352.307586,4307.692202,4326.666561,4308.205023,4301.025536,4370.256303,4346.15374,4344.615278,4371.794765,4408.717841
24,0,4383.076816,4359.999893,4381.538354,4335.384509,4349.743483,4302.563997,4324.102458,4304.615279,4298.461433,4363.589637,4341.025535,4341.538355,4361.025534,4393.333226
25,0,4378.461431,4356.41015,4373.846047,4342.563996,4335.89733,4298.974254,4319.487074,4303.589638,4291.281946,4352.307586,4335.89733,4329.230663,4352.820406,4375.384508
26,0,4359.999893,4342.563996,4355.897329,4320.512715,4328.717843,4292.307587,4312.307587,4295.897331,4283.076818,4337.435791,4321.538356,4313.333228,4339.487073,4355.897329
27,0,4377.948611,4369.743483,4382.563995,4351.281945,4363.589637,4315.38451,4335.384509,4313.846048,4303.589638,4364.615278,4345.640919,4340.512714,4362.563996,4378.461431
28,0,4420.512712,4413.846046,4428.20502,4417.435789,4405.128097,4351.794765,4371.281944,4345.640919,4337.435791,4415.384507,4390.769123,4382.051175,4405.128097,4414.871687
29,0,4444.102455,4431.281943,4454.871686,4430.769122,4424.102456,4368.717842,4387.17938,4359.999893,4357.948611,4447.179378,4413.846046,4406.153738,4427.692199,4427.179379
30,0,4442.051173,4434.358866,4461.025532,4425.640917,4432.307584,4371.794765,4390.769123,4362.051175,4362.563996,4450.256301,4415.897328,4413.333225,4431.281943,4425.640917
31,0,4467.692198,4478.461429,4495.897326,4483.076813,4480.512711,4407.179379,4428.71784,4394.358867,4392.307585,4494.871685,4457.435788,4448.205019,4473.846044,4455.897327
32,0,4444.102455,4467.692198,4479.48707,4468.205019,4472.307583,4404.102456,4423.076815,4387.17938,4385.128098,4491.281941,4450.256301,4429.743481,4462.563993,4434.358866
33,0,4396.922969,4418.46143,4440.512712,4411.281943,4427.692199,4371.794765,4394.358867,4359.999893,4360.512714,4452.820404,4411.281943,4394.358867,4419.999892,4393.846046
34,0,4324.615279,4336.922971,4373.333226,4345.128099,4352.307586,4317.948612,4341.025535,4324.615279,4315.38451,4373.333226,4344.615278,4328.717843,4344.615278,4324.102458
35,0,4258.974255,4269.230665,4301.538356,4279.999895,4281.538357,4272.820408,4283.076818,4289.230664,4268.205024,4297.435792,4282.051177,4253.84605,4270.256306,4250.769127
36,0,4150.256309,4153.846052,4180.512718,4149.743488,4166.153744,4188.717846,4175.897334,4205.640923,4180.512718,4169.743488,4167.179385,4133.846053,4150.256309,4134.871694
37,0,4128.205027,4125.128104,4152.820411,4119.999899,4148.205027,4169.230667,4150.256309,4185.128103,4156.410155,4132.307591,4133.846053,4111.794771,4124.615284,4115.897335
38,0,4146.666565,4148.205027,4174.871693,4151.28195,4171.281949,4185.640923,4166.153744,4204.102461,4172.820411,4157.948616,4154.358873,4136.410155,4145.640924,4138.974258
39,0,4173.333231,4178.461436,4196.410154,4179.487077,4203.07682,4213.846051,4193.846051,4221.025538,4197.435795,4189.230667,4180.512718,4156.410155,4170.769129,4155.897334
40,0,4192.82041,4194.358872,4216.410153,4190.769128,4233.84605,4234.871691,4217.435794,4233.33323,4217.948615,4210.256307,4207.179384,4177.948616,4197.435795,4173.333231
41,0,4217.948615,4227.179384,4253.84605,4223.58964,4258.974255,4256.410152,4244.615281,4254.35887,4239.999896,4240.512717,4237.435794,4214.358871,4232.307589,4208.205025
42,0,4245.640922,4263.589639,4287.692203,4268.717844,4284.102459,4278.461434,4271.281947,4275.897331,4261.538357,4287.692203,4265.128101,4248.205024,4257.948614,4238.461435
43,0,4254.35887,4271.281947,4292.820408,4279.999895,4312.307587,4294.87169,4291.281946,4286.666562,4271.281947,4303.076818,4277.435793,4254.35887,4266.153742,4243.076819
44,0,4271.794767,4294.358869,4315.38451,4296.922972,4348.205022,4318.974253,4323.076817,4310.256305,4293.846049,4325.64092,4304.615279,4276.410152,4296.410151,4263.076819
45,0,4283.076818,4309.743484,4335.384509,4312.820407,4354.358868,4330.256304,4338.974253,4324.102458,4309.230664,4348.717842,4321.025535,4294.358869,4314.358869,4281.025536
46,0,4306.666561,4332.820407,4357.435791,4344.615278,4370.256303,4347.179381,4355.897329,4337.435791,4326.666561,4381.025534,4344.102458,4318.974253,4334.871689,4302.563997
47,0,4309.230664,4332.307586,4354.358868,4343.589637,4367.17938,4346.15374,4351.794765,4330.256304,4322.563997,4378.461431,4344.102458,4317.435792,4334.871689,4297.948613
48,0,4315.38451,4328.205022,4364.615278,4336.922971,4374.871688,4352.307586,4356.92297,4329.230663,4325.64092,4386.666559,4352.307586,4323.076817,4347.179381,4305.64092
49,0,4333.846048,4344.615278,4390.256303,4356.92297,4396.922969,4367.692201,4377.43579,4343.076817,4339.487073,4407.179379,4374.358867,4345.640919,4368.205021,4330.769125
50,0,4366.153739,4398.974251,4428.71784,4411.794764,4431.281943,4392.820405,4408.20502,4367.17938,4363.076816,4439.487071,4404.102456,4382.563995,4395.384508,4361.538355
51,0,4374.871688,4417.94861,4437.948609,4423.076815,4442.563994,4398.974251,4410.769123,4372.820406,4366.66656,4452.820404,4410.769123,4386.153739,4398.461431,4359.487073
52,0,4382.563995,4418.974251,4447.692199,4421.538353,4465.128096,4410.769123,4423.589635,4388.717841,4379.999893,4474.358865,4430.769122,4395.384508,4417.94861,4370.769124
53,0,4394.358867,4427.692199,4459.999891,4436.410148,4478.461429,4417.94861,4442.563994,4404.102456,4400.512713,4493.846044,4447.179378,4414.358866,4441.025532,4392.307585
54,0,4424.615276,4456.410147,4483.589634,4464.615275,4493.333223,4432.307584,4466.666557,4416.922969,4421.025533,4517.948607,4464.102455,4439.487071,4463.589634,4418.46143
55,0,4426.666558,4457.435788,4484.102454,4462.563993,4496.410146,4436.410148,4467.179378,4415.384507,4420.512712,4519.999889,4466.666557,4436.410148,4456.410147,4412.307584
56,0,4390.256303,4427.179379,4455.384506,4435.897327,4469.23066,4418.974251,4441.538353,4400.512713,4402.563995,4494.358864,4444.615276,4410.769123,4426.666558,4382.563995
57,0,4352.307586,4386.666559,4425.128097,4401.025533,4432.307584,4391.281944,4414.358866,4381.025534,4378.461431,4457.948609,4413.846046,4380.512713,4398.974251,4356.92297
58,0,4351.794765,4375.384508,4417.94861,4389.230662,4427.179379,4384.102457,4409.743482,4372.820406,4366.66656,4439.487071,4398.974251,4368.717842,4386.666559,4347.179381
59,0,4347.692201,4374.871688,4405.640918,4387.6922,4418.46143,4382.051175,4399.487072,4365.128098,4360.512714,4425.640917,4387.6922,4362.563996,4367.692201,4332.307586
60,0,4322.051176,4361.538355,4383.076816,4364.102457,4395.897328,4366.153739,4378.461431,4353.846047,4346.66656,4403.076815,4371.794765,4344.615278,4348.205022,4313.846048
61,0,4315.38451,4355.384509,4383.076816,4347.179381,4394.358867,4358.974252,4377.948611,4354.871688,4345.128099,4401.538354,4375.384508,4339.487073,4355.897329,4319.487074
62,0,4325.128099,4351.281945,4384.102457,4353.846047,4391.794764,4361.538355,4381.025534,4355.897329,4349.743483,4404.102456,4379.487072,4343.589637,4360.512714,4324.102458
63,0,4327.692202,4356.92297,4383.589636,4365.128098,4396.922969,4365.640919,4377.43579,4355.897329,4354.871688,4409.230661,4379.487072,4348.717842,4358.461432,4318.974253
64,0,4305.64092,4348.717842,4369.743483,4342.051176,4400.512713,4353.333227,4361.025534,4346.66656,4346.15374,4397.94861,4364.102457,4328.717843,4343.589637,4302.051177
65,0,4290.769126,4330.256304,4351.794765,4324.102458,4381.538354,4339.999894,4346.66656,4336.922971,4334.871689,4384.102457,4352.307586,4309.230664,4332.820407,4294.358869
66,0,4288.717844,4312.820407,4338.974253,4322.051176,4352.820406,4331.794766,4334.358868,4327.179381,4321.538356,4368.717842,4343.076817,4301.025536,4322.051176,4288.205023
67,0,4306.153741,4329.743484,4351.794765,4336.922971,4367.692201,4338.461432,4341.538355,4332.820407,4324.615279,4379.487072,4352.307586,4313.333228,4332.307586,4296.922972
68,0,4290.769126,4323.076817,4338.461432,4323.076817,4358.974252,4326.666561,4330.256304,4323.076817,4314.358869,4368.717842,4341.538355,4302.051177,4323.589638,4283.589639
69,0,4239.999896,4269.230665,4285.1281,4263.589639,4303.589638,4290.256305,4285.1281,4290.256305,4278.461434,4311.794766,4294.358869,4253.84605,4272.820408,4233.33323
70,0,4187.692205,4210.769128,4227.179384,4196.410154,4247.179383,4250.256306,4233.33323,4256.410152,4243.58964,4249.743486,4241.025537,4196.410154,4214.871692,4177.435795
71,0,4158.461437,4179.487077,4190.769128,4163.589642,4214.358871,4221.538358,4204.102461,4233.84605,4221.538358,4214.871692,4210.256307,4158.974257,4182.564,4146.153745
72,0,4114.358874,4137.435796,4142.564001,4123.589643,4171.79477,4186.153744,4166.153744,4199.999897,4186.666564,4164.102462,4167.179385,4111.794771,4137.948617,4103.076823
73,0,4046.666568,4072.307593,4078.461439,4054.358875,4115.897335,4144.102463,4109.230669,4158.974257,4143.076822,4088.717849,4103.589643,4050.769132,4073.333234,4039.999901
74,0,3986.666569,3998.461441,4017.94862,3981.538364,4053.846055,4097.435797,4053.846055,4122.051181,4103.076823,4024.102466,4047.179388,3992.820415,4011.794774,3978.461441
75,0,3933.846058,3930.256314,3953.333237,3918.461443,3979.999903,4042.564004,3994.358877,4076.410157,4050.256311,3954.871698,3984.102467,3926.15375,3942.564006,3917.948622
76,0,3860.512726,3863.589649,3869.230675,3847.692214,3892.307597,3978.461441,3915.89734,4015.384517,3984.615287,3849.743496,3896.922982,3840.512727,3854.871701,3845.640932
77,0,3788.205036,3795.384523,3794.871702,3775.897344,3817.948625,3924.615289,3848.717855,3963.589647,3932.307596,3752.820421,3823.07683,3769.230677,3783.076831,3781.025549
78,0,3759.999908,3750.256319,3764.615293,3732.307601,3786.153754,3901.538366,3821.025548,3941.538365,3909.230674,3721.02555,3792.3076,3742.051191,3750.769139,3749.230678
79,0,3741.02555,3717.948627,3735.384524,3698.461448,3752.307601,3877.435803,3791.794779,3920.512725,3884.102469,3694.358884,3762.564011,3714.358884,3722.564012,3719.999909
80,0,3697.435807,3672.307603,3679.99991,3643.589654,3693.846064,3832.307599,3741.02555,3883.076828,3844.10247,3633.333244,3718.974268,3665.640936,3684.102474,3677.948628
81,0,3649.23068,3625.640937,3632.820424,3588.20504,3653.846064,3794.871702,3698.461448,3852.307598,3807.692215,3582.051194,3683.076833,3618.97427,3643.589654,3638.461449
82,0,3621.538373,3600.512732,3613.333245,3568.717861,3643.589654,3779.487087,3675.897346,3837.948624,3789.230677,3562.564015,3657.948629,3596.410168,3612.307604,3613.846065
83,0,3598.974271,3571.794784,3584.615297,3547.1794,3616.922988,3754.358883,3648.717859,3816.410163,3768.205036,3531.281965,3625.640937,3574.871707,3582.051194,3588.20504
84,0,3579.999912,3543.076836,3553.333246,3518.461452,3591.281963,3730.76914,3624.615296,3795.384523,3747.179396,3500.512735,3599.999912,3550.256323,3559.487092,3563.589656
85,0,3556.92299,3518.974273,3531.281965,3494.358889,3574.358887,3716.410166,3602.051194,3780.512728,3730.256319,3479.487094,3578.974271,3523.076837,3538.974272,3539.487093
86,0,3539.999913,3511.794786,3518.974273,3483.589658,3561.025554,3707.692217,3587.179399,3771.79478,3721.02555,3471.794787,3564.615297,3508.205042,3530.769144,3531.794785
87,0,3526.66658,3505.128119,3505.128119,3474.87171,3554.358887,3697.435807,3579.999912,3765.128113,3709.743499,3458.461454,3548.205041,3493.846068,3516.41017,3521.538375
88,0,3524.615298,3499.487094,3500.512735,3471.794787,3566.666579,3695.384525,3583.076835,3763.589652,3704.615294,3446.666582,3542.051195,3484.615299,3506.666581,3511.281965
89,0,3525.128119,3495.89735,3502.051196,3468.717864,3565.128118,3693.333243,3579.999912,3757.435806,3700.51273,3445.128121,3545.640939,3485.64094,3511.794786,3516.41017
90,0,3531.281965,3506.666581,3515.89735,3479.999915,3562.051195,3698.461448,3583.589656,3757.948626,3701.538371,3462.051197,3554.358887,3498.974273,3528.717862,3534.358888
91,0,3530.256324,3507.692222,3514.871709,3484.615299,3564.102477,3694.358884,3581.025553,3755.897344,3698.974269,3468.205043,3551.794785,3497.435812,3527.179401,3532.307606
92,0,3525.640939,3499.999914,3503.589658,3471.281966,3573.333246,3683.589654,3572.307605,3749.743498,3694.871705,3464.102479,3547.1794,3486.666581,3522.564016,3524.102478
93,0,3517.948632,3490.256325,3495.38453,3460.512736,3574.871707,3676.410167,3563.076836,3744.615293,3692.820423,3462.564018,3543.076836,3481.025556,3519.999914,3519.999914
94,0,3504.615299,3471.281966,3481.538376,3453.846069,3562.051195,3667.179398,3554.358887,3738.461447,3683.076833,3452.820428,3529.743503,3469.743505,3504.102478,3507.692222
95,0,3509.230683,3475.38453,3479.487094,3447.179403,3571.794784,3665.640936,3555.897349,3737.435806,3676.922987,3452.820428,3525.640939,3468.717864,3501.538376,3505.128119
96,0,3518.461452,3493.846068,3487.692222,3450.256326,3589.230681,3671.281962,3561.025554,3736.410165,3675.384526,3459.487095,3524.102478,3469.743505,3511.281965,3509.230683
97,0,3505.64094,3487.692222,3480.512735,3456.410172,3573.846066,3662.564013,3552.307605,3726.666576,3666.666577,3449.743505,3515.384529,3458.461454,3503.589658,3499.487094
98,0,3473.333248,3454.35889,3448.717864,3431.794788,3537.948631,3636.410167,3523.076837,3704.615294,3640.512731,3411.281968,3492.820427,3430.256326,3470.769146,3471.281966
99,0,3462.564018,3437.948634,3436.410172,3406.666583,3533.846067,3626.666578,3504.615299,3689.7435,3625.640937,3391.281968,3479.999915,3416.922993,3460.512736,3461.538377
100,0,3469.230684,3436.922993,3432.307608,3402.051199,3536.41017,3621.025552,3494.871709,3679.99991,3619.487091,3392.82043,3475.897351,3413.84607,3465.640941,3469.230684
101,0,3471.794787,3437.948634,3416.410173,3396.922994,3517.435811,3604.102476,3480.512735,3669.7435,3610.256322,3384.615302,3471.281966,3403.58966,3459.487095,3473.846069
102,0,3468.717864,3429.230685,3397.948635,3381.538379,3497.435812,3587.69222,3462.564018,3656.922987,3592.307604,3362.0512,3452.820428,3385.640943,3445.640941,3469.743505
103,0,3495.38453,3439.999916,3408.717865,3392.82043,3510.256324,3591.281963,3462.564018,3655.897346,3587.69222,3372.82043,3456.922992,3396.410173,3465.12812,3504.615299
104,0,3540.512734,3465.12812,3430.769147,3406.153763,3522.564016,3590.256322,3464.6153,3656.410167,3588.717861,3394.358891,3480.512735,3423.076839,3497.435812,3568.205041
105,0,3569.743502,3472.307607,3427.179403,3397.948635,3511.794786,3569.230682,3446.153762,3642.051193,3573.333246,3378.461456,3473.333248,3421.538378,3495.89735,3604.615296
106,0,3583.589656,3458.974274,3405.128122,3383.07684,3491.794786,3544.615298,3414.358891,3618.97427,3545.128118,3341.53838,3438.461454,3394.871712,3467.179402,3610.256322
107,0,3606.153758,3462.051197,3404.615301,3379.487097,3493.333248,3542.051195,3408.717865,3612.307604,3537.948631,3332.820431,3436.410172,3394.358891,3466.666582,3631.794783
108,0,3616.922988,3465.12812,3408.717865,3376.410174,3498.974273,3544.102477,3411.281968,3614.358886,3543.076836,3343.076841,3449.743505,3408.205045,3479.999915,3652.820423
109,0,3614.358886,3458.461454,3406.666583,3379.999917,3496.922991,3536.92299,3403.07684,3608.71786,3539.999913,3342.0512,3441.538377,3405.640942,3476.922992,3645.128116
110,0,3617.435809,3473.333248,3414.358891,3395.384532,3504.102478,3539.487093,3408.205045,3606.153758,3537.435811,3337.948636,3434.871711,3403.07684,3475.897351,3637.435808
111,0,3634.358885,3512.820427,3442.564018,3427.179403,3539.487093,3562.564015,3438.461454,3624.102475,3553.333246,3362.56402,3459.487095,3430.256326,3501.025555,3659.48709
112,0,3649.7435,3536.41017,3469.230684,3458.461454,3577.43581,3582.051194,3462.564018,3644.615295,3571.794784,3396.922994,3486.666581,3459.999915,3524.615298,3675.384526
113,0,3658.97427,3540.512734,3486.153761,3472.820428,3604.102476,3592.307604,3477.948633,3656.922987,3585.640938,3421.538378,3502.051196,3473.333248,3538.974272,3672.307603
114,0,3667.179398,3551.281964,3505.128119,3488.717863,3631.794783,3610.769142,3502.051196,3673.333244,3605.640937,3455.897351,3521.538375,3491.281966,3561.025554,3676.410167
115,0,3657.435808,3555.897349,3510.256324,3498.461453,3642.564013,3620.512732,3514.358888,3681.538372,3619.487091,3480.512735,3529.743503,3498.974273,3569.230682,3668.205039
116,0,3605.128117,3508.205042,3473.846069,3457.948633,3618.46145,3594.871707,3483.076838,3658.461449,3598.46145,3446.666582,3497.435812,3461.538377,3530.769144,3613.846065
117,0,3527.179401,3424.10248,3404.102481,3382.56402,3570.256323,3545.640939,3421.538378,3609.743501,3549.230682,3368.205046,3435.897352,3389.230686,3458.974274,3534.358888
118,0,3450.769146,3357.435815,3337.948636,3318.461457,3505.128119,3494.358889,3363.076841,3562.564015,3495.89735,3298.974278,3370.256328,3318.461457,3384.102481,3459.999915
119,0,3342.564021,3263.076843,3236.410177,3217.435819,3394.871712,3412.307609,3276.922997,3495.89735,3419.487096,3195.897358,3270.769151,3220.512742,3275.384535,3353.333251
120,0,3218.97428,3128.205052,3102.051206,3078.974284,3271.794792,3317.435816,3164.615307,3411.281968,3330.769149,3056.410182,3153.333256,3099.999924,3147.692231,3227.179408
121,0,3124.102488,3018.461465,2997.435824,2975.897363,3176.922999,3247.179408,3075.38454,3346.666585,3261.025561,2942.564031,3053.846079,2996.410183,3045.640951,3124.102488
122,0,3043.589669,2949.743518,2922.564031,2901.538391,3103.076847,3188.717871,3009.230696,3302.051201,3204.102486,2856.923007,2971.794799,2913.333262,2963.076851,3038.974285
123,0,2917.948647,2827.179418,2804.615316,2772.820445,2994.871722,3094.871719,2899.999929,3225.128126,3118.974283,2728.717882,2859.99993,2795.384547,2839.48711,2914.358903
124,0,2806.666598,2697.948652,2691.794806,2657.948653,2896.923006,3019.487106,2802.051214,3148.717872,3042.564028,2609.743526,2758.974292,2683.589678,2728.205061,2803.076855
125,0,2775.897368,2659.999935,2653.846089,2632.307628,2868.205058,3001.025568,2777.94865,3122.051206,3015.897362,2570.256347,2715.897369,2643.589679,2690.769165,2766.666599
126,0,2780.512753,2671.281986,2655.38455,2637.435833,2875.897366,2999.487106,2781.538394,3121.538385,3013.33326,2571.794809,2713.333267,2647.692243,2692.307626,2765.128138
127,0,2761.538394,2660.512755,2648.205063,2625.640961,2861.538392,2986.153773,2767.69224,3112.307616,3003.07685,2564.615322,2712.820446,2639.487115,2684.615319,2751.281984
128,0,2722.051215,2629.743525,2622.051218,2599.487116,2825.640957,2964.102492,2739.999933,3089.230694,2978.974286,2541.538399,2686.15378,2606.666603,2653.846089,2718.461472
0,0,2674.871729,2587.692244,2574.358911,2554.358912,2793.846086,2929.743518,2701.025575,3054.3589,2943.076851,2491.794811,2633.333269,2557.435835,2601.538398,2665.64096
1,0,2646.153781,2557.948655,2542.05122,2522.564041,2780.512753,2904.615314,2675.89737,3035.897362,2923.076852,2455.384555,2604.1025,2529.230707,2569.743527,2630.769166
2,0,2632.307628,2545.640963,2533.846092,2515.897374,2764.102497,2895.897365,2665.12814,3029.230695,2916.923006,2452.307632,2598.461475,2524.102502,2560.512758,2620.512756
3,0,2589.230706,2503.589682,2497.435836,2478.974298,2715.897369,2871.794802,2632.820448,3000.512747,2888.717878,2419.999941,2557.435835,2483.589683,2515.897374,2576.923014
4,0,2518.461477,2429.74353,2430.256351,2412.820454,2662.564037,2829.743521,2586.153783,2960.512748,2842.564033,2350.256353,2490.76917,2412.820454,2447.179427,2506.153785
5,0,2464.102504,2374.871737,2376.923019,2363.589686,2623.589679,2791.794804,2548.717886,2933.333262,2806.666598,2293.846098,2448.205068,2364.615327,2401.025582,2462.564042
6,0,2446.153786,2360.512763,2357.43584,2338.974302,2596.410193,2767.69224,2521.025579,2916.923006,2792.820445,2274.358919,2433.333274,2349.230712,2387.179429,2447.179427
7,0,2443.589684,2360.512763,2351.794814,2328.205071,2580.512757,2756.92301,2506.666605,2906.153775,2792.307624,2271.281996,2425.128146,2343.589686,2385.640967,2437.948658
8,0,2451.794812,2371.281993,2361.538404,2344.615327,2591.794808,2764.615317,2516.923015,2908.205057,2795.384547,2285.128149,2426.666607,2350.769173,2393.846095,2442.564043
9,0,2478.974298,2399.999941,2390.769172,2381.538403,2625.640961,2789.743522,2542.05122,2923.076852,2807.692239,2318.461482,2448.205068,2376.923019,2418.461479,2464.615324
10,0,2531.281989,2459.487119,2449.74353,2442.564043,2684.615319,2835.897367,2592.820449,2961.538389,2853.333264,2390.769172,2508.717887,2435.897376,2482.051221,2517.948656
11,0,2580.512757,2513.846092,2511.79481,2502.564041,2740.512753,2877.948648,2648.205063,3001.025568,2897.435827,2463.589683,2570.769168,2498.974298,2544.615322,2573.846091
12,0,2615.384551,2553.333271,2558.974296,2544.102502,2783.076855,2903.589673,2688.717883,3026.153772,2915.897365,2508.205067,2614.35891,2541.538399,2584.615321,2612.820449
13,0,2650.769166,2596.410193,2597.435834,2585.128142,2828.71788,2930.256339,2723.076856,3049.743515,2936.410185,2550.769168,2652.307627,2575.384552,2622.564038,2645.640961
14,0,2689.743524,2646.153781,2643.589679,2643.589679,2884.615314,2968.717876,2767.69224,3080.512745,2973.333261,2605.128141,2691.281985,2619.999936,2664.102499,2686.15378
15,0,2697.435831,2656.923012,2664.102499,2662.051217,2901.02557,2984.102491,2790.256342,3092.307617,2986.666594,2630.256346,2705.128139,2641.025576,2678.974293,2699.999934
16,0,2694.358908,2653.333268,2667.692242,2656.410191,2896.923006,2984.102491,2796.410188,3094.358899,2989.230696,2645.12814,2712.307626,2644.102499,2687.692242,2703.589677
17,0,2715.384549,2685.128139,2691.281985,2683.589678,2928.205057,2998.461465,2816.923008,3110.256334,3010.769157,2679.999934,2739.999933,2666.666601,2715.384549,2733.846087
18,0,2743.589677,2726.153779,2724.102497,2722.564036,2969.230697,3019.999926,2841.025572,3125.640949,3028.717875,2706.6666,2767.17942,2697.948652,2742.051215,2765.128138
19,0,2757.948651,2739.999933,2738.461471,2739.999933,2963.589671,3027.692234,2846.666597,3124.102488,3029.743516,2712.820446,2775.897368,2711.281985,2752.307625,2771.281984
20,0,2783.076855,2755.897369,2758.974292,2764.102497,2964.615312,3040.512746,2861.025571,3134.358898,3045.640951,2743.589677,2796.923009,2732.820446,2776.410189,2788.717881
21,0,2825.640957,2799.999932,2804.615316,2811.281983,3025.640952,3069.743515,2901.02557,3165.128128,3080.512745,2805.128137,2846.153777,2780.512753,2826.153777,2835.384546
22,0,2857.435828,2837.948649,2843.076854,2844.615315,3074.87172,3092.820437,2934.358903,3184.615307,3099.487104,2842.564033,2882.564032,2817.948649,2863.589674,2872.820443
23,0,2863.589674,2841.538392,2852.820443,2847.179418,3065.12813,3098.974283,2941.53839,3183.076845,3100.512745,2847.692238,2887.692237,2826.153777,2869.74352,2881.025571
24,0,2857.435828,2832.307623,2848.717879,2843.076854,3051.794797,3101.025565,2940.512749,3179.999922,3099.999924,2851.281982,2885.640955,2823.076854,2868.205058,2877.435827
25,0,2861.025571,2839.999931,2850.256341,2852.307623,3067.692233,3102.564027,2944.615313,3182.564025,3104.102488,2858.974289,2890.25634,2825.128136,2871.794802,2878.974289
26,0,2841.538392,2822.564034,2829.2307,2833.846085,3048.717874,3077.948643,2921.02557,3164.615307,3083.589668,2826.153777,2863.076853,2796.923009,2837.948649,2853.333264
27,0,2802.564034,2783.589676,2793.846086,2795.897368,3006.153773,3052.820438,2889.230699,3139.487103,3053.333259,2783.076855,2823.589675,2756.92301,2792.307624,2812.820444
28,0,2771.794804,2755.897369,2764.102497,2765.640958,2981.025568,3039.487105,2868.717879,3122.051206,3038.461464,2761.538394,2800.512752,2727.692241,2771.794804,2792.820445
29,0,2754.871728,2739.487112,2739.999933,2744.102497,2957.948646,3017.435824,2844.102495,3105.64095,3026.666593,2743.589677,2786.153778,2705.128139,2761.025574,2784.615317
30,0,2736.410189,2708.205062,2712.307626,2710.769164,2915.384544,2983.589671,2805.128137,3077.435822,2997.948645,2704.102498,2755.384548,2677.435832,2727.692241,2759.487112
31,0,2732.307625,2693.846088,2697.435831,2689.743524,2890.76916,2966.153774,2783.076855,3055.384541,2976.923004,2672.820447,2734.358907,2662.051217,2708.205062,2750.256343
32,0,2759.999933,2724.102497,2711.281985,2712.820446,2910.76916,2974.358902,2792.307624,3056.923002,2982.051209,2687.692242,2753.333266,2676.923011,2738.461471,2791.281983
33,0,2827.179418,2783.076855,2764.102497,2771.794804,2957.948646,3003.07685,2828.71788,3084.102489,3009.743516,2745.640959,2806.153778,2733.333266,2803.589675,2868.205058
34,0,2896.923006,2826.153777,2811.281983,2810.256342,2977.948645,3016.923003,2849.74352,3102.051206,3026.666593,2777.94865,2839.48711,2780.512753,2842.564033,2942.564031
35,0,2965.128133,2870.769161,2842.051213,2839.48711,2988.717876,3025.128131,2862.051212,3107.179411,3035.384541,2787.179419,2863.589674,2809.743521,2870.25634,3021.538388
36,0,3051.281977,2942.564031,2892.820442,2900.51275,3029.230695,3056.410182,2902.564032,3131.281975,3061.538387,2828.71788,2913.333262,2864.102494,2925.128134,3114.871719
37,0,3109.230693,2987.179414,2929.743518,2938.461467,3046.666592,3071.281976,2928.205057,3146.66659,3072.307617,2854.871725,2938.461467,2900.51275,2953.846082,3162.051205
38,0,3118.461462,2990.256337,2929.230698,2934.871723,3034.3589,3060.512746,2920.512749,3136.41018,3057.948643,2834.871726,2922.564031,2892.307622,2937.948646,3158.461461
39,0,3139.487103,3019.487106,2954.871723,2965.128133,3070.769156,3082.564027,2942.564031,3151.281974,3072.820438,2858.461469,2943.076851,2914.358903,2958.461466,3185.128127
40,0,3160.512743,3043.589669,2983.07685,2994.871722,3104.615309,3108.205052,2968.717876,3173.846076,3098.974283,2904.102493,2977.435825,2944.615313,2991.281978,3209.230691
41,0,3137.948641,3024.10249,2962.05121,2970.256338,3071.794797,3092.820437,2953.846082,3162.564025,3090.256335,2895.384545,2964.615312,2923.589672,2979.999927,3177.94864
42,0,3129.743513,3032.820439,2970.769158,2976.410184,3076.410181,3102.564027,2970.256338,3171.794794,3099.999924,2912.820442,2970.256338,2929.230698,2989.743517,3170.256333
43,0,3163.076846,3074.358899,3027.692234,3037.435823,3138.974282,3148.205051,3025.640952,3211.281973,3139.999923,2979.487107,3017.435824,2981.538389,3038.974285,3204.615306
44,0,3181.025563,3091.794796,3055.897361,3073.333258,3165.128128,3168.717871,3049.230695,3226.666588,3160.512743,3015.897362,3049.230695,3007.692234,3067.179412,3212.307614
45,0,3161.025564,3084.615309,3052.820438,3061.025566,3158.974282,3169.743512,3049.230695,3227.179408,3168.717871,3023.076849,3058.461464,3007.692234,3073.333258,3195.384537
46,0,3158.461461,3097.435822,3075.897361,3069.230694,3192.307614,3194.871717,3076.410181,3254.358895,3197.435819,3064.61531,3080.512745,3034.3589,3103.076847,3201.538383
47,0,3165.640948,3112.820437,3095.38454,3095.89736,3222.564024,3212.820434,3104.615309,3275.384535,3216.922998,3100.512745,3096.410181,3055.384541,3120.512744,3199.487101
48,0,3139.487103,3107.179411,3081.025566,3098.974283,3201.025563,3199.999922,3098.461463,3263.589664,3205.128127,3088.205053,3087.179412,3036.923003,3095.38454,3168.717871
49,0,3093.333258,3068.717874,3052.307618,3063.076848,3166.666589,3180.512743,3069.230694,3236.922998,3177.43582,3050.256336,3056.923002,2995.384542,3057.435823,3122.564026
50,0,3069.743515,3030.769157,3031.794798,3029.230695,3162.051205,3175.384538,3055.897361,3225.128126,3167.17941,3035.897362,3035.384541,2972.82044,3042.564028,3090.769155
51,0,3060.512746,3027.692234,3019.999926,3027.692234,3158.974282,3175.897358,3061.538387,3227.179408,3167.17941,3036.410182,3032.820439,2968.205056,3040.512746,3077.948643
52,0,3071.281976,3056.923002,3038.461464,3057.948643,3173.333256,3193.333255,3084.615309,3239.999921,3179.487102,3054.3589,3048.717874,2985.128132,3058.461464,3091.281976
53,0,3104.102488,3098.974283,3088.205053,3104.615309,3223.589665,3227.692229,3119.487103,3265.640946,3212.820434,3107.179411,3083.589668,3028.205054,3102.051206,3124.102488
54,0,3150.769154,3158.461461,3153.333256,3170.769153,3291.281971,3273.333253,3175.384538,3308.205047,3259.4871,3182.564025,3146.66659,3094.871719,3163.076846,3172.820435
55,0,3208.20505,3226.153767,3219.999921,3242.564023,3355.384533,3326.153765,3238.461459,3353.846072,3302.564022,3251.281972,3218.97428,3162.051205,3226.666588,3227.692229
56,0,3251.281972,3263.076843,3264.102484,3281.538381,3399.999917,3360.512738,3278.461458,3378.461456,3332.820431,3300.51274,3258.974279,3202.051204,3267.692228,3259.99992
57,0,3252.307613,3264.102484,3271.281971,3285.640945,3415.897352,3366.666584,3290.76915,3384.102481,3343.076841,3324.615303,3267.692228,3212.820434,3278.974279,3261.538382
58,0,3257.435818,3286.666586,3286.666586,3312.820432,3435.897352,3382.051199,3314.358893,3400.512737,3355.384533,3350.256328,3293.333253,3233.333254,3299.487099,3275.897356
59,0,3297.435817,3339.999918,3333.333252,3362.56402,3474.87171,3415.384532,3352.30761,3427.692224,3388.717866,3402.564019,3341.025559,3278.461458,3342.0512,3317.435816
60,0,3336.922995,3384.615302,3386.666584,3397.948635,3517.948632,3441.025557,3388.205045,3451.794787,3426.666583,3458.461454,3383.07684,3326.666585,3383.589661,3356.922995
61,0,3351.281969,3406.153763,3420.512737,3429.230685,3553.846067,3459.999915,3416.410173,3475.38453,3448.205044,3494.871709,3411.794788,3355.384533,3412.820429,3375.384533
62,0,3358.974277,3422.051198,3431.794788,3463.589659,3569.743502,3480.512735,3436.410172,3491.281966,3456.922992,3510.769145,3427.692224,3365.640943,3426.666583,3382.56402
63,0,3408.205045,3471.794787,3473.333248,3508.717863,3609.743501,3518.461452,3478.461453,3519.999914,3486.666581,3554.871708,3468.717864,3408.717865,3466.666582,3425.128121
64,0,3477.435812,3540.512734,3545.640939,3566.666579,3679.48709,3571.281964,3542.051195,3565.640938,3536.92299,3635.384526,3534.358888,3482.564017,3537.435811,3493.846068
65,0,3517.435811,3585.640938,3598.974271,3624.102475,3736.410165,3617.948629,3592.820425,3606.666578,3579.487092,3709.230679,3588.717861,3535.384529,3593.333245,3538.974272
66,0,3536.92299,3606.666578,3626.153757,3655.897346,3773.846062,3643.076834,3619.999911,3627.179398,3607.692219,3750.256319,3621.538373,3558.974272,3624.102475,3560.512733
67,0,3572.820425,3643.076834,3669.23068,3688.205038,3818.461445,3668.205039,3655.384526,3649.23068,3637.435808,3786.153754,3658.97427,3595.384527,3660.512731,3595.384527
68,0,3608.71786,3690.769141,3714.358884,3735.897345,3857.948624,3696.922987,3693.846064,3677.948628,3662.564013,3823.58965,3693.333243,3636.410167,3695.897346,3627.692219
69,0,3651.281962,3745.128114,3760.512729,3791.281959,3907.692212,3735.384524,3741.53837,3716.410166,3698.461448,3882.564008,3739.999909,3684.615295,3744.615293,3672.307603
70,0,3690.25632,3786.666574,3807.692215,3829.743496,3955.384519,3775.897344,3792.82042,3753.846062,3741.02555,3949.230673,3794.358882,3730.76914,3795.384523,3722.051191
71,0,3720.51273,3818.974266,3846.666573,3864.61529,3987.17939,3807.179394,3831.281958,3778.974267,3767.179395,3995.384518,3836.922983,3771.281959,3835.897342,3753.333242
72,0,3764.102472,3863.589649,3890.256315,3918.461443,4029.230671,3832.820419,3862.051188,3803.07683,3789.743497,4035.897337,3875.897341,3816.922984,3878.974264,3787.179395
73,0,3814.358881,3909.230674,3937.435801,3971.281954,4086.153746,3865.128111,3898.974264,3835.897342,3829.743496,4089.230669,3921.538366,3863.589649,3926.666571,3836.922983
74,0,3846.153752,3940.512724,3971.794775,4006.666569,4122.564002,3897.435802,3936.922981,3864.10247,3865.128111,4134.358873,3958.974262,3897.948623,3963.589647,3871.794777
75,0,3871.794777,3972.307595,4006.666569,4035.384517,4141.53836,3922.051186,3969.743493,3884.61529,3885.12811,4167.179385,3988.717851,3929.743494,3993.333236,3894.358879
76,0,3893.846059,3993.846056,4031.794773,4049.23067,4160.512719,3932.307596,3989.743492,3898.974264,3899.487084,4191.281949,4007.69221,3952.307596,4012.820415,3918.461443
77,0,3912.307597,4015.384517,4048.205029,4068.205029,4187.692205,3949.743493,4010.769133,3914.358879,3918.461443,4213.846051,4024.615286,3970.769134,4034.871696,3939.999904
78,0,3944.102468,4057.435798,4081.538362,4115.384515,4218.974256,3986.153749,4044.615286,3938.974263,3947.179391,4252.820409,4063.589644,4007.179389,4071.281952,3970.256313
79,0,3977.4358,4096.922977,4117.435797,4154.871693,4244.615281,4011.281953,4074.358875,3959.999903,3971.794775,4294.87169,4100.51272,4041.025542,4099.9999,4005.640928
80,0,3991.794774,4116.922976,4134.358873,4169.743488,4263.076819,4015.384517,4086.153746,3966.153749,3983.589646,4312.820407,4111.794771,4054.358875,4115.384515,4024.615286
81,0,4010.769133,4136.410155,4154.358873,4194.358872,4279.999895,4034.358876,4104.615284,3978.974262,3997.4358,4324.102458,4124.102463,4072.820413,4136.410155,4039.487081
82,0,4052.820414,4173.846052,4195.384513,4241.538358,4308.205023,4071.794772,4141.53836,4008.717851,4027.179389,4362.563996,4163.589642,4111.794771,4172.30759,4073.846054
83,0,4074.871695,4196.410154,4221.025538,4261.025537,4330.256304,4091.281951,4163.076821,4025.640927,4047.692209,4392.307585,4191.794769,4132.820412,4198.461436,4097.435797
84,0,4079.48708,4204.615282,4234.358871,4262.051178,4345.128099,4102.051182,4172.820411,4032.307594,4057.948619,4403.076815,4203.07682,4142.564001,4213.846051,4110.76913
85,0,4108.205028,4234.871691,4259.487075,4293.846049,4369.743483,4122.564002,4198.974256,4050.769132,4075.897336,4430.256302,4225.640922,4173.333231,4238.974255,4137.435796
86,0,4156.922975,4287.179382,4297.435792,4347.692201,4405.640918,4148.717847,4234.358871,4077.948618,4104.615284,4483.076813,4265.128101,4219.487076,4281.538357,4178.461436
87,0,4178.974257,4303.076818,4318.974253,4359.999893,4424.102456,4160.512719,4247.179383,4089.230669,4120.51272,4505.128095,4289.230664,4238.974255,4304.615279,4203.589641
88,0,4170.769129,4289.743485,4321.538356,4343.589637,4424.102456,4162.564001,4247.179383,4087.179387,4121.02554,4494.358864,4290.769126,4238.461435,4301.025536,4207.692205
89,0,4164.615283,4294.358869,4321.538356,4348.717842,4417.435789,4167.179385,4253.333229,4089.230669,4121.02554,4491.281941,4291.281946,4241.538358,4297.435792,4204.615282
90,0,4188.717846,4322.563997,4340.512714,4379.999893,4428.20502,4185.640923,4277.435793,4109.743489,4140.512719,4519.487069,4312.307587,4264.61528,4320.512715,4223.07682
91,0,4215.897333,4337.948612,4361.538355,4394.358867,4445.640917,4201.538359,4294.358869,4122.564002,4158.974257,4542.051171,4322.563997,4285.1281,4341.025535,4245.128101
92,0,4225.640922,4344.615278,4375.897329,4399.487072,4459.999891,4211.794769,4303.589638,4126.153745,4165.640924,4550.769119,4322.563997,4296.922972,4350.769124,4257.435793
93,0,4233.33323,4355.384509,4386.666559,4412.820405,4470.769121,4222.563999,4316.922971,4137.435796,4171.281949,4563.589632,4336.41015,4309.743484,4364.615278,4269.743485
94,0,4261.538357,4380.512713,4402.051174,4436.922968,4486.666557,4237.948614,4335.384509,4152.820411,4187.692205,4584.615273,4360.512714,4328.717843,4388.205021,4291.794767
95,0,4277.948613,4396.922969,4417.435789,4452.307583,4494.871685,4250.256306,4345.128099,4161.025539,4202.564,4601.538349,4369.230662,4342.563996,4401.025533,4304.102459
96,0,4297.948613,4418.974251,4446.153737,4474.358865,4514.358864,4265.640921,4366.153739,4178.461436,4217.948615,4623.07681,4385.128098,4369.743483,4417.94861,4322.563997
97,0,4333.846048,4459.48707,4481.025531,4508.205018,4552.820401,4287.692203,4395.384508,4200.512718,4238.461435,4652.820399,4416.922969,4402.051174,4448.71784,4354.358868
98,0,4351.794765,4486.153736,4500.51271,4531.794761,4583.076811,4308.205023,4411.281943,4211.794769,4253.333229,4674.35886,4439.487071,4412.307584,4467.179378,4369.230662
99,0,4356.92297,4495.897326,4513.333223,4546.153735,4589.230657,4317.948612,4421.025533,4221.538358,4265.640921,4688.717834,4453.333224,4420.512712,4478.461429,4373.333226
100,0,4371.794765,4508.717838,4527.179376,4560.512709,4593.333221,4320.512715,4435.384507,4231.281948,4275.384511,4696.922962,4466.666557,4436.922968,4495.897326,4387.6922
101,0,4389.230662,4527.179376,4540.512709,4576.410145,4615.897323,4335.89733,4454.358865,4244.10246,4288.717844,4713.846039,4482.563993,4453.333224,4512.307582,4406.666559
102,0,4392.820405,4530.76912,4547.179376,4587.179375,4629.743477,4351.281945,4464.615275,4255.384511,4303.589638,4734.871679,4494.871685,4462.051173,4518.974248,4413.333225
103,0,4402.563995,4535.384504,4558.974247,4595.384503,4629.230656,4362.051175,4470.769121,4264.10246,4315.89733,4750.769115,4505.128095,4473.846044,4530.76912,4421.025533
104,0,4421.538353,4552.307581,4580.512709,4610.769118,4638.974246,4379.487072,4486.666557,4277.435793,4329.230663,4766.15373,4517.435787,4490.769121,4550.256299,4440.512712
105,0,4446.153737,4576.410145,4605.128093,4637.435784,4669.743476,4403.589636,4516.922966,4297.948613,4351.281945,4796.92296,4543.589632,4515.384505,4576.410145,4467.692198
106,0,4471.281942,4599.487067,4627.179374,4655.384502,4701.538347,4420.512712,4543.076812,4314.358869,4368.205021,4827.69219,4575.897324,4542.051171,4601.025529,4492.820403
107,0,4494.358864,4628.717836,4657.435784,4677.948604,4725.64091,4443.589635,4571.79476,4334.358868,4387.17938,4856.922958,4606.666554,4574.358863,4627.692195,4522.563992
108,0,4511.794761,4649.230656,4678.461424,4705.12809,4732.820397,4462.051173,4591.281939,4350.256304,4404.102456,4872.820394,4622.051169,4595.897324,4646.153733,4541.53835
109,0,4525.640915,4656.922963,4684.61527,4716.922962,4739.999884,4466.153737,4595.384503,4358.974252,4410.769123,4875.384496,4629.230656,4604.102452,4656.410143,4547.692196
110,0,4539.487068,4669.743476,4695.897321,4720.512705,4753.846038,4474.358865,4602.56399,4368.717842,4418.974251,4885.128086,4643.58963,4613.846041,4667.179373,4557.948606
111,0,4555.384504,4687.179373,4713.333218,4736.922961,4758.461422,4488.205018,4616.410144,4378.974252,4435.897327,4901.025521,4658.974245,4630.769118,4679.487065,4576.410145
112,0,4555.384504,4679.999886,4712.820398,4744.102448,4751.794756,4487.692198,4613.333221,4377.43579,4435.384507,4892.307573,4654.358861,4631.281938,4673.84604,4579.487068
113,0,4555.384504,4681.538347,4713.333218,4737.435782,4759.487063,4493.333223,4617.948605,4383.589636,4438.97425,4892.820393,4656.410143,4631.794759,4677.948604,4584.102452
114,0,4554.358863,4685.128091,4713.333218,4727.179372,4756.41014,4504.615274,4630.256297,4393.333226,4455.384506,4909.230649,4665.640912,4634.358861,4687.179373,4588.717837
115,0,4547.692196,4669.230655,4701.538347,4723.589628,4740.512705,4499.99989,4623.589631,4388.717841,4454.358865,4902.051162,4658.461425,4624.102451,4674.871681,4579.487068
116,0,4547.179376,4665.640912,4695.897321,4729.743474,4742.051166,4491.281941,4609.230657,4381.025534,4438.46143,4879.999881,4647.179374,4613.846041,4659.999886,4570.769119
117,0,4546.153735,4674.871681,4694.87168,4727.692192,4747.179371,4493.333223,4606.153734,4379.487072,4434.358866,4868.71783,4641.538348,4610.256298,4658.461425,4570.769119
118,0,4529.230658,4656.922963,4673.84604,4703.076808,4727.692192,4486.153736,4590.256298,4366.66656,4428.71784,4848.20501,4625.640913,4594.358862,4644.102451,4561.025529
119,0,4523.076812,4637.948605,4656.922963,4689.743475,4704.102449,4477.948608,4577.948606,4357.435791,4417.435789,4832.307574,4616.410144,4583.076811,4629.743477,4554.358863
120,0,4535.384504,4644.102451,4667.179373,4694.87168,4700.512706,4480.512711,4590.769119,4370.769124,4423.589635,4841.538343,4628.717836,4594.871683,4643.58963,4564.615273
121,0,4519.487069,4633.846041,4663.076809,4675.384501,4691.794757,4468.205019,4583.076811,4368.205021,4423.589635,4833.846036,4622.051169,4589.230657,4640.512707,4557.435786
122,0,4501.538351,4616.922964,4643.07681,4653.84604,4681.025527,4453.333224,4561.53835,4351.794765,4414.358866,4816.410139,4606.153734,4571.281939,4621.538349,4541.53835
123,0,4503.076813,4608.205016,4631.281938,4653.33322,4665.128091,4453.333224,4555.897324,4349.743483,4408.717841,4807.69219,4601.538349,4564.102452,4611.281939,4536.410145
124,0,4498.974249,4602.05117,4627.692195,4651.794758,4646.666553,4452.307583,4552.820401,4349.743483,4403.589636,4791.794755,4593.846042,4555.897324,4605.128093,4528.717838
125,0,4482.051172,4594.871683,4613.846041,4632.8204,4629.743477,4440.512712,4538.461427,4337.948612,4396.410149,4768.717832,4576.410145,4535.897325,4588.717837,4512.820402
126,0,4462.051173,4576.410145,4588.205016,4611.281939,4605.640913,4426.666558,4519.999889,4327.179381,4384.102457,4750.256294,4558.461427,4511.794761,4566.153734,4494.871685
127,0,4421.538353,4527.179376,4542.051171,4569.743478,4558.974247,4395.384508,4479.48707,4303.589638,4351.281945,4703.076808,4516.410146,4466.153737,4522.563992,4453.846045
128,0,4386.153739,4485.640916,4498.461428,4523.589633,4521.538351,4364.102457,4438.97425,4273.846049,4317.435792,4645.640912,4470.256301,4419.487071,4479.99989,4412.820405
0,0,4386.666559,4476.922967,4485.640916,4507.692197,4506.666556,4352.820406,4427.692199,4261.538357,4306.666561,4626.666554,4458.461429,4407.6922,4471.794762,4412.307584
1,0,4393.333226,4470.256301,4480.512711,4503.589633,4488.717839,4348.205022,4423.076815,4256.410152,4302.563997,4616.410144,4456.922968,4407.179379,4469.74348,4424.615276
2,0,4398.461431,4464.615275,4474.871685,4496.410146,4474.871685,4340.512714,4411.281943,4254.871691,4298.974254,4599.487067,4446.153737,4401.025533,4459.48707,4428.71784
3,0,4408.20502,4463.589634,4463.589634,4481.025531,4453.846045,4319.999894,4387.6922,4244.615281,4286.153741,4573.333222,4432.820404,4387.6922,4449.23066,4438.97425
4,0,4456.922968,4495.897326,4481.025531,4501.025531,4450.256301,4323.589638,4396.922969,4249.743486,4287.692203,4579.487068,4456.410147,4412.307584,4478.974249,4496.410146
5,0,4505.128095,4518.461428,4501.025531,4510.76912,4451.794763,4335.89733,4412.307584,4258.461434,4294.87169,4591.281939,4471.794762,4441.538353,4501.025531,4553.846042
6,0,4568.205016,4553.846042,4539.487068,4533.846043,4486.666557,4357.435791,4432.820404,4277.435793,4314.871689,4618.461426,4493.333223,4478.974249,4531.794761,4614.358862
7,0,4638.461425,4613.846041,4584.615273,4595.384503,4534.358863,4382.051175,4461.025532,4299.487074,4339.487073,4657.948604,4538.461427,4522.051171,4581.53835,4681.538347
8,0,4703.076808,4690.256296,4641.538348,4676.410142,4587.692196,4430.256302,4513.846043,4334.358868,4377.948611,4718.974244,4605.128093,4581.53835,4647.179374,4754.358858
9,0,4713.846039,4704.102449,4659.487066,4687.179373,4589.743478,4440.512712,4521.538351,4342.563996,4387.17938,4734.358859,4617.435785,4598.461426,4655.384502,4763.076807
10,0,4706.666552,4683.076809,4640.512707,4657.948604,4563.076811,4415.384507,4496.922967,4327.179381,4371.794765,4699.999885,4591.79476,4576.922965,4629.743477,4734.358859
11,0,4711.794757,4685.640911,4634.871682,4659.999886,4558.974247,4410.769123,4494.871685,4330.256304,4374.871688,4697.948603,4597.948606,4577.435786,4632.8204,4739.999884
12,0,4727.179372,4711.281936,4664.615271,4686.666552,4586.666555,4442.563994,4524.102453,4352.307586,4395.384508,4733.846038,4626.666554,4604.615272,4663.58963,4769.743473
13,0,4758.974243,4751.794756,4719.487064,4734.871679,4638.461425,4485.640916,4572.820401,4388.205021,4433.333225,4789.230652,4668.205014,4648.717835,4708.205013,4793.846037
14,0,4737.948602,4732.307577,4708.717834,4718.461423,4630.256297,4478.974249,4576.410145,4388.205021,4434.871686,4777.435781,4656.410143,4636.922964,4693.846039,4759.487063
15,0,4729.230654,4731.281936,4712.820398,4715.897321,4640.512707,4488.717839,4592.30758,4401.538354,4449.743481,4790.256293,4666.153732,4644.615271,4703.589629,4758.461422
16,0,4688.205014,4702.051167,4686.666552,4693.846039,4616.922964,4473.846044,4571.281939,4388.205021,4434.871686,4773.333217,4644.102451,4617.435785,4677.435783,4723.589628
17,0,4600.512708,4616.922964,4604.615272,4615.897323,4533.846043,4414.871687,4501.025531,4335.384509,4382.563995,4697.435783,4572.307581,4539.487068,4594.358862,4627.179374
18,0,4517.948607,4527.179376,4519.487069,4524.102453,4449.743481,4362.563996,4434.871686,4283.076818,4331.281945,4601.538349,4497.435787,4458.97425,4515.384505,4536.922966
19,0,4586.153734,4605.640913,4595.897324,4598.974247,4529.230658,4432.307584,4508.717838,4336.922971,4391.794764,4676.922963,4569.230657,4529.743479,4598.461426,4607.179375
20,0,4607.179375,4643.58963,4637.948605,4642.563989,4569.743478,4463.589634,4545.128094,4368.205021,4427.179379,4736.922961,4610.769118,4571.281939,4636.410143,4634.358861
21,0,4530.76912,4569.743478,4569.230657,4572.307581,4510.2563,4413.846046,4488.717839,4330.769125,4386.153739,4674.35886,4548.717837,4508.717838,4563.589632,4556.922965
22,0,4458.97425,4491.281941,4489.74348,4497.948608,4435.897327,4358.974252,4425.128097,4284.102459,4331.281945,4579.487068,4472.820403,4430.256302,4483.589634,4476.922967
23,0,4426.666558,4457.948609,4456.922968,4469.23066,4392.820405,4336.922971,4398.974251,4263.076819,4306.666561,4536.922966,4436.410148,4396.922969,4448.71784,4437.948609
24,0,4386.666559,4418.46143,4424.102456,4428.71784,4358.461432,4317.948612,4373.846047,4244.10246,4290.769126,4510.2563,4404.102456,4366.153739,4415.897328,4400.512713
25,0,4387.6922,4415.384507,4423.076815,4425.128097,4368.205021,4328.717843,4382.563995,4250.256306,4297.435792,4513.333223,4411.281943,4361.538355,4416.922969,4401.538354
26,0,4394.358867,4424.102456,4429.743481,4434.871686,4365.640919,4332.307586,4386.666559,4257.435793,4304.615279,4521.02553,4424.615276,4369.230662,4422.051174,4403.076815
27,0,4309.230664,4345.128099,4349.743483,4352.820406,4272.820408,4269.230665,4311.281946,4205.128102,4249.230665,4431.794763,4348.205022,4295.897331,4339.487073,4318.461433
28,0,4343.076817,4382.051175,4388.717841,4387.6922,4325.128099,4305.64092,4351.794765,4233.33323,4277.948613,4466.666557,4378.461431,4329.230663,4377.43579,4353.333227
29,0,4262.051178,4288.205023,4311.281946,4302.563997,4244.615281,4238.974255,4278.461434,4182.564,4225.640922,4399.487072,4310.769125,4250.256306,4293.846049,4274.87169
30,0,3829.743496,3822.564009,3853.84606,3844.10247,3769.743498,3897.435802,3875.897341,3885.12811,3904.615289,3907.179392,3881.025546,3803.589651,3830.256317,3837.948624
31,0,3802.56401,3792.3076,3803.589651,3801.025548,3737.948627,3893.333238,3856.410162,3859.999906,3866.153752,3810.769138,3816.410163,3746.666575,3785.640933,3794.871702
32,0,4405.640918,4438.46143,4432.820404,4438.46143,4393.846046,4383.076816,4424.615276,4278.461434,4310.256305,4475.384506,4399.999892,4357.948611,4425.640917,4389.743482
33,0,4777.948601,4847.692189,4855.384497,4871.281932,4799.487062,4676.922963,4781.025524,4557.435786,4619.999887,4977.435776,4811.281934,4780.512704,4845.128087,4775.897319
34,0,4647.692194,4713.333218,4734.358859,4764.102448,4660.512707,4576.922965,4674.871681,4478.974249,4541.53835,4873.846035,4709.743475,4666.666553,4716.410141,4655.384502
35,0,4654.871681,4722.051167,4735.3845,4771.281935,4679.999886,4591.281939,4692.307578,4484.102454,4542.563991,4872.307573,4718.974244,4666.153732,4724.102449,4662.563989
36,0,4716.410141,4792.307575,4807.69219,4829.743472,4757.948602,4642.051169,4750.256294,4528.205017,4592.30758,4951.28193,4791.281934,4737.948602,4798.974242,4724.615269
37,0,4730.769115,4804.615267,4828.20501,4838.974241,4767.179371,4657.435784,4763.076807,4540.512709,4611.281939,4971.28193,4806.666549,4761.538345,4817.43578,4736.410141
38,0,4801.025524,4873.846035,4905.640906,4919.99988,4836.410138,4720.512705,4834.871677,4597.948606,4671.281937,5058.974235,4880.512701,4840.512702,4891.794752,4810.769113
39,0,4839.487061,4918.974239,4955.384494,4982.05116,4883.589624,4759.999884,4879.999881,4634.871682,4705.640911,5118.974234,4932.307572,4888.717829,4941.02552,4858.97424
40,0,4788.717832,4873.846035,4908.717829,4937.948597,4836.410138,4723.076808,4838.46142,4604.102452,4673.84604,5070.769107,4889.23065,4842.051164,4896.922957,4810.769113
41,0,4769.743473,4852.307574,4880.512701,4901.538342,4816.410139,4705.12809,4822.563985,4591.79476,4661.025527,5041.538338,4864.102445,4816.922959,4872.820394,4785.128088
42,0,4798.974242,4873.846035,4903.589624,4919.487059,4843.589625,4723.589628,4847.692189,4611.281939,4682.563988,5068.717825,4889.23065,4842.051164,4898.974239,4809.743472
43,0,4791.281934,4864.615266,4898.461419,4918.974239,4825.640908,4716.410141,4836.410138,4601.538349,4673.84604,5056.410133,4882.051163,4836.410138,4895.384496,4802.563985
44,0,4769.743473,4855.384497,4883.589624,4907.179367,4802.051165,4704.61527,4819.487062,4591.79476,4663.58963,5036.922954,4866.153727,4822.051164,4880.512701,4788.205011
45,0,4768.205012,4855.897317,4881.025522,4894.358855,4809.743472,4705.640911,4824.102446,4597.948606,4668.717835,5032.307569,4863.076804,4816.410139,4872.307573,4786.153729
46,0,4784.102447,4864.615266,4895.384496,4901.538342,4831.281933,4718.974244,4840.512702,4610.256298,4680.512706,5047.692184,4875.897317,4823.589626,4883.589624,4793.846037
47,0,4776.92296,4869.743471,4903.589624,4913.333213,4822.563985,4722.051167,4841.025523,4611.794759,4681.538347,5054.871671,4882.563983,4829.743472,4889.23065,4793.333216
48,0,4792.307575,4892.820393,4918.461418,4934.358854,4825.640908,4729.743474,4851.281933,4621.025528,4693.333219,5066.153722,4902.051162,4853.333215,4909.74347,4814.358857
49,0,4812.307575,4887.179368,4922.051162,4930.76911,4839.999882,4734.358859,4861.538343,4630.256297,4701.538347,5075.897312,4909.230649,4862.563984,4919.487059,4821.538344
50,0,4815.897318,4879.999881,4929.743469,4928.205008,4848.20501,4741.538346,4867.179368,4637.948605,4703.589629,5085.640901,4905.640906,4863.076804,4914.358854,4814.871677
51,0,4818.461421,4904.102444,4940.5127,4947.179366,4839.999882,4742.563987,4863.589625,4639.999887,4706.153731,5079.487055,4909.74347,4868.205009,4915.384495,4823.076805
52,0,4825.640908,4923.076803,4944.615264,4958.461417,4841.025523,4744.102448,4865.640907,4641.538348,4712.307577,5071.281927,4917.948598,4870.769112,4924.102444,4831.794754
53,0,4811.281934,4910.25629,4933.846033,4945.640905,4852.820394,4749.230653,4871.281932,4643.58963,4714.358859,5076.410132,4911.281931,4861.538343,4917.948598,4819.487062
54,0,4798.461421,4899.48706,4925.128085,4939.999879,4860.512702,4755.89732,4872.307573,4648.717835,4714.358859,5080.512696,4906.153726,4859.999881,4908.205008,4813.846036
55,0,4809.743472,4903.589624,4931.794751,4950.256289,4857.948599,4760.512704,4872.307573,4652.307579,4721.538346,5076.410132,4914.871675,4868.205009,4913.333213,4818.974241
56,0,4797.948601,4893.333214,4921.538341,4937.435777,4838.46142,4750.256294,4863.076804,4642.051169,4719.999885,5063.076799,4903.589624,4851.794753,4902.051162,4805.640908
57,0,4761.538345,4867.692189,4888.205009,4902.051162,4815.897318,4727.179372,4837.9486,4624.615272,4702.051167,5041.025518,4871.281932,4816.410139,4869.23065,4781.538345
58,0,4744.615269,4841.538343,4862.563984,4869.23065,4796.92296,4708.205013,4812.820395,4609.743477,4682.563988,5010.769108,4848.20501,4792.820396,4843.076805,4761.025525
59,0,4748.205012,4830.256292,4859.487061,4854.358856,4781.025524,4703.076808,4804.102447,4601.538349,4672.820399,4985.640904,4841.538343,4787.692191,4834.358856,4751.794756
60,0,4738.461423,4819.999882,4848.71783,4838.974241,4758.974243,4694.35886,4793.846037,4592.820401,4662.563989,4961.02552,4828.717831,4776.41014,4823.076805,4743.589628
61,0,4711.281936,4797.43578,4824.615267,4818.974241,4732.307577,4677.948604,4775.897319,4584.615273,4646.666553,4937.948597,4804.615267,4754.871679,4801.538344,4723.076808
62,0,4687.692193,4772.307576,4795.897319,4802.563985,4696.922962,4660.512707,4753.333217,4571.79476,4628.205015,4907.692188,4776.41014,4726.666551,4773.846037,4693.846039
63,0,4681.538347,4763.076807,4784.615268,4796.92296,4686.666552,4655.897322,4744.102448,4564.102452,4623.589631,4895.897316,4767.692191,4713.333218,4763.589627,4685.128091
64,0,4667.179373,4747.179371,4774.871678,4774.871678,4686.153732,4647.179374,4733.333218,4558.974247,4617.948605,4887.692188,4760.512704,4702.563988,4756.922961,4677.948604
65,0,4663.58963,4747.179371,4766.66655,4765.128089,4675.897322,4643.58963,4729.743474,4559.999888,4614.358862,4879.48706,4749.230653,4695.384501,4753.333217,4674.35886
66,0,4691.281937,4778.974242,4783.589627,4792.307575,4681.538347,4659.999886,4748.717833,4571.281939,4627.692195,4893.333214,4758.974243,4710.256295,4766.66655,4690.769116
67,0,4715.897321,4797.948601,4810.256293,4820.512703,4708.205013,4675.384501,4766.66655,4585.640914,4645.128092,4917.435777,4786.153729,4736.410141,4790.256293,4714.358859
68,0,4713.846039,4792.307575,4815.384498,4821.538344,4717.948603,4678.461424,4765.640909,4591.281939,4647.179374,4917.435777,4798.461421,4743.076807,4798.461421,4719.487064
69,0,4722.563987,4810.256293,4825.128087,4828.717831,4727.692192,4691.281937,4774.871678,4596.410144,4658.974245,4919.487059,4809.230652,4752.820397,4811.794754,4729.230654
70,0,4741.025525,4827.69219,4843.076805,4842.563984,4750.769115,4699.999885,4788.205011,4603.589631,4674.35886,4937.435777,4819.999882,4767.692191,4825.640908,4746.666551
71,0,4739.999884,4818.974241,4844.615266,4846.153728,4758.461422,4694.35886,4788.205011,4610.256298,4672.307578,4943.589623,4818.974241,4767.179371,4820.512703,4747.692192
72,0,4746.15373,4827.69219,4855.384497,4856.922958,4764.102448,4704.61527,4799.999883,4623.589631,4679.487065,4958.974238,4831.281933,4782.563986,4834.358856,4755.89732
73,0,4763.076807,4843.076805,4873.333214,4865.128086,4775.897319,4721.025526,4816.922959,4633.33322,4695.897321,4977.948596,4850.769112,4806.153729,4858.46142,4773.333217
74,0,4756.41014,4829.743472,4861.538343,4857.435779,4762.051166,4711.281936,4804.102447,4623.589631,4688.717834,4955.384494,4839.487061,4792.820396,4839.487061,4765.128089
75,0,4738.974243,4816.410139,4837.9486,4850.769112,4739.999884,4695.897321,4785.128088,4610.769118,4670.769117,4926.666546,4817.43578,4765.640909,4808.205011,4743.076807
76,0,4754.358858,4833.333215,4851.794753,4866.666548,4764.102448,4711.794757,4805.128088,4625.128092,4686.153732,4953.846033,4835.897318,4783.589627,4829.743472,4757.435781
77,0,4753.333217,4828.717831,4855.384497,4863.589625,4774.871678,4713.846039,4810.256293,4632.8204,4694.87168,4957.948597,4841.538343,4791.281934,4836.922959,4762.051166
78,0,4728.717833,4804.102447,4829.230651,4833.846036,4745.64091,4693.846039,4784.102447,4617.948605,4678.461424,4918.461418,4814.871677,4764.615268,4805.128088,4737.948602
79,0,4727.692192,4803.076806,4824.615267,4818.461421,4737.948602,4693.333219,4778.461422,4614.358862,4676.922963,4917.435777,4811.281934,4758.974243,4802.051165,4736.922961
80,0,4738.461423,4810.769113,4843.076805,4831.794754,4753.846038,4707.692193,4791.794755,4623.589631,4687.179373,4941.538341,4829.743472,4777.948601,4824.615267,4753.846038
81,0,4717.435782,4780.512704,4820.512703,4814.358857,4725.64091,4688.205014,4769.230653,4607.692195,4668.205014,4909.74347,4802.563985,4758.461422,4796.92296,4731.281936
82,0,4707.692193,4764.615268,4791.281934,4788.205011,4703.589629,4670.769117,4747.692192,4592.30758,4655.384502,4877.435778,4772.820396,4733.846038,4764.102448,4708.205013
83,0,4702.563988,4762.051166,4781.538345,4779.487063,4701.538347,4667.179373,4739.999884,4586.153734,4650.769117,4866.153727,4769.230653,4722.563987,4754.871679,4701.025526
84,0,4672.820399,4733.846038,4757.948602,4759.999884,4672.307578,4647.692194,4716.410141,4568.717837,4629.743477,4833.333215,4747.179371,4693.846039,4733.846038,4676.922963
85,0,4656.410143,4711.794757,4730.256295,4734.358859,4642.563989,4629.230656,4694.87168,4555.384504,4613.333221,4803.076806,4718.974244,4664.10245,4713.846039,4652.307579
86,0,4669.230655,4724.102449,4739.999884,4744.102448,4652.820399,4636.922964,4706.666552,4567.179375,4623.07681,4813.333216,4729.743474,4674.871681,4723.589628,4663.076809
87,0,4667.179373,4722.051167,4750.256294,4752.820397,4658.974245,4643.07681,4716.922962,4571.281939,4629.743477,4820.512703,4740.512705,4688.205014,4728.205013,4675.897322
88,0,4659.487066,4711.794757,4738.974243,4737.435782,4651.281938,4640.512707,4707.692193,4566.666555,4625.640913,4811.281934,4730.769115,4680.512706,4722.563987,4668.717835
89,0,4666.666553,4723.589628,4733.333218,4730.769115,4656.922963,4642.051169,4702.563988,4568.717837,4621.538349,4809.230652,4729.230654,4676.410142,4727.692192,4663.58963
90,0,4672.307578,4730.256295,4738.461423,4736.922961,4665.128091,4645.640912,4707.179372,4569.743478,4621.538349,4810.256293,4733.333218,4681.025527,4731.794756,4672.307578
91,0,4676.410142,4728.717833,4751.281935,4741.538346,4665.128091,4649.743476,4714.87168,4575.384504,4628.205015,4819.487062,4739.487064,4691.281937,4737.948602,4688.717834
92,0,4693.333219,4744.102448,4770.256294,4756.41014,4672.820399,4659.487066,4726.153731,4589.230657,4638.461425,4838.46142,4754.871679,4708.205013,4755.384499,4703.076808
93,0,4706.666552,4758.974243,4777.948601,4774.871678,4691.281937,4667.179373,4734.358859,4596.922965,4649.230656,4850.256292,4770.769114,4718.974244,4765.640909,4711.281936
94,0,4700.512706,4750.256294,4766.66655,4766.15373,4692.820398,4665.640912,4731.281936,4592.30758,4651.281938,4844.615266,4768.205012,4711.794757,4758.461422,4705.640911
95,0,4703.076808,4752.307576,4769.230653,4764.615268,4684.61527,4667.179373,4733.333218,4593.846042,4648.717835,4843.589625,4766.66655,4713.846039,4759.487063,4706.666552
96,0,4708.205013,4762.051166,4781.025524,4779.999883,4690.256296,4672.307578,4739.487064,4599.487067,4646.666553,4845.640907,4770.769114,4723.076808,4764.102448,4713.846039
97,0,4707.692193,4758.461422,4787.17937,4783.076806,4701.538347,4678.974245,4745.128089,4606.666554,4654.358861,4850.769112,4780.512704,4727.179372,4764.102448,4716.410141
98,0,4710.769116,4758.974243,4788.717832,4776.41014,4696.922962,4678.461424,4748.717833,4610.256298,4656.922963,4851.794753,4785.640909,4728.717833,4765.640909,4717.948603
99,0,4719.999885,4777.435781,4792.820396,4789.230652,4694.35886,4678.461424,4750.256294,4610.256298,4653.33322,4851.281933,4784.615268,4734.871679,4768.205012,4726.666551
100,0,4710.769116,4768.205012,4779.487063,4784.102447,4686.153732,4668.205014,4731.794756,4598.461426,4641.538348,4832.307574,4760.512704,4716.922962,4741.538346,4707.179372
101,0,4709.743475,4767.179371,4774.871678,4770.769114,4696.410142,4669.743476,4728.205013,4596.922965,4643.58963,4827.69219,4751.794756,4699.487065,4728.205013,4688.205014
102,0,4704.102449,4772.307576,4771.794755,4766.66655,4707.692193,4674.871681,4734.871679,4600.512708,4650.256297,4832.820395,4757.948602,4693.846039,4732.820397,4683.589629
103,0,4675.384501,4739.999884,4742.563987,4748.205012,4678.974245,4654.871681,4712.307577,4586.666555,4633.846041,4809.743472,4733.846038,4676.410142,4712.820398,4664.615271
104,0,4652.820399,4704.102449,4711.794757,4714.358859,4634.358861,4628.717836,4678.974245,4566.153734,4609.743477,4770.256294,4696.410142,4648.205015,4684.61527,4637.435784
105,0,4655.384502,4706.666552,4712.820398,4701.538347,4631.794759,4627.179374,4675.897322,4563.076811,4608.717836,4753.846038,4695.384501,4641.025528,4687.179373,4637.948605
106,0,4642.051169,4692.820398,4698.974244,4688.717834,4630.256297,4619.487067,4667.179373,4556.410145,4599.999888,4728.717833,4688.717834,4629.743477,4675.384501,4624.615272
107,0,4624.615272,4675.384501,4677.948604,4667.179373,4604.615272,4603.076811,4649.743476,4544.102453,4583.076811,4701.538347,4663.076809,4611.794759,4651.794758,4600.512708
108,0,4629.230656,4686.666552,4682.563988,4665.128091,4601.025529,4605.128093,4655.897322,4547.692196,4590.769119,4716.410141,4667.692194,4615.897323,4661.538348,4607.179375
109,0,4648.717835,4699.999885,4696.410142,4689.743475,4629.230656,4623.07681,4677.948604,4564.615273,4608.205016,4747.179371,4697.948603,4634.871682,4688.205014,4631.794759
110,0,4670.769117,4710.256295,4712.307577,4713.846039,4652.820399,4637.435784,4694.87168,4581.53835,4622.051169,4764.615268,4718.974244,4654.358861,4707.179372,4649.743476
111,0,4691.281937,4737.435782,4739.487064,4735.3845,4668.717835,4651.281938,4712.307577,4598.461426,4641.538348,4782.051165,4732.307577,4675.897322,4724.615269,4667.692194
112,0,4707.692193,4765.128089,4760.512704,4759.487063,4687.179373,4665.640912,4728.205013,4610.769118,4654.358861,4804.615267,4748.717833,4693.333219,4740.512705,4687.692193
113,0,4721.025526,4775.897319,4773.846037,4777.435781,4708.717834,4678.974245,4741.025525,4617.435785,4656.922963,4824.102446,4767.179371,4708.717834,4755.384499,4703.589629
114,0,4734.358859,4785.128088,4789.230652,4786.153729,4727.692192,4692.307578,4757.435781,4626.666554,4672.307578,4836.922959,4782.051165,4726.153731,4770.256294,4716.410141
115,0,4746.15373,4797.948601,4798.461421,4795.384498,4730.256295,4704.61527,4771.281935,4637.435784,4689.743475,4846.666548,4789.230652,4734.358859,4778.461422,4725.12809
116,0,4760.512704,4815.897318,4810.256293,4813.333216,4738.974243,4717.435782,4785.640909,4647.692194,4698.461424,4871.281932,4807.69219,4746.15373,4795.384498,4741.538346
117,0,4762.563986,4819.999882,4813.333216,4817.43578,4754.871679,4715.897321,4787.17937,4647.692194,4693.333219,4875.897317,4818.974241,4753.846038,4804.102447,4751.281935
118,0,4768.205012,4822.051164,4817.43578,4821.538344,4763.589627,4715.897321,4787.692191,4648.205015,4694.87168,4869.23065,4818.461421,4758.461422,4809.743472,4759.487063
119,0,4781.025524,4826.666549,4828.20501,4826.153728,4753.846038,4719.487064,4790.256293,4653.84604,4704.61527,4875.384496,4821.538344,4762.563986,4815.384498,4773.333217
120,0,4808.205011,4848.20501,4849.743471,4844.615266,4758.461422,4727.179372,4798.461421,4664.615271,4712.307577,4891.281932,4841.538343,4783.589627,4832.820395,4805.128088
121,0,4840.512702,4868.205009,4863.076804,4859.487061,4766.66655,4732.307577,4802.563985,4670.256296,4711.281936,4887.692188,4854.358856,4802.563985,4849.743471,4839.487061
122,0,4875.897317,4890.256291,4875.384496,4867.179368,4775.384499,4741.025525,4811.281934,4677.435783,4720.512705,4894.871675,4867.692189,4818.974241,4873.846035,4880.512701
123,0,4907.179367,4917.435777,4882.051163,4874.871676,4782.051165,4741.538346,4813.846036,4676.410142,4725.12809,4906.153726,4880.512701,4826.153728,4890.769111,4920.5127
124,0,4944.615264,4945.128084,4895.384496,4894.358855,4793.333216,4745.128089,4817.9486,4676.410142,4726.666551,4907.692188,4891.281932,4841.025523,4904.102444,4961.53834
125,0,4983.589622,4962.051161,4916.922957,4912.307572,4807.17937,4750.769115,4827.179369,4685.640911,4734.358859,4912.307572,4902.051162,4863.076804,4915.384495,4996.922955
126,0,5011.281929,4978.974237,4931.794751,4928.717828,4820.512703,4750.256294,4830.769113,4694.87168,4738.974243,4918.974239,4914.358854,4874.871676,4924.102444,5018.974236
127,0,5009.743467,4978.461417,4924.102444,4928.717828,4804.615267,4739.487064,4814.871677,4688.205014,4730.256295,4906.153726,4909.74347,4864.102445,4918.461418,5014.871672
128,0,5001.025519,4962.051161,4912.307572,4912.307572,4777.948601,4734.871679,4806.153729,4685.128091,4726.153731,4897.435778,4898.974239,4853.333215,4910.769111,5002.05116
0,0,5005.640903,4966.666545,4923.589623,4919.487059,4794.358857,4747.692192,4824.102446,4698.974244,4739.487064,4913.846034,4910.25629,4865.640907,4925.128085,5011.281929
1,0,5003.076801,4981.025519,4938.461418,4938.974238,4829.230651,4762.051166,4841.538343,4708.717834,4753.333217,4923.076803,4923.076803,4882.051163,4943.076802,5019.999877
2,0,4998.461416,4976.410135,4943.076802,4941.02552,4843.076805,4771.794755,4845.640907,4712.307577,4760.512704,4923.589623,4922.563982,4884.615265,4941.538341,5006.666544
3,0,5011.281929,4982.05116,4955.384494,4951.28193,4856.922958,4788.205011,4860.512702,4723.076808,4773.846037,4948.205007,4934.358854,4893.846034,4949.230648,5006.153724
4,0,5019.999877,5006.153724,4975.384494,4977.435776,4884.615265,4807.69219,4885.640906,4741.025525,4797.43578,4986.666545,4965.128084,4919.487059,4979.487058,5025.128082
5,0,5009.230647,5005.128083,4977.435776,4978.461417,4898.461419,4816.922959,4895.897316,4750.769115,4812.307575,5006.153724,4974.871673,4928.717828,4990.769109,5022.051159
6,0,5009.743467,4999.999878,4976.922955,4972.820391,4901.025521,4823.076805,4905.128085,4758.461422,4818.461421,5017.948595,4974.871673,4925.640905,4988.205006,5008.205006
7,0,4997.435775,4991.281929,4971.79475,4969.743468,4888.205009,4817.43578,4906.666547,4755.89732,4810.256293,5006.666544,4968.717827,4915.897316,4971.79475,4987.692186
8,0,4965.128084,4965.640904,4961.02552,4956.922956,4875.384496,4810.256293,4898.461419,4749.743474,4801.025524,4986.153724,4954.358853,4905.128085,4950.256289,4964.615263
9,0,4935.384495,4931.794751,4941.02552,4929.230649,4862.563984,4799.487062,4881.538342,4740.512705,4793.846037,4966.153725,4932.307572,4887.179368,4931.794751,4939.487059
10,0,4919.487059,4916.922957,4921.538341,4914.358854,4845.640907,4786.66655,4868.205009,4733.333218,4785.640909,4947.179366,4919.487059,4871.794753,4919.487059,4914.871675
11,0,4882.563983,4886.153727,4885.640906,4887.179368,4809.743472,4761.538345,4837.9486,4712.820398,4759.487063,4909.230649,4889.74347,4836.922959,4877.948599,4868.71783
12,0,4837.435779,4845.640907,4847.179369,4842.563984,4773.333217,4736.410141,4800.512703,4684.61527,4729.743474,4865.128086,4847.179369,4791.794755,4829.743472,4821.538344
13,0,4800.512703,4813.846036,4810.769113,4799.487062,4735.3845,4708.205013,4765.640909,4659.999886,4707.179372,4824.615267,4808.717831,4750.769115,4797.948601,4788.717832
14,0,4774.871678,4791.281934,4782.563986,4778.461422,4710.769116,4689.743475,4741.025525,4647.692194,4694.35886,4799.999883,4786.153729,4724.615269,4778.461422,4765.128089
15,0,4751.281935,4768.205012,4761.538345,4755.384499,4705.640911,4683.076809,4727.179372,4640.512707,4684.61527,4788.205011,4769.230653,4705.640911,4759.487063,4741.538346
16,0,4741.025525,4752.820397,4751.281935,4739.999884,4707.179372,4684.61527,4731.794756,4637.435784,4682.563988,4782.051165,4761.025525,4698.461424,4750.256294,4728.717833
17,0,4732.820397,4743.589628,4746.666551,4745.128089,4702.051167,4681.538347,4733.846038,4635.384502,4679.999886,4765.128089,4755.89732,4694.87168,4743.589628,4718.974244
18,0,4723.076808,4739.999884,4746.666551,4749.230653,4699.487065,4679.999886,4728.717833,4635.897323,4672.820399,4749.743474,4752.307576,4689.743475,4736.410141,4710.769116
19,0,4726.666551,4743.589628,4749.230653,4736.410141,4708.717834,4685.640911,4735.3845,4643.07681,4677.435783,4762.051166,4759.487063,4695.897321,4742.563987,4714.358859
20,0,4731.281936,4741.025525,4746.15373,4726.153731,4707.692193,4683.589629,4733.846038,4642.563989,4684.61527,4770.769114,4758.974243,4702.563988,4746.15373,4713.333218
21,0,4713.333218,4726.153731,4737.435782,4728.205013,4681.538347,4666.153732,4710.769116,4624.615272,4669.743476,4746.15373,4739.999884,4688.205014,4724.102449,4692.820398
22,0,4698.974244,4719.999885,4733.333218,4730.256295,4662.563989,4661.025527,4701.538347,4616.922964,4657.948604,4728.717833,4729.743474,4676.410142,4708.205013,4681.538347
23,0,4709.230654,4730.769115,4742.051166,4735.89732,4677.948604,4676.922963,4719.487064,4632.8204,4675.384501,4745.128089,4742.051166,4689.230655,4725.12809,4693.846039
24,0,4704.61527,4726.666551,4738.974243,4730.256295,4693.333219,4681.538347,4724.615269,4637.435784,4681.538347,4743.589628,4741.025525,4686.153732,4727.692192,4693.333219
25,0,4699.487065,4725.64091,4735.3845,4723.076808,4696.922962,4681.025527,4724.102449,4634.871682,4679.999886,4742.051166,4746.15373,4679.999886,4725.64091,4694.35886
26,0,4702.563988,4723.076808,4731.794756,4715.897321,4678.974245,4671.794758,4717.435782,4632.307579,4680.512706,4744.615269,4750.769115,4682.563988,4724.102449,4692.307578
27,0,4696.922962,4705.640911,4728.205013,4711.794757,4659.999886,4657.435784,4702.051167,4627.179374,4673.333219,4732.307577,4736.410141,4677.435783,4711.794757,4677.435783
28,0,4685.128091,4688.205014,4718.974244,4701.538347,4656.922963,4648.205015,4691.281937,4618.974246,4658.461425,4707.692193,4719.999885,4658.974245,4694.87168,4665.640912
29,0,4697.948603,4709.743475,4728.205013,4710.769116,4673.333219,4663.58963,4704.102449,4626.666554,4667.179373,4715.3845,4733.846038,4669.743476,4708.205013,4681.025527
30,0,4701.025526,4723.076808,4731.794756,4724.615269,4671.281937,4674.35886,4707.692193,4633.846041,4677.948604,4730.769115,4738.974243,4679.999886,4713.846039,4683.589629
31,0,4678.974245,4699.999885,4710.769116,4709.743475,4656.922963,4664.10245,4694.87168,4626.666554,4669.743476,4716.922962,4722.051167,4663.58963,4693.846039,4662.563989
32,0,4655.384502,4669.230655,4686.666552,4668.205014,4637.948605,4646.666553,4675.897322,4610.256298,4652.820399,4688.717834,4702.051167,4636.922964,4674.35886,4642.051169
33,0,4653.84604,4666.666553,4684.10245,4654.871681,4625.128092,4643.07681,4672.820399,4603.076811,4648.717835,4684.10245,4695.897321,4631.794759,4672.820399,4639.487066
34,0,4658.461425,4674.871681,4686.153732,4674.871681,4631.281938,4646.153733,4680.512706,4608.205016,4650.769117,4689.230655,4694.35886,4636.410143,4669.743476,4638.461425
35,0,4648.717835,4667.692194,4680.512706,4681.025527,4643.07681,4646.666553,4679.999886,4610.256298,4648.205015,4683.076809,4691.794757,4628.717836,4661.025527,4627.179374
36,0,4631.281938,4644.615271,4664.615271,4657.435784,4628.717836,4637.435784,4665.128091,4601.538349,4637.948605,4671.794758,4686.153732,4613.333221,4657.435784,4619.487067
37,0,4633.846041,4635.384502,4656.410143,4645.128092,4613.333221,4631.794759,4661.025527,4596.922965,4633.846041,4668.205014,4686.153732,4614.358862,4662.051168,4623.589631
38,0,4639.999887,4645.128092,4666.153732,4656.922963,4617.435785,4636.410143,4669.743476,4602.05117,4642.051169,4670.256296,4689.230655,4621.538349,4656.922963,4618.461426
39,0,4626.666554,4645.128092,4663.58963,4656.410143,4612.8204,4632.8204,4661.025527,4598.974247,4643.07681,4661.538348,4685.128091,4613.333221,4648.205015,4607.179375
40,0,4616.922964,4637.948605,4646.666553,4641.025528,4594.358862,4623.07681,4642.051169,4588.717837,4633.33322,4647.692194,4681.025527,4606.153734,4653.84604,4614.871682
41,0,4612.30758,4628.717836,4637.948605,4629.230656,4587.692196,4621.025528,4636.410143,4582.563991,4625.640913,4635.384502,4674.871681,4605.128093,4655.384502,4616.410144
42,0,4594.358862,4612.8204,4629.230656,4622.56399,4585.640914,4616.410144,4635.897323,4579.487068,4622.56399,4619.487067,4661.538348,4595.384503,4637.435784,4596.410144
43,0,4571.281939,4588.717837,4605.640913,4596.410144,4566.666555,4597.948606,4617.948605,4565.640914,4603.589631,4587.179375,4637.948605,4569.230657,4609.230657,4572.307581
44,0,4569.230657,4577.948606,4592.30758,4577.948606,4554.871683,4591.281939,4606.666554,4558.974247,4591.79476,4576.410145,4628.717836,4555.897324,4605.640913,4564.102452
45,0,4566.153734,4576.410145,4586.666555,4579.999888,4551.28194,4589.230657,4604.615272,4557.948606,4593.846042,4584.615273,4628.205015,4554.358863,4609.230657,4558.974247
46,0,4570.256298,4585.640914,4595.384503,4589.230657,4562.05117,4595.897324,4609.230657,4562.05117,4602.05117,4594.358862,4638.974246,4565.128093,4618.974246,4571.79476
47,0,4568.717837,4568.205016,4592.30758,4572.820401,4553.333222,4594.358862,4600.512708,4557.435786,4595.897324,4581.53835,4635.897323,4556.410145,4610.769118,4568.205016
48,0,4556.922965,4547.179376,4573.846042,4557.435786,4528.205017,4578.974247,4585.128093,4545.640914,4582.563991,4562.563991,4618.461426,4536.410145,4590.769119,4545.640914
49,0,4545.128094,4557.435786,4563.076811,4555.384504,4509.743479,4567.179375,4574.871683,4535.897325,4576.410145,4548.205017,4601.025529,4528.205017,4577.948606,4534.871684
50,0,4554.358863,4581.025529,4579.487068,4568.205016,4520.51271,4580.512709,4586.153734,4545.640914,4587.179375,4557.435786,4605.640913,4535.384504,4584.102452,4546.153735
51,0,4554.871683,4568.205016,4577.435786,4565.128093,4523.589633,4581.025529,4590.256298,4552.820401,4591.281939,4561.025529,4607.179375,4529.230658,4582.563991,4536.922966
52,0,4541.02553,4544.615273,4557.435786,4545.640914,4510.2563,4567.692196,4579.487068,4546.666555,4579.999888,4543.589632,4597.435785,4523.076812,4573.333222,4520.51271
53,0,4522.051171,4532.820402,4544.615273,4529.743479,4494.358864,4556.922965,4562.05117,4534.358863,4564.102452,4521.538351,4579.487068,4514.871684,4561.025529,4514.358864
54,0,4516.410146,4528.205017,4538.974248,4532.307581,4479.48707,4551.28194,4554.871683,4529.230658,4559.999888,4516.922966,4567.692196,4503.076813,4549.743478,4510.76912
55,0,4529.230658,4535.897325,4541.02553,4541.02553,4483.076813,4557.948606,4563.076811,4535.384504,4569.743478,4529.743479,4577.948606,4507.692197,4554.871683,4512.820402
56,0,4534.871684,4543.589632,4546.666555,4538.461427,4500.51271,4567.692196,4571.79476,4539.999889,4577.948606,4534.871684,4587.692196,4512.307582,4567.179375,4519.487069
57,0,4529.230658,4537.948607,4547.179376,4530.256299,4505.128095,4564.102452,4565.128093,4534.871684,4573.333222,4528.717838,4583.076811,4504.102454,4567.179375,4517.948607
58,0,4528.717838,4529.230658,4544.615273,4526.153735,4499.99989,4559.999888,4562.563991,4530.256299,4571.79476,4528.205017,4580.512709,4504.102454,4561.53835,4511.794761
59,0,4531.794761,4531.794761,4547.692196,4531.28194,4496.410146,4565.128093,4573.846042,4534.871684,4576.410145,4534.871684,4587.179375,4514.358864,4564.102452,4514.358864
60,0,4527.179376,4535.384504,4544.102453,4530.256299,4486.153736,4557.948606,4569.230657,4531.794761,4569.230657,4527.179376,4582.05117,4506.153736,4560.512709,4515.897325
61,0,4517.948607,4527.179376,4535.897325,4515.384505,4478.461429,4546.666555,4558.461427,4527.692197,4566.666555,4518.461428,4573.333222,4497.435787,4549.743478,4505.128095
62,0,4499.99989,4502.051172,4522.563992,4497.435787,4465.128096,4541.02553,4549.230658,4523.589633,4566.153734,4508.717838,4562.05117,4490.2563,4531.28194,4484.615275
63,0,4505.640915,4501.538351,4522.051171,4508.717838,4455.384506,4543.076812,4547.692196,4523.076812,4559.487068,4509.230659,4558.974247,4488.205018,4535.384504,4494.358864
64,0,4532.820402,4518.461428,4527.692197,4521.538351,4454.871686,4542.051171,4546.666555,4522.563992,4550.256299,4509.230659,4560.512709,4489.74348,4544.615273,4517.435787
65,0,4568.205016,4538.461427,4545.640914,4522.563992,4468.717839,4549.743478,4560.512709,4532.820402,4559.487068,4517.948607,4575.384504,4510.2563,4552.307581,4542.563991
66,0,4589.230657,4548.205017,4560.512709,4526.153735,4471.794762,4553.333222,4566.153734,4536.410145,4569.230657,4527.179376,4589.743478,4527.692197,4563.076811,4566.666555
67,0,4579.487068,4535.384504,4553.333222,4529.230658,4467.692198,4541.02553,4550.256299,4523.076812,4560.512709,4516.922966,4576.922965,4517.435787,4558.974247,4569.230657
68,0,4534.358863,4488.717839,4506.666556,4489.74348,4438.46143,4509.230659,4510.76912,4494.358864,4525.640915,4468.717839,4526.153735,4467.692198,4506.666556,4517.435787
69,0,4508.717838,4464.102455,4478.461429,4454.358865,4411.281943,4494.871685,4488.717839,4480.512711,4506.153736,4440.512712,4501.025531,4437.948609,4473.333224,4479.48707
70,0,4499.99989,4458.461429,4479.48707,4447.692199,4405.128097,4498.974249,4490.769121,4479.48707,4509.743479,4442.051173,4505.128095,4439.487071,4480.512711,4480.512711
71,0,4492.307582,4450.256301,4481.538352,4451.794763,4408.20502,4503.589633,4498.461428,4481.025531,4514.871684,4441.025532,4503.589633,4442.563994,4485.640916,4480.512711
72,0,4496.410146,4459.999891,4484.615275,4465.128096,4401.538354,4502.563992,4498.974249,4483.589634,4513.846043,4443.589635,4502.051172,4442.051173,4484.615275,4476.410147
73,0,4504.615274,4475.897326,4494.358864,4471.794762,4396.922969,4502.563992,4496.410146,4484.102454,4513.333223,4451.281942,4508.205018,4444.102455,4487.692198,4478.974249
74,0,4508.717838,4476.410147,4497.435787,4465.640916,4409.743482,4503.076813,4495.384505,4484.102454,4514.358864,4454.871686,4511.794761,4448.71784,4487.692198,4483.076813
75,0,4525.640915,4487.692198,4507.692197,4477.948608,4432.820404,4508.717838,4505.128095,4494.871685,4524.102453,4466.153737,4526.153735,4464.615275,4501.538351,4494.871685
76,0,4530.76912,4492.820403,4512.820402,4491.281941,4434.358866,4511.281941,4510.2563,4497.948608,4528.205017,4471.281942,4532.307581,4471.794762,4512.307582,4502.051172
77,0,4515.384505,4475.384506,4499.99989,4475.384506,4424.102456,4506.666556,4509.230659,4493.333223,4521.538351,4464.102455,4516.410146,4461.025532,4501.025531,4495.897326
78,0,4522.051171,4487.179377,4510.2563,4481.538352,4436.410148,4516.410146,4523.076812,4506.666556,4533.333222,4483.076813,4526.153735,4468.205019,4508.717838,4507.179377
79,0,4538.974248,4509.743479,4528.717838,4505.640915,4449.23066,4532.820402,4534.358863,4516.410146,4548.717837,4499.99989,4549.230658,4485.128095,4527.692197,4521.538351
80,0,4547.692196,4517.435787,4537.948607,4519.999889,4468.717839,4546.153735,4544.102453,4522.051171,4555.897324,4510.2563,4562.563991,4500.51271,4542.051171,4529.743479
81,0,4552.307581,4522.563992,4546.153735,4528.717838,4491.794762,4554.358863,4558.974247,4531.794761,4563.589632,4531.28194,4568.717837,4510.2563,4548.205017,4536.410145
82,0,4561.53835,4536.922966,4559.487068,4538.461427,4497.948608,4561.025529,4568.717837,4536.410145,4570.769119,4547.692196,4577.948606,4514.358864,4554.871683,4544.102453
83,0,4558.461427,4534.871684,4554.871683,4532.307581,4479.99989,4555.897324,4558.461427,4526.153735,4561.53835,4534.871684,4575.384504,4509.230659,4556.922965,4541.02553
84,0,4559.999888,4533.333222,4552.820401,4531.794761,4486.666557,4555.384504,4559.487068,4524.102453,4561.025529,4534.358863,4577.435786,4515.384505,4565.640914,4544.615273
85,0,4560.512709,4531.28194,4553.333222,4524.615274,4492.820403,4555.384504,4562.563991,4523.589633,4562.563991,4536.922966,4575.384504,4514.358864,4559.999888,4542.563991
86,0,4562.563991,4535.384504,4554.871683,4527.692197,4488.205018,4556.410145,4559.999888,4523.589633,4559.999888,4536.410145,4572.307581,4512.307582,4557.435786,4541.53835
87,0,4559.999888,4533.333222,4551.28194,4538.974248,4484.102454,4554.871683,4554.358863,4524.102453,4557.435786,4533.846043,4568.205016,4511.794761,4561.025529,4539.487068
88,0,4562.05117,4533.333222,4554.871683,4543.076812,4492.307582,4559.487068,4561.53835,4528.717838,4564.615273,4538.461427,4574.358863,4516.922966,4567.179375,4543.076812
89,0,4564.615273,4538.461427,4565.128093,4536.922966,4502.563992,4564.615273,4571.79476,4532.307581,4569.743478,4543.589632,4581.025529,4526.153735,4567.692196,4549.743478
90,0,4562.05117,4538.461427,4566.153734,4534.358863,4501.538351,4562.05117,4570.256298,4532.820402,4566.666555,4543.076812,4577.435786,4529.230658,4564.615273,4548.717837
91,0,4543.076812,4512.820402,4540.512709,4518.461428,4474.358865,4541.02553,4546.153735,4519.999889,4552.820401,4521.02553,4555.897324,4505.128095,4544.102453,4524.102453
92,0,4534.871684,4501.025531,4525.640915,4510.2563,4461.025532,4528.205017,4530.76912,4509.230659,4544.615273,4503.589633,4542.051171,4489.230659,4530.256299,4513.846043
93,0,4544.615273,4513.846043,4536.922966,4520.51271,4472.820403,4535.384504,4537.435786,4512.307582,4550.769119,4513.333223,4546.666555,4500.51271,4534.871684,4527.692197
94,0,4541.02553,4513.333223,4539.487068,4519.487069,4471.794762,4541.02553,4545.128094,4517.435787,4554.358863,4524.102453,4549.743478,4502.051172,4532.820402,4525.640915
95,0,4523.589633,4500.51271,4521.538351,4503.589633,4465.128096,4537.435786,4541.53835,4514.358864,4550.769119,4521.538351,4543.589632,4488.205018,4524.615274,4511.281941
96,0,4515.384505,4491.281941,4511.794761,4491.794762,4469.74348,4531.28194,4529.743479,4505.640915,4546.153735,4509.743479,4535.897325,4481.538352,4521.538351,4509.230659
97,0,4518.461428,4488.717839,4517.948607,4494.358864,4468.717839,4525.128094,4520.51271,4502.563992,4543.589632,4501.538351,4537.948607,4486.666557,4520.51271,4512.820402
98,0,4512.820402,4485.128095,4514.358864,4493.333223,4448.205019,4518.974248,4514.358864,4498.974249,4535.384504,4488.205018,4531.794761,4478.974249,4509.230659,4501.025531
99,0,4514.871684,4497.435787,4513.846043,4498.461428,4447.692199,4529.230658,4524.615274,4499.99989,4537.435786,4490.2563,4529.743479,4476.410147,4512.307582,4501.538351
100,0,4510.2563,4497.948608,4509.743479,4494.871685,4459.999891,4531.28194,4525.640915,4495.897326,4537.948607,4493.333223,4527.692197,4473.333224,4513.846043,4502.563992
101,0,4497.948608,4477.948608,4499.487069,4481.025531,4459.48707,4518.461428,4509.743479,4489.74348,4529.230658,4482.051172,4515.897325,4462.051173,4500.51271,4491.281941
102,0,4487.179377,4458.97425,4482.051172,4456.410147,4438.46143,4501.025531,4490.769121,4479.48707,4514.871684,4457.948609,4494.871685,4443.589635,4480.512711,4473.333224
103,0,4479.48707,4451.281942,4466.666557,4442.051173,4424.102456,4491.281941,4477.948608,4468.717839,4504.102454,4443.589635,4479.99989,4430.256302,4465.640916,4462.051173
104,0,4460.512711,4431.794763,4449.23066,4434.871686,4410.256302,4477.948608,4459.999891,4454.358865,4489.230659,4425.128097,4463.589634,4410.769123,4447.179378,4445.128096
105,0,4448.71784,4422.563994,4446.666558,4430.256302,4404.615277,4473.846044,4454.871686,4450.769122,4483.076813,4414.358866,4458.97425,4403.076815,4445.640917,4437.948609
106,0,4441.538353,4421.025533,4436.410148,4415.384507,4391.794764,4464.615275,4447.179378,4444.615276,4476.922967,4403.076815,4452.307583,4394.871687,4443.076814,4429.743481
107,0,4436.922968,4416.410148,4417.94861,4407.179379,4372.307585,4452.307583,4432.307584,4435.897327,4468.717839,4392.820405,4440.512712,4382.563995,4429.230661,4418.46143
108,0,4423.076815,4402.051174,4409.743482,4405.640918,4362.051175,4447.179378,4422.563994,4431.281943,4464.102455,4384.102457,4430.769122,4376.410149,4415.384507,4409.743482
109,0,4418.46143,4404.615277,4418.46143,4405.640918,4372.307585,4450.769122,4431.281943,4436.922968,4467.179378,4388.717841,4435.897327,4383.076816,4421.025533,4409.743482
110,0,4427.179379,4407.6922,4417.435789,4397.43579,4373.846047,4450.256301,4434.358866,4440.512712,4471.794762,4392.307585,4440.512712,4382.563995,4427.179379,4411.794764
111,0,4435.384507,4403.076815,4409.743482,4393.846046,4368.717842,4448.205019,4428.71784,4439.999891,4474.358865,4394.871687,4439.487071,4377.948611,4425.640917,4415.384507
112,0,4426.666558,4393.846046,4402.051174,4392.307585,4361.025534,4441.538353,4419.999892,4430.256302,4465.640916,4390.769123,4432.820404,4372.307585,4418.46143,4412.307584
113,0,4411.794764,4377.948611,4390.769123,4378.461431,4342.563996,4429.743481,4407.179379,4415.384507,4449.743481,4371.794765,4421.025533,4359.487073,4406.666559,4399.487072
114,0,4413.333225,4374.871688,4389.743482,4366.153739,4340.512714,4431.281943,4407.179379,4413.846046,4450.769122,4365.128098,4416.410148,4357.948611,4402.563995,4396.410149
115,0,4417.435789,4385.640918,4396.410149,4373.846047,4358.461432,4439.999891,4418.974251,4422.051174,4458.461429,4371.794765,4416.410148,4363.589637,4402.051174,4395.897328
116,0,4422.563994,4398.974251,4403.076815,4391.794764,4368.717842,4443.076814,4427.179379,4427.179379,4463.076814,4381.025534,4427.179379,4370.769124,4410.769123,4398.461431
117,0,4416.922969,4393.333226,4394.871687,4385.640918,4350.769124,4434.871686,4413.846046,4421.025533,4455.384506,4368.717842,4427.179379,4365.640919,4406.666559,4396.410149
118,0,4407.6922,4386.666559,4388.717841,4376.92297,4338.974253,4429.230661,4404.102456,4414.358866,4446.666558,4353.846047,4417.435789,4360.512714,4400.512713,4396.922969
119,0,4407.6922,4382.051175,4388.717841,4378.461431,4342.051176,4427.692199,4404.102456,4410.769123,4444.615276,4349.743483,4412.820405,4357.948611,4403.076815,4403.076815
120,0,4427.179379,4388.205021,4397.43579,4383.076816,4345.640919,4429.743481,4409.230661,4415.384507,4451.281942,4353.333227,4423.589635,4368.717842,4410.769123,4421.025533
121,0,4440.512712,4391.794764,4391.281944,4377.43579,4328.717843,4421.538353,4397.43579,4411.794764,4444.615276,4338.974253,4419.487071,4369.743483,4407.179379,4435.384507
122,0,4457.948609,4401.025533,4386.666559,4382.051175,4315.89733,4416.410148,4388.205021,4405.640918,4438.97425,4331.794766,4417.435789,4365.128098,4417.435789,4458.97425
123,0,4484.615275,4409.743482,4393.333226,4381.025534,4313.846048,4411.281943,4388.205021,4399.999892,4438.97425,4331.281945,4419.999892,4363.589637,4429.230661,4490.769121
124,0,4518.461428,4419.999892,4407.179379,4377.948611,4324.102458,4410.256302,4390.256303,4401.538354,4438.46143,4330.256304,4424.615276,4379.487072,4432.307584,4532.307581
125,0,4546.153735,4424.615276,4411.281943,4384.615277,4320.512715,4402.051174,4376.92297,4397.94861,4428.71784,4323.076817,4428.20502,4390.769123,4437.948609,4569.743478
126,0,4569.230657,4433.846045,4417.94861,4401.538354,4311.281946,4392.820405,4368.205021,4393.846046,4424.102456,4321.538356,4435.897327,4395.384508,4457.435788,4599.999888
127,0,4570.256298,4444.102455,4416.922969,4400.512713,4303.076818,4387.17938,4364.615278,4388.205021,4418.46143,4315.38451,4429.230661,4394.358867,4457.435788,4602.05117
128,0,4564.615273,4446.666558,4403.589636,4389.743482,4289.230664,4384.102457,4359.999893,4382.563995,4409.743482,4305.1281,4413.846046,4385.128098,4432.820404,4579.999888
0,0,4559.487068,4430.769122,4392.820405,4383.589636,4272.307588,4377.43579,4351.794765,4375.384508,4402.563995,4294.358869,4406.666559,4374.358867,4413.333225,4557.948606
1,0,4547.179376,4419.487071,4396.410149,4378.461431,4279.487075,4377.43579,4353.846047,4376.92297,4401.025533,4291.794767,4405.128097,4373.333226,4419.487071,4549.743478
2,0,4533.333222,4427.692199,4400.512713,4375.384508,4295.897331,4381.538354,4358.974252,4382.563995,4402.051174,4293.333228,4396.410149,4368.717842,4421.025533,4535.384504
3,0,4519.999889,4431.794763,4389.743482,4374.871688,4289.743485,4377.43579,4352.307586,4379.999893,4399.487072,4283.589639,4381.538354,4351.281945,4397.94861,4503.076813
4,0,4504.102454,4418.974251,4384.102457,4371.794765,4287.692203,4373.846047,4353.333227,4377.43579,4396.922969,4285.1281,4375.384508,4347.179381,4386.666559,4478.461429
5,0,4482.051172,4397.94861,4384.615277,4358.974252,4291.281946,4375.384508,4357.948611,4375.897329,4395.897328,4292.307587,4368.205021,4351.794765,4382.563995,4460.512711
6,0,4458.97425,4381.025534,4377.948611,4346.15374,4277.948613,4367.17938,4346.15374,4368.205021,4391.794764,4282.563998,4356.41015,4343.076817,4365.640919,4439.999891
7,0,4432.820404,4364.102457,4354.871688,4329.743484,4251.281947,4348.205022,4323.589638,4354.358868,4375.384508,4254.871691,4340.512714,4317.948612,4341.538355,4412.307584
8,0,4421.025533,4355.897329,4340.512714,4324.102458,4249.743486,4348.717842,4324.615279,4353.846047,4371.281944,4249.743486,4337.435791,4306.666561,4336.41015,4392.820405
9,0,4410.256302,4347.692201,4335.384509,4322.563997,4256.922973,4357.948611,4328.717843,4354.871688,4375.897329,4250.769127,4333.846048,4303.589638,4332.307586,4381.025534
10,0,4408.20502,4358.461432,4346.15374,4334.358868,4274.87169,4368.717842,4337.948612,4361.025534,4383.076816,4260.512716,4339.999894,4310.256305,4342.051176,4388.717841
11,0,4414.871687,4375.897329,4359.487073,4355.384509,4298.461433,4381.025534,4357.948611,4374.871688,4394.358867,4285.640921,4354.871688,4321.025535,4361.025534,4395.384508
12,0,4421.025533,4386.153739,4369.743483,4375.897329,4314.358869,4398.461431,4377.948611,4389.743482,4413.846046,4314.358869,4368.717842,4333.333227,4374.358867,4394.358867
13,0,4406.666559,4376.92297,4361.538355,4362.563996,4306.666561,4393.846046,4372.307585,4386.153739,4414.358866,4311.794766,4362.051175,4328.717843,4366.153739,4383.076816
14,0,4394.358867,4367.692201,4354.358868,4347.692201,4306.153741,4384.102457,4370.769124,4382.051175,4410.256302,4308.717843,4355.384509,4323.589638,4359.487073,4374.871688
15,0,4388.205021,4364.615278,4354.871688,4353.333227,4311.794766,4387.17938,4377.948611,4384.102457,4410.769123,4313.333228,4352.307586,4316.922971,4352.820406,4361.538355
16,0,4377.43579,4356.92297,4350.256304,4349.743483,4305.64092,4387.6922,4371.281944,4380.512713,4406.666559,4308.205023,4344.102458,4304.615279,4340.512714,4346.66656
17,0,4359.999893,4336.922971,4332.307586,4323.589638,4282.051177,4374.358867,4353.333227,4368.205021,4395.897328,4293.333228,4331.794766,4290.769126,4326.15374,4329.230663
18,0,4349.743483,4322.051176,4317.948612,4307.179382,4268.205024,4366.153739,4349.230663,4362.563996,4390.256303,4284.102459,4326.666561,4285.1281,4318.974253,4315.89733
19,0,4333.333227,4304.615279,4304.102459,4296.410151,4259.999896,4360.512714,4338.974253,4358.974252,4384.102457,4267.692203,4315.89733,4267.692203,4305.64092,4298.461433
20,0,4309.230664,4282.563998,4285.640921,4281.025536,4244.10246,4347.179381,4317.435792,4346.15374,4371.281944,4242.563999,4295.38451,4241.025537,4284.102459,4274.87169
21,0,4296.410151,4273.333229,4270.256306,4267.692203,4231.281948,4331.281945,4301.538356,4332.307586,4357.948611,4228.205025,4278.974254,4226.666563,4267.179383,4257.435793
22,0,4282.051177,4266.666562,4256.410152,4249.230665,4217.948615,4316.922971,4285.1281,4320.512715,4343.076817,4212.82041,4262.051178,4212.82041,4250.256306,4242.051178
23,0,4268.717844,4256.410152,4251.281947,4243.076819,4207.692205,4310.256305,4277.435793,4316.410151,4340.512714,4200.512718,4252.820409,4206.666564,4244.10246,4232.307589
24,0,4269.230665,4249.743486,4245.128101,4246.153742,4196.410154,4306.153741,4275.384511,4314.358869,4345.128099,4197.435795,4247.179383,4204.102461,4245.640922,4227.692204
25,0,4278.461434,4258.974255,4245.128101,4252.820409,4199.487077,4309.230664,4277.435793,4316.410151,4344.102458,4207.692205,4246.153742,4206.666564,4252.307588,4236.410153
26,0,4274.87169,4256.922973,4250.256306,4253.84605,4213.846051,4321.025535,4288.205023,4324.102458,4344.102458,4214.871692,4246.153742,4208.205025,4254.35887,4236.922973
27,0,4281.538357,4260.512716,4264.61528,4268.717844,4235.384512,4337.948612,4309.743484,4337.948612,4359.999893,4233.84605,4265.128101,4219.487076,4264.61528,4239.487076
28,0,4293.333228,4281.025536,4272.307588,4283.589639,4244.615281,4340.512714,4314.871689,4341.025535,4366.153739,4247.692204,4278.974254,4226.666563,4273.846049,4249.230665
29,0,4296.922972,4298.974254,4276.922972,4282.563998,4249.230665,4342.051176,4316.410151,4341.538355,4363.076816,4248.205024,4276.922972,4231.281948,4271.281947,4253.84605
30,0,4288.205023,4283.589639,4272.820408,4271.281947,4241.025537,4342.563996,4317.435792,4341.538355,4359.487073,4238.461435,4269.743485,4228.717845,4255.384511,4242.051178
31,0,4285.640921,4271.794767,4274.35887,4271.281947,4235.384512,4337.948612,4311.281946,4341.025535,4359.999893,4236.410153,4270.769126,4230.256307,4253.84605,4240.512717
32,0,4275.897331,4269.230665,4266.153742,4261.025537,4233.84605,4325.128099,4298.461433,4332.307586,4352.307586,4229.230666,4261.025537,4220.512717,4250.769127,4238.461435
33,0,4265.640921,4261.538357,4246.153742,4247.692204,4229.230666,4318.974253,4293.846049,4326.666561,4346.15374,4223.07682,4249.230665,4201.025538,4238.974255,4225.640922
34,0,4264.10246,4255.897332,4231.794768,4253.84605,4214.358871,4312.820407,4287.179382,4325.128099,4345.640919,4217.435794,4239.999896,4190.769128,4229.743486,4214.871692
35,0,4273.333229,4269.743485,4242.051178,4270.769126,4221.538358,4316.410151,4290.769126,4328.205022,4350.769124,4219.999897,4243.076819,4207.179384,4243.076819,4225.640922
36,0,4279.487075,4284.102459,4254.871691,4274.87169,4241.025537,4326.666561,4302.051177,4331.794766,4356.92297,4231.794768,4256.410152,4223.58964,4256.922973,4237.948614
37,0,4289.743485,4289.230664,4261.538357,4282.051177,4246.153742,4331.794766,4306.666561,4333.846048,4362.051175,4245.128101,4268.717844,4226.153743,4263.076819,4244.615281
38,0,4287.692203,4282.563998,4257.948614,4278.974254,4235.384512,4325.64092,4300.512715,4332.307586,4359.999893,4243.58964,4270.769126,4224.615281,4264.61528,4243.076819
39,0,4277.435793,4275.384511,4251.281947,4266.153742,4234.358871,4324.615279,4303.589638,4333.333227,4356.41015,4238.461435,4272.307588,4226.666563,4269.230665,4242.051178
40,0,4277.948613,4274.35887,4251.794768,4264.10246,4242.051178,4328.205022,4308.205023,4337.435791,4363.589637,4248.717845,4278.461434,4227.179384,4274.87169,4247.692204
41,0,4272.307588,4268.205024,4243.076819,4264.10246,4235.897332,4318.461433,4296.410151,4329.743484,4361.025534,4249.743486,4271.794767,4213.846051,4266.153742,4242.051178
42,0,4264.61528,4270.256306,4238.461435,4266.666562,4234.871691,4313.333228,4290.256305,4323.076817,4350.769124,4241.538358,4264.61528,4205.640923,4261.025537,4235.384512
43,0,4267.179383,4272.820408,4241.538358,4261.025537,4239.487076,4318.461433,4290.769126,4323.589638,4349.230663,4233.84605,4263.076819,4205.128102,4261.538357,4233.84605
44,0,4279.999895,4286.153741,4257.435793,4271.281947,4249.743486,4329.743484,4301.538356,4330.256304,4362.051175,4251.794768,4278.461434,4223.07682,4278.461434,4248.717845
45,0,4293.333228,4305.1281,4275.897331,4297.435792,4258.974255,4334.358868,4310.769125,4336.41015,4370.256303,4272.307588,4297.435792,4244.10246,4300.512715,4269.743485
46,0,4305.64092,4305.1281,4286.153741,4307.692202,4262.563998,4329.230663,4308.717843,4341.538355,4371.794765,4272.820408,4304.102459,4249.743486,4308.717843,4277.435793
47,0,4293.333228,4286.153741,4274.35887,4288.717844,4250.256306,4317.948612,4298.974254,4336.922971,4364.102457,4256.922973,4288.717844,4235.897332,4290.256305,4262.563998
48,0,4287.692203,4294.87169,4275.384511,4293.846049,4249.230665,4322.563997,4306.153741,4336.922971,4360.512714,4257.435793,4283.076818,4237.948614,4285.1281,4258.461434
49,0,4303.076818,4303.076818,4287.179382,4298.461433,4255.384511,4330.256304,4313.333228,4339.487073,4362.051175,4261.538357,4290.769126,4244.10246,4291.794767,4263.076819
50,0,4307.692202,4290.769126,4288.717844,4284.61528,4264.10246,4332.820407,4314.871689,4343.589637,4366.66656,4266.153742,4300.512715,4246.666563,4294.87169,4265.640921
51,0,4285.640921,4279.487075,4277.435793,4279.487075,4258.974255,4324.102458,4310.256305,4337.948612,4357.435791,4261.538357,4291.281946,4239.999896,4282.051177,4257.435793
52,0,4287.179382,4292.307587,4282.051177,4297.948613,4261.025537,4323.076817,4314.358869,4333.333227,4353.846047,4257.948614,4287.179382,4241.538358,4279.999895,4256.922973
