title:A                                                                               , recorded:02.07.20 12.55.20, sampling:128, subject:S                                                                               , labels:COUNTER INTERPOLATED AF3 F7 F3 FC5 T7 P7 O1 O2 P8 T8 FC6 F4 F8 AF4,, units:emotiv,,,,,,,,,
36,0,4237.435794,4244.10246,4236.410153,4222.563999,4206.153743,4245.128101,4224.102461,4232.307589,4229.230666,4217.435794,4256.410152,4133.333232,4244.10246,4222.051179
37,0,4267.179383,4273.846049,4264.61528,4253.333229,4231.281948,4266.666562,4253.84605,4245.640922,4243.076819,4239.999896,4272.307588,4159.999898,4253.84605,4249.743486
38,0,4288.205023,4295.897331,4284.102459,4278.461434,4252.820409,4282.563998,4277.435793,4268.717844,4261.025537,4269.743485,4292.307587,4187.179385,4260.512716,4270.769126
39,0,4276.922972,4284.102459,4277.948613,4267.692203,4245.128101,4274.35887,4267.692203,4262.563998,4253.333229,4262.563998,4286.153741,4178.461436,4256.922973,4263.589639
40,0,4276.410152,4277.435793,4276.922972,4259.487075,4237.948614,4267.692203,4264.10246,4258.974255,4255.897332,4254.35887,4276.410152,4173.846052,4256.922973,4259.999896
41,0,4298.461433,4297.435792,4291.281946,4279.487075,4251.794768,4278.974254,4282.051177,4281.025536,4281.025536,4271.794767,4291.794767,4197.435795,4266.666562,4272.307588
42,0,4296.410151,4296.410151,4290.769126,4282.051177,4250.256306,4275.384511,4272.820408,4279.999895,4274.87169,4272.820408,4293.846049,4194.358872,4264.61528,4268.205024
43,0,4280.512716,4284.102459,4283.589639,4268.205024,4240.512717,4269.230665,4261.538357,4260.512716,4255.384511,4261.025537,4281.025536,4174.358872,4256.922973,4261.025537
44,0,4276.922972,4283.076818,4281.538357,4264.10246,4243.076819,4272.820408,4264.61528,4263.076819,4265.128101,4263.589639,4282.563998,4182.05118,4259.999896,4267.179383
45,0,4284.102459,4290.256305,4287.179382,4273.846049,4252.307588,4277.435793,4271.281947,4275.897331,4277.948613,4276.410152,4292.820408,4198.461436,4271.281947,4277.948613
46,0,4288.205023,4294.358869,4287.179382,4277.435793,4249.230665,4277.435793,4270.769126,4273.846049,4271.281947,4283.589639,4291.281946,4191.281949,4268.717844,4274.35887
47,0,4274.35887,4281.025536,4266.666562,4257.948614,4230.256307,4262.563998,4254.871691,4255.384511,4250.769127,4262.051178,4279.999895,4167.179385,4253.333229,4252.307588
48,0,4269.230665,4278.461434,4261.025537,4251.281947,4232.820409,4256.410152,4249.743486,4255.897332,4249.743486,4250.256306,4280.512716,4164.615283,4255.384511,4248.717845
49,0,4261.025537,4270.769126,4252.820409,4244.10246,4227.692204,4248.717845,4243.58964,4250.769127,4241.538358,4239.999896,4269.743485,4154.358873,4255.384511,4238.461435
50,0,4269.743485,4278.974254,4257.435793,4253.84605,4230.769127,4255.897332,4250.256306,4248.205024,4240.512717,4247.692204,4274.35887,4156.410155,4258.974255,4238.974255
51,0,4278.461434,4286.153741,4267.692203,4260.512716,4240.512717,4261.025537,4257.948614,4250.769127,4247.179383,4253.333229,4281.538357,4163.076821,4265.640921,4247.179383
52,0,4297.948613,4305.1281,4291.794767,4280.512716,4264.10246,4279.999895,4276.410152,4276.922972,4274.35887,4276.410152,4296.922972,4187.179385,4279.999895,4270.256306
53,0,4295.38451,4296.922972,4288.717844,4275.897331,4257.948614,4278.461434,4269.230665,4273.333229,4266.666562,4269.230665,4294.87169,4183.589641,4275.384511,4260.512716
54,0,4304.615279,4312.307587,4298.461433,4290.769126,4269.743485,4290.256305,4286.153741,4275.897331,4267.692203,4279.999895,4306.666561,4191.281949,4279.999895,4266.666562
55,0,4311.794766,4326.666561,4306.666561,4305.1281,4281.538357,4296.922972,4296.410151,4283.076818,4273.846049,4291.794767,4313.846048,4202.564,4290.256305,4281.025536
56,0,4312.820407,4324.615279,4303.589638,4306.666561,4284.61528,4297.435792,4286.666562,4281.538357,4266.153742,4287.179382,4311.794766,4202.051179,4291.794767,4283.589639
57,0,4296.410151,4302.563997,4283.589639,4285.1281,4264.10246,4285.1281,4263.589639,4267.179383,4252.307588,4264.61528,4298.461433,4179.999898,4275.897331,4259.487075
58,0,4304.102459,4314.358869,4292.820408,4291.281946,4265.640921,4291.794767,4273.333229,4273.333229,4271.794767,4276.410152,4302.051177,4186.666564,4279.999895,4268.205024
59,0,4310.769125,4320.512715,4298.461433,4294.87169,4270.769126,4286.666562,4272.820408,4269.743485,4270.769126,4282.051177,4304.102459,4194.358872,4286.666562,4283.076818
60,0,4298.974254,4307.179382,4288.717844,4284.61528,4266.153742,4278.461434,4265.640921,4255.384511,4247.692204,4264.10246,4294.358869,4183.589641,4279.999895,4273.333229
61,0,4302.563997,4314.358869,4295.38451,4291.281946,4275.384511,4292.307587,4282.051177,4263.589639,4258.974255,4269.230665,4294.87169,4188.205026,4279.999895,4273.846049
62,0,4331.794766,4348.717842,4324.102458,4322.563997,4305.64092,4317.948612,4311.794766,4290.769126,4292.307587,4299.999895,4315.89733,4218.974256,4298.974254,4306.666561
63,0,4345.640919,4359.999893,4337.435791,4338.974253,4316.922971,4322.563997,4318.461433,4302.051177,4298.461433,4314.871689,4328.717843,4233.33323,4308.205023,4322.563997
64,0,4329.230663,4339.999894,4321.538356,4321.538356,4298.974254,4306.666561,4305.1281,4290.769126,4285.1281,4302.051177,4316.410151,4216.410153,4296.922972,4300.512715
65,0,4320.512715,4331.281945,4310.769125,4309.743484,4295.38451,4302.051177,4302.051177,4288.205023,4287.179382,4297.435792,4309.230664,4208.717846,4292.820408,4292.820408
66,0,4311.281946,4322.051176,4298.974254,4298.974254,4292.820408,4298.974254,4294.358869,4284.61528,4279.999895,4292.307587,4306.153741,4203.07682,4291.281946,4288.717844
67,0,4308.205023,4316.410151,4297.435792,4295.897331,4286.153741,4293.846049,4285.1281,4281.025536,4276.410152,4295.38451,4305.64092,4204.102461,4292.307587,4288.717844
68,0,4302.563997,4307.179382,4286.666562,4284.61528,4272.820408,4276.410152,4268.205024,4268.205024,4268.717844,4282.051177,4292.820408,4190.769128,4284.102459,4276.410152
69,0,4302.051177,4307.179382,4279.487075,4281.025536,4274.35887,4277.948613,4269.743485,4269.743485,4271.794767,4276.410152,4288.717844,4186.666564,4278.974254,4270.256306
70,0,4288.717844,4293.333228,4269.230665,4268.717844,4264.10246,4274.35887,4262.563998,4265.640921,4260.512716,4264.61528,4281.538357,4177.435795,4270.769126,4258.974255
71,0,4293.846049,4303.076818,4281.538357,4279.487075,4274.87169,4281.538357,4272.307588,4271.794767,4263.076819,4271.281947,4287.692203,4184.102462,4271.281947,4265.128101
72,0,4290.256305,4298.974254,4280.512716,4275.897331,4275.384511,4274.87169,4272.820408,4268.205024,4258.974255,4265.128101,4281.538357,4181.025539,4263.589639,4259.487075
73,0,4290.769126,4296.922972,4283.076818,4276.410152,4269.230665,4273.333229,4272.820408,4268.717844,4259.487075,4265.640921,4279.487075,4180.512718,4263.076819,4263.076819
74,0,4281.538357,4288.205023,4275.384511,4269.743485,4255.897332,4269.230665,4265.640921,4262.563998,4257.435793,4258.974255,4275.384511,4166.666565,4261.538357,4253.333229
75,0,4289.743485,4301.538356,4284.61528,4282.563998,4272.820408,4279.999895,4281.538357,4272.307588,4274.87169,4274.35887,4287.179382,4178.461436,4271.281947,4263.589639
76,0,4300.512715,4314.871689,4296.922972,4294.358869,4286.153741,4288.205023,4291.794767,4281.538357,4286.153741,4292.307587,4299.487074,4200.512718,4280.512716,4282.563998
77,0,4309.743484,4329.230663,4311.794766,4306.666561,4295.38451,4301.538356,4301.025536,4290.769126,4290.256305,4304.102459,4310.256305,4222.563999,4288.205023,4297.435792
78,0,4298.461433,4313.846048,4302.563997,4293.333228,4288.717844,4293.333228,4290.256305,4282.051177,4276.922972,4288.205023,4303.589638,4214.871692,4281.538357,4285.1281
79,0,4284.61528,4291.281946,4286.153741,4275.384511,4272.820408,4274.87169,4274.87169,4267.179383,4259.487075,4271.281947,4290.256305,4197.948615,4273.333229,4272.307588
80,0,4276.922972,4284.102459,4280.512716,4269.743485,4259.999896,4267.692203,4266.666562,4262.563998,4253.84605,4263.589639,4276.922972,4190.256308,4266.666562,4260.512716
81,0,4265.128101,4272.820408,4273.846049,4256.922973,4254.871691,4266.666562,4263.076819,4257.435793,4245.128101,4237.948614,4259.487075,4175.384513,4251.794768,4236.922973
82,0,4253.333229,4255.384511,4264.61528,4238.461435,4246.666563,4256.410152,4253.333229,4250.256306,4235.897332,4219.999897,4254.35887,4158.461437,4246.666563,4226.666563
83,0,4251.794768,4254.871691,4262.051178,4236.410153,4238.461435,4250.256306,4251.281947,4249.230665,4243.58964,4232.307589,4257.948614,4161.025539,4254.35887,4236.922973
84,0,4271.281947,4282.051177,4277.435793,4262.563998,4255.384511,4269.230665,4272.307588,4271.281947,4268.205024,4264.61528,4271.794767,4189.230667,4268.205024,4261.538357
85,0,4271.794767,4285.1281,4275.384511,4264.10246,4258.461434,4272.820408,4268.205024,4268.205024,4258.461434,4256.410152,4268.717844,4187.179385,4264.10246,4257.948614
86,0,4263.076819,4276.922972,4269.743485,4256.410152,4258.461434,4263.589639,4258.974255,4254.871691,4250.769127,4247.179383,4264.10246,4175.384513,4257.435793,4247.179383
87,0,4238.461435,4253.333229,4246.666563,4233.33323,4243.58964,4243.58964,4244.615281,4238.974255,4240.512717,4230.769127,4250.256306,4158.461437,4249.743486,4229.230666
88,0,4228.205025,4245.640922,4237.435794,4225.128102,4238.461435,4246.666563,4240.512717,4234.871691,4227.692204,4220.512717,4246.153742,4150.256309,4252.820409,4226.153743
89,0,4214.358871,4228.717845,4221.025538,4206.153743,4221.538358,4233.84605,4218.974256,4216.922974,4203.07682,4201.025538,4231.794768,4126.153745,4241.025537,4205.640923
90,0,4219.487076,4231.794768,4224.615281,4210.769128,4227.179384,4228.205025,4221.025538,4219.487076,4209.230666,4205.640923,4233.33323,4129.743489,4236.922973,4208.717846
91,0,4214.871692,4227.179384,4222.563999,4207.692205,4224.102461,4222.051179,4219.487076,4217.435794,4203.589641,4193.846051,4230.256307,4127.179386,4238.461435,4211.281948
92,0,4211.794769,4225.640922,4224.615281,4204.102461,4220.512717,4225.128102,4218.974256,4216.410153,4201.538359,4189.743487,4228.205025,4123.076822,4238.461435,4208.205025
93,0,4205.128102,4214.358871,4217.948615,4193.846051,4210.769128,4212.307589,4208.717846,4211.281948,4197.948615,4183.076821,4222.563999,4114.871694,4225.640922,4192.30759
94,0,4205.640923,4212.307589,4214.871692,4191.281949,4211.281948,4207.692205,4210.256307,4211.281948,4197.948615,4182.564,4226.666563,4123.076822,4226.666563,4193.333231
95,0,4192.30759,4193.333231,4201.025538,4170.769129,4193.333231,4194.358872,4193.846051,4197.948615,4183.589641,4166.153744,4215.897333,4113.846053,4223.58964,4184.102462
96,0,4193.333231,4192.30759,4199.999897,4166.666565,4188.717846,4191.794769,4188.205026,4196.922974,4175.384513,4164.102462,4210.256307,4107.692207,4221.025538,4180.512718
97,0,4204.615282,4208.205025,4209.230666,4179.487077,4199.999897,4198.974256,4198.461436,4205.640923,4184.615282,4178.461436,4218.461435,4115.897335,4225.128102,4187.179385
98,0,4203.07682,4209.743487,4209.743487,4182.05118,4199.999897,4196.410154,4200.512718,4204.102461,4191.281949,4180.512718,4218.974256,4113.846053,4224.615281,4182.05118
99,0,4186.153744,4195.897333,4192.82041,4167.692206,4187.692205,4182.05118,4187.179385,4192.30759,4179.487077,4165.640924,4203.589641,4098.461438,4214.871692,4165.128103
100,0,4184.615282,4196.410154,4191.794769,4168.205026,4191.794769,4181.538359,4191.281949,4190.769128,4168.717847,4157.435796,4197.435795,4093.846054,4213.33323,4170.256308
101,0,4197.435795,4210.769128,4209.230666,4185.128103,4208.205025,4195.384513,4209.230666,4204.615282,4183.589641,4168.717847,4207.692205,4105.128105,4219.487076,4183.076821
102,0,4191.794769,4204.102461,4207.179384,4178.461436,4205.128102,4192.82041,4205.640923,4203.07682,4187.692205,4165.128103,4208.205025,4104.615284,4215.897333,4167.692206
103,0,4207.179384,4221.538358,4219.487076,4195.384513,4218.974256,4204.102461,4215.384512,4207.179384,4193.333231,4182.564,4222.563999,4121.02554,4226.153743,4181.025539
104,0,4230.256307,4247.692204,4238.974255,4224.615281,4235.897332,4218.974256,4231.794768,4216.922974,4203.07682,4205.128102,4235.897332,4141.02554,4241.025537,4210.256307
105,0,4237.435794,4257.435793,4249.230665,4235.384512,4241.538358,4222.563999,4236.410153,4229.743486,4219.999897,4215.384512,4242.051178,4154.358873,4247.692204,4224.102461
106,0,4225.640922,4242.051178,4235.384512,4213.33323,4226.153743,4208.205025,4221.025538,4219.487076,4214.871692,4202.051179,4233.84605,4145.128104,4239.999896,4215.384512
107,0,4241.538358,4257.948614,4243.58964,4225.640922,4238.974255,4220.512717,4234.358871,4224.615281,4219.487076,4213.33323,4244.615281,4155.897334,4246.666563,4230.256307
108,0,4247.692204,4265.128101,4246.153742,4235.897332,4247.692204,4231.794768,4244.10246,4232.307589,4218.461435,4216.410153,4248.205024,4158.461437,4251.794768,4225.128102
109,0,4241.025537,4259.487075,4245.128101,4231.794768,4245.640922,4239.487076,4251.281947,4239.487076,4223.58964,4221.538358,4249.743486,4159.999898,4254.35887,4217.435794
110,0,4221.025538,4233.84605,4227.692204,4207.692205,4214.358871,4212.82041,4225.640922,4222.051179,4211.281948,4202.051179,4234.871691,4144.102463,4242.051178,4205.128102
111,0,4218.974256,4230.256307,4223.58964,4201.025538,4197.435795,4196.922974,4208.717846,4211.281948,4202.051179,4184.615282,4224.102461,4133.333232,4231.281948,4198.974256
112,0,4223.07682,4233.84605,4226.153743,4201.538359,4201.025538,4205.128102,4213.33323,4212.307589,4203.589641,4186.666564,4223.07682,4132.820412,4228.717845,4195.897333
113,0,4249.230665,4261.538357,4251.281947,4229.230666,4232.307589,4233.33323,4244.615281,4233.84605,4232.820409,4225.128102,4249.230665,4167.179385,4250.256306,4230.769127
114,0,4264.10246,4273.333229,4263.589639,4241.025537,4234.871691,4233.33323,4251.281947,4243.58964,4243.076819,4238.974255,4263.589639,4183.589641,4260.512716,4250.769127
115,0,4264.61528,4270.769126,4263.076819,4237.948614,4223.58964,4231.281948,4248.717845,4243.58964,4238.461435,4234.358871,4262.051178,4178.974257,4254.871691,4249.230665
116,0,4267.692203,4274.35887,4266.153742,4243.076819,4228.717845,4239.999896,4251.794768,4243.58964,4243.076819,4241.538358,4261.025537,4183.076821,4254.871691,4252.307588
117,0,4273.846049,4281.538357,4272.307588,4252.820409,4237.435794,4240.512717,4255.384511,4244.10246,4246.153742,4245.640922,4261.025537,4190.769128,4262.051178,4257.948614
118,0,4267.179383,4275.384511,4265.128101,4246.666563,4229.743486,4231.281948,4247.179383,4241.025537,4238.461435,4236.922973,4261.025537,4188.205026,4266.153742,4249.230665
119,0,4243.076819,4249.743486,4243.58964,4219.999897,4204.615282,4215.384512,4226.153743,4223.58964,4217.948615,4212.82041,4248.205024,4169.743488,4252.820409,4224.615281
120,0,4230.769127,4230.769127,4234.358871,4204.615282,4186.666564,4200.512718,4208.205025,4211.281948,4201.538359,4194.358872,4229.743486,4150.769129,4238.461435,4207.179384
121,0,4231.281948,4229.230666,4237.948614,4206.666564,4184.102462,4193.846051,4206.153743,4209.230666,4195.384513,4185.128103,4221.025538,4142.564001,4237.948614,4205.640923
122,0,4240.512717,4247.692204,4252.307588,4224.615281,4198.974256,4206.666564,4223.58964,4220.512717,4212.307589,4203.07682,4234.358871,4156.922975,4249.743486,4223.07682
123,0,4224.102461,4234.358871,4237.435794,4208.205025,4184.615282,4195.384513,4212.82041,4207.692205,4201.538359,4188.205026,4222.563999,4136.922976,4237.948614,4199.999897
124,0,4230.769127,4236.922973,4239.487076,4212.307589,4192.82041,4199.487077,4216.922974,4213.33323,4202.051179,4189.743487,4220.512717,4133.846053,4234.871691,4196.410154
125,0,4249.743486,4254.35887,4257.435793,4233.33323,4211.281948,4211.794769,4230.256307,4226.153743,4213.846051,4208.205025,4232.307589,4154.358873,4245.640922,4223.07682
126,0,4251.281947,4261.025537,4261.538357,4235.897332,4210.769128,4213.33323,4226.153743,4224.102461,4214.358871,4209.230666,4234.358871,4156.922975,4247.692204,4233.33323
127,0,4219.999897,4228.717845,4224.615281,4195.384513,4175.384513,4183.076821,4192.30759,4199.487077,4185.128103,4169.230667,4210.769128,4123.589643,4229.743486,4200.512718
128,0,4224.615281,4229.743486,4221.025538,4197.435795,4179.999898,4185.128103,4198.461436,4207.179384,4190.256308,4171.281949,4217.435794,4129.743489,4235.897332,4206.153743
0,0,4226.666563,4223.07682,4219.487076,4202.051179,4182.05118,4185.128103,4199.999897,4204.615282,4196.922974,4178.461436,4219.999897,4127.179386,4238.461435,4202.564
1,0,4218.461435,4211.281948,4217.435794,4195.897333,4174.358872,4177.948616,4191.794769,4191.281949,4186.666564,4172.820411,4214.871692,4121.02554,4232.307589,4190.256308
2,0,4219.487076,4211.794769,4219.487076,4192.30759,4168.205026,4170.769129,4183.076821,4178.974257,4168.205026,4157.948616,4207.692205,4123.076822,4228.205025,4195.384513
3,0,4234.871691,4232.307589,4232.820409,4206.666564,4179.999898,4182.05118,4190.256308,4187.692205,4178.461436,4164.615283,4210.769128,4129.230668,4235.384512,4210.256307
4,0,4229.743486,4223.07682,4226.666563,4198.974256,4178.974257,4178.461436,4183.076821,4188.205026,4183.589641,4166.666565,4208.717846,4118.974258,4230.769127,4196.922974
5,0,4209.230666,4202.564,4207.692205,4177.948616,4170.769129,4168.717847,4174.871693,4176.410154,4169.230667,4153.846052,4201.025538,4111.281951,4223.58964,4181.538359
6,0,4189.743487,4191.794769,4193.333231,4161.025539,4163.076821,4163.076821,4167.692206,4167.179385,4157.948616,4141.02554,4190.256308,4102.564002,4219.999897,4173.846052
7,0,4192.30759,4196.410154,4196.410154,4163.589642,4167.179385,4166.153744,4173.846052,4174.871693,4169.743488,4148.717847,4191.281949,4102.564002,4219.487076,4176.922975
8,0,4212.82041,4213.33323,4209.743487,4186.153744,4184.102462,4180.512718,4196.410154,4195.384513,4192.82041,4172.30759,4205.640923,4121.538361,4225.640922,4193.846051
9,0,4215.897333,4218.461435,4207.179384,4189.743487,4190.256308,4188.717846,4201.538359,4196.922974,4193.333231,4172.820411,4203.07682,4122.564002,4228.205025,4192.30759
10,0,4214.358871,4221.025538,4205.640923,4188.205026,4194.358872,4193.333231,4196.922974,4194.871692,4192.30759,4175.897334,4198.461436,4117.948617,4230.256307,4185.640923
11,0,4219.999897,4225.128102,4211.281948,4195.897333,4197.948615,4189.230667,4194.358872,4197.435795,4195.384513,4184.615282,4203.07682,4121.02554,4231.794768,4192.30759
12,0,4237.435794,4244.10246,4232.820409,4216.922974,4210.256307,4199.487077,4207.692205,4212.307589,4209.743487,4204.102461,4221.025538,4140.512719,4244.10246,4219.999897
13,0,4225.128102,4228.205025,4223.07682,4197.948615,4191.794769,4192.30759,4193.333231,4200.512718,4195.897333,4185.128103,4212.307589,4128.717848,4239.487076,4205.640923
14,0,4216.922974,4220.512717,4211.794769,4190.256308,4189.230667,4185.640923,4187.692205,4191.794769,4191.281949,4172.30759,4204.102461,4123.589643,4233.33323,4191.794769
15,0,4215.384512,4221.538358,4211.281948,4192.82041,4193.846051,4178.461436,4189.230667,4185.640923,4191.281949,4170.256308,4201.025538,4124.102463,4232.820409,4189.230667
16,0,4239.487076,4246.153742,4239.487076,4219.487076,4214.871692,4203.589641,4218.974256,4209.743487,4210.769128,4198.974256,4225.128102,4150.256309,4254.35887,4214.871692
17,0,4251.794768,4259.487075,4247.179383,4233.84605,4226.153743,4225.640922,4239.999896,4233.33323,4225.128102,4217.435794,4237.435794,4163.076821,4259.487075,4228.717845
18,0,4260.512716,4269.230665,4253.84605,4241.538358,4241.025537,4239.999896,4255.897332,4252.307588,4245.640922,4236.410153,4243.076819,4173.333231,4258.974255,4244.10246
19,0,4252.307588,4253.333229,4249.230665,4227.692204,4226.666563,4225.128102,4242.563999,4244.10246,4241.538358,4228.717845,4241.538358,4168.717847,4260.512716,4241.025537
20,0,4248.205024,4247.692204,4244.10246,4225.640922,4219.999897,4223.07682,4237.948614,4239.487076,4236.922973,4223.07682,4246.153742,4169.230667,4263.589639,4240.512717
21,0,4243.58964,4244.615281,4235.897332,4221.538358,4221.025538,4225.640922,4233.84605,4240.512717,4241.538358,4221.025538,4243.076819,4166.153744,4255.384511,4239.487076
22,0,4241.538358,4241.538358,4239.999896,4220.512717,4219.487076,4223.58964,4231.281948,4241.025537,4242.051178,4217.435794,4238.974255,4166.153744,4253.333229,4235.384512
23,0,4235.897332,4233.33323,4237.948614,4212.307589,4206.153743,4211.794769,4223.07682,4231.794768,4225.640922,4206.666564,4231.794768,4163.589642,4249.743486,4221.025538
24,0,4249.230665,4253.333229,4255.384511,4232.307589,4222.051179,4227.692204,4239.999896,4237.948614,4232.820409,4222.563999,4240.512717,4180.512718,4255.384511,4238.461435
25,0,4264.10246,4269.230665,4270.256306,4254.871691,4241.025537,4248.717845,4255.384511,4245.640922,4244.10246,4239.999896,4251.281947,4193.846051,4264.61528,4261.025537
26,0,4241.025537,4236.410153,4241.538358,4226.153743,4215.384512,4231.281948,4233.84605,4226.666563,4218.974256,4210.769128,4229.230666,4166.666565,4251.794768,4234.358871
27,0,4215.384512,4206.153743,4214.358871,4190.769128,4185.128103,4202.564,4209.230666,4209.230666,4198.461436,4179.487077,4205.640923,4141.53836,4236.410153,4202.564
28,0,4225.128102,4223.58964,4227.179384,4204.615282,4195.384513,4203.07682,4215.897333,4214.358871,4207.692205,4188.205026,4214.358871,4153.846052,4245.128101,4213.846051
29,0,4230.256307,4229.743486,4231.281948,4213.33323,4203.07682,4206.666564,4213.33323,4211.794769,4207.692205,4189.743487,4217.435794,4159.999898,4246.666563,4217.435794
30,0,4213.846051,4209.230666,4211.281948,4188.717846,4185.128103,4199.487077,4197.948615,4198.974256,4197.435795,4172.820411,4203.07682,4144.615283,4234.358871,4198.461436
31,0,4224.615281,4225.128102,4222.563999,4199.999897,4191.281949,4210.256307,4212.82041,4215.897333,4217.948615,4195.384513,4217.435794,4158.974257,4245.640922,4217.435794
32,0,4229.230666,4233.33323,4230.256307,4209.230666,4192.30759,4211.794769,4218.461435,4218.974256,4216.922974,4204.102461,4222.563999,4163.589642,4250.769127,4224.102461
33,0,4213.846051,4214.871692,4219.999897,4193.333231,4176.922975,4202.564,4205.640923,4207.692205,4201.025538,4188.205026,4212.307589,4152.820411,4241.538358,4206.666564
34,0,4197.435795,4190.256308,4205.128102,4170.769129,4156.410155,4184.615282,4189.743487,4196.410154,4190.769128,4166.153744,4199.487077,4137.948617,4232.820409,4192.30759
35,0,4215.384512,4209.230666,4217.435794,4185.640923,4174.358872,4194.871692,4203.589641,4207.179384,4204.615282,4185.128103,4209.743487,4150.769129,4239.999896,4211.794769
36,0,4205.640923,4196.922974,4203.07682,4173.333231,4161.53836,4180.512718,4185.128103,4191.281949,4189.743487,4174.358872,4199.999897,4139.487078,4230.256307,4197.948615
37,0,4190.256308,4180.512718,4192.82041,4160.512719,4141.53836,4167.692206,4168.205026,4176.922975,4175.384513,4152.820411,4187.179385,4130.76913,4223.07682,4183.076821
38,0,4183.589641,4176.410154,4189.743487,4157.948616,4140.512719,4165.640924,4166.666565,4175.897334,4171.281949,4141.53836,4181.025539,4129.230668,4220.512717,4182.564
39,0,4199.487077,4199.999897,4206.153743,4180.512718,4169.743488,4188.717846,4188.717846,4195.897333,4188.717846,4166.666565,4199.999897,4152.820411,4232.307589,4212.82041
40,0,4199.999897,4201.025538,4205.640923,4179.999898,4170.256308,4191.794769,4186.666564,4194.871692,4191.794769,4173.333231,4203.589641,4153.846052,4234.358871,4214.358871
41,0,4192.82041,4193.333231,4198.974256,4168.717847,4159.999898,4183.589641,4177.435795,4184.102462,4185.128103,4162.05118,4195.384513,4140.512719,4232.307589,4190.256308
42,0,4176.410154,4171.281949,4183.589641,4149.230668,4144.615283,4166.153744,4157.948616,4168.717847,4167.179385,4145.640924,4183.589641,4118.461438,4223.58964,4163.589642
43,0,4165.640924,4157.435796,4178.974257,4143.076822,4136.410155,4161.53836,4155.384514,4162.564001,4158.461437,4139.999899,4175.384513,4109.230669,4215.897333,4159.999898
44,0,4174.358872,4171.79477,4193.333231,4161.025539,4149.743488,4174.358872,4170.256308,4175.384513,4171.281949,4150.256309,4182.05118,4126.153745,4218.461435,4173.846052
45,0,4181.025539,4184.102462,4200.512718,4173.846052,4164.615283,4178.974257,4175.384513,4185.128103,4179.487077,4156.410155,4190.769128,4138.974258,4224.615281,4181.025539
46,0,4195.384513,4202.051179,4213.33323,4193.846051,4182.564,4194.358872,4191.794769,4203.07682,4198.461436,4181.538359,4207.692205,4158.974257,4238.461435,4201.538359
47,0,4207.179384,4218.461435,4222.563999,4208.717846,4191.794769,4207.692205,4207.179384,4210.256307,4213.33323,4201.538359,4218.461435,4173.333231,4247.179383,4211.281948
48,0,4198.461436,4213.33323,4214.358871,4197.948615,4187.179385,4198.461436,4194.871692,4200.512718,4204.102461,4193.846051,4210.256307,4164.102462,4246.153742,4200.512718
49,0,4160.512719,4169.230667,4177.948616,4153.846052,4149.743488,4167.179385,4158.974257,4173.333231,4167.179385,4151.28195,4174.871693,4123.589643,4225.128102,4171.281949
50,0,4154.358873,4156.922975,4165.128103,4142.051181,4134.871694,4160.512719,4155.384514,4167.692206,4163.076821,4142.564001,4164.615283,4115.897335,4217.435794,4168.205026
51,0,4171.281949,4173.846052,4176.922975,4152.820411,4144.615283,4163.076821,4162.05118,4168.205026,4173.846052,4157.948616,4176.922975,4132.820412,4226.666563,4180.512718
52,0,4209.743487,4220.512717,4222.563999,4197.435795,4188.205026,4197.435795,4198.461436,4199.487077,4207.179384,4202.564,4207.692205,4172.30759,4251.794768,4222.051179
53,0,4214.358871,4230.256307,4236.922973,4212.82041,4199.487077,4215.897333,4212.82041,4219.999897,4221.538358,4211.794769,4213.33323,4180.512718,4253.333229,4229.743486
54,0,4196.410154,4212.82041,4226.153743,4200.512718,4186.153744,4209.230666,4199.487077,4210.769128,4210.256307,4193.846051,4202.051179,4169.230667,4245.640922,4209.230666
55,0,4179.999898,4192.30759,4209.230666,4181.538359,4170.769129,4193.333231,4180.512718,4188.717846,4189.230667,4174.358872,4186.666564,4154.358873,4241.538358,4189.230667
56,0,4193.333231,4210.769128,4221.025538,4200.512718,4190.256308,4207.692205,4199.487077,4206.153743,4208.717846,4193.846051,4197.435795,4169.743488,4247.692204,4210.256307
57,0,4192.30759,4219.999897,4222.051179,4205.128102,4193.333231,4208.717846,4201.025538,4212.82041,4212.307589,4192.82041,4197.948615,4172.30759,4246.153742,4215.384512
58,0,4178.461436,4209.743487,4208.717846,4187.179385,4181.538359,4198.461436,4187.692205,4193.333231,4186.153744,4171.79477,4184.615282,4159.999898,4242.051178,4199.999897
59,0,4189.743487,4211.794769,4214.358871,4188.717846,4188.205026,4203.07682,4192.30759,4191.794769,4189.230667,4178.974257,4190.769128,4170.256308,4244.10246,4210.256307
60,0,4228.717845,4250.256306,4250.256306,4229.230666,4221.538358,4230.256307,4222.563999,4222.051179,4229.230666,4221.025538,4221.538358,4209.230666,4262.051178,4250.256306
61,0,4244.615281,4268.205024,4263.076819,4244.10246,4232.307589,4239.487076,4231.281948,4235.384512,4242.563999,4240.512717,4233.84605,4225.128102,4273.846049,4263.589639
62,0,4236.410153,4257.948614,4252.820409,4232.307589,4225.128102,4227.692204,4219.999897,4224.102461,4223.07682,4228.717845,4229.230666,4215.897333,4271.281947,4255.897332
63,0,4235.384512,4258.974255,4253.333229,4238.974255,4232.307589,4233.33323,4225.128102,4224.615281,4219.487076,4228.717845,4231.794768,4218.974256,4270.256306,4259.487075
64,0,4222.051179,4245.128101,4243.58964,4229.230666,4224.615281,4231.794768,4221.025538,4219.487076,4215.897333,4216.410153,4219.487076,4205.640923,4263.076819,4242.051178
65,0,4199.999897,4218.461435,4224.102461,4198.974256,4202.051179,4207.692205,4197.948615,4206.153743,4208.205025,4193.333231,4198.974256,4178.461436,4248.205024,4218.974256
66,0,4179.487077,4195.384513,4204.102461,4172.820411,4177.435795,4179.999898,4170.769129,4188.205026,4189.743487,4169.743488,4182.05118,4155.897334,4235.384512,4200.512718
67,0,4162.564001,4176.410154,4188.205026,4159.999898,4165.640924,4170.256308,4159.487078,4173.846052,4167.692206,4157.435796,4170.256308,4144.102463,4228.717845,4181.538359
68,0,4138.461437,4147.179386,4165.640924,4134.358873,4148.717847,4151.79477,4143.076822,4155.384514,4147.692206,4132.820412,4152.820411,4122.051181,4212.82041,4155.384514
69,0,4150.769129,4158.461437,4176.922975,4144.615283,4155.897334,4151.79477,4146.666565,4163.589642,4162.05118,4139.487078,4162.564001,4134.358873,4219.487076,4173.846052
70,0,4168.205026,4171.79477,4186.666564,4158.974257,4159.999898,4155.897334,4151.28195,4167.692206,4166.153744,4153.333232,4173.333231,4148.717847,4232.307589,4193.846051
71,0,4179.999898,4183.076821,4197.948615,4169.230667,4171.281949,4162.564001,4165.128103,4175.384513,4170.769129,4164.102462,4183.589641,4161.025539,4237.435794,4205.640923
72,0,4170.256308,4175.384513,4192.30759,4158.461437,4166.153744,4152.307591,4160.512719,4171.281949,4165.640924,4144.615283,4175.384513,4151.79477,4230.256307,4194.358872
73,0,4169.743488,4173.846052,4189.743487,4158.461437,4165.640924,4154.358873,4160.512719,4174.358872,4167.179385,4142.564001,4172.820411,4150.769129,4233.84605,4192.82041
74,0,4168.205026,4163.589642,4188.717846,4157.435796,4157.948616,4146.153745,4153.846052,4170.769129,4158.974257,4142.564001,4169.743488,4148.205027,4232.307589,4190.256308
75,0,4187.692205,4187.692205,4215.384512,4183.076821,4179.487077,4161.025539,4174.358872,4178.461436,4167.179385,4161.025539,4183.589641,4167.179385,4239.999896,4210.769128
76,0,4194.871692,4202.564,4218.461435,4190.769128,4190.769128,4175.384513,4182.05118,4183.589641,4182.564,4174.358872,4190.256308,4171.79477,4246.666563,4217.435794
77,0,4182.05118,4188.205026,4201.025538,4177.435795,4182.05118,4173.846052,4171.79477,4182.564,4187.692205,4169.230667,4187.179385,4159.999898,4244.10246,4206.153743
78,0,4173.846052,4179.487077,4197.435795,4169.230667,4176.410154,4165.128103,4164.102462,4175.384513,4176.410154,4162.564001,4185.128103,4156.922975,4241.538358,4200.512718
79,0,4178.461436,4191.794769,4203.07682,4173.846052,4181.538359,4168.717847,4168.717847,4176.410154,4173.846052,4171.79477,4187.692205,4167.692206,4244.10246,4207.179384
80,0,4167.179385,4179.487077,4185.128103,4158.974257,4166.666565,4162.05118,4157.435796,4171.79477,4168.717847,4164.102462,4177.948616,4151.28195,4235.384512,4190.769128
81,0,4150.769129,4161.025539,4167.692206,4142.564001,4149.743488,4150.256309,4145.128104,4155.897334,4154.871693,4143.076822,4166.153744,4123.076822,4226.153743,4171.281949
82,0,4170.256308,4188.205026,4189.230667,4171.281949,4171.79477,4168.717847,4167.692206,4170.256308,4169.743488,4164.615283,4181.538359,4142.564001,4240.512717,4192.82041
83,0,4183.589641,4205.128102,4201.025538,4190.256308,4185.128103,4183.589641,4183.589641,4186.666564,4183.076821,4178.974257,4178.461436,4154.871693,4248.205024,4203.07682
84,0,4171.281949,4187.692205,4185.128103,4175.384513,4169.230667,4173.333231,4170.256308,4176.922975,4172.30759,4162.564001,4151.79477,4130.76913,4237.948614,4186.666564
85,0,4165.128103,4178.974257,4177.435795,4167.179385,4155.384514,4161.025539,4157.948616,4167.692206,4167.179385,4151.79477,4143.076822,4118.974258,4234.358871,4178.461436
86,0,4182.564,4195.897333,4196.410154,4188.205026,4171.281949,4174.358872,4173.846052,4186.153744,4186.666564,4173.846052,4161.025539,4142.051181,4245.128101,4196.922974
87,0,4181.538359,4187.179385,4193.846051,4182.05118,4172.30759,4175.384513,4174.871693,4182.564,4179.487077,4170.256308,4154.871693,4132.820412,4238.974255,4192.82041
88,0,4187.692205,4192.30759,4194.358872,4184.102462,4179.487077,4185.640923,4182.05118,4187.692205,4185.640923,4178.974257,4157.435796,4130.76913,4240.512717,4197.435795
89,0,4189.743487,4195.384513,4192.30759,4184.102462,4181.025539,4189.743487,4183.076821,4193.846051,4191.281949,4182.564,4164.615283,4137.435796,4245.128101,4199.999897
90,0,4194.358872,4198.974256,4196.410154,4187.692205,4187.179385,4195.897333,4189.743487,4196.922974,4193.333231,4185.640923,4169.230667,4139.999899,4247.692204,4200.512718
91,0,4195.897333,4197.948615,4196.410154,4186.666564,4187.179385,4192.30759,4189.230667,4193.846051,4195.384513,4188.205026,4165.640924,4134.871694,4240.512717,4191.281949
92,0,4205.128102,4214.358871,4207.179384,4201.025538,4197.948615,4195.897333,4191.794769,4199.487077,4201.025538,4198.461436,4174.871693,4147.179386,4245.640922,4198.974256
93,0,4194.871692,4205.128102,4198.461436,4191.794769,4188.205026,4186.153744,4178.974257,4187.179385,4184.615282,4178.974257,4172.30759,4134.871694,4243.58964,4191.281949
94,0,4196.410154,4202.564,4202.564,4193.333231,4187.179385,4192.30759,4188.717846,4192.82041,4189.230667,4178.461436,4176.922975,4133.846053,4244.615281,4194.358872
95,0,4198.461436,4203.07682,4205.640923,4195.384513,4185.128103,4192.82041,4192.82041,4198.974256,4191.794769,4179.487077,4175.897334,4139.999899,4242.051178,4191.794769
96,0,4203.589641,4207.692205,4211.794769,4202.051179,4189.743487,4187.692205,4192.30759,4196.922974,4191.794769,4178.974257,4177.948616,4144.102463,4244.615281,4195.897333
97,0,4216.410153,4214.871692,4223.58964,4214.871692,4194.871692,4186.153744,4194.871692,4202.051179,4205.640923,4191.794769,4187.692205,4147.179386,4254.871691,4208.205025
98,0,4214.358871,4213.846051,4222.563999,4212.82041,4190.769128,4189.743487,4195.897333,4205.128102,4205.640923,4194.871692,4189.743487,4145.128104,4254.35887,4207.179384
99,0,4198.461436,4201.538359,4208.205025,4196.410154,4179.999898,4188.205026,4187.179385,4196.410154,4186.666564,4180.512718,4183.589641,4134.358873,4245.128101,4194.871692
100,0,4203.589641,4204.615282,4208.717846,4199.999897,4184.102462,4193.333231,4192.82041,4198.974256,4189.230667,4181.025539,4183.589641,4131.28195,4242.563999,4199.487077
101,0,4224.102461,4227.179384,4226.666563,4224.615281,4205.640923,4211.281948,4214.871692,4218.461435,4214.871692,4205.128102,4194.358872,4149.743488,4248.717845,4216.922974
102,0,4228.717845,4236.410153,4234.358871,4235.897332,4217.435794,4225.128102,4229.230666,4225.640922,4227.692204,4217.435794,4202.051179,4166.666565,4257.435793,4222.563999
103,0,4235.384512,4245.640922,4237.948614,4242.051178,4228.717845,4235.384512,4234.871691,4231.281948,4235.897332,4229.743486,4211.281948,4176.922975,4265.128101,4233.84605
104,0,4217.435794,4228.717845,4216.922974,4219.999897,4212.82041,4214.871692,4207.179384,4213.33323,4209.230666,4206.153743,4193.846051,4148.205027,4245.640922,4212.307589
105,0,4204.615282,4217.435794,4208.717846,4213.846051,4203.589641,4205.640923,4197.948615,4199.999897,4193.333231,4188.205026,4182.564,4130.256309,4237.948614,4194.358872
106,0,4206.666564,4217.435794,4213.33323,4224.102461,4202.564,4207.692205,4206.666564,4204.615282,4205.128102,4191.794769,4186.153744,4135.897335,4248.205024,4199.487077
107,0,4227.179384,4236.410153,4230.769127,4244.615281,4222.051179,4223.58964,4222.563999,4223.07682,4225.128102,4215.384512,4201.538359,4156.922975,4259.999896,4223.07682
108,0,4234.358871,4247.692204,4239.487076,4251.281947,4236.922973,4238.461435,4233.84605,4234.358871,4235.384512,4228.717845,4209.230666,4164.102462,4263.076819,4231.794768
109,0,4255.897332,4273.846049,4265.128101,4280.512716,4260.512716,4268.205024,4268.205024,4267.179383,4275.897331,4266.153742,4235.897332,4193.333231,4278.974254,4261.025537
110,0,4259.487075,4272.820408,4265.640921,4282.563998,4257.435793,4261.025537,4264.61528,4267.179383,4278.461434,4273.846049,4241.025537,4201.025538,4280.512716,4263.076819
111,0,4244.615281,4255.384511,4248.717845,4260.512716,4237.435794,4236.922973,4236.410153,4241.538358,4242.051178,4251.281947,4225.640922,4185.128103,4272.820408,4241.025537
112,0,4225.640922,4232.820409,4231.794768,4235.384512,4208.205025,4217.948615,4211.281948,4224.102461,4218.974256,4223.07682,4210.769128,4164.615283,4262.563998,4220.512717
113,0,4228.205025,4229.743486,4230.769127,4230.256307,4205.128102,4221.538358,4213.33323,4223.07682,4226.666563,4219.999897,4213.33323,4167.179385,4261.025537,4224.615281
114,0,4225.128102,4221.538358,4226.666563,4222.563999,4207.692205,4217.948615,4208.205025,4211.281948,4217.435794,4215.897333,4211.794769,4169.743488,4263.589639,4225.640922
115,0,4223.07682,4221.025538,4231.794768,4224.615281,4211.281948,4212.82041,4208.205025,4210.769128,4211.794769,4218.974256,4213.33323,4174.871693,4265.640921,4229.230666
116,0,4228.717845,4226.153743,4239.999896,4230.769127,4211.281948,4214.871692,4214.871692,4220.512717,4222.563999,4226.666563,4218.974256,4179.999898,4263.589639,4237.948614
117,0,4237.948614,4231.281948,4245.128101,4234.871691,4209.743487,4221.025538,4219.487076,4219.999897,4225.128102,4224.102461,4222.563999,4180.512718,4267.692203,4244.10246
118,0,4233.33323,4224.615281,4234.871691,4224.102461,4201.538359,4211.794769,4206.153743,4208.717846,4212.82041,4212.82041,4215.384512,4167.179385,4264.10246,4230.769127
119,0,4200.512718,4192.30759,4201.538359,4188.205026,4179.999898,4186.153744,4178.461436,4187.179385,4186.153744,4182.05118,4191.794769,4135.384514,4243.076819,4196.922974
120,0,4181.025539,4172.820411,4187.692205,4169.230667,4168.205026,4176.410154,4170.769129,4179.999898,4176.410154,4165.128103,4175.384513,4118.461438,4233.84605,4183.589641
121,0,4190.256308,4181.025539,4197.948615,4178.461436,4171.79477,4181.025539,4181.025539,4187.692205,4180.512718,4168.717847,4174.358872,4117.435797,4237.435794,4187.692205
122,0,4218.974256,4216.410153,4221.538358,4210.256307,4198.974256,4204.615282,4206.666564,4210.256307,4198.974256,4196.922974,4194.358872,4131.794771,4249.743486,4207.692205
123,0,4214.871692,4215.384512,4215.897333,4210.256307,4196.922974,4204.102461,4203.589641,4205.640923,4197.948615,4193.846051,4195.384513,4118.461438,4250.769127,4204.102461
124,0,4209.230666,4208.205025,4213.33323,4209.230666,4193.846051,4198.974256,4197.435795,4202.564,4203.07682,4190.256308,4189.743487,4111.794771,4251.794768,4203.07682
125,0,4213.33323,4215.897333,4218.461435,4216.410153,4206.153743,4207.179384,4202.564,4208.717846,4207.179384,4197.948615,4193.333231,4121.02554,4251.794768,4212.307589
126,0,4228.717845,4242.051178,4237.948614,4237.948614,4231.794768,4232.820409,4224.102461,4229.230666,4226.153743,4230.769127,4219.999897,4144.615283,4264.10246,4234.358871
127,0,4225.128102,4237.435794,4231.281948,4231.794768,4224.615281,4226.153743,4215.897333,4225.640922,4230.769127,4232.820409,4221.025538,4137.948617,4263.589639,4230.769127
128,0,4219.487076,4228.717845,4218.974256,4223.58964,4219.487076,4216.410153,4203.589641,4216.922974,4223.58964,4221.025538,4208.205025,4129.230668,4256.410152,4224.615281
0,0,4204.615282,4212.82041,4206.153743,4207.179384,4211.794769,4205.128102,4191.281949,4205.640923,4205.128102,4205.128102,4198.974256,4119.487079,4248.205024,4212.307589
1,0,4201.538359,4209.743487,4208.205025,4203.07682,4214.358871,4206.666564,4195.897333,4203.589641,4204.615282,4205.128102,4201.025538,4119.487079,4251.281947,4208.205025
2,0,4194.358872,4197.948615,4195.897333,4190.256308,4206.153743,4195.897333,4186.666564,4193.333231,4198.461436,4193.846051,4190.769128,4109.230669,4246.666563,4194.871692
3,0,4186.153744,4187.692205,4184.102462,4177.435795,4192.82041,4181.538359,4172.820411,4180.512718,4183.076821,4177.948616,4183.076821,4099.487079,4238.974255,4184.615282
4,0,4179.999898,4177.948616,4179.487077,4168.717847,4178.974257,4171.79477,4159.999898,4172.820411,4167.692206,4162.05118,4174.358872,4089.230669,4231.281948,4172.820411
5,0,4175.897334,4173.846052,4178.974257,4167.692206,4176.922975,4170.256308,4158.461437,4173.333231,4168.205026,4153.333232,4167.692206,4088.205028,4225.640922,4165.640924
6,0,4166.666565,4168.205026,4172.30759,4161.025539,4173.333231,4164.615283,4155.897334,4173.846052,4172.30759,4149.743488,4165.640924,4088.717849,4222.563999,4165.128103
7,0,4174.871693,4176.922975,4177.948616,4165.128103,4185.128103,4174.871693,4172.30759,4182.564,4179.999898,4162.564001,4172.820411,4097.435797,4231.794768,4177.948616
8,0,4191.281949,4194.871692,4193.333231,4183.589641,4204.615282,4192.30759,4191.794769,4200.512718,4190.769128,4182.05118,4184.615282,4113.333233,4244.615281,4189.230667
9,0,4176.410154,4183.076821,4183.076821,4173.846052,4188.717846,4181.025539,4176.922975,4192.30759,4175.897334,4165.640924,4176.410154,4103.076823,4235.384512,4170.769129
10,0,4176.410154,4181.025539,4181.025539,4172.30759,4184.615282,4181.538359,4174.871693,4190.256308,4175.897334,4165.128103,4180.512718,4107.179387,4234.358871,4180.512718
11,0,4194.358872,4195.897333,4191.794769,4187.179385,4202.051179,4195.897333,4187.692205,4199.487077,4191.794769,4181.025539,4193.846051,4122.564002,4244.615281,4203.07682
12,0,4195.384513,4202.051179,4191.281949,4191.794769,4205.128102,4198.974256,4188.205026,4197.948615,4196.410154,4184.615282,4191.794769,4121.02554,4245.640922,4194.871692
13,0,4176.410154,4183.589641,4176.410154,4172.820411,4184.102462,4185.640923,4171.79477,4179.487077,4176.410154,4165.640924,4170.769129,4098.461438,4234.358871,4168.205026
14,0,4207.692205,4213.33323,4205.128102,4201.538359,4215.897333,4213.846051,4203.589641,4203.589641,4201.538359,4201.025538,4193.846051,4130.76913,4250.256306,4204.102461
15,0,4232.820409,4243.076819,4226.666563,4228.205025,4245.128101,4236.922973,4229.743486,4228.205025,4233.84605,4236.410153,4220.512717,4165.640924,4263.589639,4235.384512
16,0,4233.33323,4252.820409,4234.871691,4236.410153,4255.897332,4243.58964,4236.410153,4237.948614,4246.666563,4249.230665,4228.717845,4176.410154,4268.205024,4242.051178
17,0,4224.102461,4244.10246,4230.769127,4230.256307,4252.820409,4239.487076,4234.871691,4233.84605,4242.563999,4244.10246,4225.128102,4169.743488,4267.692203,4235.897332
18,0,4228.717845,4244.615281,4229.230666,4232.307589,4253.84605,4243.58964,4239.999896,4236.410153,4242.051178,4247.179383,4230.256307,4175.384513,4270.256306,4237.948614
19,0,4217.435794,4226.153743,4213.846051,4214.358871,4235.897332,4226.153743,4217.435794,4222.051179,4224.102461,4228.717845,4216.922974,4161.53836,4259.487075,4218.461435
20,0,4206.666564,4212.307589,4204.615282,4201.538359,4221.538358,4208.717846,4196.410154,4207.692205,4210.256307,4208.205025,4201.538359,4146.666565,4252.307588,4207.692205
21,0,4201.025538,4204.615282,4198.974256,4193.333231,4212.82041,4197.948615,4187.179385,4197.948615,4199.487077,4198.974256,4194.871692,4139.999899,4250.769127,4205.640923
22,0,4203.589641,4204.102461,4203.07682,4191.794769,4215.384512,4201.538359,4192.30759,4202.051179,4199.999897,4210.256307,4202.051179,4146.666565,4252.307588,4206.153743
23,0,4210.256307,4205.128102,4208.205025,4195.897333,4215.897333,4205.640923,4193.846051,4205.128102,4204.615282,4214.358871,4208.205025,4153.333232,4255.384511,4210.769128
24,0,4226.666563,4224.615281,4221.025538,4216.410153,4235.384512,4223.58964,4213.33323,4213.33323,4218.974256,4224.615281,4216.922974,4165.640924,4268.205024,4230.256307
25,0,4234.871691,4240.512717,4234.358871,4231.794768,4255.897332,4238.974255,4231.281948,4227.179384,4237.435794,4243.58964,4228.717845,4176.922975,4274.35887,4240.512717
26,0,4228.717845,4235.897332,4232.307589,4226.666563,4247.692204,4232.307589,4221.538358,4221.025538,4231.281948,4237.435794,4227.692204,4173.333231,4267.692203,4230.256307
27,0,4231.794768,4235.384512,4229.743486,4223.07682,4242.051178,4232.307589,4216.410153,4212.82041,4222.051179,4227.692204,4224.615281,4171.281949,4264.61528,4233.84605
28,0,4231.794768,4234.358871,4228.717845,4221.538358,4247.692204,4240.512717,4225.128102,4216.410153,4221.538358,4228.205025,4223.58964,4168.205026,4264.10246,4236.410153
29,0,4233.84605,4241.025537,4232.820409,4229.743486,4261.025537,4248.205024,4232.307589,4228.717845,4232.307589,4242.051178,4229.743486,4171.281949,4268.717844,4232.820409
30,0,4226.153743,4234.358871,4224.102461,4223.58964,4252.820409,4244.10246,4221.025538,4221.538358,4223.58964,4231.794768,4227.179384,4166.153744,4265.128101,4224.615281
31,0,4218.461435,4226.153743,4216.410153,4215.384512,4240.512717,4237.435794,4211.281948,4209.230666,4209.743487,4218.974256,4221.025538,4158.974257,4260.512716,4225.128102
32,0,4206.153743,4213.33323,4204.102461,4198.974256,4224.615281,4216.410153,4197.948615,4195.384513,4194.358872,4206.153743,4208.205025,4139.999899,4253.333229,4209.743487
33,0,4228.717845,4237.948614,4225.128102,4219.487076,4244.10246,4231.281948,4217.435794,4215.897333,4213.33323,4230.256307,4222.563999,4162.05118,4266.153742,4228.717845
34,0,4232.820409,4238.461435,4230.769127,4225.128102,4246.666563,4234.358871,4219.999897,4220.512717,4218.461435,4229.230666,4225.128102,4172.820411,4267.692203,4238.461435
35,0,4222.051179,4229.230666,4227.179384,4220.512717,4243.076819,4223.07682,4212.307589,4215.897333,4213.33323,4221.025538,4223.07682,4168.205026,4266.666562,4230.769127
36,0,4219.999897,4227.179384,4228.205025,4217.948615,4243.076819,4219.487076,4208.205025,4218.974256,4212.307589,4226.153743,4224.102461,4167.692206,4268.717844,4221.538358
37,0,4227.179384,4230.769127,4230.769127,4219.487076,4242.563999,4228.205025,4215.897333,4223.07682,4215.897333,4230.769127,4227.179384,4173.846052,4269.230665,4229.230666
38,0,4211.281948,4212.82041,4212.307589,4202.051179,4223.07682,4211.281948,4198.461436,4205.128102,4201.538359,4211.794769,4213.33323,4154.871693,4258.461434,4218.974256
39,0,4195.897333,4201.025538,4201.538359,4189.230667,4217.948615,4197.435795,4183.589641,4196.922974,4198.974256,4203.07682,4201.025538,4141.02554,4251.281947,4209.230666
40,0,4184.102462,4187.692205,4190.256308,4173.333231,4207.179384,4187.179385,4174.871693,4191.281949,4193.333231,4193.333231,4193.333231,4134.358873,4244.10246,4200.512718
41,0,4195.897333,4197.435795,4196.410154,4183.076821,4209.743487,4196.410154,4189.230667,4195.897333,4194.358872,4198.461436,4202.051179,4141.02554,4248.717845,4206.666564
42,0,4215.897333,4216.410153,4211.794769,4205.128102,4228.717845,4208.717846,4202.564,4209.743487,4208.205025,4218.461435,4213.846051,4153.333232,4254.871691,4218.974256
43,0,4202.051179,4202.564,4203.07682,4190.256308,4221.538358,4192.30759,4185.640923,4197.948615,4194.871692,4200.512718,4197.948615,4139.999899,4245.640922,4203.589641
44,0,4176.410154,4178.461436,4184.102462,4164.615283,4201.025538,4173.333231,4166.153744,4175.897334,4170.769129,4170.769129,4178.461436,4114.871694,4233.33323,4174.871693
45,0,4178.974257,4182.564,4185.640923,4169.743488,4204.615282,4185.640923,4176.410154,4177.435795,4176.410154,4182.05118,4184.615282,4115.897335,4235.384512,4179.999898
46,0,4201.025538,4208.205025,4204.615282,4195.897333,4227.692204,4208.717846,4196.922974,4197.435795,4200.512718,4216.410153,4205.128102,4139.999899,4252.820409,4213.33323
47,0,4187.692205,4195.384513,4190.769128,4184.615282,4214.871692,4193.846051,4179.487077,4190.256308,4190.256308,4204.102461,4193.333231,4128.717848,4251.281947,4200.512718
48,0,4165.128103,4168.717847,4169.230667,4162.564001,4193.333231,4175.384513,4158.974257,4177.435795,4174.358872,4179.999898,4173.333231,4107.179387,4237.435794,4174.358872
49,0,4155.897334,4161.025539,4158.461437,4151.79477,4188.205026,4169.743488,4154.358873,4166.153744,4159.487078,4165.640924,4167.179385,4095.384515,4229.230666,4164.615283
50,0,4174.871693,4189.230667,4176.410154,4174.358872,4210.256307,4188.717846,4172.820411,4176.922975,4169.743488,4184.615282,4186.666564,4112.820412,4240.512717,4180.512718
51,0,4183.589641,4192.82041,4182.05118,4181.538359,4209.743487,4194.871692,4172.820411,4184.102462,4180.512718,4188.717846,4192.30759,4119.999899,4243.076819,4184.615282
52,0,4197.948615,4202.051179,4192.82041,4192.82041,4216.922974,4209.230666,4188.717846,4201.538359,4197.948615,4198.974256,4198.974256,4133.333232,4250.256306,4201.538359
53,0,4208.205025,4216.410153,4203.589641,4204.102461,4227.179384,4219.487076,4205.128102,4206.666564,4202.564,4208.717846,4205.128102,4139.999899,4257.435793,4209.743487
54,0,4223.58964,4235.384512,4224.615281,4223.58964,4242.563999,4234.871691,4221.538358,4215.897333,4216.410153,4229.230666,4216.410153,4155.384514,4265.128101,4225.128102
55,0,4229.230666,4234.358871,4227.179384,4226.666563,4242.563999,4236.410153,4223.58964,4223.58964,4226.153743,4233.84605,4217.435794,4160.512719,4266.153742,4235.384512
56,0,4247.692204,4254.871691,4239.999896,4244.615281,4262.563998,4254.35887,4248.205024,4242.051178,4248.717845,4256.922973,4236.922973,4176.410154,4275.384511,4252.307588
57,0,4254.871691,4270.769126,4248.717845,4253.333229,4270.769126,4268.205024,4261.025537,4252.820409,4261.538357,4277.948613,4250.769127,4185.128103,4278.461434,4251.794768
58,0,4254.35887,4268.205024,4249.230665,4250.769127,4258.974255,4266.153742,4251.794768,4250.256306,4254.35887,4275.897331,4245.128101,4183.589641,4282.051177,4243.58964
59,0,4257.948614,4266.153742,4245.640922,4253.333229,4252.820409,4261.025537,4246.153742,4241.025537,4246.153742,4269.743485,4239.487076,4182.05118,4284.102459,4239.999896
60,0,4275.384511,4289.743485,4261.538357,4279.487075,4275.897331,4282.563998,4267.692203,4254.35887,4266.666562,4290.769126,4258.461434,4204.615282,4294.87169,4261.538357
61,0,4288.717844,4303.076818,4273.846049,4290.769126,4288.205023,4295.38451,4271.794767,4270.256306,4282.563998,4301.025536,4269.230665,4223.58964,4304.615279,4280.512716
62,0,4283.589639,4289.743485,4262.563998,4273.846049,4274.87169,4283.589639,4258.461434,4262.563998,4271.281947,4284.102459,4258.974255,4214.871692,4297.948613,4271.794767
63,0,4284.61528,4288.717844,4263.076819,4275.384511,4274.87169,4268.717844,4265.640921,4264.10246,4277.435793,4287.692203,4262.563998,4214.358871,4295.38451,4272.307588
64,0,4293.333228,4295.897331,4274.35887,4283.076818,4283.589639,4238.974255,4273.333229,4270.256306,4277.435793,4292.307587,4267.692203,4217.435794,4298.974254,4277.435793
65,0,4306.153741,4304.102459,4285.640921,4286.666562,4290.769126,4215.897333,4274.87169,4273.846049,4271.794767,4297.948613,4275.384511,4228.717845,4302.563997,4289.743485
66,0,4313.846048,4313.846048,4291.794767,4298.461433,4295.897331,4213.33323,4279.487075,4278.461434,4287.692203,4308.717843,4287.179382,4244.615281,4305.64092,4305.1281
67,0,4337.435791,4341.025535,4313.846048,4329.230663,4324.102458,4229.743486,4305.1281,4300.512715,4319.999894,4337.948612,4304.615279,4269.230665,4321.025535,4328.717843
68,0,4341.538355,4337.435791,4314.358869,4321.025535,4325.64092,4222.051179,4302.563997,4293.333228,4304.615279,4334.358868,4296.410151,4264.10246,4317.948612,4321.025535
69,0,4337.435791,4330.769125,4309.743484,4310.769125,4315.89733,4216.410153,4293.846049,4283.076818,4289.230664,4322.563997,4292.820408,4257.435793,4313.333228,4312.307587
70,0,4329.743484,4330.256304,4305.1281,4310.769125,4312.307587,4212.82041,4296.410151,4290.256305,4302.051177,4319.999894,4295.38451,4257.435793,4317.948612,4310.769125
71,0,4331.794766,4333.846048,4305.1281,4314.871689,4320.512715,4218.974256,4310.769125,4304.615279,4316.922971,4332.307586,4299.487074,4264.61528,4322.051176,4320.512715
72,0,4313.846048,4306.666561,4277.948613,4285.640921,4295.897331,4201.538359,4285.1281,4279.999895,4287.692203,4308.717843,4278.461434,4239.487076,4307.692202,4296.922972
73,0,4302.051177,4295.897331,4268.205024,4271.281947,4279.999895,4187.179385,4268.205024,4263.589639,4272.307588,4289.743485,4268.717844,4225.640922,4304.615279,4277.435793
74,0,4284.61528,4284.102459,4262.051178,4259.487075,4268.205024,4171.281949,4259.999896,4258.461434,4272.307588,4275.384511,4258.974255,4212.307589,4296.410151,4261.538357
75,0,4273.333229,4264.61528,4247.179383,4245.640922,4253.84605,4156.410155,4247.179383,4247.179383,4255.384511,4257.435793,4243.076819,4195.384513,4278.461434,4245.640922
76,0,4262.563998,4246.153742,4230.769127,4230.256307,4232.820409,4139.999899,4223.07682,4223.07682,4217.948615,4230.769127,4226.153743,4181.025539,4267.179383,4230.256307
77,0,4246.666563,4260.512716,4246.666563,4240.512717,4238.974255,4151.28195,4230.769127,4227.692204,4225.128102,4236.922973,4234.871691,4194.871692,4274.87169,4243.076819
78,0,4232.307589,4278.461434,4265.640921,4259.999896,4259.487075,4170.256308,4245.640922,4248.205024,4256.922973,4261.025537,4251.281947,4209.743487,4283.589639,4257.948614
79,0,4243.076819,4291.281946,4271.794767,4271.794767,4277.948613,4184.615282,4255.897332,4253.333229,4261.538357,4274.35887,4257.435793,4214.871692,4290.256305,4266.666562
80,0,4256.922973,4302.563997,4276.410152,4275.384511,4281.025536,4199.487077,4268.205024,4256.922973,4259.487075,4284.61528,4261.538357,4224.102461,4295.897331,4280.512716
81,0,4261.538357,4316.922971,4290.769126,4289.230664,4285.640921,4215.897333,4281.025536,4274.35887,4281.025536,4300.512715,4275.384511,4239.999896,4307.692202,4302.051177
82,0,4282.563998,4345.128099,4313.846048,4322.051176,4317.435792,4240.512717,4300.512715,4299.487074,4312.820407,4331.794766,4299.487074,4266.153742,4324.102458,4330.769125
83,0,4287.179382,4351.794765,4313.846048,4325.64092,4327.179381,4244.10246,4303.076818,4296.922972,4306.666561,4334.358868,4296.410151,4268.717844,4321.538356,4327.179381
84,0,4277.435793,4344.102458,4310.769125,4315.38451,4315.38451,4236.410153,4299.487074,4289.230664,4294.87169,4322.051176,4285.1281,4257.948614,4314.358869,4312.307587
85,0,4258.461434,4319.487074,4296.922972,4295.38451,4292.307587,4223.07682,4284.61528,4276.922972,4285.1281,4297.435792,4271.794767,4239.487076,4304.102459,4295.38451
86,0,4259.999896,4319.487074,4297.435792,4297.435792,4293.846049,4225.128102,4282.051177,4273.333229,4285.640921,4296.410151,4271.281947,4244.10246,4304.102459,4298.974254
87,0,4257.948614,4315.38451,4294.358869,4293.846049,4289.743485,4215.897333,4272.820408,4265.128101,4274.35887,4291.281946,4265.128101,4236.922973,4303.589638,4289.743485
88,0,4252.820409,4301.538356,4290.256305,4286.153741,4282.563998,4210.769128,4264.10246,4267.692203,4272.820408,4286.153741,4264.10246,4226.153743,4302.051177,4286.153741
89,0,4226.666563,4263.589639,4261.538357,4250.256306,4247.179383,4187.179385,4235.384512,4248.717845,4250.256306,4253.84605,4246.666563,4197.948615,4281.025536,4253.84605
90,0,4212.307589,4245.640922,4240.512717,4225.640922,4227.179384,4170.769129,4223.07682,4227.179384,4227.179384,4231.794768,4230.256307,4178.974257,4268.717844,4206.666564
91,0,4205.128102,4240.512717,4229.230666,4214.871692,4224.615281,4165.640924,4215.897333,4213.846051,4214.871692,4223.58964,4219.999897,4171.281949,4265.640921,4172.30759
92,0,4210.769128,4245.128101,4232.820409,4216.410153,4232.307589,4176.410154,4221.025538,4225.640922,4228.205025,4232.307589,4229.743486,4182.05118,4268.717844,4177.435795
93,0,4210.256307,4236.922973,4226.153743,4208.205025,4221.025538,4170.769129,4218.974256,4222.563999,4231.794768,4228.205025,4230.769127,4180.512718,4269.743485,4177.948616
94,0,4213.33323,4237.948614,4224.102461,4210.256307,4217.435794,4166.666565,4221.538358,4213.846051,4222.051179,4227.692204,4226.666563,4174.358872,4271.794767,4175.384513
95,0,4213.33323,4236.922973,4226.153743,4210.769128,4218.461435,4169.743488,4218.461435,4215.384512,4212.82041,4227.179384,4222.051179,4170.769129,4268.205024,4175.384513
96,0,4232.820409,4256.410152,4250.769127,4232.820409,4239.999896,4193.846051,4239.487076,4235.897332,4230.769127,4243.58964,4230.256307,4193.333231,4274.87169,4199.999897
97,0,4254.35887,4276.922972,4267.692203,4255.897332,4257.948614,4207.692205,4257.948614,4251.281947,4247.179383,4267.179383,4238.461435,4211.281948,4285.1281,4223.07682
98,0,4251.281947,4272.307588,4261.538357,4249.230665,4248.717845,4197.948615,4252.307588,4251.281947,4243.076819,4267.179383,4239.999896,4207.179384,4288.205023,4223.58964
99,0,4246.666563,4267.692203,4260.512716,4241.538358,4247.179383,4198.974256,4249.743486,4248.717845,4243.58964,4257.435793,4238.974255,4203.589641,4290.769126,4223.58964
100,0,4255.384511,4278.461434,4267.179383,4254.871691,4264.10246,4213.846051,4263.076819,4250.256306,4250.769127,4262.563998,4236.922973,4213.33323,4290.769126,4232.820409
101,0,4271.281947,4290.256305,4273.846049,4270.769126,4277.435793,4227.179384,4274.35887,4264.10246,4262.563998,4279.487075,4250.769127,4232.820409,4293.846049,4246.153742
102,0,4267.692203,4278.974254,4265.128101,4254.871691,4265.128101,4219.487076,4261.538357,4255.384511,4251.281947,4262.563998,4248.205024,4229.743486,4292.307587,4239.999896
103,0,4272.307588,4282.563998,4268.717844,4255.897332,4263.076819,4214.871692,4258.974255,4249.230665,4245.128101,4258.974255,4245.640922,4230.256307,4296.922972,4246.666563
104,0,4284.102459,4296.410151,4281.538357,4272.307588,4272.820408,4216.410153,4265.640921,4259.999896,4260.512716,4273.333229,4254.35887,4237.435794,4302.051177,4253.84605
105,0,4312.307587,4333.846048,4319.487074,4312.307587,4309.743484,4249.743486,4296.410151,4293.333228,4303.076818,4316.410151,4281.538357,4275.897331,4319.999894,4280.512716
106,0,4306.666561,4338.974253,4324.102458,4318.974253,4313.846048,4255.384511,4301.538356,4292.820408,4297.435792,4322.051176,4281.025536,4282.563998,4322.563997,4286.666562
107,0,4299.999895,4337.435791,4321.025535,4319.487074,4312.307587,4254.35887,4307.179382,4295.38451,4290.256305,4321.025535,4284.102459,4278.974254,4323.076817,4293.846049
108,0,4306.153741,4344.615278,4331.281945,4326.15374,4319.999894,4262.051178,4316.410151,4308.205023,4312.307587,4330.769125,4294.358869,4285.1281,4327.692202,4302.563997
109,0,4315.89733,4362.051175,4345.640919,4342.051176,4337.948612,4277.435793,4330.256304,4317.948612,4331.794766,4350.769124,4301.025536,4298.974254,4336.41015,4313.846048
110,0,4295.38451,4340.512714,4318.974253,4322.563997,4321.538356,4266.666562,4315.38451,4299.999895,4305.64092,4333.333227,4285.1281,4282.563998,4325.128099,4298.461433
111,0,4290.769126,4333.846048,4308.717843,4312.307587,4317.948612,4266.666562,4313.333228,4298.461433,4298.461433,4324.102458,4283.589639,4280.512716,4319.999894,4302.051177
112,0,4294.87169,4341.538355,4314.871689,4314.358869,4325.128099,4270.256306,4317.948612,4306.666561,4315.89733,4333.846048,4288.717844,4285.640921,4324.102458,4311.794766
113,0,4297.948613,4346.15374,4321.538356,4318.974253,4331.794766,4275.384511,4324.102458,4313.333228,4324.615279,4345.128099,4293.333228,4291.281946,4331.794766,4316.922971
114,0,4301.538356,4341.538355,4327.692202,4319.487074,4330.769125,4277.948613,4324.615279,4313.333228,4319.487074,4345.128099,4297.435792,4298.461433,4334.358868,4317.948612
115,0,4299.999895,4336.41015,4330.769125,4320.512715,4326.666561,4272.820408,4320.512715,4311.281946,4318.974253,4342.051176,4296.922972,4296.922972,4331.794766,4317.435792
116,0,4285.1281,4323.589638,4313.846048,4307.179382,4314.871689,4259.999896,4299.999895,4298.461433,4309.743484,4328.205022,4281.538357,4273.333229,4320.512715,4301.025536
117,0,4268.205024,4308.717843,4292.820408,4288.717844,4305.64092,4260.512716,4290.769126,4284.102459,4291.281946,4309.230664,4265.640921,4251.281947,4308.205023,4279.999895
118,0,4275.384511,4316.922971,4302.051177,4301.025536,4317.435792,4276.410152,4312.820407,4301.538356,4304.102459,4322.051176,4277.435793,4267.179383,4315.38451,4292.307587
119,0,4286.666562,4329.230663,4315.38451,4316.410151,4327.692202,4281.538357,4323.076817,4314.358869,4318.974253,4331.794766,4285.640921,4281.025536,4324.615279,4302.563997
120,0,4296.922972,4341.538355,4321.538356,4326.666561,4339.487073,4286.666562,4321.025535,4312.307587,4320.512715,4334.871689,4287.692203,4284.102459,4326.15374,4303.589638
121,0,4296.410151,4337.435791,4316.922971,4322.051176,4338.461432,4283.076818,4318.461433,4303.589638,4310.256305,4325.128099,4287.179382,4282.563998,4320.512715,4306.666561
122,0,4301.025536,4341.025535,4322.051176,4326.15374,4342.563996,4287.179382,4327.179381,4311.794766,4315.89733,4331.794766,4294.87169,4293.333228,4324.615279,4323.589638
123,0,4282.563998,4321.538356,4309.230664,4306.666561,4323.076817,4272.820408,4308.205023,4295.897331,4298.461433,4311.794766,4279.487075,4274.35887,4314.871689,4299.999895
124,0,4280.512716,4321.538356,4311.794766,4306.153741,4316.410151,4269.743485,4304.615279,4284.102459,4287.179382,4302.051177,4271.794767,4267.179383,4314.358869,4285.1281
125,0,4293.333228,4337.948612,4322.051176,4323.076817,4324.615279,4278.974254,4313.846048,4292.307587,4300.512715,4312.820407,4277.948613,4276.922972,4321.025535,4296.922972
126,0,4305.64092,4355.384509,4334.871689,4339.999894,4344.615278,4296.922972,4324.102458,4313.333228,4328.205022,4337.948612,4292.307587,4289.743485,4327.692202,4316.410151
127,0,4284.102459,4328.205022,4315.89733,4314.871689,4323.076817,4272.820408,4301.025536,4294.358869,4306.153741,4315.89733,4273.846049,4254.871691,4313.846048,4289.743485
128,0,4277.435793,4314.871689,4307.692202,4304.102459,4305.64092,4254.35887,4291.281946,4281.538357,4290.256305,4300.512715,4266.666562,4234.871691,4306.666561,4275.384511
0,0,4271.794767,4308.205023,4299.999895,4297.948613,4294.87169,4248.205024,4281.025536,4281.025536,4293.333228,4298.461433,4268.205024,4242.051178,4304.102459,4275.384511
1,0,4263.589639,4300.512715,4291.281946,4286.153741,4290.256305,4245.640922,4276.410152,4277.435793,4289.230664,4294.87169,4268.205024,4256.410152,4303.589638,4281.025536
2,0,4257.435793,4289.230664,4278.974254,4268.717844,4284.102459,4234.358871,4267.692203,4264.10246,4269.743485,4278.974254,4261.538357,4250.256306,4299.999895,4270.256306
3,0,4259.487075,4291.794767,4278.461434,4271.794767,4293.846049,4240.512717,4271.281947,4267.692203,4269.743485,4279.999895,4261.538357,4246.153742,4298.461433,4255.384511
4,0,4253.84605,4289.743485,4277.435793,4274.87169,4297.948613,4246.666563,4273.846049,4270.769126,4276.410152,4284.61528,4257.435793,4242.051178,4293.333228,4243.076819
5,0,4246.666563,4282.563998,4277.435793,4269.743485,4291.281946,4238.461435,4270.256306,4261.538357,4272.820408,4271.794767,4247.179383,4230.769127,4285.640921,4243.076819
6,0,4253.333229,4285.1281,4280.512716,4269.743485,4291.794767,4236.410153,4267.179383,4258.974255,4271.794767,4266.153742,4242.563999,4226.153743,4286.153741,4247.179383
7,0,4262.563998,4290.769126,4283.076818,4273.846049,4295.38451,4244.615281,4269.743485,4259.999896,4268.205024,4269.743485,4243.076819,4231.794768,4295.897331,4248.205024
8,0,4273.333229,4302.563997,4293.846049,4287.179382,4303.076818,4252.820409,4281.538357,4265.640921,4269.743485,4278.974254,4249.743486,4244.10246,4303.589638,4263.076819
9,0,4268.717844,4298.974254,4288.205023,4284.61528,4301.538356,4250.769127,4282.051177,4265.128101,4269.743485,4272.820408,4245.640922,4237.435794,4295.38451,4262.563998
10,0,4264.61528,4292.307587,4283.076818,4281.538357,4304.102459,4255.384511,4282.563998,4267.179383,4270.769126,4269.230665,4242.563999,4226.153743,4288.717844,4250.769127
11,0,4259.487075,4282.051177,4276.922972,4272.820408,4296.410151,4247.692204,4278.974254,4260.512716,4261.538357,4255.897332,4234.871691,4216.410153,4284.102459,4234.358871
12,0,4268.717844,4288.205023,4284.61528,4278.461434,4302.563997,4246.666563,4283.076818,4268.717844,4270.256306,4264.10246,4248.717845,4240.512717,4292.307587,4245.128101
13,0,4267.179383,4286.153741,4283.076818,4273.846049,4299.999895,4239.487076,4270.769126,4261.538357,4264.61528,4258.974255,4255.384511,4250.769127,4291.794767,4250.769127
14,0,4279.487075,4303.076818,4297.435792,4289.230664,4311.794766,4247.692204,4277.948613,4266.153742,4272.307588,4271.281947,4264.61528,4266.666562,4297.435792,4269.743485
15,0,4290.256305,4308.205023,4304.102459,4302.051177,4321.025535,4253.84605,4289.743485,4274.35887,4280.512716,4279.999895,4270.256306,4276.922972,4299.999895,4273.333229
16,0,4312.307587,4327.692202,4323.076817,4324.615279,4347.692201,4280.512716,4315.38451,4292.820408,4298.974254,4302.563997,4288.205023,4298.974254,4309.743484,4285.1281
17,0,4317.435792,4341.025535,4333.333227,4333.333227,4355.897329,4294.358869,4322.563997,4298.974254,4309.743484,4314.358869,4293.333228,4303.589638,4316.922971,4296.922972
18,0,4326.15374,4354.358868,4341.538355,4343.076817,4363.589637,4303.589638,4333.846048,4310.256305,4324.102458,4328.205022,4299.999895,4309.743484,4326.15374,4313.333228
19,0,4324.102458,4346.15374,4332.820407,4334.358868,4359.487073,4302.051177,4331.794766,4308.205023,4316.410151,4322.051176,4302.051177,4308.205023,4322.051176,4308.717843
20,0,4324.102458,4349.230663,4334.358868,4335.89733,4364.102457,4307.692202,4336.41015,4310.256305,4318.974253,4326.666561,4307.692202,4307.179382,4323.589638,4312.307587
21,0,4321.538356,4348.205022,4329.743484,4335.384509,4364.615278,4305.1281,4333.333227,4316.922971,4331.794766,4334.358868,4303.589638,4292.820408,4327.179381,4309.743484
22,0,4319.999894,4341.538355,4326.666561,4331.281945,4360.512714,4297.948613,4328.717843,4315.89733,4328.205022,4327.692202,4294.87169,4280.512716,4321.538356,4304.102459
23,0,4318.461433,4337.948612,4329.230663,4329.230663,4355.384509,4294.87169,4325.128099,4310.769125,4318.974253,4322.563997,4296.410151,4283.589639,4313.846048,4305.1281
24,0,4316.922971,4339.999894,4331.281945,4331.794766,4354.871688,4293.333228,4323.589638,4309.743484,4320.512715,4327.179381,4303.076818,4293.333228,4315.38451,4305.64092
25,0,4324.615279,4347.179381,4335.89733,4338.461432,4360.512714,4297.435792,4327.692202,4314.358869,4327.692202,4334.358868,4305.64092,4304.615279,4324.102458,4310.256305
26,0,4318.974253,4337.435791,4327.692202,4327.692202,4352.307586,4296.922972,4324.615279,4311.794766,4322.563997,4327.179381,4299.487074,4298.974254,4321.025535,4306.666561
27,0,4306.153741,4321.538356,4314.871689,4314.871689,4339.999894,4290.769126,4315.38451,4305.64092,4316.410151,4316.922971,4294.87169,4289.743485,4312.307587,4296.922972
28,0,4295.897331,4309.743484,4305.1281,4306.666561,4331.281945,4285.1281,4308.205023,4291.281946,4302.563997,4298.461433,4283.589639,4279.487075,4307.179382,4285.640921
29,0,4294.87169,4307.692202,4301.538356,4301.538356,4326.666561,4283.076818,4308.205023,4289.230664,4295.38451,4292.820408,4276.410152,4276.410152,4303.589638,4284.102459
30,0,4266.666562,4270.256306,4266.666562,4260.512716,4288.717844,4249.230665,4271.281947,4265.128101,4268.717844,4264.10246,4251.281947,4242.051178,4281.538357,4249.743486
31,0,4266.666562,4269.230665,4260.512716,4254.871691,4283.076818,4254.35887,4271.281947,4259.487075,4274.87169,4268.717844,4251.794768,4238.974255,4286.666562,4248.717845
32,0,4285.1281,4288.205023,4276.410152,4274.87169,4298.974254,4278.461434,4296.922972,4272.820408,4292.820408,4287.179382,4263.589639,4253.333229,4302.051177,4276.410152
33,0,4299.487074,4301.538356,4294.358869,4293.846049,4310.769125,4288.717844,4311.794766,4288.717844,4302.051177,4301.538356,4272.820408,4264.61528,4307.179382,4294.358869
34,0,4285.1281,4280.512716,4287.692203,4276.922972,4289.743485,4269.230665,4292.820408,4274.87169,4289.230664,4287.179382,4261.025537,4254.35887,4294.358869,4266.666562
35,0,4283.589639,4278.974254,4294.358869,4275.897331,4285.640921,4267.692203,4294.358869,4272.820408,4290.769126,4287.692203,4263.076819,4263.589639,4294.358869,4258.974255
36,0,4283.589639,4278.974254,4292.820408,4275.897331,4281.538357,4262.563998,4292.820408,4278.461434,4288.717844,4288.717844,4262.051178,4266.666562,4296.922972,4261.025537
37,0,4291.281946,4284.102459,4294.358869,4283.589639,4287.692203,4270.256306,4298.974254,4289.743485,4299.487074,4298.974254,4268.205024,4270.256306,4302.051177,4270.256306
38,0,4284.61528,4272.307588,4284.102459,4276.410152,4282.563998,4267.692203,4291.794767,4280.512716,4292.820408,4290.256305,4266.153742,4253.84605,4291.794767,4259.487075
39,0,4287.179382,4278.974254,4289.230664,4283.589639,4288.717844,4274.87169,4296.922972,4281.538357,4290.256305,4288.205023,4268.717844,4251.794768,4292.820408,4260.512716
40,0,4301.538356,4300.512715,4303.589638,4302.051177,4304.615279,4291.794767,4313.333228,4297.435792,4306.153741,4299.999895,4275.897331,4270.769126,4307.692202,4280.512716
41,0,4297.948613,4296.410151,4293.333228,4295.38451,4300.512715,4289.230664,4313.333228,4292.307587,4302.563997,4294.358869,4270.769126,4268.205024,4300.512715,4282.051177
42,0,4293.846049,4287.692203,4276.922972,4283.589639,4289.230664,4274.35887,4294.87169,4279.999895,4288.717844,4287.179382,4268.205024,4255.897332,4293.333228,4274.35887
43,0,4319.999894,4317.435792,4295.38451,4307.179382,4308.717843,4290.256305,4306.153741,4293.846049,4305.64092,4307.179382,4285.1281,4277.435793,4315.38451,4291.794767
44,0,4337.435791,4336.922971,4318.974253,4326.666561,4326.666561,4310.256305,4326.666561,4309.230664,4322.563997,4327.179381,4298.461433,4304.615279,4327.179381,4309.230664
45,0,4325.64092,4315.89733,4313.846048,4312.307587,4310.769125,4298.974254,4316.922971,4300.512715,4309.230664,4318.974253,4287.692203,4295.38451,4312.307587,4296.410151
46,0,4329.743484,4310.256305,4314.871689,4311.794766,4308.717843,4294.358869,4312.820407,4301.025536,4314.871689,4327.179381,4291.794767,4296.922972,4314.871689,4298.461433
47,0,4327.179381,4306.153741,4314.358869,4309.743484,4308.717843,4291.281946,4312.307587,4300.512715,4318.974253,4326.15374,4301.538356,4307.692202,4319.487074,4303.589638
48,0,4331.794766,4318.461433,4326.15374,4322.051176,4319.999894,4306.153741,4326.15374,4313.333228,4325.64092,4335.384509,4309.230664,4320.512715,4321.538356,4315.89733
49,0,4331.281945,4319.487074,4322.051176,4318.461433,4318.974253,4306.666561,4324.102458,4312.820407,4325.128099,4331.281945,4294.87169,4308.717843,4315.89733,4308.205023
50,0,4334.871689,4322.563997,4320.512715,4316.410151,4325.128099,4306.666561,4322.563997,4309.230664,4329.230663,4329.743484,4295.897331,4308.717843,4321.025535,4304.615279
51,0,4332.307586,4318.461433,4318.461433,4314.871689,4323.589638,4306.153741,4321.025535,4302.051177,4323.076817,4325.64092,4297.948613,4310.769125,4326.15374,4303.589638
52,0,4352.307586,4340.512714,4339.487073,4342.051176,4342.563996,4326.666561,4348.205022,4325.64092,4341.538355,4351.281945,4308.205023,4334.871689,4335.89733,4331.281945
53,0,4355.384509,4343.589637,4336.41015,4339.999894,4340.512714,4324.102458,4346.15374,4330.769125,4343.589637,4349.743483,4307.179382,4334.871689,4330.769125,4331.281945
54,0,4349.230663,4337.435791,4326.666561,4327.179381,4329.743484,4311.281946,4331.794766,4317.948612,4331.794766,4338.461432,4304.102459,4321.538356,4327.692202,4317.435792
55,0,4334.871689,4314.871689,4313.846048,4309.743484,4306.666561,4292.307587,4314.871689,4301.025536,4315.89733,4322.051176,4284.102459,4305.64092,4319.487074,4301.538356
56,0,4345.128099,4323.589638,4329.743484,4325.64092,4316.410151,4308.717843,4332.307586,4316.922971,4333.846048,4331.794766,4287.692203,4330.769125,4324.615279,4316.922971
57,0,4351.794765,4337.948612,4340.512714,4339.999894,4326.15374,4319.487074,4338.974253,4328.717843,4346.66656,4343.076817,4299.999895,4349.230663,4332.820407,4323.589638
58,0,4341.538355,4336.922971,4331.281945,4332.820407,4321.025535,4309.230664,4329.743484,4322.051176,4336.922971,4344.615278,4295.897331,4339.999894,4337.435791,4316.922971
59,0,4333.846048,4331.794766,4324.615279,4325.64092,4317.948612,4306.666561,4329.743484,4319.487074,4329.230663,4344.615278,4288.205023,4334.358868,4345.640919,4318.461433
60,0,4320.512715,4313.333228,4310.769125,4312.307587,4305.64092,4301.025536,4320.512715,4305.64092,4313.333228,4323.589638,4276.922972,4321.025535,4349.743483,4305.1281
61,0,4275.384511,4261.538357,4261.538357,4258.461434,4256.922973,4257.948614,4272.307588,4262.051178,4271.794767,4268.205024,4237.435794,4266.666562,4324.102458,4248.205024
62,0,4249.230665,4237.948614,4234.871691,4229.743486,4233.84605,4239.487076,4253.84605,4241.025537,4251.281947,4239.999896,4215.897333,4239.999896,4307.179382,4217.948615
63,0,4264.10246,4256.410152,4252.307588,4250.769127,4252.820409,4257.948614,4271.794767,4254.871691,4263.589639,4255.897332,4231.794768,4258.974255,4320.512715,4240.512717
64,0,4239.487076,4227.692204,4230.256307,4221.538358,4225.640922,4227.692204,4244.615281,4234.358871,4240.512717,4228.205025,4211.281948,4231.281948,4304.615279,4217.435794
65,0,4239.999896,4228.205025,4231.281948,4222.563999,4222.051179,4225.640922,4247.692204,4236.922973,4241.025537,4227.692204,4206.153743,4227.179384,4296.922972,4212.307589
66,0,4332.820407,4333.333227,4325.128099,4346.66656,4314.358869,4318.974253,4346.15374,4315.38451,4321.538356,4328.205022,4283.589639,4321.538356,4355.384509,4303.589638
67,0,4452.820404,4474.358865,4452.820404,4509.743479,4435.384507,4431.794763,4463.076814,4425.128097,4444.102455,4475.384506,4394.358867,4454.871686,4438.46143,4435.897327
68,0,4490.769121,4522.563992,4495.897326,4560.512709,4472.820403,4463.076814,4495.384505,4463.589634,4490.2563,4527.692197,4428.71784,4499.99989,4459.999891,4478.974249
69,0,4509.230659,4544.102453,4516.410146,4583.076811,4496.922967,4483.076813,4516.922966,4482.563993,4505.128095,4549.230658,4441.025532,4518.974248,4467.179378,4494.871685
70,0,4524.615274,4558.974247,4533.333222,4605.128093,4513.846043,4498.974249,4530.256299,4495.384505,4511.794761,4563.076811,4456.922968,4532.820402,4479.99989,4508.205018
71,0,4527.692197,4567.179375,4532.820402,4605.128093,4521.02553,4504.615274,4531.28194,4497.948608,4519.999889,4568.205016,4464.102455,4534.358863,4484.102454,4514.871684
72,0,4487.692198,4524.615274,4485.128095,4550.256299,4482.563993,4467.692198,4491.281941,4462.051173,4487.692198,4524.102453,4431.281943,4490.769121,4457.435788,4477.948608
73,0,4464.615275,4495.897326,4463.076814,4522.051171,4455.384506,4446.153737,4468.717839,4436.922968,4454.358865,4490.2563,4408.20502,4462.563993,4442.051173,4451.281942
74,0,4460.512711,4490.769121,4459.999891,4519.487069,4450.769122,4446.153737,4463.076814,4431.281943,4445.128096,4484.102454,4403.589636,4457.435788,4436.922968,4437.948609
75,0,4454.871686,4485.128095,4448.205019,4510.76912,4450.256301,4442.051173,4455.897327,4428.20502,4446.666558,4481.538352,4402.563995,4450.256301,4432.307584,4432.820404
76,0,4433.333225,4456.410147,4427.179379,4483.589634,4422.563994,4412.820405,4429.743481,4409.230661,4425.128097,4452.307583,4386.153739,4426.666558,4423.076815,4419.487071
77,0,4439.999891,4464.615275,4440.512712,4495.384505,4427.692199,4419.999892,4439.999891,4417.435789,4433.333225,4461.025532,4393.846046,4439.999891,4430.256302,4433.846045
78,0,4462.563993,4496.922967,4463.076814,4526.153735,4461.025532,4451.281942,4466.666557,4442.563994,4467.179378,4502.563992,4422.051174,4468.205019,4445.128096,4456.922968
79,0,4462.051173,4500.51271,4461.538352,4531.28194,4463.076814,4454.871686,4467.692198,4442.051173,4463.076814,4504.615274,4424.615276,4465.128096,4444.102455,4455.897327
80,0,4442.051173,4474.871685,4444.615276,4512.307582,4438.97425,4437.435789,4449.23066,4428.71784,4433.333225,4470.769121,4402.563995,4441.025532,4426.666558,4435.384507
81,0,4421.025533,4446.666558,4424.615276,4483.589634,4420.512712,4422.563994,4434.358866,4416.922969,4421.025533,4445.128096,4385.128098,4418.46143,4408.717841,4411.281943
82,0,4425.640917,4445.128096,4424.615276,4477.435788,4423.589635,4421.538353,4433.333225,4412.820405,4430.256302,4450.769122,4391.281944,4419.999892,4409.743482,4412.307584
83,0,4435.897327,4457.948609,4431.794763,4488.205018,4433.846045,4428.71784,4439.487071,4413.333225,4429.230661,4453.333224,4393.333226,4426.666558,4415.897328,4419.487071
84,0,4459.999891,4492.307582,4452.307583,4519.487069,4464.615275,4462.563993,4473.846044,4443.589635,4457.948609,4483.076813,4410.769123,4454.871686,4434.871686,4448.205019
85,0,4472.307583,4503.076813,4459.48707,4525.128094,4469.74348,4473.333224,4484.102454,4457.435788,4477.435788,4503.076813,4425.640917,4473.846044,4448.71784,4470.256301
86,0,4484.102454,4507.179377,4468.717839,4528.717838,4471.281942,4466.666557,4481.538352,4456.922968,4474.871685,4514.358864,4436.922968,4490.769121,4454.358865,4484.615275
87,0,4482.563993,4503.076813,4471.794762,4527.179376,4469.74348,4462.563993,4476.922967,4453.333224,4467.692198,4510.2563,4435.897327,4494.871685,4455.897327,4481.538352
88,0,4486.153736,4510.76912,4484.615275,4536.922966,4478.974249,4479.99989,4489.230659,4469.23066,4489.230659,4520.51271,4440.512712,4502.051172,4470.256301,4487.692198
89,0,4478.461429,4504.102454,4482.563993,4537.435786,4478.974249,4483.076813,4493.333223,4472.820403,4495.384505,4521.02553,4432.307584,4495.384505,4469.23066,4473.333224
90,0,4492.307582,4526.153735,4499.487069,4565.128093,4504.615274,4502.051172,4518.974248,4487.692198,4507.692197,4542.563991,4449.23066,4514.871684,4475.384506,4484.615275
91,0,4484.102454,4522.051171,4486.666557,4554.358863,4496.410146,4494.358864,4505.128095,4478.974249,4496.922967,4530.256299,4447.179378,4502.563992,4472.307583,4483.076813
92,0,4463.076814,4499.99989,4463.076814,4524.615274,4474.358865,4474.358865,4477.435788,4459.48707,4473.846044,4499.99989,4419.487071,4471.281942,4458.461429,4463.589634
93,0,4465.640916,4500.51271,4465.128096,4526.666556,4474.358865,4470.769121,4475.897326,4450.769122,4467.179378,4491.281941,4409.230661,4468.205019,4453.846045,4458.97425
94,0,4494.871685,4532.307581,4493.846044,4558.974247,4500.51271,4493.333223,4497.948608,4468.205019,4489.230659,4515.897325,4434.871686,4497.435787,4472.820403,4489.230659
95,0,4485.640916,4513.846043,4477.435788,4539.999889,4483.076813,4482.563993,4481.538352,4463.589634,4480.512711,4505.640915,4427.692199,4488.717839,4470.769121,4478.461429
96,0,4464.102455,4484.615275,4452.307583,4507.692197,4455.897327,4461.025532,4461.538352,4446.153737,4457.948609,4484.102454,4405.640918,4470.256301,4457.948609,4452.820404
97,0,4461.025532,4481.025531,4451.281942,4500.51271,4451.281942,4448.71784,4452.820404,4439.999891,4455.384506,4480.512711,4406.666559,4470.769121,4457.948609,4453.846045
98,0,4472.307583,4491.794762,4466.666557,4510.76912,4459.48707,4453.333224,4459.48707,4448.205019,4468.205019,4485.128095,4415.897328,4482.563993,4464.102455,4465.128096
99,0,4485.128095,4505.128095,4481.538352,4525.128094,4471.794762,4470.256301,4477.948608,4461.538352,4483.076813,4501.538351,4424.102456,4497.948608,4468.717839,4476.922967
100,0,4472.307583,4492.820403,4471.281942,4513.333223,4463.076814,4461.025532,4470.256301,4450.769122,4464.615275,4489.230659,4415.897328,4487.179377,4460.512711,4467.692198
101,0,4468.717839,4489.230659,4470.256301,4508.205018,4461.025532,4457.948609,4466.153737,4449.743481,4459.999891,4482.051172,4410.769123,4479.48707,4456.410147,4459.999891
102,0,4469.23066,4485.128095,4466.153737,4504.102454,4458.461429,4463.076814,4465.640916,4451.794763,4467.692198,4479.99989,4405.640918,4475.897326,4453.333224,4452.820404
103,0,4468.205019,4485.640916,4461.538352,4504.615274,4464.615275,4467.179378,4464.615275,4446.666558,4466.153737,4485.640916,4409.743482,4479.48707,4457.435788,4456.410147
104,0,4450.256301,4468.205019,4443.076814,4486.153736,4453.333224,4449.23066,4447.179378,4425.640917,4438.97425,4467.179378,4399.487072,4463.589634,4451.281942,4436.922968
105,0,4455.897327,4471.281942,4448.205019,4488.205018,4454.871686,4450.769122,4449.743481,4430.769122,4441.025532,4465.640916,4404.102456,4469.23066,4451.794763,4441.025532
106,0,4448.205019,4455.897327,4437.435789,4473.333224,4441.538353,4439.487071,4435.897327,4418.974251,4432.820404,4446.666558,4392.820405,4458.97425,4439.999891,4436.922968
107,0,4437.435789,4441.538353,4425.128097,4459.48707,4428.20502,4428.71784,4425.128097,4411.794764,4423.589635,4437.435789,4382.563995,4448.205019,4430.769122,4427.179379
108,0,4430.769122,4435.384507,4418.46143,4451.281942,4419.999892,4426.153738,4422.051174,4417.435789,4421.538353,4433.846045,4384.102457,4448.205019,4426.666558,4418.46143
109,0,4450.769122,4461.025532,4442.051173,4476.922967,4445.640917,4453.333224,4452.307583,4440.512712,4444.615276,4456.410147,4406.666559,4472.820403,4437.948609,4438.46143
110,0,4435.897327,4445.128096,4430.256302,4465.640916,4429.230661,4439.487071,4439.999891,4428.20502,4434.358866,4445.640917,4392.820405,4453.846045,4430.256302,4421.025533
111,0,4416.922969,4431.794763,4413.846046,4450.256301,4413.333225,4418.974251,4417.94861,4411.794764,4416.410148,4433.333225,4377.948611,4430.769122,4421.538353,4405.640918
112,0,4448.71784,4472.820403,4446.153737,4489.74348,4454.871686,4448.71784,4447.692199,4435.897327,4443.589635,4468.717839,4409.230661,4464.615275,4441.538353,4443.076814
113,0,4465.128096,4485.128095,4461.538352,4501.025531,4465.640916,4459.999891,4459.48707,4447.692199,4463.589634,4480.512711,4421.538353,4482.051172,4446.666558,4450.769122
114,0,4348.717842,4344.102458,4338.461432,4345.128099,4331.281945,4337.948612,4329.230663,4343.589637,4350.769124,4341.538355,4318.461433,4360.512714,4366.66656,4318.974253
115,0,4208.717846,4185.640923,4196.922974,4162.05118,4186.153744,4203.07682,4188.205026,4206.666564,4199.999897,4171.281949,4198.974256,4212.82041,4279.487075,4177.435795
116,0,4168.717847,4136.410155,4160.512719,4105.128105,4143.076822,4166.153744,4151.28195,4158.461437,4147.692206,4116.922976,4163.589642,4168.717847,4256.922973,4138.461437
117,0,4168.205026,4128.717848,4161.025539,4099.9999,4134.358873,4159.487078,4150.256309,4160.512719,4146.666565,4114.358874,4158.461437,4170.256308,4252.820409,4132.820412
118,0,4155.384514,4113.333233,4145.128104,4082.564003,4118.461438,4143.589642,4139.999899,4159.487078,4144.102463,4102.564002,4150.256309,4161.025539,4242.563999,4118.461438
119,0,4146.153745,4104.102464,4137.435796,4076.922977,4107.692207,4143.076822,4138.974258,4152.307591,4141.53836,4094.358874,4148.717847,4152.307591,4241.025537,4112.820412
120,0,4159.487078,4119.487079,4159.487078,4098.974259,4122.564002,4163.076821,4153.333232,4162.05118,4154.358873,4115.384515,4160.512719,4171.79477,4251.794768,4131.28195
121,0,4163.076821,4127.179386,4168.205026,4105.640925,4133.333232,4167.179385,4158.461437,4167.692206,4156.922975,4124.102463,4161.025539,4174.871693,4250.256306,4132.820412
122,0,4172.820411,4146.153745,4175.897334,4123.076822,4154.871693,4183.076821,4176.410154,4182.564,4173.333231,4138.974258,4173.333231,4176.410154,4252.820409,4141.02554
123,0,4169.230667,4142.564001,4167.692206,4122.051181,4155.384514,4181.025539,4172.820411,4179.487077,4169.743488,4129.743489,4166.666565,4163.589642,4246.666563,4134.358873
124,0,4170.769129,4143.076822,4168.717847,4122.564002,4156.410155,4181.025539,4174.871693,4182.564,4175.384513,4132.820412,4165.640924,4167.179385,4249.230665,4135.384514
125,0,4155.897334,4126.666566,4159.487078,4104.102464,4136.410155,4165.640924,4161.025539,4168.205026,4161.025539,4116.410156,4157.435796,4158.461437,4244.615281,4122.564002
126,0,4173.333231,4143.076822,4179.487077,4120.51272,4149.743488,4179.487077,4174.358872,4172.820411,4164.102462,4123.076822,4169.230667,4175.384513,4253.333229,4146.666565
127,0,4197.948615,4164.615283,4195.897333,4140.512719,4174.358872,4199.487077,4193.333231,4193.333231,4188.717846,4147.692206,4186.666564,4198.974256,4263.076819,4178.461436
128,0,4197.948615,4164.615283,4191.794769,4137.435796,4177.948616,4202.051179,4192.82041,4203.589641,4198.974256,4161.025539,4190.769128,4204.615282,4263.589639,4183.589641
0,0,4152.820411,4114.358874,4147.179386,4087.179387,4128.717848,4161.025539,4150.256309,4166.153744,4155.384514,4118.461438,4155.897334,4158.974257,4238.461435,4132.307591
1,0,4142.051181,4107.179387,4136.922976,4079.48708,4117.948617,4156.410155,4148.717847,4159.999898,4147.692206,4110.76913,4150.256309,4145.640924,4234.358871,4118.974258
2,0,4158.461437,4126.666566,4153.333232,4102.564002,4141.02554,4172.820411,4164.615283,4178.974257,4168.717847,4133.333232,4167.692206,4159.999898,4243.076819,4139.487078
3,0,4156.410155,4118.461438,4153.333232,4097.435797,4134.871694,4159.999898,4155.897334,4169.743488,4156.922975,4124.615284,4161.53836,4149.743488,4236.410153,4131.794771
4,0,4140.512719,4096.922977,4135.384514,4073.846054,4110.76913,4136.922976,4136.410155,4144.102463,4133.333232,4097.948618,4143.589642,4125.640925,4225.640922,4108.205028
5,0,4149.230668,4108.205028,4147.692206,4090.769131,4128.205027,4157.435796,4152.307591,4152.820411,4148.717847,4108.717848,4154.358873,4140.512719,4232.307589,4122.564002
6,0,4155.897334,4111.281951,4159.487078,4098.461438,4137.948617,4165.128103,4152.307591,4161.025539,4155.384514,4117.435797,4162.564001,4154.871693,4233.84605,4131.794771
7,0,4141.53836,4090.25631,4135.897335,4063.589644,4104.615284,4131.794771,4119.999899,4137.948617,4126.666566,4086.666567,4141.02554,4129.230668,4217.948615,4102.051182
8,0,4141.53836,4096.922977,4126.153745,4057.435798,4090.769131,4125.128104,4117.435797,4135.384514,4119.999899,4077.435798,4130.76913,4121.02554,4212.82041,4092.307592
9,0,4159.487078,4123.076822,4147.179386,4093.846054,4113.333233,4151.79477,4148.205027,4154.871693,4140.512719,4098.461438,4147.692206,4141.53836,4221.025538,4112.307592
10,0,4191.281949,4154.358873,4175.384513,4127.692207,4152.307591,4179.999898,4174.871693,4177.948616,4169.230667,4138.461437,4172.820411,4174.871693,4238.461435,4146.666565
11,0,4184.102462,4138.461437,4154.358873,4095.897336,4139.999899,4165.640924,4154.871693,4166.666565,4164.102462,4132.307591,4163.076821,4163.076821,4234.871691,4145.128104
12,0,4172.30759,4128.717848,4140.512719,4083.076823,4128.205027,4165.640924,4154.871693,4167.179385,4169.743488,4127.692207,4165.640924,4149.743488,4231.281948,4141.53836
13,0,4186.666564,4154.358873,4165.640924,4122.051181,4147.692206,4186.666564,4176.922975,4184.615282,4186.666564,4149.743488,4188.205026,4165.640924,4238.974255,4149.230668
14,0,4232.820409,4209.230666,4219.999897,4185.128103,4196.410154,4224.102461,4213.33323,4218.974256,4215.384512,4197.435795,4214.871692,4212.307589,4265.128101,4190.256308
15,0,4233.84605,4205.128102,4217.948615,4182.05118,4196.410154,4222.563999,4209.743487,4214.358871,4210.769128,4190.769128,4199.999897,4206.666564,4264.61528,4191.281949
16,0,4233.33323,4203.07682,4213.846051,4178.461436,4198.461436,4226.153743,4211.794769,4217.948615,4220.512717,4189.230667,4201.025538,4206.666564,4262.563998,4190.769128
17,0,4236.922973,4209.230666,4220.512717,4179.999898,4199.999897,4220.512717,4205.128102,4218.974256,4218.461435,4186.666564,4206.153743,4212.307589,4262.563998,4192.82041
18,0,4229.743486,4204.102461,4217.435794,4171.79477,4191.281949,4203.07682,4197.435795,4203.07682,4197.435795,4171.79477,4196.922974,4204.615282,4258.461434,4191.281949
19,0,4208.205025,4174.871693,4194.871692,4145.640924,4163.076821,4181.025539,4179.999898,4182.564,4179.999898,4147.692206,4176.922975,4184.615282,4243.58964,4171.281949
20,0,4216.410153,4181.025539,4199.487077,4146.666565,4165.640924,4195.384513,4189.230667,4195.384513,4195.897333,4159.487078,4182.564,4196.922974,4247.692204,4176.922975
21,0,4221.025538,4187.179385,4202.564,4149.230668,4173.846052,4205.640923,4195.897333,4201.025538,4203.07682,4171.79477,4186.153744,4202.051179,4253.333229,4181.025539
22,0,4207.692205,4171.79477,4187.179385,4138.461437,4167.692206,4193.333231,4185.128103,4185.128103,4188.717846,4161.53836,4176.922975,4188.717846,4245.640922,4170.256308
23,0,4198.461436,4160.512719,4168.717847,4125.640925,4152.820411,4177.948616,4164.615283,4171.79477,4177.435795,4145.128104,4166.666565,4176.922975,4235.897332,4156.922975
24,0,4209.230666,4176.410154,4176.922975,4135.897335,4163.076821,4189.230667,4173.333231,4186.666564,4193.846051,4153.333232,4174.871693,4180.512718,4241.538358,4162.564001
25,0,4225.640922,4200.512718,4202.564,4164.615283,4191.794769,4212.307589,4203.589641,4217.435794,4219.487076,4180.512718,4193.846051,4196.922974,4252.307588,4178.461436
26,0,4230.769127,4206.153743,4216.922974,4181.025539,4203.07682,4221.025538,4218.461435,4225.128102,4220.512717,4185.640923,4197.435795,4207.692205,4252.307588,4181.025539
27,0,4231.794768,4205.128102,4222.563999,4183.076821,4201.538359,4219.487076,4218.974256,4215.897333,4210.769128,4179.999898,4193.846051,4212.307589,4251.794768,4177.948616
28,0,4219.487076,4188.205026,4209.230666,4168.205026,4188.205026,4208.205025,4209.230666,4202.564,4198.461436,4161.025539,4184.102462,4197.435795,4247.179383,4163.076821
29,0,4228.205025,4199.487077,4217.948615,4183.589641,4206.153743,4228.205025,4226.153743,4219.999897,4216.410153,4173.333231,4196.410154,4211.281948,4256.922973,4175.384513
30,0,4241.538358,4215.384512,4230.256307,4199.999897,4222.051179,4245.128101,4239.999896,4231.794768,4231.281948,4193.846051,4210.769128,4228.717845,4265.640921,4190.769128
31,0,4256.922973,4229.743486,4241.538358,4210.769128,4228.717845,4247.179383,4243.58964,4237.435794,4240.512717,4212.307589,4223.58964,4244.10246,4272.820408,4209.743487
32,0,4254.35887,4224.615281,4233.84605,4202.051179,4218.974256,4231.794768,4223.07682,4223.58964,4223.58964,4199.487077,4217.948615,4238.461435,4269.743485,4206.153743
33,0,4275.897331,4249.743486,4252.307588,4223.58964,4243.076819,4252.307588,4239.487076,4241.538358,4246.666563,4230.256307,4239.487076,4266.666562,4288.205023,4233.33323
34,0,4281.025536,4251.281947,4254.871691,4227.692204,4246.153742,4256.410152,4245.640922,4254.35887,4270.769126,4252.307588,4253.84605,4281.538357,4295.897331,4251.281947
35,0,4276.410152,4245.128101,4250.256306,4225.128102,4237.948614,4250.256306,4240.512717,4247.692204,4262.051178,4240.512717,4248.717845,4273.846049,4285.640921,4247.179383
36,0,4261.025537,4228.717845,4236.922973,4207.179384,4223.58964,4237.435794,4227.692204,4226.153743,4229.743486,4208.717846,4229.743486,4245.640922,4269.230665,4217.435794
37,0,4256.410152,4222.563999,4237.435794,4205.128102,4222.563999,4239.999896,4234.358871,4226.153743,4223.58964,4208.717846,4223.58964,4232.307589,4273.846049,4208.205025
38,0,4231.794768,4198.461436,4218.461435,4186.153744,4203.589641,4224.102461,4219.999897,4216.922974,4213.33323,4196.922974,4204.102461,4205.128102,4266.153742,4186.666564
39,0,4213.846051,4186.153744,4203.07682,4171.79477,4195.897333,4210.769128,4207.179384,4206.666564,4204.615282,4185.128103,4192.30759,4192.30759,4251.794768,4168.205026
40,0,4215.897333,4188.717846,4201.025538,4171.79477,4202.051179,4209.230666,4203.07682,4202.564,4205.128102,4184.615282,4191.281949,4197.435795,4250.769127,4170.769129
41,0,4238.461435,4213.846051,4221.538358,4195.897333,4223.58964,4233.33323,4224.102461,4214.358871,4221.538358,4204.102461,4203.07682,4218.974256,4266.153742,4200.512718
42,0,4255.897332,4233.33323,4239.999896,4213.33323,4233.33323,4246.666563,4236.922973,4225.128102,4230.256307,4215.897333,4215.384512,4233.33323,4272.820408,4217.948615
43,0,4249.230665,4221.538358,4230.769127,4201.538359,4217.948615,4228.717845,4219.999897,4216.410153,4221.025538,4204.615282,4212.82041,4225.640922,4266.153742,4211.281948
44,0,4251.794768,4219.487076,4228.205025,4198.461436,4212.82041,4220.512717,4210.256307,4214.871692,4224.102461,4213.846051,4217.948615,4231.281948,4268.717844,4223.58964
45,0,4263.589639,4236.410153,4237.435794,4213.33323,4224.615281,4234.871691,4223.58964,4227.692204,4233.84605,4231.794768,4232.307589,4245.128101,4276.922972,4238.974255
46,0,4266.153742,4245.128101,4240.512717,4226.666563,4234.358871,4246.153742,4235.384512,4241.538358,4245.640922,4235.897332,4241.538358,4250.769127,4279.999895,4238.974255
47,0,4241.538358,4220.512717,4223.58964,4208.717846,4216.410153,4228.205025,4217.948615,4226.153743,4232.820409,4208.205025,4219.999897,4229.743486,4268.205024,4216.410153
48,0,4236.410153,4218.974256,4228.717845,4203.589641,4214.871692,4226.153743,4217.948615,4223.07682,4225.640922,4206.153743,4213.33323,4231.281948,4270.256306,4213.846051
49,0,4222.563999,4203.07682,4216.922974,4183.589641,4194.871692,4213.846051,4208.717846,4210.769128,4203.589641,4191.794769,4205.640923,4218.461435,4262.563998,4193.333231
50,0,4209.230666,4186.153744,4201.025538,4166.153744,4176.922975,4201.025538,4196.410154,4195.897333,4191.794769,4175.897334,4192.82041,4199.999897,4250.256306,4172.820411
51,0,4194.358872,4171.281949,4187.692205,4151.79477,4168.205026,4185.128103,4177.948616,4181.538359,4182.05118,4163.589642,4177.948616,4187.179385,4242.563999,4163.076821
52,0,4210.256307,4192.30759,4203.589641,4172.30759,4190.256308,4200.512718,4192.82041,4197.948615,4196.922974,4191.281949,4201.538359,4211.281948,4256.922973,4194.871692
53,0,4222.051179,4200.512718,4208.717846,4176.922975,4193.333231,4213.846051,4203.589641,4207.179384,4209.230666,4207.179384,4214.358871,4221.025538,4262.563998,4209.230666
54,0,4230.256307,4204.615282,4216.410153,4182.05118,4197.948615,4224.102461,4213.33323,4218.461435,4220.512717,4211.794769,4214.871692,4224.102461,4268.205024,4213.33323
55,0,4216.410153,4187.692205,4199.487077,4170.256308,4186.666564,4204.102461,4192.30759,4206.153743,4200.512718,4191.794769,4206.153743,4203.589641,4262.051178,4200.512718
56,0,4213.846051,4187.179385,4189.230667,4167.179385,4184.102462,4198.461436,4181.538359,4198.461436,4196.410154,4194.358872,4210.256307,4198.974256,4262.051178,4206.666564
57,0,4212.307589,4189.230667,4183.589641,4162.05118,4180.512718,4200.512718,4181.025539,4199.487077,4203.589641,4202.051179,4210.769128,4198.974256,4265.640921,4209.743487
58,0,4211.794769,4191.794769,4190.256308,4163.589642,4183.589641,4206.153743,4195.897333,4207.179384,4211.281948,4205.128102,4210.769128,4199.487077,4264.10246,4205.128102
59,0,4198.974256,4176.410154,4185.640923,4155.897334,4176.922975,4197.435795,4193.846051,4203.07682,4203.07682,4191.281949,4199.487077,4185.128103,4249.230665,4184.615282
60,0,4194.358872,4172.820411,4185.128103,4157.948616,4175.897334,4196.410154,4193.333231,4201.025538,4194.358872,4180.512718,4192.82041,4179.487077,4249.230665,4176.410154
61,0,4201.538359,4185.640923,4195.384513,4170.769129,4189.743487,4208.205025,4205.128102,4208.717846,4200.512718,4190.769128,4198.461436,4191.281949,4259.487075,4187.692205
62,0,4195.384513,4181.025539,4193.333231,4166.153744,4188.205026,4203.589641,4199.999897,4203.07682,4202.051179,4193.333231,4198.461436,4189.230667,4253.333229,4184.102462
63,0,4186.666564,4168.205026,4180.512718,4151.28195,4172.820411,4191.794769,4184.102462,4194.358872,4196.410154,4186.153744,4195.384513,4181.025539,4248.717845,4177.948616
64,0,4195.384513,4177.435795,4184.615282,4154.358873,4183.589641,4201.538359,4188.717846,4199.999897,4197.948615,4192.30759,4205.640923,4192.82041,4261.538357,4198.461436
65,0,4227.692204,4211.794769,4218.974256,4189.230667,4219.999897,4230.769127,4215.384512,4221.025538,4227.692204,4226.153743,4230.256307,4231.794768,4281.538357,4234.358871
66,0,4224.102461,4201.538359,4216.922974,4185.640923,4202.051179,4209.743487,4196.922974,4205.640923,4218.974256,4210.256307,4218.974256,4225.640922,4270.256306,4216.410153
67,0,4215.384512,4189.230667,4207.179384,4173.846052,4182.564,4188.717846,4175.897334,4190.769128,4191.281949,4189.230667,4207.692205,4210.256307,4261.538357,4196.922974
68,0,4216.410153,4190.256308,4204.102461,4170.256308,4186.666564,4194.871692,4176.410154,4185.640923,4177.435795,4182.564,4200.512718,4204.615282,4258.974255,4193.333231
69,0,4233.84605,4210.256307,4218.974256,4189.743487,4204.615282,4212.307589,4196.410154,4201.538359,4201.025538,4198.461436,4206.666564,4217.948615,4262.051178,4211.281948
70,0,4215.897333,4189.743487,4202.051179,4170.256308,4182.05118,4193.846051,4183.589641,4198.461436,4198.974256,4182.05118,4194.871692,4198.974256,4251.794768,4193.333231
71,0,4199.487077,4175.384513,4192.82041,4158.974257,4178.461436,4198.461436,4188.717846,4200.512718,4191.281949,4179.999898,4191.794769,4188.205026,4249.230665,4176.410154
72,0,4185.128103,4163.589642,4183.589641,4155.384514,4174.871693,4202.051179,4191.281949,4191.281949,4176.410154,4173.333231,4184.102462,4176.410154,4241.538358,4164.615283
73,0,4178.974257,4159.487078,4176.922975,4150.769129,4172.820411,4197.948615,4188.717846,4189.230667,4175.384513,4169.743488,4184.102462,4171.79477,4240.512717,4170.769129
74,0,4159.487078,4131.794771,4151.79477,4120.51272,4153.846052,4177.948616,4164.102462,4176.922975,4167.179385,4154.871693,4175.897334,4155.384514,4236.410153,4164.102462
75,0,4165.128103,4135.384514,4154.358873,4126.153745,4162.05118,4184.615282,4163.076821,4171.79477,4166.666565,4164.102462,4181.025539,4158.974257,4243.076819,4175.897334
76,0,4175.897334,4153.846052,4165.640924,4143.589642,4173.333231,4192.82041,4169.230667,4175.897334,4172.30759,4182.05118,4191.281949,4165.640924,4248.717845,4191.281949
77,0,4173.333231,4158.461437,4169.743488,4146.666565,4176.410154,4192.82041,4175.384513,4185.128103,4182.05118,4185.128103,4194.871692,4168.717847,4250.256306,4195.897333
78,0,4165.128103,4150.256309,4165.640924,4138.974258,4176.922975,4183.589641,4170.769129,4181.538359,4177.948616,4174.871693,4187.179385,4168.717847,4246.666563,4187.179385
79,0,4166.153744,4146.153745,4156.410155,4131.794771,4174.871693,4176.922975,4164.102462,4171.79477,4167.692206,4167.692206,4184.102462,4167.179385,4243.58964,4183.589641
80,0,4171.79477,4143.589642,4153.846052,4129.743489,4169.230667,4172.30759,4161.025539,4170.256308,4166.153744,4168.717847,4186.153744,4164.102462,4243.076819,4188.205026
81,0,4176.922975,4151.28195,4173.333231,4144.102463,4173.846052,4175.384513,4175.384513,4185.128103,4176.410154,4181.025539,4191.794769,4172.820411,4247.692204,4194.871692
82,0,4188.717846,4172.820411,4200.512718,4169.230667,4188.717846,4185.640923,4194.358872,4206.666564,4195.384513,4201.538359,4206.666564,4194.871692,4258.974255,4205.128102
83,0,4182.564,4167.179385,4194.871692,4163.076821,4182.05118,4175.897334,4186.153744,4196.922974,4190.256308,4192.82041,4203.07682,4190.256308,4258.974255,4196.922974
84,0,4185.128103,4168.717847,4196.410154,4166.153744,4185.640923,4175.384513,4187.179385,4194.358872,4193.333231,4201.538359,4209.743487,4194.358872,4263.589639,4203.589641
85,0,4170.256308,4157.948616,4183.589641,4151.28195,4173.846052,4166.153744,4177.435795,4186.666564,4181.538359,4190.256308,4202.564,4176.922975,4253.84605,4191.794769
86,0,4156.922975,4150.769129,4168.205026,4139.487078,4168.717847,4163.589642,4173.846052,4183.076821,4169.743488,4171.281949,4187.692205,4158.974257,4241.538358,4176.922975
87,0,4146.666565,4133.333232,4156.410155,4127.692207,4157.948616,4149.743488,4163.076821,4168.717847,4151.28195,4147.692206,4169.230667,4145.640924,4230.769127,4157.435796
88,0,4149.230668,4128.717848,4159.999898,4123.589643,4153.846052,4142.051181,4160.512719,4171.281949,4159.487078,4149.743488,4172.30759,4151.28195,4230.256307,4156.410155
89,0,4123.589643,4100.51272,4133.846053,4089.230669,4123.589643,4115.897335,4135.897335,4160.512719,4148.205027,4125.128104,4154.871693,4126.666566,4212.82041,4138.461437
90,0,4114.358874,4093.333233,4121.02554,4082.051182,4114.358874,4110.25631,4134.358873,4150.256309,4129.230668,4111.281951,4142.051181,4108.205028,4206.666564,4129.743489
91,0,4102.051182,4075.897336,4101.025541,4070.769131,4097.435797,4094.871695,4119.487079,4126.153745,4102.051182,4093.333233,4126.153745,4083.589644,4197.435795,4106.666566
92,0,4080.512721,4055.384516,4082.051182,4049.23067,4079.9999,4075.897336,4098.461438,4108.205028,4086.153746,4073.333234,4107.179387,4058.97426,4183.589641,4084.102464
93,0,4050.256311,4025.128107,4060.512721,4017.94862,4056.410157,4054.358875,4076.922977,4091.794772,4065.640926,4042.051183,4079.48708,4023.589645,4164.102462,4051.281952
94,0,4039.487081,4012.307594,4053.846055,4009.743492,4045.640927,4048.71785,4075.897336,4087.179387,4056.410157,4026.666568,4073.846054,4008.717851,4158.974257,4033.333235
95,0,4016.922979,3987.17939,4031.281953,3990.769133,4023.076825,4029.743491,4056.410157,4067.692208,4037.435799,4003.589646,4063.076824,3990.256313,4150.256309,4011.281953
96,0,3986.153749,3955.897339,4004.102466,3961.538365,3999.999902,4007.179389,4032.307594,4041.538363,4011.281953,3976.92298,4041.025542,3964.102467,4133.846053,3988.205031
97,0,3977.4358,3941.538365,3999.999902,3947.179391,3988.717851,3994.871697,4021.538363,4034.871696,4006.153748,3968.717852,4032.820414,3953.846057,4126.666566,3981.025544
98,0,3985.640928,3944.615288,4005.128107,3948.717852,3984.102467,3995.897338,4024.102466,4038.46144,4012.820415,3966.153749,4034.358876,3959.487083,4126.666566,3982.564005
99,0,3992.820415,3956.41016,4003.076825,3957.435801,3989.743492,4002.564005,4029.230671,4041.025542,4016.410158,3969.743493,4040.512722,3970.256313,4129.230668,3993.333236
100,0,3996.922979,3967.692211,4004.102466,3965.128108,4004.615287,4007.179389,4030.256312,4044.615286,4016.410158,3980.512723,4054.358875,3983.589646,4134.871694,4006.153748
101,0,4006.666569,3979.999903,4014.871697,3972.820416,4016.922979,4016.410158,4036.410158,4055.384516,4028.71785,3998.461441,4065.640926,3996.922979,4144.102463,4013.333235
102,0,4001.538364,3974.358877,4010.769133,3967.692211,4004.102466,4012.820415,4034.871696,4051.281952,4030.769132,3993.333236,4050.769132,3981.025544,4143.589642,4004.102466
103,0,4015.897338,3995.384518,4031.281953,3994.358877,4018.46144,4023.076825,4048.71785,4062.051183,4038.46144,4007.179389,4058.461439,3985.640928,4146.666565,4021.025543
104,0,4026.666568,4008.20503,4044.615286,4010.256312,4031.281953,4025.640927,4048.71785,4062.051183,4037.435799,4011.794774,4068.205029,3995.897338,4142.564001,4026.666568
105,0,4029.230671,4010.769133,4044.615286,4007.69221,4032.820414,4029.230671,4048.71785,4063.589644,4049.23067,4011.794774,4069.74349,4001.538364,4155.384514,4022.051184
106,0,4007.179389,3985.640928,4021.025543,3978.461441,4006.153748,4008.717851,4028.20503,4046.666568,4028.71785,3987.17939,4048.71785,3973.846057,4133.846053,3997.4358
107,0,4010.256312,3987.17939,4024.102466,3981.025544,4003.589646,4003.589646,4024.615286,4039.487081,4007.179389,3985.640928,4047.692209,3967.17939,4069.23067,3998.974261
108,0,4007.179389,3980.512723,4018.46144,3976.410159,3997.4358,3996.922979,4016.922979,4033.333235,3998.461441,3976.92298,4042.051183,3959.487083,4017.94862,3991.281954
109,0,4004.615287,3984.615287,4015.897338,3978.461441,4008.20503,4005.128107,4029.743491,4046.666568,4020.512722,3985.640928,4046.153747,3967.692211,4036.922978,3993.333236
110,0,4000.512723,3987.69221,4009.743492,3975.384518,4009.743492,4003.076825,4027.692209,4045.128106,4023.076825,3994.358877,4050.769132,3976.410159,4045.128106,3997.94862
111,0,4016.922979,3999.999902,4021.025543,3983.589646,4015.384517,4008.20503,4028.71785,4044.615286,4027.179389,4008.717851,4062.051183,3997.94862,4029.743491,4018.46144
112,0,4016.410158,3986.153749,4019.487081,3970.769134,4002.564005,3999.487082,4021.025543,4041.025542,4022.564004,3999.487082,4056.410157,3997.4358,4027.692209,4012.307594
113,0,4012.820415,3985.128108,4019.999902,3972.820416,4002.564005,4001.025543,4025.640927,4043.589645,4023.076825,3997.94862,4051.794773,3990.769133,4040.512722,4000.512723
114,0,4003.589646,3982.051185,4013.846056,3972.820416,3999.999902,4002.564005,4021.538363,4039.487081,4024.102466,3996.410159,4043.589645,3977.948621,4033.846055,3986.666569
115,0,3993.333236,3968.717852,4007.179389,3963.589647,3988.717851,4004.615287,4018.46144,4035.384517,4018.46144,3984.102467,4033.846055,3967.17939,4026.666568,3981.025544
116,0,3993.846056,3968.717852,4006.153748,3965.128108,3983.589646,4004.615287,4017.94862,4036.922978,4016.410158,3982.051185,4033.846055,3964.102467,4027.692209,3986.666569
117,0,3997.94862,3973.846057,4003.076825,3967.17939,3982.564005,3996.410159,4013.333235,4027.179389,4006.666569,3975.897339,4029.743491,3956.92298,4023.076825,3983.076826
118,0,4008.20503,3980.512723,4011.281953,3974.358877,3993.333236,4006.153748,4023.076825,4029.743491,4010.769133,3976.410159,4028.71785,3959.999903,4028.71785,3984.615287
119,0,4017.94862,3986.153749,4022.051184,3984.615287,3998.974261,4011.281953,4029.743491,4043.589645,4032.820414,3989.230672,4033.333235,3969.230672,4038.46144,3993.333236
120,0,4023.076825,3989.743492,4022.051184,3986.666569,3996.922979,3997.94862,4015.897338,4039.487081,4032.307594,3993.333236,4037.435799,3975.384518,4036.410158,3999.999902
121,0,4009.230671,3975.384518,4001.538364,3964.102467,3983.589646,3984.615287,3997.4358,4009.743492,3991.794774,3963.589647,4026.153748,3969.230672,4025.640927,3987.69221
122,0,4022.564004,3991.281954,4013.333235,3979.999903,4001.538364,4012.820415,4019.487081,4026.666568,4002.564005,3977.4358,4038.46144,3995.384518,4043.076824,4005.640928
123,0,4037.435799,4001.538364,4029.230671,3999.999902,4013.333235,4025.640927,4032.307594,4046.666568,4025.640927,3997.94862,4046.666568,4005.640928,4054.871696,4012.820415
124,0,4059.48708,4028.20503,4058.97426,4027.179389,4035.897337,4042.564004,4056.922978,4064.102465,4047.179388,4023.589645,4063.076824,4019.999902,4062.051183,4029.743491
125,0,4066.666567,4042.564004,4070.256311,4040.512722,4047.692209,4055.897337,4069.23067,4074.871695,4057.948619,4033.846055,4071.281952,4030.256312,4066.153747,4038.97426
126,0,4071.794772,4049.23067,4070.256311,4050.769132,4059.48708,4065.640926,4074.358875,4085.640926,4067.692208,4047.179388,4073.846054,4037.948619,4075.897336,4048.205029
127,0,4061.025542,4032.820414,4056.922978,4038.46144,4046.666568,4053.846055,4064.615285,4075.897336,4056.410157,4036.410158,4063.076824,4021.025543,4067.692208,4039.487081
128,0,4068.717849,4042.051183,4068.205029,4044.615286,4050.256311,4060.512721,4074.871695,4083.076823,4074.871695,4041.025542,4068.717849,4021.538363,4067.692208,4050.256311
0,0,4062.051183,4033.333235,4059.48708,4031.281953,4041.538363,4052.307593,4061.538362,4077.435798,4080.512721,4032.307594,4058.97426,4009.743492,4066.666567,4042.051183
1,0,4055.897337,4027.692209,4051.794773,4025.640927,4036.922978,4044.102465,4056.922978,4070.256311,4081.538362,4027.179389,4052.820414,4007.179389,4068.205029,4035.897337
2,0,4044.102465,4015.897338,4041.538363,4016.410158,4023.076825,4030.256312,4047.692209,4059.999901,4088.717849,4017.94862,4047.692209,4003.076825,4061.025542,4024.615286
3,0,4042.564004,4011.794774,4038.97426,4008.717851,4017.94862,4025.640927,4038.97426,4058.97426,4112.820412,4019.999902,4050.769132,4012.820415,4064.102465,4030.256312
4,0,4047.692209,4012.307594,4042.051183,4006.153748,4016.922979,4018.46144,4026.666568,4056.410157,4130.76913,4025.640927,4051.281952,4023.589645,4073.333234,4042.051183
5,0,4053.333234,4017.435799,4049.743491,4012.820415,4019.487081,4016.410158,4027.692209,4053.846055,4129.743489,4028.20503,4044.102465,4020.512722,4073.846054,4040.512722
6,0,4052.820414,4023.076825,4054.358875,4019.487081,4026.666568,4023.589645,4034.871696,4057.435798,4123.076822,4031.281953,4040.512722,4016.922979,4070.769131,4032.820414
7,0,4049.23067,4025.640927,4052.307593,4021.538363,4034.871696,4032.820414,4039.487081,4059.999901,4123.076822,4031.794773,4045.128106,4020.512722,4073.333234,4034.871696
8,0,4047.179388,4019.999902,4043.589645,4017.94862,4030.769132,4036.410158,4041.025542,4063.076824,4126.666566,4035.897337,4046.153747,4017.94862,4075.384516,4038.97426
9,0,4033.333235,4005.128107,4027.179389,4003.076825,4015.384517,4029.230671,4033.846055,4056.922978,4113.846053,4029.230671,4030.256312,3995.384518,4067.179388,4026.153748
10,0,4045.640927,4026.153748,4045.128106,4022.564004,4036.922978,4046.153747,4053.846055,4071.794772,4125.640925,4046.666568,4040.512722,4008.20503,4076.922977,4044.615286
11,0,4053.846055,4034.871696,4054.358875,4032.307594,4042.564004,4050.769132,4060.512721,4074.358875,4127.692207,4041.538363,4045.640927,4016.922979,4081.538362,4052.307593
12,0,4053.846055,4033.846055,4052.820414,4030.769132,4038.46144,4052.307593,4060.512721,4074.358875,4124.615284,4036.410158,4037.435799,4015.897338,4077.948618,4048.205029
13,0,4049.743491,4028.20503,4046.666568,4023.076825,4037.948619,4049.743491,4055.897337,4071.281952,4118.974258,4037.435799,4030.769132,4017.435799,4073.333234,4046.153747
14,0,4087.179387,4070.769131,4084.102464,4065.640926,4076.922977,4079.48708,4087.692208,4096.922977,4148.205027,4079.9999,4071.794772,4066.666567,4102.051182,4092.820413
15,0,4106.666566,4092.307592,4104.615284,4088.205028,4091.794772,4093.846054,4103.076823,4106.666566,4158.974257,4095.897336,4095.897336,4091.281951,4119.999899,4114.358874
16,0,4101.025541,4089.230669,4107.179387,4087.179387,4098.974259,4104.102464,4108.717848,4110.76913,4158.974257,4099.487079,4095.897336,4092.820413,4120.51272,4111.794771
17,0,4090.769131,4077.435798,4099.487079,4079.48708,4092.307592,4097.948618,4099.9999,4107.179387,4153.333232,4095.384515,4090.25631,4079.48708,4112.307592,4101.025541
18,0,4112.820412,4106.153746,4118.461438,4105.640925,4104.102464,4106.666566,4113.846053,4118.974258,4170.256308,4112.307592,4102.564002,4086.666567,4122.564002,4117.948617
19,0,4110.76913,4111.281951,4114.871694,4105.640925,4105.640925,4111.794771,4115.897335,4119.487079,4169.743488,4109.743489,4092.307592,4077.948618,4119.999899,4107.692207
20,0,4099.487079,4101.538361,4105.640925,4096.410156,4105.640925,4116.922976,4116.922976,4119.487079,4165.640924,4105.640925,4086.153746,4073.846054,4111.794771,4095.384515
21,0,4101.538361,4101.538361,4106.153746,4095.384515,4101.538361,4110.25631,4109.743489,4118.461438,4166.153744,4106.666566,4091.281951,4073.333234,4115.384515,4102.051182
22,0,4116.410156,4116.922976,4116.410156,4105.128105,4110.76913,4117.435797,4117.948617,4125.128104,4173.846052,4116.410156,4096.410156,4077.948618,4127.179386,4122.564002
23,0,4118.974258,4119.487079,4117.435797,4107.179387,4119.487079,4128.205027,4128.205027,4133.333232,4179.999898,4123.076822,4098.974259,4085.640926,4128.717848,4128.205027
24,0,4115.384515,4117.948617,4118.974258,4106.666566,4118.461438,4129.743489,4130.256309,4136.410155,4182.564,4122.564002,4104.615284,4096.922977,4128.205027,4124.615284
25,0,4116.922976,4120.51272,4119.487079,4104.615284,4112.820412,4127.692207,4127.692207,4142.564001,4187.179385,4130.256309,4108.205028,4107.692207,4130.76913,4122.564002
26,0,4117.435797,4118.461438,4114.871694,4100.51272,4109.743489,4127.692207,4129.743489,4146.153745,4187.692205,4131.28195,4104.102464,4104.102464,4130.256309,4119.999899
27,0,4129.743489,4134.358873,4128.717848,4121.02554,4120.51272,4136.922976,4138.974258,4152.820411,4196.410154,4140.512719,4112.307592,4104.615284,4134.871694,4132.820412
28,0,4124.615284,4139.999899,4131.28195,4126.666566,4110.25631,4127.692207,4128.205027,4141.53836,4189.230667,4133.333232,4111.794771,4100.51272,4133.846053,4130.76913
29,0,4123.589643,4138.974258,4131.28195,4124.102463,4107.692207,4123.589643,4127.692207,4136.410155,4179.999898,4128.205027,4111.281951,4107.179387,4134.358873,4131.28195
30,0,4122.051181,4130.256309,4126.666566,4116.922976,4110.25631,4127.179386,4135.384514,4135.384514,4166.666565,4113.333233,4103.589643,4100.51272,4129.230668,4122.564002
31,0,4138.974258,4153.846052,4149.743488,4142.564001,4130.76913,4150.256309,4154.871693,4150.769129,4179.999898,4124.615284,4114.358874,4116.922976,4134.871694,4140.512719
32,0,4137.948617,4154.358873,4154.358873,4141.02554,4123.076822,4144.102463,4140.512719,4138.461437,4171.281949,4113.846053,4107.179387,4117.435797,4132.820412,4142.564001
33,0,4117.948617,4126.666566,4135.384514,4110.25631,4098.461438,4118.461438,4115.897335,4115.897335,4146.666565,4088.205028,4088.717849,4098.974259,4124.615284,4121.02554
34,0,4069.23067,4069.74349,4086.666567,4053.846055,4046.153747,4073.846054,4070.769131,4085.128105,4110.76913,4043.076824,4059.999901,4061.025542,4098.461438,4070.256311
35,0,4073.333234,4077.948618,4092.820413,4064.102465,4050.769132,4086.666567,4077.435798,4099.487079,4125.128104,4059.48708,4073.846054,4079.9999,4101.025541,4080.512721
36,0,4099.9999,4107.179387,4118.461438,4094.358874,4079.48708,4111.794771,4103.589643,4119.487079,4146.666565,4091.281951,4093.333233,4106.153746,4116.922976,4108.205028
37,0,4113.846053,4125.128104,4134.358873,4113.333233,4100.51272,4124.102463,4125.128104,4133.333232,4164.102462,4114.358874,4107.179387,4118.461438,4129.743489,4118.461438
38,0,4118.461438,4135.384514,4139.999899,4126.153745,4110.76913,4133.333232,4135.384514,4143.076822,4178.461436,4129.230668,4118.461438,4126.153745,4134.871694,4127.179386
39,0,4145.640924,4170.256308,4164.615283,4162.05118,4142.051181,4166.153744,4164.615283,4162.05118,4198.461436,4158.974257,4139.999899,4146.153745,4150.256309,4157.435796
40,0,4141.53836,4172.30759,4160.512719,4163.076821,4147.692206,4167.179385,4165.128103,4159.999898,4196.410154,4159.999898,4137.435796,4134.871694,4152.307591,4150.256309
41,0,4125.640925,4161.025539,4152.820411,4150.256309,4142.051181,4159.487078,4153.846052,4151.79477,4192.30759,4146.153745,4128.717848,4120.51272,4146.666565,4140.512719
42,0,4132.307591,4159.999898,4161.025539,4151.79477,4136.922976,4156.410155,4147.692206,4148.205027,4193.333231,4137.435796,4126.153745,4120.51272,4143.076822,4147.179386
43,0,4132.820412,4146.666565,4155.384514,4141.53836,4122.564002,4145.128104,4142.051181,4141.53836,4178.974257,4122.051181,4112.307592,4114.871694,4133.333232,4134.871694
44,0,4138.974258,4152.820411,4159.999898,4147.179386,4131.794771,4154.871693,4151.28195,4152.307591,4179.999898,4133.333232,4115.897335,4131.794771,4138.461437,4141.02554
45,0,4152.820411,4172.820411,4173.333231,4163.589642,4147.692206,4167.179385,4162.05118,4159.487078,4190.769128,4149.230668,4137.948617,4155.897334,4152.307591,4165.128103
46,0,4161.53836,4177.435795,4177.948616,4168.717847,4149.230668,4163.076821,4159.487078,4160.512719,4197.435795,4153.846052,4156.922975,4163.589642,4159.487078,4172.820411
47,0,4145.640924,4154.358873,4156.922975,4146.666565,4131.28195,4145.640924,4139.487078,4149.743488,4183.589641,4136.410155,4144.615283,4143.076822,4149.743488,4151.28195
48,0,4143.589642,4158.461437,4158.974257,4150.769129,4138.974258,4152.820411,4146.153745,4157.948616,4196.410154,4144.615283,4139.487078,4143.076822,4150.769129,4154.358873
49,0,4128.717848,4143.076822,4147.179386,4137.948617,4125.640925,4135.384514,4131.794771,4139.487078,4187.692205,4126.666566,4126.153745,4125.128104,4140.512719,4136.922976
50,0,4120.51272,4132.307591,4135.897335,4124.615284,4118.974258,4122.051181,4113.333233,4118.974258,4164.102462,4109.743489,4117.435797,4109.743489,4131.28195,4119.487079
51,0,4126.666566,4135.897335,4138.461437,4128.205027,4124.102463,4129.230668,4115.384515,4121.538361,4157.948616,4113.333233,4118.461438,4111.794771,4133.846053,4123.076822
52,0,4161.025539,4173.846052,4172.30759,4171.281949,4157.948616,4166.666565,4159.999898,4159.999898,4196.410154,4153.333232,4144.102463,4148.205027,4157.948616,4165.128103
53,0,4167.692206,4181.538359,4174.871693,4177.435795,4163.589642,4170.769129,4163.076821,4161.025539,4199.487077,4156.410155,4143.076822,4150.256309,4158.461437,4173.846052
54,0,4177.435795,4190.256308,4181.025539,4183.076821,4170.769129,4170.769129,4157.435796,4157.948616,4197.435795,4162.05118,4146.666565,4152.820411,4159.999898,4183.076821
55,0,4174.358872,4183.589641,4180.512718,4178.974257,4161.025539,4157.948616,4148.717847,4156.410155,4194.871692,4159.999898,4148.717847,4146.153745,4159.487078,4178.974257
56,0,4164.102462,4169.743488,4175.897334,4170.256308,4148.717847,4147.179386,4142.051181,4150.769129,4188.717846,4150.769129,4146.666565,4139.487078,4155.384514,4165.128103
57,0,4144.615283,4147.692206,4156.922975,4148.717847,4134.358873,4137.948617,4127.692207,4138.461437,4177.435795,4134.358873,4135.897335,4124.102463,4145.128104,4145.640924
58,0,4138.461437,4147.179386,4151.28195,4147.692206,4138.461437,4149.743488,4138.461437,4147.179386,4188.717846,4146.666565,4141.02554,4119.999899,4147.179386,4146.153745
59,0,4132.307591,4147.179386,4142.051181,4148.205027,4141.53836,4152.820411,4143.589642,4152.307591,4194.358872,4156.410155,4144.102463,4108.205028,4150.769129,4142.051181
60,0,4134.871694,4154.358873,4142.051181,4152.307591,4152.820411,4160.512719,4149.230668,4156.922975,4204.102461,4167.179385,4150.769129,4106.666566,4158.461437,4149.230668
61,0,4142.051181,4162.564001,4147.692206,4158.974257,4161.53836,4170.256308,4154.871693,4169.743488,4223.07682,4188.205026,4165.128103,4121.538361,4166.153744,4169.743488
62,0,4135.897335,4152.820411,4138.974258,4150.256309,4152.820411,4158.974257,4143.589642,4162.564001,4215.384512,4187.692205,4161.53836,4116.410156,4163.589642,4168.205026
63,0,4133.333232,4145.128104,4128.205027,4135.897335,4146.666565,4143.589642,4128.205027,4144.102463,4198.461436,4173.846052,4147.179386,4104.102464,4156.410155,4158.974257
64,0,4126.153745,4135.384514,4117.948617,4117.948617,4133.846053,4128.205027,4110.25631,4122.564002,4172.30759,4142.051181,4128.205027,4089.74349,4145.640924,4144.102463
65,0,4125.128104,4134.358873,4126.666566,4125.128104,4130.76913,4130.76913,4112.307592,4119.999899,4158.461437,4128.717848,4122.564002,4090.25631,4144.615283,4139.487078
66,0,4110.76913,4119.487079,4123.589643,4118.974258,4116.410156,4125.128104,4107.692207,4113.333233,4145.640924,4118.974258,4113.846053,4086.666567,4137.435796,4125.128104
67,0,4112.820412,4123.589643,4131.794771,4119.487079,4116.922976,4124.102463,4107.179387,4118.974258,4155.384514,4128.205027,4125.128104,4103.076823,4139.999899,4132.820412
68,0,4121.538361,4131.28195,4140.512719,4128.205027,4125.128104,4122.564002,4109.743489,4127.692207,4165.640924,4129.743489,4137.948617,4115.384515,4147.692206,4138.974258
69,0,4128.717848,4138.974258,4147.692206,4143.076822,4139.999899,4134.358873,4126.153745,4140.512719,4177.948616,4144.102463,4149.743488,4127.179386,4155.897334,4146.666565
70,0,4087.179387,4093.333233,4102.564002,4093.846054,4097.435797,4097.948618,4088.205028,4107.692207,4146.153745,4110.25631,4122.051181,4087.179387,4131.28195,4106.153746
71,0,4046.666568,4044.615286,4056.922978,4042.051183,4049.23067,4051.281952,4042.564004,4070.256311,4104.615284,4056.922978,4085.640926,4034.871696,4106.153746,4063.076824
72,0,4025.128107,4018.46144,4036.922978,4023.076825,4030.256312,4037.948619,4031.281953,4053.333234,4078.461439,4023.076825,4061.025542,4009.230671,4094.358874,4042.564004
73,0,4043.589645,4044.615286,4055.384516,4045.640927,4058.97426,4070.769131,4063.076824,4070.256311,4096.922977,4048.71785,4075.384516,4036.922978,4106.153746,4064.102465
74,0,4046.666568,4045.640927,4050.256311,4035.384517,4054.871696,4062.564003,4047.692209,4062.051183,4092.307592,4045.640927,4074.358875,4031.794773,4102.564002,4061.025542
75,0,4037.948619,4022.051184,4043.589645,4018.974261,4032.820414,4040.512722,4023.589645,4043.589645,4069.23067,4015.897338,4055.384516,4008.717851,4086.153746,4049.23067
76,0,4018.46144,3999.487082,4033.333235,4003.076825,4012.820415,4027.179389,4013.333235,4027.179389,4047.179388,3989.743492,4030.256312,3990.256313,4070.769131,4029.743491
77,0,4021.025543,4017.94862,4034.358876,4010.769133,4018.974261,4033.846055,4020.512722,4028.20503,4050.769132,3992.820415,4030.256312,3993.333236,4075.384516,4022.051184
78,0,4031.281953,4034.358876,4040.512722,4022.564004,4027.692209,4036.410158,4021.025543,4035.384517,4062.051183,4003.589646,4042.564004,4001.538364,4081.025541,4022.564004
79,0,4040.512722,4044.615286,4055.897337,4037.435799,4043.076824,4050.256311,4043.589645,4050.769132,4078.974259,4019.999902,4061.538362,4021.025543,4086.666567,4040.512722
80,0,4050.256311,4058.97426,4067.692208,4053.846055,4061.025542,4071.794772,4068.717849,4071.281952,4098.974259,4047.179388,4077.435798,4040.512722,4096.922977,4056.410157
81,0,4037.435799,4041.025542,4051.281952,4042.051183,4049.743491,4058.97426,4047.179388,4061.025542,4083.076823,4034.871696,4063.076824,4024.102466,4089.230669,4035.897337
82,0,4026.153748,4022.051184,4037.948619,4023.589645,4034.871696,4036.410158,4022.564004,4045.128106,4067.179388,4008.20503,4048.205029,4006.153748,4079.9999,4014.871697
83,0,4024.102466,4024.102466,4035.897337,4014.358876,4030.769132,4036.410158,4027.692209,4044.615286,4070.769131,4006.153748,4049.23067,4003.076825,4079.48708,4013.333235
84,0,4014.358876,4016.410158,4025.128107,4004.102466,4021.538363,4036.922978,4024.615286,4043.589645,4066.153747,4008.717851,4043.589645,3993.333236,4076.410157,4010.769133
85,0,3991.794774,3986.153749,3997.94862,3975.384518,3994.871697,4013.333235,3992.307595,4019.487081,4033.333235,3973.333236,4013.846056,3959.999903,4058.97426,3984.102467
86,0,4009.230671,4003.589646,4016.922979,3989.230672,4002.564005,4018.974261,3997.94862,4023.589645,4041.025542,3976.410159,4014.871697,3970.769134,4062.564003,3992.307595
87,0,4014.358876,4005.640928,4029.743491,3998.461441,3999.999902,4014.871697,4000.512723,4022.051184,4045.640927,3981.538364,4014.358876,3981.538364,4061.025542,3991.794774
