title:A                                                                               , recorded:02.07.20 12.46.45, sampling:128, subject:S                                                                               , labels:COUNTER INTERPOLATED AF3 F7 F3 FC5 T7 P7 O1 O2 P8 T8 FC6 F4 F8 AF4,, units:emotiv,,,,,,,,,
20,0,4159.487078,4143.076822,4130.256309,4117.435797,4148.205027,4125.128104,4131.28195,4125.640925,4131.28195,4148.717847,4128.205027,4085.640926,4120.51272,4096.922977
21,0,4194.358872,4180.512718,4164.615283,4159.999898,4187.692205,4168.717847,4166.666565,4158.461437,4177.948616,4194.358872,4174.871693,4126.666566,4157.948616,4138.974258
22,0,4199.487077,4187.692205,4172.820411,4171.281949,4201.538359,4173.333231,4169.743488,4170.769129,4194.871692,4210.769128,4190.769128,4135.384514,4166.666565,4144.615283
23,0,4174.358872,4167.692206,4151.79477,4147.179386,4189.743487,4153.333232,4154.358873,4149.743488,4172.30759,4190.256308,4166.666565,4112.307592,4148.717847,4119.487079
24,0,4179.999898,4172.30759,4158.974257,4156.922975,4199.999897,4163.589642,4161.025539,4155.897334,4177.948616,4199.487077,4171.79477,4131.28195,4153.846052,4132.307591
25,0,4178.974257,4165.128103,4158.461437,4153.333232,4191.281949,4157.435796,4150.769129,4152.307591,4168.717847,4192.82041,4173.846052,4134.358873,4152.307591,4130.256309
26,0,4147.179386,4129.743489,4125.640925,4109.743489,4152.307591,4126.666566,4119.487079,4125.128104,4136.410155,4155.897334,4145.128104,4095.384515,4128.205027,4094.358874
27,0,4127.179386,4108.717848,4108.717848,4086.666567,4130.256309,4113.333233,4108.717848,4109.743489,4121.02554,4128.205027,4126.153745,4077.435798,4113.846053,4080.512721
27,0,4127.179386,4108.717848,4108.717848,4086.666567,4130.256309,4113.333233,4108.717848,4109.743489,4121.02554,4128.205027,4126.153745,4077.435798,4113.846053,4080.512721
28,0,4165.640924,4149.230668,4150.256309,4134.871694,4168.717847,4145.128104,4146.153745,4145.128104,4162.05118,4169.230667,4162.564001,4122.564002,4142.564001,4125.128104
29,0,4190.256308,4176.410154,4168.717847,4160.512719,4190.769128,4160.512719,4165.128103,4163.076821,4186.153744,4198.461436,4178.974257,4141.02554,4158.461437,4142.564001
30,0,4207.692205,4198.974256,4179.487077,4178.974257,4212.307589,4186.153744,4186.153744,4184.102462,4209.743487,4220.512717,4193.846051,4153.846052,4171.79477,4155.384514
31,0,4195.384513,4185.128103,4172.820411,4167.692206,4204.615282,4189.743487,4184.615282,4191.281949,4211.281948,4213.33323,4189.743487,4144.615283,4164.615283,4147.179386
32,0,4185.640923,4171.281949,4168.205026,4158.461437,4195.384513,4178.974257,4184.102462,4188.717846,4198.974256,4208.205025,4179.999898,4137.435796,4157.948616,4141.53836
33,0,4178.461436,4158.461437,4155.384514,4146.153745,4174.871693,4159.999898,4172.30759,4167.179385,4168.205026,4188.717846,4172.820411,4132.307591,4152.820411,4137.435796
34,0,4187.179385,4167.692206,4159.487078,4152.820411,4177.948616,4166.153744,4174.358872,4166.153744,4167.179385,4186.153744,4185.128103,4144.102463,4159.999898,4147.692206
35,0,4174.871693,4155.897334,4150.769129,4139.999899,4171.281949,4155.897334,4166.153744,4160.512719,4164.615283,4179.487077,4172.30759,4131.28195,4151.79477,4135.897335
36,0,4184.102462,4167.179385,4161.53836,4155.384514,4181.025539,4165.128103,4181.025539,4171.79477,4175.897334,4197.948615,4177.435795,4139.487078,4162.564001,4153.846052
37,0,4186.153744,4163.589642,4157.948616,4157.948616,4177.435795,4168.717847,4176.410154,4173.846052,4178.461436,4195.384513,4178.974257,4137.948617,4164.615283,4155.384514
38,0,4184.102462,4164.102462,4156.410155,4155.897334,4183.076821,4169.743488,4172.30759,4173.846052,4186.153744,4191.281949,4177.435795,4132.820412,4161.53836,4147.179386
39,0,4183.589641,4173.333231,4159.999898,4160.512719,4190.256308,4168.717847,4172.820411,4172.820411,4189.743487,4197.435795,4176.922975,4134.871694,4166.153744,4148.205027
40,0,4190.769128,4179.487077,4165.128103,4167.179385,4190.256308,4175.384513,4175.897334,4176.922975,4189.743487,4206.153743,4183.076821,4139.487078,4174.358872,4157.435796
41,0,4187.179385,4168.205026,4157.435796,4157.948616,4175.384513,4171.281949,4164.615283,4172.30759,4182.564,4199.487077,4179.999898,4130.76913,4167.692206,4152.307591
42,0,4190.256308,4173.846052,4166.153744,4163.589642,4182.564,4177.948616,4173.333231,4176.410154,4189.743487,4203.07682,4182.05118,4134.358873,4167.692206,4152.307591
43,0,4200.512718,4189.230667,4179.487077,4179.487077,4201.538359,4191.281949,4189.230667,4193.333231,4209.230666,4222.563999,4192.30759,4150.256309,4175.897334,4163.076821
44,0,4191.794769,4174.871693,4168.205026,4167.179385,4182.564,4174.871693,4171.281949,4176.922975,4187.692205,4206.153743,4182.564,4141.02554,4167.179385,4156.922975
45,0,4189.743487,4170.256308,4167.179385,4158.974257,4168.717847,4165.128103,4162.05118,4157.948616,4167.692206,4189.230667,4176.922975,4138.461437,4159.999898,4154.358873
46,0,4191.794769,4176.410154,4173.846052,4164.102462,4175.897334,4171.79477,4174.358872,4164.102462,4173.333231,4184.102462,4173.846052,4143.076822,4158.461437,4153.333232
47,0,4224.102461,4212.307589,4202.051179,4205.128102,4216.410153,4207.179384,4207.692205,4201.538359,4217.435794,4219.999897,4202.051179,4174.358872,4182.564,4186.666564
48,0,4238.974255,4223.07682,4212.307589,4217.435794,4229.230666,4217.948615,4213.846051,4204.615282,4224.615281,4236.922973,4219.487076,4190.769128,4194.871692,4204.102461
49,0,4245.128101,4231.281948,4221.025538,4223.58964,4235.897332,4224.615281,4223.58964,4208.717846,4231.794768,4250.256306,4228.205025,4201.538359,4206.153743,4211.281948
50,0,4223.58964,4214.871692,4203.07682,4207.179384,4213.846051,4212.307589,4205.640923,4200.512718,4222.051179,4232.820409,4205.128102,4175.384513,4195.384513,4187.179385
51,0,4218.461435,4208.205025,4190.769128,4196.922974,4200.512718,4201.538359,4187.179385,4184.102462,4206.153743,4217.435794,4196.410154,4158.461437,4186.153744,4175.897334
52,0,4211.794769,4189.743487,4181.538359,4181.025539,4193.846051,4184.615282,4177.948616,4169.230667,4192.30759,4207.179384,4196.922974,4155.897334,4178.974257,4169.230667
53,0,4221.025538,4202.051179,4196.922974,4200.512718,4215.897333,4200.512718,4206.153743,4194.871692,4215.897333,4234.871691,4214.358871,4180.512718,4193.846051,4185.640923
54,0,4226.153743,4217.435794,4196.410154,4207.179384,4214.358871,4206.153743,4206.666564,4199.999897,4219.999897,4234.358871,4210.256307,4178.974257,4196.922974,4188.717846
55,0,4267.179383,4260.512716,4220.512717,4237.435794,4234.871691,4227.692204,4221.538358,4211.794769,4242.051178,4247.692204,4230.769127,4200.512718,4214.358871,4221.025538
56,0,4307.692202,4300.512715,4253.84605,4279.487075,4265.640921,4257.435793,4249.743486,4238.461435,4278.974254,4280.512716,4262.563998,4237.435794,4237.435794,4259.999896
57,0,4317.435792,4313.846048,4264.61528,4290.256305,4271.794767,4269.743485,4264.61528,4250.256306,4282.563998,4298.461433,4271.794767,4250.769127,4244.615281,4273.333229
58,0,4304.615279,4297.948613,4251.281947,4266.666562,4249.230665,4250.256306,4244.615281,4238.974255,4259.999896,4285.1281,4260.512716,4241.538358,4236.410153,4267.179383
59,0,4317.435792,4308.205023,4265.128101,4281.025536,4264.10246,4258.974255,4255.384511,4252.307588,4279.487075,4290.256305,4265.640921,4252.307588,4243.076819,4276.922972
60,0,4336.41015,4333.333227,4285.640921,4311.794766,4297.948613,4291.794767,4287.692203,4281.538357,4322.051176,4321.025535,4279.487075,4267.179383,4256.922973,4288.205023
61,0,4314.871689,4313.846048,4267.692203,4293.333228,4284.102459,4287.179382,4277.435793,4269.743485,4312.820407,4312.820407,4266.666562,4247.179383,4245.128101,4267.692203
62,0,4292.307587,4288.717844,4250.769127,4269.230665,4260.512716,4268.205024,4256.922973,4249.230665,4286.666562,4288.205023,4248.205024,4227.692204,4227.692204,4241.025537
63,0,4291.794767,4284.102459,4250.769127,4265.640921,4257.435793,4257.948614,4251.794768,4245.640922,4278.461434,4278.974254,4239.487076,4227.692204,4223.58964,4234.871691
64,0,4297.435792,4289.230664,4255.897332,4271.794767,4269.230665,4261.025537,4251.794768,4247.692204,4283.589639,4292.820408,4251.281947,4241.538358,4234.358871,4250.769127
65,0,4277.948613,4273.333229,4241.025537,4253.333229,4254.871691,4254.871691,4237.435794,4228.717845,4264.61528,4281.025536,4249.230665,4231.281948,4228.205025,4237.435794
66,0,4287.179382,4284.102459,4251.281947,4260.512716,4257.948614,4266.666562,4254.35887,4241.538358,4277.435793,4293.333228,4258.461434,4239.999896,4234.871691,4240.512717
67,0,4286.153741,4276.922972,4249.743486,4256.410152,4249.230665,4262.051178,4256.410152,4248.205024,4277.435793,4291.281946,4252.820409,4234.871691,4232.307589,4239.999896
68,0,4297.435792,4290.769126,4261.538357,4275.897331,4268.205024,4278.461434,4271.794767,4262.563998,4286.153741,4302.563997,4264.10246,4243.58964,4244.615281,4256.410152
69,0,4318.461433,4317.435792,4283.076818,4300.512715,4294.87169,4296.410151,4289.230664,4275.897331,4306.666561,4324.102458,4281.538357,4262.563998,4259.999896,4275.897331
70,0,4364.615278,4368.205021,4327.179381,4351.794765,4343.589637,4331.794766,4326.666561,4311.281946,4352.307586,4375.384508,4326.15374,4312.820407,4294.358869,4330.256304
71,0,4386.153739,4390.256303,4344.102458,4376.410149,4364.615278,4347.692201,4338.461432,4327.179381,4371.794765,4396.410149,4344.615278,4331.281945,4312.307587,4353.333227
72,0,4376.92297,4382.563995,4335.384509,4365.640919,4358.461432,4338.461432,4327.692202,4322.563997,4369.743483,4388.205021,4329.743484,4312.307587,4303.589638,4330.769125
73,0,4339.487073,4346.15374,4306.666561,4331.281945,4323.076817,4307.179382,4297.948613,4293.333228,4335.89733,4349.743483,4296.922972,4278.974254,4272.820408,4292.307587
74,0,4363.589637,4376.92297,4330.769125,4362.563996,4345.128099,4336.41015,4326.666561,4306.666561,4346.15374,4369.743483,4319.999894,4312.820407,4294.358869,4324.102458
75,0,4404.615277,4423.076815,4365.128098,4402.051174,4386.666559,4367.17938,4355.384509,4337.948612,4383.589636,4415.384507,4358.974252,4360.512714,4329.230663,4363.076816
76,0,4396.410149,4415.897328,4356.92297,4390.769123,4383.589636,4352.820406,4340.512714,4335.384509,4382.051175,4414.358866,4359.487073,4351.794765,4322.051176,4353.846047
77,0,4367.17938,4384.102457,4328.717843,4358.974252,4351.794765,4333.333227,4315.89733,4309.230664,4357.435791,4388.205021,4338.974253,4317.948612,4303.589638,4328.717843
78,0,4359.487073,4370.256303,4321.025535,4346.66656,4334.871689,4326.15374,4308.205023,4294.358869,4347.179381,4369.743483,4327.179381,4309.743484,4298.974254,4318.461433
79,0,4346.15374,4350.769124,4315.38451,4329.230663,4316.922971,4301.025536,4292.820408,4287.179382,4329.743484,4342.563996,4309.230664,4301.025536,4281.025536,4300.512715
80,0,4333.846048,4337.435791,4308.205023,4314.871689,4304.615279,4289.743485,4286.153741,4281.538357,4312.307587,4327.179381,4294.358869,4289.743485,4266.666562,4288.205023
81,0,4347.692201,4352.820406,4319.999894,4331.794766,4319.999894,4311.794766,4303.589638,4292.820408,4328.205022,4351.794765,4306.666561,4298.461433,4282.563998,4304.102459
82,0,4357.948611,4365.640919,4332.307586,4348.717842,4334.871689,4327.692202,4321.025535,4307.692202,4349.230663,4367.17938,4319.999894,4305.64092,4292.820408,4317.435792
83,0,4378.974252,4390.256303,4350.256304,4371.281944,4358.974252,4350.256304,4346.15374,4330.256304,4370.256303,4383.589636,4332.820407,4325.128099,4301.538356,4336.922971
84,0,4369.743483,4379.487072,4336.41015,4355.897329,4342.563996,4336.922971,4328.717843,4314.871689,4349.743483,4365.128098,4314.358869,4313.333228,4291.281946,4319.999894
85,0,4357.948611,4366.66656,4327.179381,4343.589637,4323.076817,4315.89733,4311.281946,4308.717843,4345.128099,4358.974252,4310.769125,4306.666561,4288.205023,4308.205023
86,0,4346.15374,4354.871688,4323.076817,4333.846048,4313.846048,4308.717843,4308.205023,4310.769125,4346.66656,4355.897329,4313.333228,4304.102459,4282.563998,4296.922972
87,0,4371.281944,4382.563995,4347.692201,4361.025534,4346.15374,4340.512714,4337.435791,4333.846048,4365.640919,4386.153739,4341.025535,4331.794766,4302.563997,4327.692202
88,0,4378.461431,4386.666559,4349.230663,4364.615278,4347.179381,4342.563996,4334.358868,4332.307586,4369.743483,4397.43579,4352.820406,4339.999894,4314.871689,4351.281945
89,0,4369.743483,4371.794765,4336.922971,4351.281945,4332.307586,4332.820407,4327.692202,4323.076817,4371.794765,4391.281944,4350.256304,4331.794766,4312.820407,4349.743483
90,0,4350.256304,4349.230663,4317.948612,4330.769125,4313.846048,4319.487074,4314.871689,4306.153741,4349.230663,4362.051175,4326.666561,4311.281946,4297.948613,4329.743484
91,0,4380.512713,4389.743482,4350.769124,4367.17938,4351.794765,4354.358868,4346.15374,4330.769125,4369.743483,4385.640918,4344.615278,4341.538355,4321.025535,4368.205021
92,0,4418.46143,4434.358866,4388.717841,4408.717841,4395.384508,4392.820405,4381.025534,4363.076816,4413.846046,4431.794763,4381.025534,4381.025534,4350.256304,4411.281943
93,0,4431.794763,4450.769122,4402.563995,4426.666558,4410.769123,4405.640918,4394.871687,4377.43579,4434.358866,4454.871686,4397.43579,4393.333226,4360.512714,4417.94861
94,0,4418.46143,4441.538353,4385.640918,4414.871687,4398.461431,4396.922969,4385.128098,4371.794765,4426.153738,4445.640917,4380.512713,4375.897329,4351.794765,4394.871687
95,0,4418.974251,4444.102455,4382.563995,4414.871687,4405.640918,4406.153738,4394.358867,4375.897329,4434.358866,4446.666558,4382.563995,4376.410149,4351.794765,4389.230662
96,0,4428.71784,4454.358865,4399.487072,4429.743481,4421.025533,4413.846046,4402.563995,4383.076816,4446.153737,4460.512711,4407.6922,4393.846046,4363.589637,4408.20502
97,0,4448.205019,4474.871685,4422.051174,4453.846045,4438.97425,4425.128097,4413.333225,4396.922969,4456.410147,4484.615275,4429.230661,4419.487071,4379.487072,4436.922968
98,0,4465.128096,4488.205018,4430.769122,4468.717839,4452.307583,4441.538353,4430.769122,4416.410148,4479.99989,4504.102454,4436.410148,4436.410148,4389.230662,4444.615276
99,0,4447.692199,4464.102455,4414.871687,4445.640917,4429.743481,4429.230661,4417.94861,4398.461431,4462.563993,4478.974249,4422.563994,4415.897328,4376.92297,4423.589635
100,0,4437.435789,4454.871686,4412.307584,4437.435789,4421.538353,4410.769123,4400.512713,4380.512713,4436.410148,4466.666557,4417.94861,4408.717841,4372.307585,4424.102456
101,0,4443.589635,4466.666557,4415.384507,4447.692199,4429.743481,4405.640918,4403.076815,4385.640918,4438.97425,4469.23066,4414.871687,4411.794764,4373.846047,4426.666558
102,0,4456.410147,4483.589634,4423.076815,4463.589634,4441.025532,4417.435789,4422.563994,4407.6922,4465.128096,4476.410147,4418.46143,4411.281943,4381.538354,4428.71784
103,0,4426.666558,4450.769122,4400.512713,4431.281943,4411.794764,4394.871687,4401.538354,4387.17938,4440.512712,4440.512712,4390.769123,4372.307585,4359.999893,4402.051174
104,0,4407.179379,4429.230661,4384.615277,4409.230661,4394.358867,4386.666559,4391.281944,4373.333226,4422.563994,4423.589635,4375.384508,4360.512714,4342.051176,4389.230662
105,0,4392.820405,4410.769123,4369.230662,4388.717841,4375.897329,4375.384508,4381.025534,4365.128098,4410.769123,4411.794764,4366.66656,4356.92297,4330.769125,4372.820406
106,0,4400.512713,4416.410148,4378.974252,4396.922969,4387.6922,4369.743483,4378.974252,4370.769124,4412.307584,4423.589635,4375.897329,4366.66656,4337.435791,4375.897329
107,0,4378.974252,4391.794764,4362.051175,4378.974252,4366.66656,4342.051176,4348.717842,4349.743483,4391.281944,4402.051174,4359.487073,4349.743483,4317.948612,4354.871688
108,0,4358.974252,4369.230662,4349.230663,4358.461432,4343.076817,4341.538355,4342.563996,4332.307586,4370.256303,4378.461431,4346.66656,4335.89733,4301.538356,4339.487073
109,0,4373.333226,4382.563995,4363.076816,4369.743483,4358.461432,4361.538355,4365.640919,4346.15374,4379.487072,4393.846046,4356.92297,4352.307586,4316.410151,4352.820406
110,0,4422.051174,4433.333225,4403.589636,4422.051174,4406.666559,4392.307585,4404.102456,4386.153739,4432.820404,4443.076814,4394.871687,4396.410149,4350.769124,4397.43579
111,0,4428.71784,4438.97425,4407.179379,4430.769122,4408.20502,4397.94861,4403.076815,4388.717841,4442.563994,4446.153737,4403.076815,4395.897328,4351.281945,4407.179379
112,0,4425.128097,4439.487071,4406.666559,4428.20502,4407.179379,4406.153738,4405.128097,4384.615277,4431.281943,4440.512712,4399.487072,4390.256303,4353.846047,4411.794764
113,0,4434.871686,4453.333224,4413.846046,4441.025532,4415.897328,4405.640918,4408.717841,4388.717841,4434.358866,4444.102455,4399.999892,4399.999892,4363.076816,4421.025533
114,0,4435.897327,4447.692199,4404.615277,4436.922968,4407.179379,4392.820405,4399.487072,4381.025534,4428.71784,4433.333225,4393.333226,4392.820405,4352.307586,4408.20502
115,0,4432.307584,4445.640917,4398.974251,4427.692199,4405.640918,4395.384508,4398.974251,4385.640918,4434.871686,4434.871686,4389.230662,4386.153739,4347.692201,4398.974251
116,0,4431.794763,4452.820404,4408.20502,4432.820404,4415.897328,4405.128097,4407.6922,4397.94861,4447.179378,4447.179378,4397.94861,4395.384508,4357.948611,4409.230661
117,0,4435.384507,4454.871686,4414.871687,4442.051173,4421.025533,4408.20502,4406.666559,4396.410149,4445.128096,4457.435788,4414.358866,4404.615277,4364.615278,4419.487071
118,0,4410.256302,4433.846045,4392.820405,4421.025533,4399.999892,4389.230662,4383.076816,4368.205021,4416.410148,4431.281943,4395.384508,4379.487072,4347.179381,4398.974251
119,0,4377.948611,4410.256302,4372.307585,4395.897328,4381.538354,4371.794765,4371.794765,4357.948611,4409.230661,4408.717841,4369.743483,4356.92297,4329.743484,4378.974252
120,0,4358.461432,4381.538354,4354.871688,4371.794765,4364.615278,4358.974252,4362.563996,4351.794765,4398.461431,4391.281944,4352.820406,4337.435791,4316.410151,4355.897329
121,0,4396.410149,4421.025533,4380.512713,4407.6922,4402.563995,4397.43579,4395.384508,4380.512713,4426.666558,4431.794763,4385.640918,4362.563996,4343.076817,4386.153739
122,0,4412.307584,4448.71784,4394.871687,4431.281943,4424.615276,4412.820405,4409.743482,4389.230662,4443.076814,4450.769122,4402.051174,4375.384508,4358.974252,4408.20502
123,0,4392.307585,4426.666558,4376.92297,4413.846046,4401.538354,4387.17938,4383.589636,4362.563996,4420.512712,4421.025533,4382.051175,4354.358868,4345.128099,4391.794764
124,0,4354.871688,4381.025534,4341.025535,4366.153739,4353.333227,4349.230663,4338.461432,4323.076817,4372.820406,4367.17938,4341.538355,4315.38451,4311.281946,4356.41015
125,0,4380.512713,4414.358866,4371.794765,4394.871687,4385.640918,4384.102457,4373.333226,4349.743483,4391.794764,4392.820405,4360.512714,4345.640919,4327.692202,4381.025534
126,0,4413.333225,4451.281942,4404.102456,4437.435789,4425.640917,4420.512712,4413.333225,4387.17938,4435.384507,4438.46143,4393.333226,4382.563995,4356.41015,4398.974251
127,0,4403.589636,4432.820404,4390.256303,4423.076815,4404.102456,4395.897328,4393.333226,4383.589636,4438.97425,4434.358866,4391.281944,4374.871688,4350.256304,4385.640918
128,0,4356.92297,4379.487072,4350.769124,4365.128098,4345.128099,4343.076817,4339.487073,4342.051176,4384.615277,4382.563995,4355.897329,4336.41015,4315.38451,4353.846047
0,0,4345.128099,4373.846047,4347.179381,4354.871688,4339.999894,4344.615278,4339.487073,4329.230663,4361.025534,4371.281944,4351.794765,4332.820407,4311.794766,4350.256304
1,0,4335.89733,4367.692201,4334.871689,4348.717842,4333.846048,4344.102458,4336.41015,4323.589638,4359.999893,4365.640919,4346.66656,4321.538356,4310.256305,4342.563996
2,0,4310.256305,4333.846048,4307.692202,4315.89733,4293.333228,4318.974253,4306.666561,4297.948613,4334.358868,4329.230663,4316.922971,4286.153741,4284.61528,4312.820407
3,0,4307.692202,4328.205022,4305.1281,4310.256305,4280.512716,4314.871689,4295.897331,4287.179382,4318.974253,4310.769125,4307.179382,4277.948613,4276.410152,4307.179382
4,0,4332.307586,4361.538355,4329.743484,4344.102458,4317.435792,4342.563996,4326.15374,4307.179382,4339.487073,4337.435791,4330.769125,4304.102459,4298.974254,4336.922971
5,0,4353.333227,4381.025534,4346.66656,4369.230662,4349.230663,4370.256303,4359.999893,4335.384509,4367.17938,4373.333226,4350.769124,4328.717843,4316.922971,4357.435791
6,0,4351.281945,4373.333226,4341.538355,4362.051175,4344.615278,4375.897329,4364.102457,4346.66656,4376.92297,4376.410149,4352.820406,4331.281945,4315.89733,4353.846047
7,0,4354.358868,4378.974252,4348.205022,4365.128098,4345.640919,4371.794765,4358.461432,4357.948611,4389.230662,4380.512713,4367.17938,4342.051176,4320.512715,4363.589637
8,0,4347.692201,4378.461431,4350.769124,4366.153739,4348.205022,4355.897329,4344.615278,4346.66656,4372.307585,4368.717842,4357.948611,4335.384509,4314.358869,4350.769124
9,0,4351.281945,4384.102457,4354.871688,4375.384508,4362.051175,4362.563996,4353.846047,4346.15374,4371.794765,4375.897329,4348.205022,4330.256304,4313.846048,4339.999894
10,0,4348.205022,4372.820406,4349.230663,4368.205021,4351.281945,4367.17938,4356.41015,4350.769124,4379.487072,4379.487072,4350.256304,4326.666561,4313.846048,4340.512714
11,0,4346.66656,4367.17938,4349.743483,4364.102457,4339.999894,4365.128098,4348.717842,4351.281945,4376.92297,4379.999893,4361.025534,4332.820407,4316.410151,4350.769124
12,0,4312.307587,4336.41015,4318.461433,4328.205022,4309.743484,4327.692202,4309.743484,4311.281946,4333.846048,4338.461432,4325.128099,4295.897331,4288.205023,4314.871689
13,0,4310.769125,4342.051176,4311.281946,4328.717843,4317.948612,4330.256304,4317.435792,4303.589638,4330.256304,4329.230663,4310.769125,4278.974254,4283.589639,4306.153741
14,0,4328.717843,4357.948611,4324.615279,4345.128099,4337.948612,4354.358868,4340.512714,4317.435792,4343.589637,4341.025535,4322.051176,4287.692203,4292.307587,4318.974253
15,0,4354.871688,4381.538354,4351.281945,4369.743483,4363.589637,4380.512713,4363.076816,4340.512714,4366.66656,4370.769124,4344.615278,4319.999894,4311.281946,4342.563996
16,0,4360.512714,4388.717841,4356.92297,4374.871688,4368.717842,4381.025534,4363.589637,4351.794765,4383.076816,4390.256303,4358.461432,4338.974253,4327.179381,4352.307586
17,0,4364.615278,4393.846046,4357.435791,4378.461431,4375.384508,4382.051175,4366.153739,4362.051175,4397.94861,4401.025533,4374.358867,4352.307586,4338.461432,4369.743483
18,0,4339.999894,4359.487073,4333.846048,4348.717842,4349.743483,4361.538355,4337.948612,4341.025535,4373.333226,4371.794765,4352.307586,4328.717843,4314.871689,4351.281945
19,0,4323.589638,4336.41015,4330.769125,4330.769125,4333.846048,4356.92297,4332.307586,4330.769125,4357.435791,4355.384509,4334.358868,4313.846048,4300.512715,4331.281945
20,0,4326.15374,4347.692201,4342.051176,4340.512714,4343.589637,4359.999893,4341.025535,4338.461432,4365.128098,4362.563996,4343.589637,4322.051176,4309.743484,4337.435791
21,0,4324.102458,4353.846047,4331.281945,4336.922971,4341.025535,4343.076817,4325.128099,4321.538356,4350.256304,4351.794765,4338.461432,4312.307587,4303.076818,4334.871689
22,0,4322.563997,4352.820406,4318.461433,4330.769125,4330.769125,4333.846048,4311.281946,4304.102459,4333.846048,4340.512714,4325.128099,4300.512715,4293.333228,4324.615279
23,0,4318.974253,4356.41015,4318.974253,4331.281945,4326.666561,4338.461432,4313.846048,4300.512715,4326.666561,4332.307586,4318.974253,4295.38451,4294.358869,4319.487074
24,0,4303.076818,4341.538355,4307.692202,4315.89733,4313.846048,4327.179381,4297.435792,4292.307587,4317.948612,4316.922971,4304.615279,4277.435793,4283.076818,4306.153741
25,0,4296.922972,4324.102458,4298.974254,4298.974254,4302.563997,4312.307587,4287.692203,4289.743485,4313.846048,4307.692202,4289.743485,4265.128101,4271.794767,4296.410151
26,0,4330.769125,4354.358868,4327.692202,4326.666561,4334.871689,4351.794765,4330.769125,4323.589638,4350.769124,4344.102458,4314.871689,4301.538356,4296.410151,4330.769125
27,0,4323.589638,4349.743483,4319.999894,4316.922971,4332.820407,4359.999893,4332.820407,4321.538356,4349.230663,4339.999894,4313.846048,4304.102459,4296.922972,4330.769125
28,0,4313.333228,4341.025535,4307.179382,4308.717843,4321.538356,4339.487073,4312.820407,4307.179382,4330.256304,4328.717843,4306.153741,4292.307587,4286.666562,4318.461433
29,0,4329.743484,4359.999893,4319.487074,4330.256304,4329.230663,4342.051176,4318.974253,4315.38451,4335.384509,4340.512714,4313.846048,4301.025536,4292.307587,4326.15374
38,0,4303.076818,4324.615279,4307.692202,4306.153741,4311.281946,4336.922971,4316.410151,4316.410151,4334.871689,4323.589638,4293.333228,4288.205023,4285.640921,4303.589638
39,0,4332.820407,4361.025534,4337.948612,4339.999894,4336.41015,4358.974252,4338.461432,4335.89733,4356.41015,4359.487073,4322.563997,4319.999894,4308.717843,4344.102458
40,0,4363.076816,4396.410149,4363.589637,4380.512713,4377.43579,4397.94861,4370.256303,4362.563996,4389.230662,4393.846046,4352.820406,4348.717842,4334.871689,4376.92297
41,0,4371.794765,4409.743482,4367.17938,4392.820405,4394.871687,4418.974251,4384.102457,4377.43579,4414.871687,4406.153738,4360.512714,4354.871688,4343.076817,4379.999893
42,0,4351.281945,4389.230662,4355.384509,4369.743483,4370.769124,4397.43579,4364.615278,4362.051175,4395.384508,4385.640918,4342.051176,4335.384509,4325.128099,4355.384509
43,0,4351.281945,4387.17938,4366.66656,4374.358867,4367.692201,4389.230662,4363.076816,4354.871688,4377.948611,4383.076816,4338.974253,4335.89733,4322.563997,4354.871688
44,0,4346.15374,4376.410149,4362.563996,4366.66656,4358.974252,4386.153739,4361.025534,4347.692201,4367.17938,4374.358867,4331.794766,4330.769125,4318.461433,4351.281945
45,0,4335.384509,4361.025534,4349.743483,4349.230663,4345.128099,4374.871688,4345.128099,4341.538355,4368.205021,4365.128098,4325.64092,4323.076817,4311.281946,4340.512714
46,0,4326.15374,4346.66656,4340.512714,4337.948612,4330.256304,4358.974252,4329.743484,4328.205022,4355.897329,4348.205022,4312.307587,4311.281946,4301.025536,4326.15374
47,0,4340.512714,4358.461432,4354.358868,4354.871688,4338.461432,4381.538354,4354.871688,4345.640919,4368.717842,4361.025534,4318.974253,4328.205022,4313.333228,4345.128099
48,0,4338.974253,4351.794765,4348.205022,4344.102458,4332.307586,4383.076816,4355.384509,4353.846047,4376.92297,4364.102457,4322.051176,4330.769125,4316.410151,4347.179381
49,0,4352.820406,4368.205021,4356.41015,4354.358868,4349.743483,4386.153739,4358.974252,4361.025534,4388.205021,4383.589636,4343.076817,4342.563996,4326.15374,4357.435791
50,0,4344.102458,4358.461432,4354.358868,4352.307586,4347.692201,4384.102457,4354.358868,4352.307586,4377.43579,4381.538354,4344.615278,4341.538355,4323.589638,4353.846047
51,0,4344.615278,4355.384509,4358.974252,4353.333227,4344.102458,4389.230662,4357.435791,4359.999893,4387.6922,4388.205021,4350.769124,4350.769124,4329.230663,4365.128098
52,0,4353.333227,4367.692201,4356.92297,4356.92297,4338.461432,4373.333226,4345.128099,4355.897329,4387.6922,4385.128098,4347.692201,4344.615278,4327.692202,4370.256303
53,0,4359.487073,4382.051175,4355.897329,4366.153739,4348.205022,4367.692201,4342.051176,4347.179381,4375.384508,4376.92297,4331.281945,4329.230663,4321.025535,4362.051175
54,0,4325.128099,4347.692201,4331.281945,4334.871689,4328.205022,4351.794765,4322.563997,4325.64092,4347.179381,4347.692201,4298.461433,4298.974254,4301.025536,4324.102458
55,0,4321.538356,4345.128099,4336.41015,4331.794766,4326.15374,4361.025534,4331.794766,4327.692202,4351.794765,4348.205022,4305.64092,4307.179382,4303.589638,4327.692202
64,0,4328.205022,4346.15374,4342.051176,4339.487073,4328.717843,4362.563996,4336.41015,4333.333227,4348.717842,4350.769124,4308.717843,4316.410151,4303.076818,4329.230663
65,0,4314.871689,4336.41015,4330.256304,4326.666561,4312.307587,4354.358868,4325.64092,4326.15374,4340.512714,4335.384509,4300.512715,4306.153741,4296.410151,4315.38451
66,0,4307.179382,4327.692202,4330.256304,4325.64092,4315.38451,4349.230663,4328.205022,4326.666561,4337.435791,4330.769125,4299.999895,4303.076818,4293.846049,4312.307587
67,0,4305.64092,4320.512715,4328.717843,4318.974253,4312.820407,4351.281945,4329.230663,4329.743484,4337.435791,4336.41015,4300.512715,4297.948613,4292.820408,4310.256305
68,0,4337.948612,4359.487073,4352.307586,4349.230663,4338.461432,4386.666559,4361.025534,4356.92297,4371.281944,4374.871688,4325.128099,4321.025535,4312.820407,4341.538355
69,0,4353.333227,4384.102457,4364.615278,4373.846047,4361.538355,4399.999892,4373.846047,4371.281944,4392.307585,4390.256303,4338.974253,4337.435791,4325.128099,4359.999893
70,0,4356.92297,4390.256303,4370.769124,4384.102457,4373.333226,4399.999892,4375.384508,4374.358867,4393.846046,4392.307585,4346.66656,4345.640919,4335.89733,4365.640919
71,0,4341.538355,4369.230662,4354.871688,4362.563996,4349.230663,4383.076816,4356.41015,4352.820406,4368.205021,4371.281944,4338.974253,4328.205022,4324.615279,4348.205022
72,0,4331.794766,4352.307586,4339.487073,4342.051176,4329.230663,4370.769124,4342.563996,4332.307586,4347.692201,4349.743483,4325.64092,4311.794766,4308.205023,4331.281945
73,0,4312.307587,4327.692202,4322.563997,4317.435792,4310.256305,4350.256304,4323.076817,4313.846048,4329.230663,4329.230663,4301.538356,4293.333228,4294.87169,4303.589638
74,0,4320.512715,4337.948612,4335.89733,4331.281945,4326.15374,4358.974252,4331.794766,4325.64092,4339.999894,4342.051176,4312.307587,4303.076818,4303.589638,4315.89733
75,0,4344.615278,4366.66656,4349.743483,4354.358868,4351.281945,4367.692201,4339.999894,4340.512714,4358.974252,4357.948611,4333.333227,4315.38451,4315.89733,4353.846047
76,0,4350.256304,4366.153739,4342.051176,4344.615278,4337.435791,4351.281945,4324.615279,4322.051176,4342.051176,4342.563996,4319.999894,4303.076818,4313.333228,4363.076816
77,0,4361.025534,4364.615278,4347.179381,4344.102458,4325.128099,4353.333227,4323.589638,4314.871689,4333.846048,4343.076817,4316.410151,4308.205023,4314.871689,4371.281944
78,0,4373.846047,4377.948611,4359.487073,4359.487073,4345.128099,4373.846047,4342.051176,4331.794766,4356.92297,4361.538355,4338.974253,4322.563997,4324.102458,4385.640918
79,0,4365.128098,4376.92297,4351.794765,4358.461432,4358.461432,4370.256303,4339.999894,4336.41015,4363.076816,4360.512714,4342.563996,4314.871689,4327.179381,4372.820406
80,0,4341.025535,4350.769124,4332.307586,4334.358868,4337.435791,4348.205022,4321.025535,4315.89733,4333.846048,4332.307586,4313.333228,4288.717844,4309.230664,4341.025535
81,0,4356.92297,4364.615278,4352.820406,4349.743483,4346.15374,4367.692201,4342.563996,4333.333227,4349.230663,4356.41015,4327.179381,4307.179382,4317.435792,4363.589637
82,0,4373.846047,4382.051175,4372.307585,4372.307585,4364.615278,4391.281944,4365.128098,4358.461432,4374.358867,4385.640918,4351.794765,4330.256304,4336.922971,4385.640918
83,0,4387.17938,4396.410149,4384.615277,4392.307585,4383.589636,4404.615277,4378.461431,4376.410149,4399.999892,4401.538354,4365.128098,4347.179381,4350.769124,4391.281944
84,0,4376.410149,4386.153739,4374.358867,4380.512713,4370.256303,4387.6922,4364.615278,4364.615278,4392.307585,4390.256303,4357.435791,4338.974253,4341.025535,4379.487072
85,0,4376.410149,4390.256303,4375.897329,4381.538354,4371.281944,4392.307585,4369.743483,4366.153739,4383.076816,4396.922969,4366.66656,4345.128099,4343.589637,4383.589636
86,0,4357.948611,4366.153739,4355.384509,4357.948611,4354.871688,4379.999893,4347.692201,4346.15374,4356.41015,4368.205021,4346.66656,4328.205022,4329.743484,4365.128098
87,0,4348.717842,4354.871688,4347.179381,4345.128099,4347.179381,4362.563996,4329.230663,4328.717843,4345.128099,4346.66656,4327.179381,4313.846048,4320.512715,4358.974252
88,0,4352.820406,4362.563996,4354.871688,4350.256304,4349.230663,4360.512714,4333.846048,4333.333227,4350.769124,4354.358868,4332.307586,4318.461433,4324.615279,4364.615278
89,0,4383.589636,4396.410149,4379.487072,4381.538354,4379.487072,4395.897328,4371.281944,4369.230662,4388.205021,4396.922969,4367.692201,4349.230663,4349.230663,4390.256303
90,0,4381.538354,4391.794764,4370.256303,4373.333226,4378.974252,4390.256303,4364.615278,4368.205021,4388.205021,4395.384508,4366.66656,4343.076817,4348.205022,4387.17938
91,0,4364.615278,4373.846047,4356.92297,4354.358868,4361.025534,4370.256303,4342.051176,4346.66656,4357.435791,4365.640919,4349.230663,4321.538356,4333.333227,4371.281944
92,0,4356.92297,4368.205021,4354.358868,4349.230663,4353.846047,4366.66656,4338.974253,4342.051176,4349.230663,4354.358868,4338.974253,4310.769125,4323.076817,4358.461432
93,0,4357.435791,4370.769124,4354.358868,4352.307586,4361.538355,4372.307585,4350.256304,4347.692201,4366.66656,4362.051175,4334.871689,4310.769125,4317.948612,4354.358868
94,0,4355.897329,4365.640919,4349.743483,4352.307586,4361.025534,4374.358867,4352.820406,4345.128099,4370.769124,4362.051175,4331.281945,4307.692202,4320.512715,4353.333227
95,0,4375.384508,4384.615277,4369.230662,4372.307585,4374.871688,4394.358867,4370.769124,4356.92297,4382.563995,4378.461431,4353.846047,4322.051176,4342.563996,4374.358867
96,0,4410.769123,4429.743481,4405.640918,4413.333225,4414.358866,4419.487071,4404.615277,4395.384508,4422.051174,4425.128097,4396.410149,4362.051175,4371.281944,4408.717841
97,0,4407.6922,4431.281943,4406.666559,4417.435789,4419.487071,4408.717841,4404.102456,4397.94861,4422.563994,4426.153738,4393.846046,4366.153739,4367.692201,4405.128097
98,0,4379.999893,4395.384508,4381.025534,4385.128098,4389.743482,4388.717841,4376.92297,4371.281944,4393.846046,4396.410149,4368.205021,4345.640919,4351.281945,4388.205021
99,0,4355.897329,4364.102457,4360.512714,4351.794765,4361.025534,4375.897329,4357.948611,4351.794765,4368.205021,4371.794765,4358.974252,4331.281945,4337.435791,4373.846047
100,0,4358.461432,4369.230662,4366.66656,4357.948611,4364.615278,4377.948611,4366.66656,4357.948611,4374.871688,4377.43579,4362.563996,4341.538355,4336.922971,4367.692201
100,0,4358.461432,4369.230662,4366.66656,4357.948611,4364.615278,4377.948611,4366.66656,4357.948611,4374.871688,4377.43579,4362.563996,4341.538355,4336.922971,4367.692201
101,0,4332.307586,4342.563996,4346.15374,4336.922971,4341.025535,4353.846047,4345.640919,4337.948612,4353.333227,4356.92297,4333.846048,4320.512715,4318.461433,4336.41015
102,0,4329.230663,4341.025535,4345.128099,4333.333227,4341.025535,4357.948611,4346.66656,4336.922971,4349.743483,4357.435791,4335.384509,4318.974253,4319.487074,4342.563996
103,0,4341.025535,4349.743483,4352.820406,4339.487073,4342.563996,4371.794765,4354.871688,4342.563996,4352.307586,4353.846047,4344.615278,4326.15374,4323.589638,4355.897329
104,0,4348.717842,4352.307586,4355.897329,4345.128099,4344.102458,4372.820406,4354.358868,4344.102458,4356.41015,4354.358868,4346.15374,4332.307586,4325.128099,4356.41015
105,0,4313.846048,4314.358869,4325.128099,4309.743484,4315.38451,4335.89733,4317.948612,4317.435792,4333.846048,4330.769125,4324.102458,4301.538356,4308.205023,4322.051176
106,0,4289.230664,4289.230664,4302.563997,4285.640921,4294.358869,4311.794766,4293.333228,4291.794767,4306.153741,4304.615279,4305.1281,4273.846049,4295.897331,4302.051177
107,0,4266.666562,4261.538357,4277.948613,4257.435793,4266.666562,4288.205023,4264.61528,4262.563998,4265.640921,4266.153742,4273.333229,4245.128101,4269.743485,4271.794767
108,0,4286.666562,4286.153741,4299.487074,4278.461434,4290.256305,4308.205023,4288.717844,4283.589639,4284.102459,4287.179382,4290.769126,4267.179383,4280.512716,4289.230664
109,0,4316.410151,4323.589638,4327.179381,4312.820407,4322.563997,4332.307586,4315.38451,4312.307587,4318.974253,4320.512715,4324.615279,4295.897331,4310.256305,4329.230663
110,0,4313.846048,4312.820407,4318.974253,4308.717843,4318.461433,4330.256304,4311.281946,4309.743484,4316.922971,4322.563997,4325.64092,4288.717844,4315.38451,4332.820407
111,0,4311.794766,4307.179382,4320.512715,4308.717843,4321.025535,4336.41015,4319.487074,4316.922971,4328.205022,4337.435791,4328.205022,4291.794767,4317.948612,4332.820407
112,0,4329.743484,4337.435791,4341.025535,4334.358868,4343.589637,4356.41015,4341.538355,4334.871689,4353.846047,4355.384509,4347.692201,4313.333228,4331.281945,4354.871688
113,0,4308.205023,4317.435792,4316.922971,4311.794766,4326.666561,4332.307586,4313.333228,4313.333228,4327.179381,4327.692202,4332.307586,4288.717844,4316.410151,4333.846048
114,0,4264.10246,4263.589639,4278.461434,4261.025537,4282.563998,4298.974254,4276.410152,4279.487075,4287.692203,4287.179382,4290.769126,4249.230665,4286.153741,4284.61528
115,0,4261.538357,4260.512716,4279.487075,4255.384511,4274.87169,4306.153741,4282.051177,4282.051177,4292.307587,4287.179382,4286.666562,4255.897332,4285.640921,4283.076818
116,0,4258.974255,4258.974255,4277.435793,4253.84605,4272.820408,4301.538356,4281.538357,4281.025536,4286.153741,4283.589639,4292.307587,4253.84605,4282.051177,4279.487075
117,0,4250.769127,4247.179383,4271.794767,4249.743486,4271.794767,4295.38451,4278.461434,4281.025536,4284.61528,4286.666562,4290.769126,4245.640922,4274.35887,4264.61528
118,0,4233.33323,4228.205025,4257.435793,4230.256307,4251.281947,4284.102459,4263.589639,4263.589639,4265.128101,4266.153742,4269.230665,4235.897332,4265.128101,4248.717845
119,0,4245.128101,4240.512717,4264.10246,4237.435794,4256.922973,4290.769126,4267.179383,4259.999896,4253.333229,4263.589639,4272.820408,4247.692204,4271.281947,4264.61528
120,0,4264.61528,4258.461434,4282.051177,4259.487075,4285.640921,4306.666561,4286.153741,4277.948613,4268.717844,4288.717844,4289.743485,4261.025537,4282.051177,4281.538357
121,0,4286.666562,4289.230664,4307.692202,4289.230664,4315.89733,4327.179381,4311.794766,4308.205023,4306.666561,4322.563997,4312.307587,4282.051177,4302.051177,4299.999895
122,0,4261.538357,4269.743485,4283.589639,4264.61528,4283.589639,4300.512715,4284.102459,4283.589639,4281.025536,4287.179382,4296.922972,4259.999896,4287.179382,4278.974254
123,0,4247.179383,4251.281947,4264.61528,4246.666563,4262.563998,4289.743485,4269.230665,4266.153742,4260.512716,4265.128101,4285.1281,4243.58964,4272.820408,4268.717844
124,0,4236.922973,4232.307589,4255.384511,4229.230666,4251.281947,4284.61528,4259.487075,4259.487075,4255.384511,4259.487075,4267.179383,4227.179384,4262.563998,4254.871691
125,0,4243.58964,4241.025537,4263.589639,4236.922973,4259.487075,4283.589639,4264.61528,4263.076819,4261.538357,4262.051178,4267.179383,4230.769127,4265.128101,4259.487075
126,0,4247.179383,4248.717845,4265.128101,4247.692204,4262.563998,4275.384511,4263.076819,4263.076819,4261.538357,4255.384511,4274.87169,4236.410153,4264.61528,4265.640921
127,0,4254.35887,4255.384511,4272.820408,4255.384511,4269.230665,4285.640921,4273.846049,4277.948613,4269.743485,4268.205024,4285.640921,4244.10246,4270.769126,4273.846049
128,0,4238.974255,4234.358871,4262.051178,4236.410153,4254.871691,4282.051177,4263.589639,4272.820408,4264.10246,4261.025537,4267.179383,4228.717845,4261.025537,4252.820409
0,0,4246.153742,4249.230665,4269.743485,4251.794768,4267.179383,4290.256305,4273.333229,4271.281947,4272.820408,4267.692203,4273.846049,4233.84605,4270.256306,4263.589639
1,0,4298.974254,4312.307587,4313.333228,4309.743484,4314.871689,4329.230663,4321.025535,4308.717843,4313.846048,4328.717843,4330.256304,4284.61528,4317.435792,4327.692202
2,0,4314.871689,4319.487074,4323.076817,4319.999894,4317.948612,4345.640919,4331.794766,4322.563997,4323.076817,4348.205022,4345.128099,4303.076818,4331.794766,4345.640919
3,0,4269.743485,4261.025537,4282.563998,4271.794767,4276.922972,4321.025535,4299.999895,4297.435792,4305.1281,4311.794766,4308.205023,4264.61528,4303.076818,4299.999895
4,0,4231.281948,4223.07682,4255.384511,4233.84605,4252.307588,4297.948613,4278.461434,4281.538357,4292.820408,4287.692203,4288.205023,4234.871691,4285.640921,4269.230665
5,0,4244.10246,4236.922973,4269.230665,4249.230665,4267.692203,4302.563997,4285.1281,4292.820408,4294.87169,4302.051177,4304.615279,4250.256306,4295.38451,4284.102459
6,0,4257.435793,4248.717845,4276.410152,4263.076819,4278.461434,4300.512715,4286.153741,4289.743485,4287.692203,4305.64092,4305.64092,4259.999896,4295.38451,4291.281946
7,0,4278.974254,4273.846049,4292.820408,4283.076818,4303.589638,4316.410151,4308.205023,4303.076818,4309.743484,4326.666561,4318.974253,4279.999895,4309.230664,4309.743484
8,0,4286.153741,4276.922972,4299.487074,4288.717844,4306.666561,4324.102458,4316.922971,4315.38451,4322.051176,4329.743484,4327.179381,4288.205023,4318.461433,4321.025535
9,0,4287.179382,4276.410152,4303.589638,4293.333228,4301.538356,4326.15374,4314.871689,4319.999894,4325.128099,4328.717843,4332.307586,4291.281946,4319.487074,4327.692202
10,0,4256.410152,4245.128101,4278.461434,4257.948614,4269.743485,4301.538356,4282.051177,4287.692203,4297.435792,4296.922972,4301.538356,4258.461434,4290.256305,4292.820408
11,0,4255.384511,4242.563999,4281.538357,4256.410152,4267.179383,4308.205023,4283.076818,4284.102459,4292.820408,4296.922972,4296.410151,4256.922973,4288.205023,4286.666562
12,0,4271.794767,4257.435793,4298.461433,4275.384511,4278.461434,4323.076817,4297.435792,4296.922972,4295.897331,4309.743484,4311.794766,4275.897331,4305.1281,4306.666561
13,0,4274.35887,4260.512716,4291.794767,4273.333229,4279.487075,4314.871689,4293.846049,4292.307587,4290.769126,4306.153741,4312.820407,4274.35887,4302.563997,4306.666561
14,0,4242.051178,4223.07682,4256.410152,4232.820409,4238.974255,4268.205024,4252.307588,4256.922973,4258.461434,4267.179383,4282.563998,4235.897332,4275.384511,4269.230665
15,0,4243.076819,4223.07682,4262.563998,4234.871691,4233.84605,4273.333229,4259.487075,4257.948614,4255.384511,4264.61528,4280.512716,4237.948614,4276.922972,4273.333229
16,0,4242.051178,4220.512717,4263.589639,4230.256307,4238.461435,4292.820408,4271.281947,4265.128101,4260.512716,4262.563998,4278.461434,4235.897332,4272.307588,4269.230665
17,0,4230.256307,4208.205025,4249.743486,4218.974256,4234.358871,4289.230664,4267.179383,4259.999896,4257.435793,4251.281947,4269.743485,4219.999897,4261.025537,4256.410152
18,0,4219.999897,4202.564,4241.538358,4217.948615,4226.153743,4275.897331,4258.461434,4255.384511,4251.794768,4249.743486,4265.128101,4216.922974,4259.487075,4257.435793
19,0,4219.487076,4202.051179,4243.58964,4219.999897,4228.205025,4282.051177,4263.589639,4258.974255,4253.333229,4254.35887,4263.589639,4215.384512,4260.512716,4256.922973
20,0,4223.07682,4204.615282,4248.205024,4225.128102,4238.461435,4295.38451,4272.820408,4262.563998,4261.025537,4259.999896,4262.051178,4207.692205,4261.025537,4247.692204
21,0,4209.230666,4196.922974,4242.051178,4219.999897,4232.307589,4284.61528,4263.589639,4255.384511,4259.487075,4252.820409,4248.717845,4199.487077,4247.692204,4227.179384
22,0,4171.281949,4155.384514,4207.692205,4178.461436,4182.564,4237.948614,4216.410153,4226.666563,4225.128102,4212.82041,4219.487076,4168.205026,4218.461435,4192.30759
23,0,4147.179386,4123.076822,4180.512718,4144.615283,4145.640924,4207.179384,4186.666564,4195.384513,4176.410154,4174.358872,4203.589641,4135.897335,4208.205025,4181.025539
24,0,4184.102462,4166.666565,4214.871692,4191.794769,4193.846051,4247.692204,4231.281948,4220.512717,4200.512718,4215.384512,4241.538358,4173.333231,4245.128101,4228.717845
25,0,4197.435795,4184.102462,4231.281948,4211.794769,4214.358871,4264.61528,4245.640922,4235.384512,4229.230666,4237.435794,4256.922973,4194.358872,4255.897332,4239.487076
26,0,4184.615282,4166.666565,4219.487076,4192.30759,4187.692205,4241.025537,4217.948615,4221.025538,4216.410153,4215.384512,4239.999896,4175.384513,4241.538358,4221.025538
27,0,4166.666565,4145.128104,4200.512718,4173.333231,4165.640924,4212.307589,4195.897333,4196.410154,4177.948616,4181.538359,4210.769128,4148.717847,4221.025538,4198.461436
28,0,4186.153744,4165.640924,4219.487076,4200.512718,4196.410154,4236.922973,4226.666563,4223.58964,4206.666564,4209.743487,4228.717845,4173.846052,4232.307589,4215.384512
29,0,4190.769128,4171.281949,4226.153743,4206.666564,4201.025538,4253.333229,4231.794768,4234.358871,4227.179384,4226.666563,4241.538358,4187.179385,4244.10246,4226.153743
30,0,4184.615282,4172.30759,4219.487076,4200.512718,4197.435795,4250.256306,4223.07682,4223.07682,4217.435794,4223.07682,4238.974255,4179.487077,4244.10246,4227.179384
31,0,4139.999899,4122.051181,4172.30759,4146.666565,4153.333232,4206.153743,4181.538359,4187.692205,4176.410154,4170.256308,4196.922974,4131.28195,4204.615282,4180.512718
32,0,4108.717848,4079.9999,4140.512719,4107.692207,4120.51272,4185.128103,4157.948616,4164.615283,4151.28195,4133.846053,4166.666565,4103.076823,4181.538359,4152.820411
33,0,4109.230669,4083.076823,4146.153745,4111.281951,4127.692207,4185.128103,4157.948616,4159.999898,4140.512719,4145.128104,4168.205026,4109.230669,4190.256308,4161.025539
34,0,4126.666566,4106.153746,4166.153744,4132.820412,4143.589642,4184.102462,4166.666565,4166.666565,4138.461437,4161.025539,4182.564,4125.128104,4198.974256,4176.410154
35,0,4107.692207,4081.025541,4144.615283,4109.230669,4116.922976,4165.640924,4146.666565,4150.256309,4125.640925,4127.692207,4156.922975,4103.076823,4178.461436,4148.717847
36,0,4090.25631,4062.051183,4126.153745,4089.74349,4104.102464,4165.640924,4142.564001,4141.02554,4118.974258,4113.846053,4134.358873,4088.205028,4169.230667,4129.743489
37,0,4095.897336,4074.871695,4138.461437,4097.435797,4114.358874,4176.410154,4148.205027,4147.692206,4118.461438,4124.615284,4141.02554,4098.974259,4171.79477,4143.076822
38,0,4090.25631,4067.179388,4137.948617,4087.692208,4102.564002,4163.076821,4133.333232,4136.922976,4107.179387,4104.102464,4135.897335,4092.307592,4161.53836,4139.999899
39,0,4062.051183,4028.71785,4108.205028,4055.897337,4077.948618,4132.820412,4110.25631,4112.820412,4085.128105,4068.205029,4108.717848,4062.051183,4144.615283,4102.564002
40,0,4048.205029,4014.358876,4095.897336,4043.589645,4072.307593,4128.717848,4110.25631,4109.743489,4074.871695,4064.615285,4097.435797,4052.307593,4137.435796,4083.076823
41,0,4066.666567,4032.820414,4114.871694,4057.435798,4079.9999,4141.53836,4115.897335,4123.076822,4090.769131,4088.205028,4116.410156,4073.333234,4148.205027,4110.25631
42,0,4064.102465,4024.102466,4114.358874,4049.743491,4071.794772,4123.589643,4102.564002,4113.333233,4095.384515,4080.512721,4114.871694,4071.794772,4145.128104,4105.128105
43,0,4061.025542,4021.538363,4112.820412,4052.820414,4076.410157,4118.461438,4104.102464,4109.230669,4092.820413,4076.922977,4110.76913,4072.820413,4137.435796,4084.102464
44,0,4050.769132,4011.794774,4098.461438,4041.538363,4059.48708,4116.922976,4088.205028,4088.205028,4055.384516,4059.48708,4099.487079,4058.461439,4127.692207,4079.48708
45,0,4053.333234,4016.410158,4102.564002,4044.615286,4058.97426,4129.230668,4094.358874,4090.769131,4057.435798,4070.769131,4110.25631,4065.128106,4144.615283,4114.358874
46,0,4049.743491,4015.384517,4110.25631,4052.820414,4072.820413,4137.948617,4114.358874,4109.230669,4084.102464,4087.692208,4115.384515,4073.846054,4150.256309,4119.487079
47,0,4058.461439,4029.743491,4117.948617,4067.179388,4092.307592,4146.153745,4129.230668,4124.102463,4105.128105,4106.666566,4120.51272,4078.974259,4151.28195,4109.743489
48,0,4031.794773,4003.076825,4087.692208,4030.769132,4056.922978,4108.205028,4087.179387,4090.769131,4069.74349,4073.846054,4094.871695,4047.179388,4131.28195,4079.9999
49,0,4025.128107,3996.410159,4084.102464,4025.128107,4054.871696,4105.128105,4084.102464,4083.076823,4056.410157,4059.999901,4087.179387,4043.589645,4126.666566,4077.435798
50,0,4032.820414,4002.564005,4089.74349,4038.46144,4069.23067,4123.589643,4102.051182,4094.358874,4064.615285,4065.640926,4087.179387,4050.256311,4128.205027,4075.897336
51,0,4028.20503,3997.4358,4082.051182,4035.384517,4064.615285,4123.076822,4097.948618,4091.794772,4064.102465,4062.051183,4082.051182,4046.666568,4126.153745,4070.256311
52,0,3994.871697,3963.589647,4054.871696,4002.051184,4032.820414,4090.25631,4068.717849,4067.179388,4038.46144,4030.256312,4062.564003,4017.94862,4107.692207,4046.153747
53,0,3998.461441,3966.66657,4058.461439,4000.512723,4030.769132,4090.769131,4074.358875,4069.23067,4032.307594,4029.230671,4065.128106,4016.410158,4103.076823,4049.23067
54,0,4013.846056,3979.999903,4068.205029,4008.717851,4038.46144,4098.974259,4077.948618,4076.922977,4033.846055,4039.487081,4065.128106,4025.128107,4104.102464,4057.948619
55,0,3994.358877,3961.538365,4049.743491,3992.820415,4022.051184,4085.640926,4054.358875,4053.333234,4009.743492,4012.820415,4041.025542,4004.102466,4092.307592,4033.846055
56,0,3952.820416,3918.461443,4012.820415,3954.871698,3982.051185,4051.794773,4021.025543,4022.564004,3982.564005,3972.307595,4014.358876,3963.076826,4068.205029,3987.69221
57,0,3929.230673,3890.769136,3993.333236,3925.128109,3957.948621,4023.589645,4002.051184,4007.69221,3963.076826,3951.281955,3998.974261,3943.589647,4048.205029,3968.717852
58,0,3918.974263,3881.025546,3989.230672,3915.89734,3958.974262,4010.256312,3993.333236,3996.922979,3937.435801,3938.974263,3987.69221,3939.999904,4038.97426,3969.230672
59,0,3865.128111,3824.102471,3943.076827,3861.538367,3909.743494,3968.205031,3948.717852,3954.871698,3887.692213,3882.564008,3942.051186,3890.256315,4003.589646,3915.38452
60,0,3808.205035,3758.461447,3888.205033,3794.358882,3842.564009,3920.512725,3894.8717,3915.38452,3849.230675,3830.256317,3893.333238,3832.307599,3960.512724,3853.333239
61,0,3779.487087,3722.051191,3862.051188,3757.948626,3809.230676,3896.922982,3867.179393,3890.769136,3816.410163,3801.025548,3868.205034,3804.615292,3935.89734,3828.717855
62,0,3773.846062,3708.205038,3864.61529,3753.333242,3806.666574,3899.487084,3871.281957,3888.205033,3809.230676,3801.538369,3872.820418,3810.769138,3939.487083,3834.871701
63,0,3747.179396,3682.051192,3847.179393,3731.28196,3780.512728,3871.794777,3848.205034,3863.589649,3789.230677,3771.79478,3851.281957,3787.179395,3923.076827,3809.230676
64,0,3737.435806,3686.153756,3835.897342,3727.692217,3773.333241,3851.794778,3832.307599,3845.128111,3773.846062,3748.717857,3832.307599,3770.769139,3904.615289,3786.153754
65,0,3716.410166,3655.384526,3812.82042,3696.410166,3739.487088,3827.179394,3807.692215,3827.692214,3749.230678,3730.256319,3817.948625,3756.922985,3884.61529,3766.666575
66,0,3713.846063,3631.281962,3811.794779,3678.974269,3719.999909,3827.179394,3804.102471,3823.58965,3738.974268,3736.922986,3823.58965,3758.974267,3888.205033,3771.79478
67,0,3695.897346,3618.97427,3792.82042,3664.102475,3707.179397,3815.384522,3788.205036,3798.461446,3716.410166,3717.948627,3794.358882,3732.820422,3869.743495,3747.179396
68,0,3651.281962,3597.435809,3744.102473,3631.794783,3674.358885,3770.256318,3746.153755,3762.564011,3682.051192,3670.256321,3743.589652,3684.102474,3826.666573,3696.410166
69,0,3585.128117,3529.743503,3678.974269,3561.025554,3601.538373,3697.435807,3676.410167,3706.153756,3606.666578,3593.846066,3688.205038,3616.410168,3774.358882,3628.71786
70,0,3565.128118,3507.179401,3665.640936,3537.435811,3575.384528,3687.179397,3663.076834,3678.461449,3563.076836,3566.666579,3673.333244,3593.846066,3759.487088,3605.640937
71,0,3549.230682,3485.12812,3655.384526,3519.487093,3561.538374,3684.615295,3652.307603,3663.076834,3552.307605,3554.358887,3661.538372,3582.564015,3754.358883,3595.897348
72,0,3541.025554,3457.435813,3647.179398,3498.974273,3541.538375,3669.23068,3641.025552,3660.512731,3553.333246,3542.051195,3657.435808,3578.974271,3751.79478,3601.025553
73,0,3555.384528,3457.948633,3657.948629,3502.564017,3534.871708,3671.281962,3650.769141,3670.769141,3562.564015,3548.205041,3670.769141,3594.871707,3757.435806,3618.97427
74,0,3564.102477,3479.487094,3667.179398,3521.025555,3550.256323,3688.717859,3661.025552,3666.666577,3562.051195,3554.358887,3675.897346,3601.025553,3759.487088,3621.025552
75,0,3568.205041,3500.512735,3667.179398,3537.948631,3574.871707,3692.820423,3657.948629,3657.435808,3555.384528,3550.769144,3674.871705,3593.846066,3759.999908,3613.846065
76,0,3572.820425,3498.461453,3670.256321,3539.487093,3576.922989,3693.333243,3664.102475,3668.717859,3564.102477,3559.999913,3680.512731,3599.487091,3763.589652,3626.153757
77,0,3549.743503,3466.153761,3653.846064,3512.820427,3541.025554,3675.897346,3648.205039,3669.23068,3562.051195,3556.410169,3666.153757,3592.820425,3752.820421,3621.025552
78,0,3493.333248,3407.692224,3604.615296,3451.794787,3482.051197,3612.307604,3587.69222,3612.307604,3495.89735,3483.076838,3609.230681,3530.256324,3706.666576,3556.410169
79,0,3483.589658,3402.051199,3589.230681,3438.461454,3467.692223,3597.94863,3572.820425,3586.153758,3467.179402,3453.846069,3589.230681,3504.615299,3687.692218,3531.794785
80,0,3483.076838,3407.179404,3588.20504,3442.051198,3465.12812,3616.922988,3585.640938,3595.897348,3482.564017,3470.256325,3593.846066,3515.89735,3691.281961,3544.102477
81,0,3469.743505,3391.794789,3581.538374,3427.692224,3454.35889,3604.102476,3578.974271,3599.999912,3483.076838,3469.743505,3592.307604,3523.076837,3693.846064,3551.281964
82,0,3422.051198,3349.743508,3535.897349,3379.999917,3404.615301,3537.435811,3523.076837,3546.66658,3408.205045,3412.307609,3547.692221,3472.307607,3651.281962,3494.358889
83,0,3399.999917,3338.461457,3515.89735,3373.333251,3388.205045,3524.615298,3505.64094,3521.538375,3376.410174,3392.82043,3520.512734,3443.589659,3623.076834,3450.769146
84,0,3394.358891,3337.435816,3512.820427,3380.512738,3397.948635,3532.307606,3510.256324,3525.128119,3393.33325,3405.640942,3513.333247,3443.076839,3621.025552,3449.743505
85,0,3401.538378,3348.717867,3514.871709,3386.666584,3409.743506,3523.589657,3508.717863,3523.589657,3398.974276,3421.025557,3523.076837,3447.692223,3631.794783,3473.333248
86,0,3379.999917,3336.922995,3492.820427,3367.692225,3379.999917,3499.487094,3481.538376,3492.307607,3363.076841,3393.846071,3505.128119,3414.358891,3610.769142,3447.179403
87,0,3373.333251,3341.53838,3487.179402,3372.82043,3376.922994,3498.461453,3486.153761,3486.153761,3357.435815,3392.307609,3487.692222,3403.07684,3592.307604,3431.281967
88,0,3348.205046,3303.076842,3462.051197,3336.922995,3347.179405,3463.076838,3457.948633,3464.6153,3334.871713,3361.025559,3460.512736,3384.615302,3567.69222,3410.256327
89,0,3316.410175,3263.076843,3434.871711,3293.333253,3304.615304,3432.307608,3421.538378,3435.384531,3299.999919,3318.974278,3443.076839,3357.435815,3549.743503,3381.025558
90,0,3302.564022,3243.589664,3427.692224,3276.410176,3288.205048,3438.461454,3415.384532,3428.717865,3287.179407,3307.692227,3436.410172,3349.743508,3545.640939,3365.128123
91,0,3299.487099,3221.538383,3424.615301,3259.99992,3283.589663,3438.461454,3415.897352,3428.717865,3283.589663,3292.820432,3430.256326,3352.820431,3543.589657,3365.128123
92,0,3304.102483,3215.897357,3426.153762,3253.333254,3281.025561,3427.179403,3410.769147,3430.256326,3293.846073,3278.461458,3431.794788,3351.281969,3542.051195,3368.717866
93,0,3331.28197,3247.692228,3455.384531,3288.205048,3311.794791,3457.435813,3440.512736,3450.256326,3317.948637,3312.307611,3453.333249,3372.30761,3558.974272,3385.128122
94,0,3347.179405,3262.051202,3467.692223,3306.666586,3328.717867,3466.153761,3451.281967,3455.897351,3312.820432,3337.435816,3465.640941,3388.205045,3569.743502,3396.922994
95,0,3333.333252,3243.589664,3449.230685,3279.487099,3297.948637,3434.871711,3423.076839,3433.333249,3287.692227,3291.794791,3449.230685,3372.30761,3556.92299,3389.743507
96,0,3352.820431,3286.666586,3469.743505,3313.333252,3331.28197,3468.717864,3452.307608,3452.307608,3320.512739,3313.846073,3463.589659,3388.717866,3567.69222,3409.743506
97,0,3369.230687,3313.846073,3492.307607,3350.256328,3376.410174,3504.615299,3483.076838,3476.922992,3349.230687,3362.56402,3486.153761,3411.281968,3588.20504,3422.564019
98,0,3378.461456,3317.435816,3494.871709,3359.999918,3388.717866,3499.999914,3484.102479,3488.205043,3364.102482,3379.487097,3503.589658,3421.025557,3601.538373,3433.84607
99,0,3395.897353,3350.769149,3504.102478,3385.640943,3408.717865,3516.922991,3502.564017,3503.589658,3385.128122,3395.384532,3512.820427,3429.230685,3607.692219,3447.692223
100,0,3434.35889,3403.58966,3546.153759,3439.999916,3457.435813,3567.69222,3548.205041,3543.589657,3426.666583,3444.6153,3544.615298,3471.281966,3635.384526,3485.12812
101,0,3417.948634,3387.179404,3530.769144,3426.153762,3440.512736,3541.025554,3523.076837,3532.307606,3411.794788,3442.051198,3532.820426,3464.6153,3624.615296,3475.38453
102,0,3401.025558,3374.358892,3510.769145,3410.769147,3425.640942,3523.589657,3510.256324,3521.538375,3404.615301,3437.435813,3521.538375,3455.384531,3614.871706,3463.589659
103,0,3411.794788,3396.922994,3524.102478,3432.820429,3446.666582,3545.128118,3530.256324,3527.692221,3416.922993,3451.794787,3532.307606,3463.589659,3624.615296,3473.846069
104,0,3440.512736,3433.84607,3546.66658,3467.179402,3473.333248,3568.205041,3552.307605,3543.076836,3433.84607,3482.051197,3552.820426,3485.64094,3641.025552,3503.589658
105,0,3429.230685,3413.33325,3523.589657,3446.666582,3453.846069,3551.281964,3536.41017,3536.41017,3425.640942,3474.87171,3542.051195,3475.38453,3629.743501,3490.769145
106,0,3436.410172,3425.640942,3531.281965,3462.051197,3467.179402,3561.025554,3549.743503,3549.743503,3441.538377,3487.179402,3550.769144,3485.64094,3641.538372,3495.89735
107,0,3459.487095,3452.820428,3558.461451,3487.692222,3485.64094,3580.512733,3564.615297,3566.666579,3462.564018,3504.615299,3568.205041,3508.205042,3660.512731,3516.922991
108,0,3484.102479,3459.999915,3578.461451,3491.794786,3505.64094,3600.512732,3581.538374,3585.640938,3482.564017,3515.89735,3586.666579,3523.589657,3669.7435,3532.820426
109,0,3496.410171,3457.435813,3586.153758,3494.871709,3522.051196,3607.692219,3597.94863,3602.564014,3501.025555,3518.974273,3596.922989,3527.692221,3674.358885,3540.512734
110,0,3511.794786,3476.410171,3600.512732,3518.461452,3535.384529,3616.922988,3616.922988,3612.820424,3514.358888,3525.640939,3604.615296,3539.999913,3686.666577,3559.487092
111,0,3525.640939,3491.281966,3612.307604,3532.820426,3542.564016,3636.922988,3628.71786,3617.948629,3519.999914,3539.487093,3611.281963,3557.948631,3694.358884,3568.717861
112,0,3539.999913,3499.999914,3623.589655,3542.051195,3554.871708,3655.384526,3636.922988,3625.128116,3525.640939,3546.153759,3621.538373,3570.769143,3695.384525,3571.794784
113,0,3567.1794,3538.974272,3645.640936,3581.538374,3589.743502,3673.333244,3657.948629,3650.769141,3556.410169,3578.974271,3646.666577,3589.743502,3716.922986,3599.999912
114,0,3568.205041,3542.051195,3645.128116,3584.102476,3597.94863,3673.846064,3658.461449,3660.512731,3576.922989,3596.922989,3658.97427,3592.820425,3732.820422,3609.743501
115,0,3559.999913,3529.230683,3641.025552,3574.871707,3593.846066,3665.640936,3645.128116,3653.846064,3581.025553,3601.025553,3661.538372,3591.794784,3732.820422,3603.076835
116,0,3543.076836,3516.922991,3630.256321,3565.128118,3581.538374,3650.769141,3629.23068,3634.358885,3559.999913,3585.128117,3645.640936,3579.487092,3717.435807,3586.153758
117,0,3536.41017,3514.358888,3627.692219,3558.974272,3579.487092,3652.307603,3631.794783,3637.948629,3555.384528,3577.43581,3641.025552,3579.999912,3714.871704,3584.102476
118,0,3517.435811,3497.435812,3613.333245,3535.384529,3556.92299,3642.051193,3615.384527,3625.128116,3539.487093,3559.487092,3624.102475,3562.564015,3698.461448,3567.1794
119,0,3530.769144,3516.922991,3626.666578,3551.281964,3565.128118,3654.358885,3623.076834,3624.102475,3543.589657,3572.307605,3632.820424,3569.743502,3703.076833,3581.025553
120,0,3534.871708,3527.179401,3626.666578,3562.051195,3568.205041,3651.794782,3623.076834,3624.102475,3544.615298,3573.333246,3632.307603,3574.871707,3705.640935,3584.102476
121,0,3528.205042,3520.512734,3614.358886,3556.410169,3566.666579,3635.384526,3616.410168,3626.666578,3547.1794,3573.846066,3616.922988,3568.717861,3694.358884,3570.769143
122,0,3517.435811,3505.128119,3600.512732,3542.051195,3558.461451,3617.435809,3602.564014,3611.794783,3531.281965,3564.102477,3602.564014,3546.66658,3678.974269,3552.820426
123,0,3546.153759,3541.025554,3627.692219,3577.94863,3587.69222,3654.871705,3634.871706,3628.71786,3548.717862,3590.256322,3633.333244,3567.1794,3704.615294,3576.922989
124,0,3563.589656,3557.948631,3643.589654,3595.384527,3605.128117,3678.461449,3654.358885,3648.717859,3569.230682,3606.153758,3651.281962,3587.179399,3719.999909,3593.333245
125,0,3583.589656,3571.794784,3656.410167,3607.179399,3628.71786,3690.769141,3670.769141,3667.692218,3590.256322,3626.153757,3662.564013,3604.615296,3727.179396,3615.897347
126,0,3598.974271,3585.128117,3664.102475,3617.435809,3638.97427,3697.435807,3675.897346,3677.435808,3599.999912,3632.820424,3674.871705,3611.794783,3734.358883,3631.794783
127,0,3597.435809,3577.43581,3662.051193,3613.846065,3624.102475,3692.820423,3671.794782,3669.23068,3589.743502,3615.384527,3671.281962,3607.692219,3734.358883,3625.128116
128,0,3577.94863,3547.692221,3643.589654,3589.230681,3604.615296,3678.461449,3659.48709,3648.205039,3568.717861,3592.307604,3644.615295,3588.717861,3715.384525,3603.076835
0,0,3564.102477,3536.41017,3633.333244,3573.846066,3603.076835,3678.974269,3655.384526,3638.97427,3558.974272,3579.487092,3630.769142,3572.820425,3701.025551,3592.307604
1,0,3571.281964,3553.846067,3644.102475,3587.69222,3617.948629,3691.281961,3662.564013,3648.205039,3572.820425,3587.69222,3645.128116,3583.076835,3708.717858,3601.025553
2,0,3594.871707,3572.820425,3663.589654,3609.230681,3636.922988,3702.564012,3677.948628,3663.589654,3597.94863,3612.307604,3666.153757,3612.307604,3731.794781,3621.538373
3,0,3632.307603,3605.640937,3692.820423,3645.640936,3665.640936,3723.076832,3700.51273,3691.281961,3633.846065,3653.333244,3695.897346,3646.153757,3759.999908,3657.435808
4,0,3641.538372,3617.435809,3700.51273,3655.897346,3671.281962,3728.717858,3697.948628,3692.307602,3630.769142,3655.897346,3706.666576,3647.692218,3757.948626,3663.076834
5,0,3664.615295,3646.666577,3719.487089,3678.974269,3698.461448,3751.79478,3716.410166,3710.25632,3651.794782,3681.025551,3729.743499,3671.281962,3773.846062,3684.615295
6,0,3696.922987,3679.48709,3747.692216,3712.820422,3736.410165,3778.974267,3746.666575,3743.076832,3695.897346,3726.666576,3754.358883,3705.640935,3806.153753,3717.948627
7,0,3725.128114,3711.281961,3774.871703,3749.743498,3769.230677,3799.487087,3776.410164,3775.897344,3727.179396,3765.128113,3781.538369,3737.435806,3829.743496,3749.230678
8,0,3707.179397,3699.487089,3754.871703,3732.820422,3744.615293,3777.435805,3758.974267,3757.435806,3708.717858,3741.53837,3766.153754,3718.974268,3810.256317,3727.692217
9,0,3695.384525,3683.076833,3742.051191,3711.281961,3723.589653,3762.564011,3744.615293,3738.974268,3693.846064,3715.384525,3745.640934,3698.974269,3794.871702,3703.076833
10,0,3694.358884,3675.897346,3744.615293,3705.640935,3712.820422,3754.358883,3734.871704,3732.307601,3674.871705,3706.153756,3740.512729,3694.871705,3791.794779,3697.948628
11,0,3710.76914,3702.564012,3760.512729,3728.205037,3726.153755,3765.640934,3744.615293,3746.153755,3685.640936,3730.256319,3762.05119,3716.410166,3807.179394,3726.153755
12,0,3698.461448,3692.307602,3746.666575,3716.410166,3718.461448,3756.410165,3730.76914,3737.948627,3692.820423,3722.564012,3751.28196,3704.102474,3799.999907,3713.333243
13,0,3692.307602,3685.128115,3742.564011,3710.25632,3721.538371,3752.820421,3728.717858,3729.230678,3683.076833,3717.948627,3744.615293,3695.384525,3793.846061,3701.025551
14,0,3690.25632,3682.564013,3738.974268,3705.128115,3716.410166,3749.743498,3730.76914,3725.128114,3670.769141,3717.948627,3746.153755,3691.281961,3791.281959,3704.615294
15,0,3715.384525,3703.589653,3757.948626,3724.615294,3727.692217,3778.974267,3757.948626,3746.153755,3704.615294,3736.410165,3763.589652,3712.307602,3809.743497,3734.358883
16,0,3736.922986,3723.076832,3775.897344,3748.205037,3749.230678,3801.025548,3773.333241,3763.589652,3727.692217,3753.333242,3778.974267,3734.871704,3825.640932,3751.79478
17,0,3733.333242,3724.615294,3775.897344,3754.358883,3764.102472,3789.743497,3769.743498,3761.025549,3720.51273,3756.410165,3782.05119,3734.871704,3823.07683,3748.205037
18,0,3715.384525,3711.281961,3765.128113,3738.461447,3752.307601,3772.820421,3755.897344,3753.333242,3713.333243,3742.564011,3771.79478,3720.51273,3811.281958,3736.410165
19,0,3696.922987,3690.769141,3746.153755,3714.871704,3725.128114,3768.717857,3737.948627,3739.999909,3697.948628,3728.717858,3754.871703,3707.179397,3801.025548,3722.564012
20,0,3662.564013,3653.846064,3711.794781,3678.461449,3689.230679,3741.53837,3700.51273,3706.666576,3656.410167,3706.153756,3731.794781,3674.871705,3779.999908,3691.794782
21,0,3602.051194,3582.051194,3657.435808,3609.743501,3622.564014,3677.435808,3639.999911,3650.256321,3591.794784,3633.846065,3675.897346,3607.692219,3729.230678,3624.615296
22,0,3574.358887,3550.769144,3631.794783,3572.820425,3580.512733,3643.076834,3612.820424,3631.281962,3569.743502,3593.846066,3638.461449,3579.487092,3703.589653,3591.281963
23,0,3570.769143,3548.717862,3626.666578,3564.102477,3569.743502,3629.743501,3609.230681,3626.666578,3559.999913,3582.564015,3632.820424,3578.461451,3699.487089,3592.307604
24,0,3589.230681,3560.512733,3641.538372,3577.94863,3589.743502,3651.281962,3628.71786,3634.871706,3566.153759,3594.358886,3653.333244,3587.179399,3709.230679,3610.769142
25,0,3561.538374,3529.230683,3614.358886,3551.794785,3565.128118,3636.922988,3604.615296,3613.333245,3543.076836,3571.281964,3624.615296,3553.846067,3688.717859,3581.538374
26,0,3501.538376,3470.256325,3561.025554,3494.871709,3503.076837,3578.461451,3548.205041,3570.256323,3498.974273,3512.820427,3566.153759,3498.461453,3643.589654,3515.89735
27,0,3441.538377,3411.794788,3504.615299,3431.794788,3439.487095,3510.256324,3488.205043,3505.64094,3425.640942,3449.230685,3511.794786,3439.999916,3589.230681,3448.717864
28,0,3429.230685,3399.487096,3491.281966,3414.871711,3424.10248,3494.358889,3470.256325,3476.922992,3385.128122,3439.487095,3501.025555,3424.10248,3578.461451,3443.589659
29,0,3393.846071,3366.666584,3457.948633,3385.128122,3395.897353,3452.307608,3436.922993,3444.10248,3347.179405,3406.153763,3465.640941,3391.281968,3554.871708,3421.025557
30,0,3342.0512,3322.051201,3407.179404,3344.615303,3352.30761,3388.205045,3392.82043,3391.281968,3295.384535,3347.692226,3408.205045,3341.025559,3498.974273,3366.666584
31,0,3287.179407,3264.615305,3356.922995,3285.640945,3286.153766,3344.102482,3342.0512,3336.922995,3237.435818,3292.307612,3351.79479,3287.179407,3448.717864,3307.179406
32,0,3272.307612,3245.640946,3348.205046,3266.153766,3261.025561,3346.153764,3343.076841,3333.333252,3233.846075,3290.25633,3345.640944,3280.51274,3448.717864,3302.564022
33,0,3250.769151,3213.333255,3327.692226,3238.461459,3239.999921,3324.102483,3328.205047,3319.999919,3214.871716,3262.051202,3333.333252,3262.051202,3434.35889,3281.538381
34,0,3190.769153,3153.846077,3275.897356,3176.410179,3182.051204,3271.794792,3262.564023,3267.692228,3140.512744,3194.358896,3283.076843,3197.94864,3386.153763,3215.384537
35,0,3150.769154,3108.205052,3244.102485,3121.025565,3119.999924,3233.846075,3208.71787,3231.794793,3090.256335,3141.538385,3251.281972,3154.871718,3360.512738,3172.820435
36,0,3169.743512,3105.128129,3261.538382,3118.974283,3123.589667,3238.97428,3225.640947,3242.051203,3104.615309,3134.358898,3262.564023,3175.897358,3371.794789,3186.666589
37,0,3165.640948,3083.589668,3258.974279,3108.717873,3116.41018,3236.410177,3223.076844,3242.051203,3105.64095,3127.179411,3258.974279,3179.999922,3366.153764,3183.589666
38,0,3130.769154,3038.974285,3223.076844,3065.12813,3064.61531,3197.94864,3173.333256,3205.640947,3065.640951,3081.025566,3230.256331,3139.999923,3341.025559,3156.923
39,0,3157.948641,3065.12813,3233.846075,3086.153771,3082.564027,3184.615307,3182.051204,3202.564024,3069.743515,3084.102489,3243.076844,3149.230692,3350.256328,3184.102486
40,0,3193.333255,3093.333258,3261.538382,3114.871719,3103.589668,3202.564024,3209.743511,3213.846075,3070.769156,3097.948642,3261.538382,3176.410179,3364.102482,3205.640947
41,0,3195.897358,3087.692232,3256.410177,3106.666591,3078.461463,3215.384537,3203.589665,3209.230691,3056.923002,3091.281976,3251.794792,3173.846076,3356.410174,3205.128127
42,0,3179.999922,3079.487104,3230.769152,3091.281976,3063.076848,3195.384537,3183.076845,3190.256332,3050.256336,3074.358899,3226.666588,3150.769154,3335.897354,3203.076845
43,0,3188.717871,3105.64095,3242.051203,3116.41018,3098.461463,3201.025563,3195.897358,3201.025563,3066.153771,3097.435822,3234.871716,3160.512743,3341.53838,3211.281973
44,0,3195.384537,3125.640949,3251.281972,3136.923,3107.692232,3210.256332,3210.769152,3203.076845,3064.61531,3124.102488,3240.512741,3170.256333,3344.615303,3209.230691
45,0,3222.564024,3155.897359,3270.769151,3168.205051,3125.640949,3224.102485,3241.025562,3222.564024,3092.820437,3157.43582,3257.435818,3195.384537,3358.461456,3237.435818
46,0,3212.307614,3155.384538,3263.589664,3172.307615,3137.948641,3220.512742,3243.076844,3222.564024,3106.15377,3164.615307,3247.179408,3192.307614,3347.179405,3225.128126
47,0,3217.435819,3172.307615,3273.333253,3189.743512,3165.128128,3251.281972,3256.410177,3229.743511,3119.999924,3185.128127,3256.410177,3204.615306,3350.769149,3226.153767
48,0,3244.615305,3206.666588,3296.922996,3219.999921,3189.743512,3280.51274,3279.99992,3253.846074,3157.43582,3213.333255,3279.99992,3229.23069,3373.846071,3256.922997
49,0,3268.717869,3237.435818,3315.897355,3252.820433,3206.666588,3284.615304,3299.999919,3276.922997,3196.922999,3248.717869,3294.871714,3252.307613,3390.256327,3282.051202
50,0,3249.74351,3207.692229,3302.051201,3229.23069,3181.025563,3258.461459,3273.846074,3252.820433,3155.384538,3223.589665,3278.974279,3236.410177,3371.794789,3255.384536
51,0,3251.794792,3214.358896,3316.410175,3235.897357,3197.94864,3289.230689,3297.948637,3266.666587,3146.66659,3224.615306,3292.820432,3243.589664,3381.538379,3258.974279
52,0,3258.974279,3223.076844,3327.179406,3244.102485,3207.692229,3314.871714,3319.999919,3296.922996,3176.410179,3230.769152,3309.230688,3253.333254,3398.974276,3265.128125
53,0,3271.281971,3208.71787,3332.307611,3231.281972,3194.871717,3299.999919,3307.692227,3297.948637,3173.333256,3205.640947,3314.871714,3257.948638,3404.102481,3266.153766
54,0,3310.256329,3238.461459,3365.640943,3260.512741,3225.128126,3316.410175,3326.666585,3324.102483,3195.384537,3233.846075,3346.666585,3298.461458,3430.256326,3308.205047
55,0,3330.769149,3269.230689,3386.666584,3290.25633,3257.948638,3352.820431,3354.871713,3355.897354,3236.410177,3274.871715,3372.82043,3327.179406,3451.794787,3341.025559
56,0,3327.179406,3264.615305,3379.487097,3287.692227,3260.512741,3355.384533,3350.769149,3347.692226,3240.512741,3283.589663,3371.794789,3319.487098,3449.230685,3336.922995
57,0,3358.461456,3282.051202,3406.666583,3304.615304,3277.435817,3369.743507,3363.589661,3356.922995,3247.692228,3294.871714,3390.256327,3339.487098,3466.666582,3356.410174
58,0,3406.153763,3346.153764,3452.820428,3366.153764,3332.820431,3416.922993,3411.281968,3399.999917,3298.974278,3345.128123,3422.564019,3386.666584,3497.948632,3402.051199
59,0,3384.615302,3332.307611,3432.820429,3355.897354,3325.640944,3412.820429,3396.922994,3388.717866,3293.333253,3334.871713,3408.205045,3370.256328,3483.076838,3382.56402
60,0,3387.692225,3323.589662,3435.384531,3351.79479,3328.717867,3422.564019,3401.025558,3394.871712,3301.538381,3342.0512,3420.512737,3371.281969,3486.666581,3386.153763
61,0,3421.538378,3365.128123,3465.640941,3390.256327,3360.512738,3447.179403,3438.974275,3429.743506,3345.640944,3384.615302,3452.820428,3405.640942,3511.794786,3418.461455
62,0,3441.025557,3405.640942,3485.64094,3424.10248,3389.230686,3455.384531,3463.076838,3451.794787,3374.871712,3413.84607,3473.333248,3435.897352,3528.717862,3434.871711
63,0,3441.025557,3409.743506,3482.564017,3428.717865,3400.512737,3451.281967,3462.051197,3445.128121,3360.512738,3422.051198,3471.794787,3436.922993,3525.640939,3433.84607
64,0,3486.153761,3451.794787,3518.974273,3470.769146,3438.461454,3496.922991,3496.410171,3474.358889,3391.794789,3466.153761,3504.615299,3470.256325,3554.871708,3479.999915
65,0,3511.281965,3483.076838,3537.948631,3498.974273,3457.435813,3518.974273,3515.89735,3495.38453,3432.820429,3490.256325,3525.640939,3486.666581,3575.384528,3503.589658
66,0,3529.743503,3510.256324,3550.256323,3523.076837,3481.025556,3525.640939,3536.92299,3508.205042,3454.35889,3517.435811,3540.512734,3505.128119,3588.20504,3519.999914
67,0,3543.076836,3520.512734,3561.025554,3529.230683,3489.743504,3540.512734,3546.66658,3513.846068,3448.717864,3528.205042,3544.615298,3516.922991,3592.820425,3536.92299
68,0,3565.640938,3548.717862,3584.102476,3556.410169,3514.871709,3571.794784,3565.640938,3539.999913,3478.974274,3551.281964,3563.589656,3536.41017,3610.769142,3561.025554
69,0,3576.922989,3561.538374,3594.871707,3574.358887,3529.743503,3574.358887,3573.846066,3556.92299,3503.076837,3562.564015,3573.846066,3550.769144,3618.46145,3567.1794
70,0,3605.128117,3581.538374,3621.538373,3597.94863,3561.025554,3606.666578,3607.692219,3579.999912,3522.564016,3582.051194,3590.769143,3577.43581,3634.358885,3590.256322
71,0,3639.48709,3614.871706,3657.435808,3631.794783,3603.076835,3664.615295,3648.717859,3620.512732,3576.922989,3618.46145,3624.102475,3610.256322,3664.102475,3621.025552
72,0,3672.307603,3654.358885,3689.7435,3675.897346,3644.102475,3686.666577,3675.897346,3654.871705,3626.666578,3659.48709,3666.666577,3647.179398,3694.871705,3653.846064
73,0,3706.666576,3696.410166,3713.333243,3715.384525,3677.948628,3693.846064,3692.820423,3671.281962,3637.948629,3698.974269,3694.871705,3679.99991,3721.538371,3693.333243
74,0,3730.256319,3719.999909,3726.666576,3729.743499,3695.897346,3721.02555,3707.692217,3686.153756,3651.794782,3719.487089,3706.666576,3693.846064,3737.435806,3723.589653
75,0,3727.692217,3718.461448,3726.666576,3730.76914,3696.410166,3724.615294,3711.281961,3697.435807,3675.897346,3728.205037,3712.820422,3695.897346,3739.487088,3724.102473
76,0,3714.871704,3707.692217,3719.999909,3723.076832,3684.615295,3714.358884,3704.102474,3688.205038,3668.717859,3719.487089,3709.743499,3689.230679,3728.717858,3701.025551
77,0,3750.769139,3755.384524,3747.692216,3759.999908,3722.564012,3745.640934,3730.76914,3709.230679,3689.230679,3752.307601,3735.384524,3712.307602,3747.692216,3726.153755
78,0,3778.974267,3787.692215,3765.640934,3785.640933,3744.102473,3756.410165,3745.128114,3727.692217,3706.666576,3769.230677,3751.28196,3728.717858,3766.666575,3757.948626
79,0,3784.615292,3781.538369,3773.333241,3787.179395,3745.128114,3768.717857,3752.307601,3736.922986,3712.820422,3769.743498,3755.384524,3737.948627,3773.333241,3767.692216
80,0,3777.948626,3768.205036,3773.846062,3779.487087,3748.205037,3782.56401,3755.384524,3733.846063,3712.307602,3769.230677,3753.846062,3739.999909,3769.743498,3754.871703
81,0,3808.717856,3804.615292,3803.589651,3811.281958,3775.897344,3788.717856,3774.871703,3758.974267,3746.153755,3807.692215,3784.102472,3774.358882,3794.871702,3787.179395
82,0,3796.410164,3791.794779,3790.769138,3799.999907,3763.076831,3765.640934,3755.384524,3751.28196,3735.384524,3799.999907,3772.3076,3762.564011,3787.692215,3780.512728
83,0,3783.589651,3781.025549,3779.487087,3794.871702,3766.666575,3796.922984,3768.717857,3752.820421,3740.512729,3799.999907,3761.53837,3751.28196,3775.384523,3766.666575
84,0,3806.153753,3814.871702,3796.410164,3823.07683,3786.666574,3822.564009,3799.487087,3775.897344,3771.79478,3829.230676,3786.666574,3774.871703,3794.358882,3788.717856
85,0,3844.10247,3861.025547,3825.640932,3859.487085,3817.435804,3828.717855,3819.999907,3796.922984,3791.281959,3866.153752,3819.487086,3806.153753,3825.128112,3827.179394
86,0,3848.205034,3857.948624,3826.153753,3859.999906,3828.205035,3842.564009,3821.538368,3798.461446,3793.333241,3868.717854,3815.897343,3798.461446,3823.07683,3828.205035
87,0,3885.640931,3897.435802,3863.076829,3903.076828,3867.179393,3889.230674,3868.205034,3837.948624,3842.051188,3906.666571,3847.692214,3834.871701,3846.666573,3867.692213
88,0,3934.871699,3954.358878,3905.64093,3953.333237,3904.102469,3908.717853,3899.999905,3871.281957,3875.384521,3954.358878,3890.769136,3885.640931,3879.487085,3916.922981
89,0,3939.999904,3954.358878,3905.64093,3953.846057,3921.025545,3911.794776,3896.410161,3870.256316,3872.820418,3956.41016,3893.333238,3886.153751,3879.487085,3912.820417
90,0,3916.410161,3923.076827,3887.692213,3932.820417,3916.410161,3909.743494,3886.666572,3870.769136,3887.179392,3938.461442,3879.487085,3866.153752,3865.640931,3885.640931
91,0,3912.307597,3923.589648,3894.358879,3932.820417,3899.487084,3906.666571,3887.179392,3872.307598,3886.666572,3930.769135,3876.922982,3872.307598,3867.179393,3890.769136
92,0,3928.205032,3944.102468,3913.846058,3947.179391,3903.589648,3931.281955,3902.564007,3872.307598,3868.205034,3939.999904,3885.12811,3890.256315,3876.922982,3915.89734
93,0,3940.512724,3956.41016,3923.076827,3960.512724,3939.999904,3954.871698,3925.128109,3892.820418,3898.974264,3967.17939,3901.538366,3900.512725,3885.640931,3925.128109
94,0,3957.948621,3976.92298,3935.89734,3986.153749,3973.846057,3946.15375,3935.89734,3919.999904,3941.538365,3993.846056,3917.435802,3915.89734,3901.025546,3932.307596
95,0,3966.153749,3988.205031,3940.512724,3990.769133,3957.948621,3943.076827,3929.230673,3905.12811,3909.230674,3977.4358,3906.666571,3914.871699,3904.102469,3936.922981
96,0,3965.128108,3987.17939,3938.461442,3984.102467,3948.205032,3969.230672,3932.820417,3898.461443,3892.820418,3976.410159,3907.692212,3912.820417,3899.487084,3939.487083
97,0,3943.076827,3958.461442,3921.025545,3963.076826,3943.076827,3951.281955,3917.948622,3892.820418,3901.538366,3972.820416,3903.076828,3901.538366,3882.051187,3917.948622
98,0,3966.153749,3981.538364,3941.025545,3986.153749,3970.769134,3962.051185,3936.922981,3910.769135,3931.281955,3992.307595,3921.538366,3924.615289,3903.076828,3941.025545
99,0,3993.846056,4016.922979,3960.512724,4012.307594,3996.410159,3995.897338,3964.615288,3929.743494,3945.640929,4012.820415,3943.076827,3940.512724,3927.692212,3965.128108
100,0,4024.615286,4059.999901,3986.666569,4052.820414,4032.307594,4019.487081,3990.769133,3956.92298,3977.948621,4049.743491,3968.205031,3962.564006,3947.692211,3993.333236
101,0,4031.794773,4068.717849,3995.384518,4063.076824,4041.538363,4025.128107,3993.333236,3965.640929,4002.051184,4062.051183,3969.230672,3974.871698,3951.281955,4002.051184
102,0,4031.794773,4064.102465,3997.4358,4060.512721,4057.435798,4046.153747,4004.102466,3977.4358,4022.564004,4080.512721,3978.974262,3986.666569,3957.948621,4002.051184
103,0,4002.051184,4029.743491,3969.743493,4028.20503,4033.846055,4010.769133,3969.230672,3955.897339,3989.743492,4053.333234,3963.589647,3961.025544,3940.512724,3974.358877
104,0,4002.564005,4031.281953,3970.256313,4023.076825,4005.640928,3986.666569,3950.769134,3942.051186,3963.589647,4025.128107,3954.871698,3954.358878,3933.333237,3978.461441
105,0,4024.615286,4052.307593,3984.615287,4036.410158,4012.820415,4007.179389,3969.230672,3951.281955,3974.358877,4036.410158,3965.128108,3969.230672,3941.025545,3994.871697
106,0,4042.564004,4076.410157,3999.999902,4059.999901,4059.999901,4043.589645,4004.102466,3973.333236,4000.512723,4076.922977,3990.256313,3991.281954,3960.512724,4016.410158
107,0,4037.435799,4076.922977,3996.410159,4063.076824,4065.640926,4047.179388,4003.589646,3976.92298,4003.589646,4082.051182,3993.333236,3991.794774,3968.717852,4027.179389
108,0,4025.640927,4064.102465,3984.615287,4047.692209,4032.307594,4030.256312,3989.230672,3967.692211,3991.281954,4058.461439,3980.512723,3979.487082,3959.999903,4019.487081
109,0,4001.025543,4032.820414,3964.615288,4017.94862,4004.615287,4002.564005,3964.615288,3946.66657,3973.333236,4030.769132,3959.999903,3957.948621,3937.435801,3991.794774
110,0,3969.230672,3995.897338,3943.076827,3986.153749,3986.153749,3976.410159,3931.794776,3918.461443,3944.615288,3997.4358,3934.358878,3931.281955,3916.922981,3961.025544
111,0,3939.999904,3964.102467,3920.512725,3953.333237,3957.948621,3945.128109,3896.410161,3892.307597,3906.153751,3964.102467,3906.153751,3902.564007,3898.461443,3928.717853
112,0,3898.461443,3917.435802,3882.564008,3898.974264,3902.564007,3895.897341,3856.410162,3851.794778,3852.820419,3912.820417,3858.974265,3858.461444,3861.538367,3887.692213
113,0,3885.12811,3898.974264,3869.230675,3882.051187,3879.999905,3886.153751,3850.256316,3840.512727,3837.948624,3891.794777,3848.717855,3846.666573,3848.717855,3882.564008
114,0,3890.256315,3900.512725,3876.922982,3893.846059,3896.410161,3908.717853,3866.666572,3853.333239,3850.256316,3898.461443,3867.692213,3861.025547,3859.487085,3888.205033
115,0,3922.564007,3940.512724,3911.281956,3933.333237,3942.564006,3949.743493,3909.230674,3891.794777,3893.846059,3949.743493,3904.615289,3899.999905,3889.743495,3919.487084
116,0,3962.564006,3988.205031,3945.128109,3972.820416,3973.333236,3976.410159,3944.615288,3924.615289,3931.794776,3994.871697,3935.89734,3932.307596,3917.948622,3962.564006
117,0,4016.410158,4044.615286,3981.025544,4026.153748,4020.512722,4015.384517,3979.999903,3956.92298,3971.281954,4033.846055,3975.897339,3972.307595,3953.333237,4014.871697
118,0,3991.794774,4017.435799,3951.281955,4000.512723,4008.20503,4002.564005,3945.640929,3931.281955,3946.15375,4001.538364,3952.820416,3944.102468,3935.384519,3991.281954
119,0,3943.589647,3968.717852,3909.743494,3950.256314,3963.589647,3962.564006,3899.487084,3891.794777,3907.179392,3958.461442,3915.89734,3897.435802,3903.076828,3949.743493
120,0,3928.717853,3949.743493,3901.025546,3934.358878,3949.743493,3944.615288,3893.846059,3878.461444,3894.8717,3944.615288,3905.64093,3882.051187,3891.281956,3932.307596
121,0,3961.538365,3981.538364,3933.846058,3971.281954,3992.820415,3975.897339,3931.281955,3901.025546,3914.871699,3968.717852,3925.128109,3911.794776,3908.205033,3959.487083
122,0,3964.615288,3984.102467,3933.846058,3969.230672,3976.92298,3961.025544,3914.358879,3888.717854,3895.897341,3952.820416,3917.948622,3908.717853,3903.076828,3963.589647
123,0,3964.615288,3984.102467,3930.769135,3958.974262,3947.179391,3934.871699,3897.948623,3874.8717,3878.461444,3934.358878,3915.38452,3903.589648,3896.410161,3963.589647
124,0,3973.333236,3992.307595,3931.281955,3960.512724,3950.769134,3925.64093,3893.846059,3865.128111,3864.61529,3918.974263,3907.179392,3897.948623,3892.307597,3962.051185
125,0,3965.640929,3987.69221,3915.89734,3948.717852,3942.564006,3908.717853,3867.179393,3843.076829,3835.897342,3887.692213,3877.948623,3870.256316,3872.307598,3945.640929
126,0,3947.692211,3966.153749,3890.256315,3921.538366,3897.435802,3878.461444,3828.717855,3825.128112,3819.487086,3863.589649,3854.35888,3847.179393,3851.281957,3929.230673
127,0,3963.076826,3978.461441,3893.333238,3923.589648,3888.205033,3881.025546,3834.358881,3830.769137,3824.615291,3872.307598,3863.076829,3857.948624,3858.461444,3945.128109
128,0,3978.974262,3998.974261,3896.922982,3928.205032,3895.38452,3883.076828,3841.538368,3825.640932,3814.871702,3866.153752,3861.538367,3856.922983,3855.384521,3950.256314
0,0,3974.358877,3999.487082,3887.179392,3918.974263,3881.025546,3865.640931,3824.102471,3803.07683,3792.82042,3834.871701,3838.974265,3835.384522,3832.307599,3929.743494
1,0,4003.076825,4035.897337,3907.692212,3951.281955,3901.538366,3883.076828,3838.974265,3814.358881,3808.717856,3849.230675,3851.794778,3850.769137,3843.076829,3938.461442
2,0,4033.333235,4073.333234,3927.692212,3984.615287,3935.89734,3913.846058,3867.692213,3838.974265,3832.307599,3872.307598,3867.179393,3866.666572,3855.897342,3946.66657
3,0,4032.307594,4083.076823,3925.128109,3990.256313,3953.333237,3927.692212,3879.999905,3853.333239,3850.256316,3877.435803,3863.076829,3863.076829,3849.230675,3941.025545
4,0,3998.974261,4062.051183,3894.8717,3959.487083,3922.564007,3892.820418,3847.692214,3818.461445,3810.769138,3840.512727,3827.692214,3831.281958,3822.564009,3913.333238
5,0,4003.589646,4073.333234,3897.948623,3963.589647,3914.358879,3881.538367,3838.974265,3803.589651,3783.076831,3830.769137,3816.410163,3826.666573,3816.922984,3904.615289
6,0,4023.076825,4092.307592,3920.512725,3984.102467,3936.41016,3908.717853,3855.897342,3824.102471,3802.56401,3848.205034,3832.820419,3842.564009,3827.692214,3909.230674
7,0,4063.589644,4137.435796,3964.102467,4028.71785,3984.615287,3953.846057,3890.769136,3859.999906,3857.948624,3898.461443,3877.435803,3888.205033,3862.564008,3950.256314
8,0,4081.025541,4153.846052,3979.999903,4045.128106,3988.717851,3951.281955,3891.794777,3861.538367,3865.128111,3911.281956,3886.153751,3905.64093,3873.333239,3963.076826
9,0,4084.615285,4149.743488,3988.205031,4050.256311,3987.17939,3953.333237,3898.974264,3879.487085,3875.897341,3920.512725,3893.846059,3915.89734,3877.948623,3967.17939
10,0,4043.076824,4101.025541,3963.076826,4013.846056,3964.615288,3937.948622,3882.564008,3872.307598,3871.794777,3902.564007,3878.974264,3893.846059,3864.10247,3942.051186
11,0,4030.256312,4085.640926,3956.41016,4006.666569,3969.743493,3943.076827,3895.897341,3869.743495,3876.922982,3908.205033,3875.384521,3891.794777,3866.666572,3938.974263
12,0,4046.666568,4095.897336,3970.769134,4024.615286,3992.820415,3972.307595,3924.615289,3893.333238,3898.974264,3942.564006,3897.948623,3914.358879,3889.230674,3953.846057
13,0,4055.897337,4104.102464,3984.102467,4036.410158,4010.769133,3990.256313,3938.461442,3914.871699,3919.999904,3975.384518,3929.743494,3935.89734,3908.205033,3970.256313
14,0,4034.358876,4085.640926,3968.717852,4017.435799,3997.94862,3963.076826,3922.564007,3903.076828,3910.769135,3966.153749,3925.128109,3928.205032,3898.461443,3964.615288
15,0,4046.153747,4103.076823,3980.512723,4033.333235,4014.358876,3979.999903,3945.640929,3917.435802,3922.051186,3977.4358,3934.358878,3944.102468,3912.820417,3976.92298
16,0,4081.538362,4141.02554,4012.307594,4075.384516,4046.666568,4028.20503,3981.025544,3956.41016,3962.564006,4021.025543,3967.692211,3976.92298,3944.102468,3999.999902
17,0,4101.025541,4162.564001,4032.820414,4102.564002,4072.307593,4054.871696,3996.410159,3975.897339,3990.256313,4051.281952,3985.128108,3997.94862,3955.897339,4012.307594
18,0,4132.307591,4203.07682,4066.153747,4147.692206,4128.205027,4098.461438,4039.487081,4010.769133,4033.333235,4097.948618,4016.410158,4034.871696,3979.487082,4044.615286
19,0,4174.358872,4253.84605,4107.692207,4201.538359,4182.05118,4149.743488,4103.589643,4062.564003,4090.769131,4152.820411,4065.128106,4081.538362,4019.999902,4085.128105
20,0,4202.564,4279.999895,4132.307591,4229.230666,4203.07682,4167.692206,4132.307591,4091.281951,4123.589643,4181.025539,4090.769131,4111.794771,4045.128106,4111.281951
21,0,4199.999897,4269.230665,4130.256309,4220.512717,4194.358872,4160.512719,4124.102463,4084.615285,4116.922976,4171.79477,4079.9999,4112.820412,4042.564004,4107.179387
22,0,4223.07682,4294.358869,4160.512719,4249.743486,4219.999897,4192.30759,4151.79477,4109.743489,4144.615283,4207.179384,4108.205028,4143.589642,4069.23067,4129.230668
23,0,4215.897333,4290.769126,4164.102462,4248.205024,4216.410153,4195.384513,4148.717847,4111.794771,4148.205027,4208.717846,4118.974258,4142.051181,4071.794772,4125.640925
24,0,4171.79477,4237.435794,4121.02554,4195.384513,4178.461436,4143.589642,4091.281951,4073.333234,4110.76913,4157.435796,4077.435798,4097.948618,4032.820414,4079.9999
25,0,4123.076822,4162.564001,4056.922978,4119.999899,4114.358874,4066.153747,4017.435799,4011.281953,4039.487081,4081.538362,4007.179389,4028.20503,3978.461441,4008.717851
26,0,4160.512719,4190.256308,4077.435798,4144.102463,4120.51272,4095.384515,4047.179388,4026.666568,4047.179388,4101.025541,4024.615286,4043.076824,3993.333236,4033.333235
27,0,4216.922974,4254.871691,4128.205027,4205.128102,4175.384513,4164.102462,4110.76913,4080.512721,4107.179387,4163.076821,4084.102464,4098.974259,4038.97426,4098.974259
28,0,4245.128101,4287.692203,4154.871693,4238.974255,4225.640922,4193.846051,4152.307591,4121.538361,4163.589642,4211.794769,4117.948617,4135.897335,4068.717849,4130.256309
29,0,4248.205024,4282.563998,4155.384514,4237.435794,4225.640922,4195.897333,4159.999898,4134.358873,4176.410154,4227.692204,4119.999899,4139.999899,4071.794772,4124.615284
30,0,4285.640921,4323.076817,4190.256308,4277.948613,4260.512716,4243.076819,4195.897333,4171.281949,4209.743487,4269.743485,4148.717847,4173.333231,4095.897336,4159.487078
31,0,4291.281946,4338.974253,4197.435795,4293.846049,4287.692203,4253.333229,4205.640923,4183.076821,4227.179384,4279.999895,4148.205027,4179.999898,4104.102464,4166.666565
32,0,4264.10246,4315.38451,4175.384513,4272.307588,4270.256306,4235.384512,4189.743487,4161.025539,4206.153743,4255.384511,4127.179386,4160.512719,4091.794772,4143.589642
33,0,4270.769126,4318.461433,4183.076821,4280.512716,4265.640921,4247.692204,4190.769128,4158.974257,4200.512718,4257.948614,4144.615283,4176.922975,4097.435797,4155.384514
34,0,4326.666561,4372.307585,4238.461435,4337.948612,4316.922971,4275.897331,4226.153743,4191.281949,4242.051178,4304.615279,4184.615282,4228.205025,4132.820412,4203.07682
35,0,4357.435791,4404.615277,4276.410152,4372.820406,4347.179381,4289.743485,4257.948614,4218.461435,4281.025536,4343.076817,4198.461436,4253.333229,4155.897334,4228.205025
36,0,4347.692201,4390.256303,4269.743485,4357.948611,4332.307586,4295.38451,4266.666562,4225.128102,4287.692203,4339.487073,4193.846051,4248.205024,4149.230668,4223.58964
37,0,4354.358868,4394.871687,4270.769126,4361.025534,4336.922971,4306.666561,4274.87169,4234.871691,4295.38451,4337.948612,4204.102461,4253.333229,4149.743488,4229.230666
38,0,4381.025534,4435.897327,4299.487074,4395.384508,4369.743483,4328.205022,4299.487074,4255.897332,4315.38451,4366.66656,4229.230666,4274.87169,4174.358872,4255.384511
39,0,4401.025533,4472.307583,4324.615279,4424.102456,4395.897328,4354.358868,4323.589638,4284.102459,4341.025535,4406.153738,4262.563998,4304.615279,4207.692205,4294.358869
40,0,4384.615277,4450.769122,4305.64092,4402.563995,4375.384508,4336.922971,4301.538356,4269.230665,4326.15374,4388.205021,4255.897332,4299.487074,4201.025538,4286.666562
41,0,4383.589636,4439.487071,4301.538356,4397.94861,4370.769124,4318.461433,4286.666562,4256.922973,4315.89733,4375.897329,4247.179383,4296.410151,4193.846051,4279.487075
42,0,4396.410149,4451.281942,4312.820407,4411.281943,4384.102457,4325.128099,4294.358869,4262.051178,4321.025535,4387.17938,4253.84605,4301.025536,4200.512718,4289.743485
43,0,4426.666558,4487.179377,4338.461432,4442.563994,4419.487071,4363.076816,4327.179381,4289.230664,4354.871688,4425.640917,4284.102459,4328.717843,4224.615281,4321.025535
44,0,4411.281943,4472.307583,4326.666561,4428.20502,4406.666559,4358.461432,4316.922971,4280.512716,4349.230663,4411.794764,4274.87169,4315.89733,4216.410153,4308.717843
45,0,4401.025533,4467.179378,4317.948612,4422.563994,4398.974251,4357.948611,4319.487074,4282.563998,4352.820406,4404.615277,4273.333229,4304.615279,4214.871692,4303.076818
46,0,4391.794764,4466.666557,4306.666561,4415.384507,4392.307585,4355.897329,4322.051176,4285.640921,4354.871688,4407.179379,4277.435793,4301.538356,4213.33323,4295.897331
47,0,4402.051174,4481.025531,4322.051176,4430.256302,4404.102456,4369.230662,4342.051176,4299.487074,4365.128098,4425.640917,4287.692203,4326.666561,4222.051179,4312.820407
48,0,4402.563995,4471.281942,4332.820407,4431.281943,4401.538354,4361.538355,4342.563996,4301.025536,4363.589637,4417.435789,4276.922972,4330.769125,4219.999897,4317.948612
49,0,4424.615276,4487.692198,4357.948611,4451.794763,4423.589635,4376.410149,4359.487073,4322.051176,4385.640918,4433.846045,4290.769126,4348.205022,4233.33323,4336.41015
50,0,4470.769121,4538.974248,4398.461431,4502.051172,4473.333224,4421.538353,4398.461431,4363.076816,4432.820404,4488.205018,4335.384509,4391.794764,4268.717844,4378.974252
51,0,4503.076813,4574.871683,4428.20502,4543.076812,4506.153736,4448.205019,4426.153738,4388.717841,4467.179378,4529.230658,4372.307585,4423.076815,4296.410151,4416.410148
52,0,4466.666557,4534.871684,4394.871687,4503.589633,4464.615275,4409.230661,4385.640918,4355.384509,4434.871686,4497.435787,4347.692201,4389.230662,4273.333229,4379.487072
53,0,4417.435789,4481.538352,4348.205022,4444.102455,4412.307584,4372.820406,4342.051176,4311.281946,4383.076816,4443.076814,4299.999895,4338.461432,4237.435794,4322.563997
54,0,4434.871686,4496.410146,4366.66656,4462.051173,4428.71784,4395.897328,4365.640919,4327.692202,4398.461431,4454.871686,4310.256305,4351.794765,4251.281947,4339.487073
55,0,4466.153737,4526.153735,4399.487072,4495.897326,4456.922968,4421.538353,4397.43579,4355.897329,4426.666558,4482.051172,4339.487073,4382.051175,4273.846049,4377.43579
56,0,4467.692198,4530.256299,4402.563995,4497.435787,4457.435788,4426.666558,4399.999892,4359.487073,4431.794763,4480.512711,4340.512714,4386.666559,4272.820408,4383.076816
57,0,4467.179378,4533.846043,4400.512713,4499.487069,4459.48707,4430.256302,4398.461431,4356.41015,4434.871686,4471.281942,4336.41015,4382.563995,4272.820408,4370.256303
58,0,4498.974249,4570.256298,4422.051174,4532.820402,4488.717839,4442.563994,4414.871687,4378.974252,4457.948609,4507.179377,4364.615278,4411.281943,4296.922972,4394.871687
59,0,4494.358864,4567.179375,4411.281943,4525.640915,4484.615275,4428.20502,4406.153738,4375.897329,4443.076814,4510.76912,4358.974252,4409.230661,4290.769126,4399.487072
60,0,4480.512711,4557.435786,4398.461431,4515.384505,4482.563993,4432.307584,4409.743482,4372.820406,4438.46143,4501.538351,4350.256304,4394.871687,4283.076818,4389.230662
61,0,4469.23066,4547.179376,4392.307585,4508.717838,4472.307583,4425.128097,4402.051174,4364.615278,4433.333225,4482.563993,4347.692201,4380.512713,4279.999895,4368.205021
62,0,4498.461428,4574.358863,4423.589635,4538.974248,4488.717839,4432.820404,4415.897328,4381.025534,4451.794763,4501.025531,4368.205021,4407.6922,4297.435792,4389.230662
63,0,4508.205018,4573.846042,4433.846045,4538.974248,4490.2563,4441.025532,4423.076815,4390.769123,4464.102455,4514.358864,4373.333226,4424.615276,4303.076818,4403.589636
64,0,4516.410146,4575.384504,4440.512712,4541.02553,4497.948608,4468.205019,4441.025532,4410.769123,4490.769121,4539.999889,4394.871687,4438.97425,4322.563997,4425.128097
65,0,4530.256299,4589.230657,4448.205019,4554.358863,4511.794761,4477.435788,4452.820404,4417.94861,4503.076813,4557.435786,4415.384507,4449.23066,4341.538355,4450.769122
66,0,4572.820401,4641.025528,4491.794762,4606.666554,4561.53835,4501.025531,4489.230659,4445.640917,4539.999889,4602.05117,4454.358865,4495.897326,4375.897329,4501.025531
67,0,4585.128093,4658.461425,4511.281941,4625.640913,4576.922965,4512.307582,4499.99989,4469.23066,4572.307581,4627.692195,4475.384506,4516.410146,4391.794764,4513.846043
68,0,4585.640914,4659.487066,4514.358864,4625.128092,4575.384504,4518.461428,4504.615274,4480.512711,4580.512709,4626.666554,4475.897326,4512.820402,4391.794764,4510.76912
69,0,4608.205016,4679.487065,4531.28194,4643.58963,4595.897324,4537.435786,4524.615274,4488.205018,4580.512709,4635.384502,4479.99989,4530.256299,4402.563995,4540.512709
70,0,4651.794758,4724.615269,4569.230657,4687.692193,4635.897323,4573.846042,4558.461427,4513.333223,4604.615272,4678.974245,4506.666556,4578.974247,4435.897327,4594.358862
71,0,4667.179373,4742.051166,4582.05117,4705.12809,4649.230656,4590.769119,4568.717837,4535.384504,4635.897323,4705.640911,4523.076812,4597.435785,4452.307583,4605.640913
72,0,4661.538348,4731.794756,4572.820401,4695.897321,4651.794758,4594.871683,4571.281939,4540.512709,4650.256297,4702.563988,4515.897325,4586.153734,4449.23066,4594.871683
73,0,4662.563989,4729.743474,4572.307581,4697.948603,4661.538348,4595.384503,4575.384504,4543.589632,4656.922963,4708.717834,4511.794761,4590.256298,4455.384506,4602.56399
74,0,4665.128091,4734.871679,4579.999888,4704.102449,4662.563989,4593.333221,4576.410145,4545.128094,4655.384502,4716.922962,4518.461428,4600.512708,4460.512711,4612.8204
75,0,4659.487066,4732.307577,4584.102452,4701.538347,4663.58963,4591.281939,4576.410145,4547.692196,4655.384502,4717.435782,4530.256299,4598.974247,4454.358865,4610.256298
76,0,4607.179375,4674.35886,4541.53835,4644.102451,4617.435785,4546.666555,4532.820402,4508.717838,4612.8204,4660.512707,4493.333223,4546.153735,4416.922969,4553.333222
77,0,4579.487068,4641.025528,4516.922966,4610.769118,4585.128093,4523.076812,4512.820402,4487.179377,4584.102452,4630.769118,4464.102455,4514.871684,4401.025533,4521.02553
78,0,4600.512708,4660.512707,4538.974248,4631.794759,4597.435785,4552.307581,4546.153735,4508.717838,4599.487067,4653.33322,4480.512711,4537.948607,4417.94861,4549.743478
79,0,4651.281938,4715.897321,4587.692196,4689.230655,4655.384502,4609.743477,4604.102452,4559.999888,4656.922963,4708.717834,4533.333222,4591.281939,4455.897327,4610.769118
80,0,4649.230656,4720.512705,4584.615273,4692.820398,4667.179373,4606.153734,4599.999888,4563.589632,4664.615271,4707.692193,4537.948607,4587.179375,4458.97425,4604.615272
81,0,4651.281938,4726.666551,4586.153734,4700.512706,4673.84604,4606.153734,4604.102452,4567.179375,4668.205014,4712.820398,4537.948607,4592.820401,4466.666557,4605.640913
82,0,4662.563989,4737.435782,4596.410144,4711.794757,4682.051168,4619.487067,4616.922964,4574.871683,4675.897322,4724.102449,4545.640914,4608.205016,4477.948608,4621.538349
83,0,4678.461424,4756.41014,4610.256298,4730.256295,4701.025526,4639.999887,4630.769118,4586.666555,4689.230655,4742.563987,4568.717837,4620.512708,4494.871685,4638.461425
84,0,4660.512707,4736.410141,4593.333221,4713.333218,4684.61527,4618.974246,4605.640913,4569.230657,4671.281937,4727.692192,4562.563991,4605.128093,4490.769121,4625.640913
85,0,4651.281938,4719.487064,4581.53835,4694.35886,4663.076809,4603.589631,4592.820401,4558.974247,4661.538348,4712.307577,4553.846042,4597.948606,4484.102454,4623.589631
86,0,4630.256297,4689.743475,4557.435786,4661.538348,4635.897323,4585.640914,4574.871683,4544.102453,4639.487066,4682.051168,4535.897325,4575.384504,4463.076814,4602.05117
87,0,4602.56399,4659.999886,4536.410145,4632.8204,4621.025528,4565.128093,4562.563991,4527.179376,4613.333221,4656.410143,4516.922966,4550.769119,4444.615276,4570.256298
88,0,4590.769119,4648.717835,4532.307581,4621.025528,4613.846041,4561.53835,4559.999888,4522.051171,4610.256298,4654.871681,4507.692197,4543.589632,4439.999891,4557.948606
89,0,4616.922964,4676.410142,4557.435786,4646.153733,4634.358861,4590.769119,4580.512709,4537.435786,4630.769118,4677.435783,4527.692197,4567.692196,4456.410147,4580.512709
90,0,4637.948605,4698.974244,4573.333222,4671.794758,4652.307579,4605.128093,4589.230657,4549.743478,4645.128092,4691.281937,4549.743478,4591.79476,4471.794762,4599.487067
91,0,4625.128092,4680.512706,4564.615273,4657.948604,4635.897323,4581.025529,4576.922965,4539.999889,4635.897323,4671.281937,4539.999889,4581.53835,4464.102455,4586.153734
92,0,4611.281939,4662.051168,4555.897324,4635.897323,4618.974246,4556.922965,4566.666555,4525.128094,4616.410144,4653.33322,4525.128094,4567.179375,4448.71784,4571.281939
93,0,4600.512708,4649.230656,4546.666555,4622.051169,4599.487067,4550.256299,4554.358863,4509.230659,4586.666555,4636.922964,4516.922966,4555.384504,4436.922968,4558.974247
94,0,4608.205016,4652.307579,4554.871683,4631.794759,4597.435785,4571.281939,4562.563991,4522.051171,4598.461426,4643.58963,4528.205017,4558.461427,4447.179378,4566.153734
95,0,4617.948605,4658.974245,4564.615273,4638.461425,4609.230657,4582.05117,4574.871683,4536.922966,4626.666554,4656.410143,4541.02553,4569.230657,4459.999891,4582.563991
96,0,4652.820399,4698.461424,4593.333221,4671.794758,4648.205015,4605.128093,4604.102452,4561.025529,4653.33322,4696.410142,4570.769119,4607.179375,4486.666557,4618.461426
97,0,4661.025527,4708.205013,4602.56399,4685.640911,4652.307579,4613.846041,4610.769118,4564.615273,4645.128092,4702.051167,4575.384504,4610.769118,4491.794762,4612.8204
98,0,4658.461425,4705.12809,4601.025529,4686.666552,4657.948604,4610.256298,4612.30758,4573.846042,4654.871681,4695.384501,4573.846042,4604.615272,4492.307582,4609.230657
99,0,4638.461425,4685.128091,4575.384504,4659.999886,4650.769117,4592.30758,4593.333221,4564.102452,4653.33322,4672.820399,4555.384504,4583.076811,4481.538352,4604.102452
100,0,4662.563989,4710.769116,4593.846042,4686.153732,4664.10245,4624.102451,4615.897323,4577.948606,4666.153732,4698.974244,4573.846042,4601.025529,4497.435787,4629.230656
101,0,4669.230655,4711.281936,4603.076811,4692.307578,4652.820399,4625.128092,4616.410144,4580.512709,4671.794758,4715.3845,4587.692196,4609.743477,4503.589633,4632.307579
102,0,4651.281938,4692.307578,4587.692196,4661.025527,4643.07681,4601.538349,4596.410144,4573.846042,4673.333219,4708.205013,4580.512709,4597.948606,4498.974249,4622.051169
103,0,4626.666554,4669.230655,4561.53835,4629.743477,4631.281938,4585.640914,4572.307581,4552.307581,4643.58963,4680.512706,4550.769119,4572.820401,4484.102454,4597.435785
104,0,4639.487066,4683.589629,4568.717837,4653.84604,4643.58963,4605.128093,4586.666555,4553.846042,4639.999887,4689.230655,4557.948606,4580.512709,4491.794762,4604.102452
105,0,4646.153733,4687.692193,4572.307581,4661.025527,4647.179374,4606.153734,4592.30758,4564.102452,4656.410143,4704.102449,4573.333222,4584.615273,4500.51271,4610.256298
106,0,4635.384502,4675.897322,4568.205016,4642.563989,4639.487066,4600.512708,4590.769119,4563.076811,4651.794758,4694.87168,4562.563991,4578.974247,4496.410146,4599.999888
107,0,4635.897323,4679.487065,4571.281939,4646.153733,4638.974246,4612.8204,4598.974247,4564.102452,4648.717835,4691.794757,4555.897324,4588.205016,4501.025531,4603.589631
108,0,4670.256296,4709.230654,4603.076811,4682.563988,4665.640912,4632.307579,4622.56399,4585.128093,4677.948604,4721.025526,4589.230657,4615.897323,4526.666556,4637.948605
109,0,4709.230654,4735.89732,4644.615271,4710.769116,4689.743475,4632.307579,4633.846041,4605.128093,4699.487065,4745.128089,4621.025528,4638.974246,4544.615273,4665.128091
110,0,4685.640911,4708.205013,4626.153733,4675.384501,4659.999886,4606.153734,4604.615272,4581.025529,4663.076809,4706.153731,4588.717837,4619.999887,4520.51271,4637.435784
111,0,4649.230656,4681.538347,4587.692196,4645.128092,4638.974246,4606.666554,4592.820401,4566.666555,4650.256297,4686.153732,4565.128093,4599.487067,4505.640915,4616.410144
112,0,4662.563989,4700.512706,4598.461426,4671.794758,4661.538348,4631.794759,4618.461426,4586.153734,4677.948604,4713.333218,4591.281939,4612.30758,4525.128094,4635.897323
113,0,4693.333219,4723.076808,4626.666554,4700.512706,4683.076809,4641.025528,4633.33322,4607.692195,4697.435783,4735.3845,4613.333221,4635.897323,4545.640914,4655.384502
114,0,4656.410143,4672.307578,4589.230657,4643.58963,4635.384502,4597.948606,4587.692196,4575.897324,4656.922963,4686.153732,4570.256298,4597.948606,4511.794761,4611.281939
115,0,4623.589631,4633.33322,4561.025529,4603.076811,4603.076811,4576.922965,4566.666555,4554.358863,4633.33322,4658.461425,4539.487068,4566.666555,4482.051172,4582.05117
116,0,4612.8204,4628.205015,4559.999888,4598.461426,4597.948606,4571.79476,4564.102452,4545.128094,4618.461426,4647.692194,4532.307581,4558.461427,4481.025531,4579.487068
117,0,4623.07681,4643.07681,4569.230657,4608.717836,4611.794759,4584.102452,4573.333222,4553.333222,4623.07681,4653.84604,4547.179376,4573.846042,4496.922967,4591.79476
118,0,4603.076811,4605.640913,4538.974248,4579.999888,4583.076811,4563.076811,4548.205017,4532.307581,4607.692195,4627.179374,4531.28194,4551.28194,4471.281942,4559.487068
119,0,4596.410144,4592.30758,4533.846043,4569.230657,4577.948606,4547.692196,4539.487068,4523.076812,4598.974247,4616.922964,4521.538351,4537.948607,4457.435788,4545.640914
120,0,4567.692196,4572.307581,4516.410146,4535.384504,4548.205017,4519.999889,4511.794761,4499.99989,4564.615273,4586.153734,4492.307582,4506.666556,4443.589635,4518.461428
121,0,4530.256299,4534.358863,4486.153736,4495.384505,4492.307582,4492.307582,4478.974249,4463.589634,4523.076812,4540.512709,4457.435788,4467.179378,4420.512712,4477.435788
122,0,4506.153736,4501.538351,4459.999891,4470.256301,4465.128096,4465.128096,4453.333224,4433.846045,4491.794762,4508.205018,4436.410148,4441.538353,4395.897328,4451.281942
123,0,4538.974248,4539.999889,4489.74348,4507.692197,4513.846043,4493.333223,4493.846044,4465.128096,4525.128094,4550.256299,4470.256301,4480.512711,4421.538353,4489.230659
124,0,4596.922965,4605.128093,4541.02553,4566.153734,4570.769119,4561.025529,4561.53835,4529.743479,4600.512708,4627.692195,4527.179376,4547.179376,4475.897326,4548.205017
125,0,4634.871682,4645.640912,4578.461427,4602.56399,4601.025529,4608.717836,4599.999888,4570.256298,4646.666553,4669.230655,4561.025529,4581.53835,4508.717838,4585.640914
126,0,4639.999887,4663.076809,4590.256298,4624.615272,4621.538349,4621.025528,4608.717836,4582.563991,4658.461425,4680.512706,4569.230657,4587.692196,4518.461428,4602.56399
127,0,4637.435784,4685.640911,4584.102452,4653.33322,4640.512707,4630.769118,4619.487067,4591.79476,4675.897322,4698.974244,4575.897324,4606.153734,4527.692197,4614.358862
128,0,4683.076809,4707.179372,4627.179374,4676.922963,4642.563989,4645.640912,4638.461425,4614.871682,4700.512706,4729.743474,4604.615272,4644.615271,4551.79476,4644.615271
0,0,4750.769115,4732.820397,4703.076808,4704.102449,4667.692194,4672.307578,4669.230655,4649.230656,4731.794756,4770.256294,4647.179374,4681.538347,4581.53835,4689.230655
1,0,4777.948601,4798.974242,4727.179372,4752.820397,4742.563987,4718.974244,4718.974244,4700.512706,4801.025524,4835.384497,4694.35886,4722.563987,4621.538349,4735.89732
2,0,4783.076806,4834.871677,4736.410141,4757.435781,4768.205012,4746.666551,4746.666551,4723.076808,4836.922959,4860.512702,4718.461423,4747.179371,4644.615271,4758.974243
3,0,4853.846035,4833.846036,4819.487062,4776.92296,4764.102448,4774.358858,4771.281935,4738.461423,4849.230651,4877.948599,4750.256294,4786.153729,4666.153732,4800.512703
4,0,4896.410137,4868.205009,4841.025523,4841.025523,4805.128088,4807.17937,4800.512703,4764.102448,4878.461419,4912.820393,4777.948601,4828.20501,4688.717834,4836.410138
5,0,4964.102443,5048.717825,4872.820394,4979.999878,4964.102443,4913.846034,4918.461418,4864.615266,4995.384493,5039.999877,4869.743471,4927.692187,4773.846037,4935.897315
6,0,5161.025515,5274.871666,5069.743466,5159.487053,5175.384489,5094.35885,5113.333208,5037.948595,5191.281924,5264.615256,5035.897313,5097.435773,4920.5127,5123.589618
7,0,5426.153713,5497.948584,5343.589613,5388.717817,5408.717816,5324.102434,5345.640895,5266.666538,5456.922943,5523.076788,5249.743461,5335.897305,5102.563978,5371.79474
8,0,5629.743452,5773.333192,5501.025507,5665.128067,5640.512683,5518.461404,5544.615249,5457.435764,5702.051143,5750.76909,5438.974226,5553.333198,5263.076794,5596.92294
9,0,5829.743447,6010.256263,5672.820374,5911.794727,5831.281909,5690.256271,5714.358835,5616.92294,5881.025497,5952.820367,5618.974222,5733.333193,5415.897303,5782.051141
10,0,6034.358827,6069.230621,5947.692162,6004.615238,5960.512675,5861.538318,5873.33319,5782.051141,6035.897288,6099.48703,5783.076782,5905.128061,5555.8973,5937.435752
11,0,6132.307542,6163.076772,6055.384467,6070.256262,6111.281902,6003.589597,5996.92293,5927.179342,6197.948566,6231.794719,5910.769086,6044.102416,5672.820374,6069.230621
12,0,6116.410107,6305.128051,5937.435752,6163.589593,6195.897284,6047.179339,6015.384468,5985.128059,6256.922924,6281.538308,5973.333187,6073.846005,5738.461398,6110.256261
13,0,6233.333181,6341.538306,6067.179339,6219.999848,6223.589591,6101.025492,6070.769082,6055.384467,6313.845999,6347.179332,6052.307544,6136.922927,5812.30755,6171.794721
14,0,6351.281896,6248.204975,6295.897282,6164.615234,6222.56395,6143.076773,6119.99985,6115.384466,6362.051126,6386.15369,6108.717799,6206.153694,5893.84601,6225.128053
15,0,6297.948564,6266.666513,6174.871644,6227.692155,6253.846001,6133.333183,6102.051133,6111.281902,6361.538306,6387.179331,6101.025492,6199.999848,5921.025496,6217.948566
16,0,6186.666515,6318.461384,5964.102418,6294.871641,6245.640873,6107.692158,6061.025493,6088.7178,6332.307537,6351.281896,6081.025492,6148.204978,5902.563958,6174.871644
17,0,6213.333181,6314.87164,6045.128057,6245.128052,6233.333181,6126.153696,6088.7178,6104.615235,6358.461383,6373.333177,6096.410107,6158.461388,5900.512676,6191.79472
18,0,6247.179334,6242.56395,6129.230619,6223.589591,6189.743438,6102.051133,6071.794723,6090.769082,6341.025486,6350.769075,6075.384467,6156.410106,5904.10242,6176.410105
19,0,6337.435742,6270.769077,6236.410104,6343.589588,6229.230617,6148.717798,6143.589593,6144.615234,6401.025485,6405.128049,6131.794722,6234.358822,5951.794726,6245.128052
20,0,6488.20497,6455.897278,6402.563946,6424.615228,6417.948561,6317.948563,6332.820358,6311.794717,6588.717788,6609.230608,6310.769076,6407.179331,6097.948569,6435.384458
21,0,6534.871635,6642.05112,6356.410101,6517.435738,6579.999839,6417.435741,6408.717792,6407.179331,6686.666503,6718.974195,6412.820356,6482.051124,6206.666515,6534.871635
22,0,6573.845993,6736.922912,6307.692153,6694.358811,6616.410095,6432.820356,6408.717792,6423.076766,6707.179323,6733.333169,6426.66651,6501.538303,6229.230617,6560.51266
23,0,6622.05112,6689.230606,6437.43574,6650.256248,6590.256249,6436.92292,6433.333176,6437.43574,6735.897271,6758.974194,6437.948561,6537.435738,6237.948565,6588.717788
24,0,6633.333171,6705.128041,6492.820354,6579.487019,6685.128042,6493.333175,6492.820354,6497.948559,6807.692141,6827.692141,6497.435739,6599.487018,6283.076769,6652.30753
25,0,6558.461378,6750.256245,6328.204973,6634.358812,6715.384451,6475.384457,6459.487022,6475.897278,6792.820347,6807.179321,6484.102406,6561.025481,6248.717796,6633.333171
26,0,6535.897276,6642.56394,6315.384461,6618.974197,6599.487018,6414.871638,6417.948561,6420.512664,6727.692143,6754.87163,6434.358817,6511.794713,6191.79472,6585.128044
27,0,6572.820352,6510.256251,6449.743432,6534.358815,6550.769071,6392.820356,6421.025484,6421.025484,6694.358811,6716.922913,6430.769074,6524.102405,6203.076771,6575.384455
28,0,6589.230608,6596.410095,6454.358817,6574.871634,6622.05112,6421.025484,6443.076766,6457.43574,6728.204964,6733.333169,6470.769073,6549.230609,6242.56395,6604.615223
29,0,6492.307534,6637.435735,6299.999846,6562.563942,6580.51266,6363.589588,6375.384459,6400.512664,6683.07676,6688.204965,6413.845997,6471.281893,6194.358823,6537.435738
30,0,6371.281895,6490.256252,6206.666515,6441.025484,6496.922918,6226.153694,6245.128052,6281.025487,6548.717789,6549.74343,6291.281897,6344.102409,6105.640876,6396.92292
31,0,6327.692153,6372.820357,6180.512669,6333.333178,6468.20497,6129.230619,6149.743439,6199.487028,6448.204971,6427.17933,6213.846002,6263.07677,6049.230621,6305.128051
32,0,6295.384461,6389.743433,6094.358825,6271.281898,6447.69215,6106.153697,6129.230619,6174.871644,6423.076766,6393.845997,6193.846002,6235.897283,6035.897288,6283.076769
33,0,6252.307539,6384.615228,6033.846006,6262.563949,6448.204971,6082.563954,6116.410107,6162.051131,6415.384459,6396.92292,6178.974208,6215.384463,6032.820365,6259.487026
34,0,6241.025488,6292.820359,6059.487031,6242.051129,6470.256252,6030.256263,6076.410108,6124.102414,6356.922921,6334.358819,6135.384465,6168.717798,6005.128058,6205.128053
35,0,6287.179333,6200.512669,6150.25626,6148.204978,6456.922919,6032.820365,6096.410107,6123.589594,6348.717793,6322.563948,6122.563953,6172.307541,5997.948571,6208.204976
36,0,6266.666513,6215.384463,6099.999851,6107.179338,6482.051124,6032.307545,6101.025492,6134.871645,6364.102408,6335.38446,6124.615235,6177.948567,5997.948571,6214.358822
37,0,6155.384465,6289.743436,5915.384471,6182.051131,6512.307533,5959.999854,6010.256263,6074.871646,6310.769076,6274.358821,6070.769082,6104.102415,5949.230624,6144.102414
38,0,6149.230619,6247.179334,5935.897291,6182.051131,6486.666508,5930.769086,5987.692161,6030.256263,6267.692154,6229.743437,6031.794724,6071.281903,5911.281907,6110.769081
39,0,6317.948563,6199.487028,6180.512669,6123.589594,6491.794713,6014.358827,6110.769081,6115.897286,6351.794716,6316.922922,6125.640876,6178.974208,5968.204982,6212.820361
40,0,6310.256256,6241.025488,6134.358824,6113.846004,6525.128046,6006.153699,6097.948569,6120.512671,6350.256255,6311.281897,6125.640876,6175.384464,5971.281905,6206.153694
41,0,6154.871644,6335.897281,5907.179343,6177.948567,6581.02548,5939.999855,5999.487033,6043.076775,6272.820359,6236.410104,6032.820365,6088.204979,5901.538317,6124.615235
42,0,6165.640875,6275.384462,5956.410111,6177.435746,6593.845993,5930.769086,6003.589597,6032.820365,6269.743436,6232.30754,6030.256263,6077.948569,5876.410113,6120.512671
43,0,6229.743437,6215.384463,6003.076776,6161.02549,6606.666505,5949.230624,6035.384468,6058.974211,6297.435743,6248.717796,6062.051134,6088.204979,5881.538318,6133.846004
44,0,6124.102414,6247.179334,5779.487038,6162.051131,6587.692147,5877.948574,5953.333188,5978.461392,6231.794719,6195.384464,5965.64088,6004.102417,5809.743448,6056.410108
45,0,6127.692158,6235.384463,5815.897294,6174.358823,6580.51266,5858.974216,5948.204983,5951.794726,6202.563951,6192.307541,5942.051137,6005.128058,5797.435756,6062.563954
46,0,6230.769078,6188.204977,6038.461391,6159.487029,6569.743429,5911.281907,6013.846007,6018.974212,6237.948565,6217.948566,6018.461391,6079.999851,5848.204985,6127.692158
47,0,6239.999847,6144.615234,6073.846005,6082.563954,6509.743431,5927.179342,6036.410109,6046.666519,6249.230616,6205.128053,6033.333186,6090.769082,5866.666523,6126.666517
48,0,6212.820361,6105.128056,6028.717801,6012.820366,6437.948561,5896.922933,6018.461391,6018.974212,6226.153694,6179.999849,6003.076776,6066.153698,5843.07678,6098.461389
49,0,6159.487029,6150.25626,5954.358829,6035.384468,6483.076765,5874.358831,5970.256264,5984.615238,6186.666515,6143.589593,5978.974213,6035.384468,5833.846011,6064.615236
50,0,6029.230622,6178.461387,5759.487039,6057.435749,6518.9742,5805.128063,5855.384472,5914.87165,6109.74344,6057.94857,5907.179343,5931.794727,5790.769089,5971.794726
51,0,5986.66652,6033.846006,5731.794732,5957.435752,6381.025485,5722.051142,5789.230628,5850.256267,6039.487032,5973.333187,5842.56396,5844.102421,5729.74345,5900.512676
52,0,6026.153699,5945.64088,5858.974216,5861.538318,6313.333179,5732.820373,5826.666524,5864.102421,6041.538314,5971.281905,5861.538318,5864.615241,5750.76909,5916.410112
53,0,5994.358828,6030.256263,5798.974217,5900.512676,6394.871638,5755.897295,5822.05114,5867.692164,6036.922929,5968.204982,5862.563959,5866.153703,5776.410115,5911.281907
54,0,5972.820367,6009.230622,5728.717809,5887.692164,6360.512665,5705.640886,5757.435757,5815.384473,5983.076777,5908.717804,5805.640884,5806.153704,5734.358834,5859.487036
55,0,5985.128059,5956.922931,5754.358834,5803.076781,6318.974204,5687.179348,5747.692167,5803.589602,5967.179341,5897.435753,5802.05114,5797.948576,5708.717809,5853.33319
56,0,5907.692163,6032.307545,5638.974221,5846.153703,6395.384459,5683.589605,5722.563963,5795.897294,5962.051136,5912.820368,5803.076781,5782.563961,5700.512681,5834.358832
57,0,5904.10242,5962.563957,5690.256271,5841.538319,6339.487024,5662.563964,5712.307553,5761.0255,5925.12806,5884.10242,5758.974218,5750.25627,5668.71781,5799.999858
58,0,6044.102416,5857.435754,5941.025496,5747.692167,6273.846,5715.897296,5814.358832,5815.384473,5984.102418,5937.948573,5802.05114,5832.82037,5691.794733,5876.410113
59,0,6005.640879,5918.974214,5848.717806,5732.820373,6321.025486,5711.281912,5802.05114,5823.076781,5997.435751,5941.025496,5822.05114,5838.461396,5689.743451,5885.128061
60,0,5929.230624,6006.66652,5663.589605,5839.999857,6358.461383,5675.897297,5741.538321,5778.974218,5958.974213,5899.487035,5781.0255,5774.358833,5647.69217,5833.846011
61,0,5946.666521,5954.358829,5692.307553,5843.589601,6324.61523,5673.846015,5737.948578,5764.102423,5942.051137,5882.051138,5753.333193,5759.487039,5633.333196,5818.461396
62,0,5934.358829,5911.281907,5716.922937,5756.922936,6299.999846,5652.820375,5734.871655,5751.281911,5934.358829,5881.025497,5743.076783,5758.974218,5626.666529,5817.435755
63,0,5817.435755,5865.640882,5602.563966,5656.410118,6229.230617,5547.692172,5644.615247,5653.846016,5848.717806,5797.948576,5649.230631,5650.769093,5539.999865,5727.179347
64,0,5744.102424,5822.05114,5543.076788,5634.871657,6209.230617,5505.640891,5589.230633,5593.846017,5783.589602,5727.692168,5582.563966,5573.846018,5490.769097,5658.974221
65,0,5700.512681,5831.794729,5475.897302,5653.333195,6254.358821,5493.84602,5553.333198,5574.871659,5762.563962,5713.846014,5561.025505,5558.461403,5478.974225,5633.333196
66,0,5644.102426,5814.871653,5384.615253,5608.204991,6210.769079,5435.897303,5499.487045,5531.281916,5709.74345,5662.563964,5521.025506,5516.410122,5441.538328,5580.512684
67,0,5605.128068,5697.435758,5377.435766,5538.974224,6077.435749,5374.871663,5457.435764,5473.333199,5627.69217,5559.999864,5462.051148,5454.871661,5386.666535,5505.640891
68,0,5659.487041,5594.871658,5562.563967,5489.230635,5989.230623,5395.897304,5501.538327,5488.204994,5611.794735,5542.563967,5483.589609,5485.640891,5403.076791,5519.487045
69,0,5737.948578,5603.589607,5698.461399,5432.307559,5999.487033,5451.281918,5564.102428,5558.974223,5671.281913,5616.92294,5564.615249,5564.102428,5461.538328,5595.384479
70,0,5622.563965,5675.384477,5426.666534,5449.743456,6029.743442,5403.076791,5463.076789,5523.076788,5635.897298,5563.076787,5523.076788,5489.230635,5425.640893,5537.948583
71,0,5481.538327,5655.384477,5189.230642,5484.10243,5979.999854,5306.153716,5325.640895,5410.256278,5522.563968,5427.179354,5402.56397,5352.820382,5337.435767,5414.871662
72,0,5514.35884,5556.410121,5314.358844,5425.128072,5907.692163,5312.307562,5358.461407,5397.948586,5509.230635,5422.051149,5390.256278,5357.435766,5324.102434,5414.358842
73,0,5521.538327,5506.666532,5369.743458,5358.974228,5883.076779,5321.025511,5372.820381,5410.769098,5514.35884,5434.358841,5399.487047,5369.743458,5319.99987,5419.487047
74,0,5471.794738,5493.84602,5309.230639,5345.640895,5835.897293,5265.640897,5314.358844,5358.974228,5453.3332,5368.204997,5339.487049,5308.717819,5276.410127,5362.563971
75,0,5489.230635,5492.307558,5348.204997,5338.461408,5807.692166,5255.384487,5324.102434,5342.563972,5445.640892,5356.922946,5319.487049,5303.076793,5264.102435,5352.307561
76,0,5478.974225,5496.922943,5331.794741,5314.358844,5806.666525,5269.23064,5337.435767,5347.179356,5456.922943,5365.128074,5326.666536,5312.820383,5255.384487,5342.051151
77,0,5464.615251,5564.615249,5275.384486,5375.897304,5858.461395,5286.153717,5346.153715,5357.435766,5470.256276,5388.717817,5337.948587,5315.384485,5257.948589,5338.461408
78,0,5481.025507,5616.92294,5276.410127,5450.769097,5859.487036,5290.256281,5359.487048,5364.615253,5477.948584,5409.743457,5341.02551,5315.384485,5266.153717,5340.51269
79,0,5569.743454,5647.179349,5417.435765,5474.871661,5793.846012,5350.256279,5441.025508,5422.56397,5537.435762,5477.435763,5398.461406,5388.204996,5308.204998,5408.717816
80,0,5631.281914,5663.076785,5525.640891,5438.974226,5723.589604,5406.666534,5495.384481,5476.922943,5597.435761,5527.692173,5447.179354,5447.692174,5346.153715,5466.666533
81,0,5599.999863,5711.794732,5431.794739,5482.051148,5722.051142,5386.666535,5458.461405,5468.204994,5602.563966,5523.589609,5435.384482,5418.461406,5342.563972,5446.153713
82,0,5557.948582,5744.102424,5326.153716,5556.410121,5695.897297,5343.589613,5408.204996,5422.051149,5558.461403,5501.538327,5403.076791,5369.743458,5315.384485,5412.82038
83,0,5628.204991,5770.76909,5431.281918,5582.563966,5648.20499,5412.82038,5469.743456,5457.948584,5583.589607,5550.769095,5454.871661,5428.204995,5353.846023,5488.717815
84,0,5687.179348,5783.589602,5512.820378,5581.538325,5641.025503,5472.820379,5529.230634,5509.743455,5649.743452,5613.333196,5501.025507,5484.61525,5392.820381,5554.871659
