title:A                                                                               , recorded:02.07.20 12.53.08, sampling:128, subject:S                                                                               , labels:COUNTER INTERPOLATED AF3 F7 F3 FC5 T7 P7 O1 O2 P8 T8 FC6 F4 F8 AF4,, units:emotiv,,,,,,,,,
31,0,4256.410152,4267.179383,4266.666562,4275.384511,4274.35887,4284.102459,4273.846049,4260.512716,4273.846049,4273.846049,4266.153742,4248.717845,4262.051178,4271.281947
32,0,4269.743485,4283.589639,4286.153741,4292.307587,4289.230664,4294.87169,4282.563998,4266.153742,4282.051177,4291.281946,4278.974254,4267.179383,4275.897331,4286.666562
33,0,4254.35887,4266.153742,4268.205024,4273.846049,4271.281947,4275.384511,4263.589639,4249.743486,4267.179383,4271.281947,4269.743485,4252.307588,4265.128101,4265.128101
34,0,4247.179383,4254.871691,4253.84605,4264.10246,4260.512716,4269.743485,4263.589639,4254.35887,4272.307588,4263.076819,4261.538357,4241.538358,4253.84605,4252.820409
35,0,4249.743486,4257.435793,4257.435793,4266.153742,4262.051178,4273.846049,4265.640921,4266.666562,4281.025536,4267.692203,4263.076819,4248.205024,4260.512716,4262.563998
36,0,4254.35887,4264.61528,4268.717844,4269.743485,4268.717844,4273.333229,4264.61528,4264.61528,4276.922972,4270.256306,4272.820408,4254.35887,4266.153742,4270.256306
37,0,4254.35887,4265.128101,4269.230665,4273.333229,4268.717844,4272.307588,4266.153742,4259.999896,4272.820408,4271.794767,4277.435793,4248.717845,4258.461434,4265.128101
38,0,4276.922972,4291.281946,4288.717844,4300.512715,4292.820408,4298.461433,4290.769126,4277.948613,4293.846049,4299.999895,4296.922972,4270.769126,4275.384511,4288.717844
39,0,4270.256306,4285.640921,4282.051177,4286.666562,4289.743485,4291.794767,4281.025536,4273.846049,4292.820408,4299.999895,4293.333228,4271.281947,4283.589639,4289.230664
40,0,4266.153742,4274.35887,4271.794767,4273.846049,4284.102459,4284.102459,4277.435793,4272.820408,4291.281946,4293.846049,4285.1281,4263.589639,4278.974254,4282.051177
41,0,4295.897331,4301.538356,4292.820408,4304.102459,4311.794766,4311.794766,4304.102459,4296.922972,4313.846048,4319.999894,4304.102459,4281.025536,4290.256305,4305.64092
42,0,4305.1281,4318.974253,4307.692202,4318.461433,4324.615279,4318.974253,4310.256305,4303.589638,4317.435792,4327.692202,4311.794766,4291.281946,4298.461433,4318.461433
43,0,4291.794767,4308.205023,4303.076818,4307.692202,4307.179382,4302.563997,4296.922972,4296.922972,4306.153741,4316.410151,4299.999895,4284.102459,4294.87169,4308.205023
44,0,4286.153741,4298.974254,4295.38451,4301.538356,4296.922972,4298.461433,4297.435792,4294.87169,4307.692202,4315.38451,4294.87169,4277.948613,4292.307587,4305.1281
45,0,4293.846049,4307.179382,4300.512715,4311.794766,4309.230664,4309.230664,4308.717843,4304.615279,4325.128099,4330.256304,4308.717843,4287.692203,4297.435792,4319.999894
46,0,4291.794767,4302.563997,4301.538356,4310.256305,4308.205023,4306.153741,4304.615279,4305.1281,4319.487074,4322.563997,4308.717843,4288.717844,4293.846049,4319.487074
47,0,4305.1281,4312.820407,4314.871689,4319.487074,4314.871689,4313.333228,4312.307587,4309.230664,4318.461433,4329.230663,4310.769125,4296.922972,4299.487074,4326.666561
48,0,4302.051177,4307.179382,4309.230664,4313.333228,4310.256305,4308.205023,4305.64092,4299.487074,4317.948612,4324.102458,4303.076818,4288.717844,4297.948613,4320.512715
49,0,4305.64092,4314.358869,4315.89733,4322.051176,4321.025535,4317.948612,4316.410151,4313.846048,4338.974253,4338.461432,4317.435792,4299.999895,4306.153741,4333.846048
50,0,4305.64092,4313.333228,4314.871689,4322.051176,4322.563997,4325.64092,4325.64092,4319.487074,4334.871689,4345.128099,4325.64092,4300.512715,4306.153741,4334.358868
51,0,4308.205023,4314.871689,4313.333228,4323.076817,4323.589638,4332.307586,4334.871689,4319.999894,4326.666561,4346.15374,4322.051176,4295.897331,4305.64092,4327.692202
52,0,4312.307587,4317.435792,4317.948612,4325.64092,4323.076817,4333.333227,4337.948612,4327.179381,4332.307586,4345.128099,4316.922971,4296.922972,4307.692202,4330.256304
53,0,4329.230663,4343.076817,4341.538355,4349.743483,4348.717842,4348.717842,4356.41015,4346.66656,4354.358868,4364.102457,4334.358868,4315.38451,4321.538356,4353.333227
54,0,4306.666561,4326.666561,4317.948612,4333.333227,4336.41015,4324.615279,4334.871689,4324.102458,4332.820407,4341.538355,4322.051176,4291.794767,4310.256305,4329.743484
55,0,4288.205023,4305.64092,4296.922972,4315.38451,4313.333228,4304.615279,4311.281946,4302.051177,4309.230664,4318.974253,4307.692202,4274.87169,4300.512715,4309.230664
56,0,4303.076818,4316.410151,4309.743484,4323.589638,4316.410151,4312.820407,4315.38451,4310.769125,4316.922971,4326.666561,4315.38451,4285.640921,4304.615279,4322.563997
57,0,4319.999894,4337.435791,4330.769125,4338.974253,4333.333227,4322.563997,4330.256304,4326.15374,4335.384509,4339.487073,4329.230663,4299.999895,4311.794766,4339.999894
58,0,4292.820408,4310.256305,4311.281946,4313.846048,4308.205023,4294.358869,4301.025536,4301.025536,4314.358869,4316.410151,4312.820407,4282.563998,4298.974254,4313.846048
59,0,4266.666562,4275.384511,4278.974254,4281.025536,4274.87169,4268.205024,4271.794767,4270.256306,4278.461434,4286.666562,4288.717844,4255.384511,4276.410152,4282.563998
60,0,4271.794767,4277.435793,4275.897331,4280.512716,4278.974254,4268.717844,4279.487075,4276.410152,4282.051177,4286.666562,4288.205023,4254.871691,4273.333229,4290.769126
61,0,4287.179382,4296.922972,4296.922972,4301.538356,4297.435792,4284.61528,4298.461433,4294.87169,4304.102459,4303.589638,4304.615279,4272.307588,4293.846049,4315.89733
62,0,4304.615279,4313.846048,4314.871689,4322.563997,4309.230664,4303.076818,4310.256305,4303.589638,4316.410151,4324.102458,4319.999894,4287.692203,4312.307587,4330.769125
63,0,4306.153741,4310.769125,4307.692202,4316.922971,4303.076818,4292.820408,4304.102459,4296.922972,4310.769125,4315.89733,4315.89733,4284.102459,4303.076818,4322.563997
64,0,4319.999894,4324.615279,4318.461433,4330.256304,4317.948612,4299.487074,4314.871689,4313.333228,4327.179381,4321.538356,4326.15374,4295.897331,4305.1281,4331.794766
65,0,4337.948612,4348.205022,4339.487073,4353.846047,4339.999894,4324.615279,4335.384509,4331.281945,4344.102458,4343.589637,4341.025535,4310.769125,4319.487074,4347.179381
66,0,4349.230663,4365.128098,4351.281945,4365.128098,4355.897329,4337.948612,4349.230663,4335.384509,4348.205022,4369.743483,4352.307586,4323.076817,4328.205022,4361.538355
67,0,4331.281945,4341.025535,4331.281945,4338.974253,4341.538355,4315.89733,4326.15374,4314.871689,4326.15374,4349.743483,4335.384509,4306.153741,4313.333228,4343.589637
68,0,4319.487074,4328.717843,4319.999894,4327.692202,4329.743484,4311.281946,4317.948612,4313.846048,4319.999894,4330.256304,4322.051176,4293.333228,4308.205023,4330.769125
69,0,4297.948613,4310.256305,4302.563997,4306.153741,4304.102459,4293.333228,4302.563997,4302.051177,4310.769125,4308.717843,4304.615279,4273.333229,4301.025536,4315.38451
70,0,4286.153741,4290.769126,4286.666562,4287.179382,4289.230664,4272.820408,4284.102459,4285.640921,4300.512715,4297.948613,4297.435792,4257.435793,4290.769126,4304.615279
71,0,4265.640921,4255.384511,4258.461434,4258.974255,4264.10246,4247.692204,4256.922973,4261.025537,4270.256306,4263.076819,4278.461434,4226.153743,4265.128101,4274.35887
72,0,4253.84605,4244.10246,4251.281947,4250.769127,4250.769127,4242.051178,4254.871691,4253.333229,4252.820409,4240.512717,4265.640921,4216.922974,4256.410152,4258.461434
73,0,4244.10246,4239.999896,4245.640922,4242.563999,4245.640922,4237.435794,4246.666563,4243.58964,4239.999896,4231.794768,4252.307588,4209.743487,4254.871691,4247.692204
74,0,4245.640922,4241.025537,4243.076819,4239.999896,4250.256306,4237.948614,4243.076819,4240.512717,4245.128101,4238.974255,4253.84605,4208.717846,4252.820409,4249.743486
75,0,4236.922973,4225.640922,4234.871691,4228.717845,4243.58964,4230.256307,4236.922973,4239.487076,4250.256306,4236.922973,4254.35887,4205.640923,4243.58964,4247.692204
76,0,4246.153742,4243.58964,4249.743486,4247.692204,4262.563998,4251.794768,4255.897332,4254.35887,4262.563998,4252.307588,4266.153742,4221.025538,4257.948614,4261.025537
77,0,4256.410152,4260.512716,4259.487075,4265.640921,4274.87169,4268.717844,4268.717844,4269.230665,4275.897331,4272.820408,4278.461434,4235.897332,4269.743485,4268.717844
78,0,4263.589639,4257.948614,4263.076819,4268.205024,4272.820408,4269.230665,4274.35887,4276.922972,4287.692203,4284.102459,4288.717844,4248.717845,4272.307588,4275.384511
79,0,4305.64092,4299.999895,4297.948613,4303.076818,4303.076818,4295.38451,4304.102459,4296.922972,4310.256305,4311.281946,4315.38451,4278.461434,4298.974254,4321.025535
80,0,4352.820406,4357.435791,4337.435791,4349.230663,4335.89733,4321.538356,4330.256304,4313.333228,4328.717843,4337.435791,4339.487073,4305.1281,4327.179381,4368.717842
81,0,4376.410149,4375.384508,4355.384509,4369.743483,4342.051176,4326.666561,4332.820407,4321.538356,4344.102458,4352.820406,4349.230663,4322.051176,4331.281945,4384.615277
82,0,4382.051175,4369.743483,4354.871688,4364.615278,4336.41015,4324.102458,4327.692202,4321.538356,4340.512714,4348.205022,4345.640919,4322.051176,4324.615279,4384.102457
83,0,4405.640918,4397.94861,4378.461431,4388.205021,4360.512714,4343.589637,4351.281945,4339.487073,4349.743483,4363.076816,4360.512714,4340.512714,4340.512714,4411.281943
84,0,4408.717841,4406.666559,4387.6922,4403.076815,4374.358867,4357.948611,4369.230662,4352.820406,4365.640919,4372.307585,4367.692201,4349.230663,4346.15374,4414.871687
85,0,4388.205021,4385.128098,4371.794765,4386.153739,4361.025534,4354.871688,4357.948611,4346.66656,4363.589637,4360.512714,4355.384509,4332.307586,4331.794766,4390.256303
86,0,4344.615278,4329.230663,4327.179381,4327.179381,4306.666561,4309.743484,4307.692202,4301.538356,4314.358869,4306.666561,4315.38451,4288.205023,4298.974254,4343.589637
87,0,4333.846048,4312.820407,4318.974253,4312.820407,4296.410151,4300.512715,4301.538356,4291.794767,4302.563997,4295.897331,4306.666561,4285.1281,4295.38451,4333.333227
88,0,4338.974253,4327.179381,4330.256304,4328.205022,4312.820407,4313.333228,4317.435792,4308.717843,4321.025535,4308.717843,4313.846048,4294.87169,4299.999895,4338.974253
89,0,4360.512714,4358.461432,4354.871688,4359.999893,4336.922971,4330.256304,4336.922971,4331.794766,4343.076817,4334.358868,4335.384509,4323.589638,4310.256305,4364.615278
90,0,4372.307585,4365.640919,4363.589637,4370.256303,4344.615278,4331.281945,4338.461432,4335.384509,4341.538355,4349.743483,4349.230663,4344.615278,4317.948612,4378.461431
91,0,4368.717842,4357.948611,4358.974252,4361.538355,4346.15374,4334.871689,4343.589637,4333.846048,4339.487073,4352.820406,4349.743483,4342.051176,4324.615279,4375.384508
92,0,4354.871688,4345.640919,4348.717842,4349.743483,4341.025535,4337.435791,4346.15374,4333.333227,4342.051176,4338.974253,4339.999894,4323.076817,4319.999894,4362.563996
93,0,4375.384508,4376.410149,4371.281944,4381.538354,4367.17938,4368.205021,4371.281944,4357.435791,4368.205021,4360.512714,4355.384509,4341.025535,4330.256304,4380.512713
94,0,4373.333226,4375.384508,4365.128098,4381.538354,4362.563996,4361.538355,4362.051175,4352.820406,4362.051175,4360.512714,4349.230663,4334.871689,4327.179381,4372.820406
95,0,4342.051176,4337.435791,4333.333227,4343.589637,4325.128099,4326.15374,4328.205022,4318.461433,4327.179381,4323.076817,4323.076817,4303.076818,4310.769125,4341.025535
96,0,4339.487073,4334.358868,4331.794766,4339.999894,4325.128099,4324.615279,4326.666561,4315.89733,4323.076817,4318.461433,4325.128099,4303.076818,4309.230664,4338.974253
97,0,4347.179381,4348.205022,4338.461432,4351.281945,4344.102458,4332.820407,4338.974253,4329.743484,4335.89733,4332.307586,4332.820407,4311.281946,4311.794766,4342.563996
98,0,4333.333227,4341.025535,4327.692202,4342.051176,4341.538355,4325.64092,4333.846048,4327.179381,4337.435791,4332.820407,4329.230663,4304.102459,4310.769125,4332.820407
99,0,4322.563997,4330.256304,4319.999894,4330.769125,4336.922971,4324.615279,4328.205022,4322.563997,4337.948612,4329.743484,4326.15374,4296.922972,4312.307587,4330.769125
100,0,4331.794766,4336.922971,4329.743484,4337.948612,4348.205022,4332.820407,4330.256304,4330.769125,4349.743483,4338.974253,4330.769125,4301.538356,4314.358869,4341.025535
101,0,4326.15374,4333.846048,4324.615279,4334.358868,4339.999894,4325.128099,4318.974253,4321.025535,4336.922971,4329.230663,4326.666561,4295.38451,4307.179382,4331.281945
102,0,4326.666561,4341.025535,4324.615279,4335.89733,4338.461432,4329.230663,4322.563997,4317.948612,4332.820407,4333.333227,4330.769125,4298.461433,4312.307587,4332.307586
103,0,4322.563997,4334.358868,4320.512715,4328.717843,4336.41015,4327.179381,4322.051176,4316.410151,4330.256304,4328.205022,4324.102458,4290.769126,4309.743484,4331.794766
104,0,4329.743484,4340.512714,4329.743484,4340.512714,4346.15374,4333.333227,4328.205022,4322.051176,4333.333227,4329.230663,4324.102458,4291.794767,4307.692202,4335.89733
105,0,4307.179382,4318.461433,4308.205023,4317.948612,4320.512715,4309.230664,4305.1281,4297.435792,4309.743484,4301.538356,4302.051177,4271.794767,4289.230664,4305.64092
106,0,4280.512716,4292.820408,4282.563998,4287.692203,4295.897331,4281.025536,4283.076818,4275.384511,4286.153741,4272.307588,4282.051177,4256.410152,4272.820408,4280.512716
107,0,4282.051177,4290.256305,4281.538357,4286.153741,4295.897331,4275.384511,4281.025536,4276.410152,4281.025536,4268.205024,4282.563998,4260.512716,4274.35887,4282.563998
108,0,4317.435792,4321.025535,4311.794766,4323.076817,4324.102458,4304.615279,4311.281946,4301.025536,4311.281946,4299.487074,4309.230664,4290.769126,4297.435792,4314.358869
109,0,4306.666561,4305.64092,4299.999895,4308.717843,4311.281946,4295.897331,4298.461433,4290.769126,4304.102459,4287.179382,4302.563997,4281.025536,4291.281946,4304.615279
110,0,4285.640921,4284.61528,4284.61528,4289.230664,4297.435792,4279.999895,4282.051177,4276.922972,4277.948613,4269.743485,4292.307587,4267.179383,4279.487075,4290.769126
111,0,4299.487074,4297.948613,4294.358869,4299.999895,4308.717843,4291.281946,4294.87169,4285.640921,4287.179382,4282.563998,4295.897331,4275.897331,4286.153741,4302.051177
112,0,4330.256304,4332.820407,4319.999894,4326.666561,4329.743484,4318.461433,4321.025535,4310.256305,4326.15374,4313.333228,4311.794766,4301.538356,4305.64092,4329.230663
113,0,4333.846048,4340.512714,4328.205022,4337.948612,4331.281945,4316.922971,4313.333228,4314.358869,4331.281945,4323.076817,4322.563997,4309.743484,4313.846048,4335.384509
114,0,4325.64092,4329.743484,4322.563997,4334.358868,4325.64092,4302.563997,4294.87169,4296.922972,4308.717843,4312.820407,4319.999894,4299.487074,4306.666561,4324.615279
115,0,4321.025535,4321.538356,4313.333228,4317.948612,4317.435792,4297.948613,4291.281946,4285.640921,4302.051177,4302.051177,4307.692202,4291.281946,4295.38451,4317.948612
116,0,4324.615279,4326.15374,4315.89733,4315.38451,4314.871689,4306.153741,4301.538356,4292.307587,4312.820407,4301.025536,4311.281946,4298.974254,4299.999895,4326.666561
117,0,4337.435791,4337.948612,4327.692202,4332.820407,4324.102458,4310.256305,4308.717843,4304.615279,4324.102458,4313.333228,4326.15374,4312.820407,4312.307587,4339.999894
118,0,4323.589638,4317.435792,4309.230664,4315.38451,4308.717843,4287.692203,4288.717844,4288.717844,4302.051177,4295.38451,4310.256305,4296.410151,4299.487074,4322.563997
119,0,4291.281946,4282.563998,4277.435793,4275.897331,4278.974254,4263.589639,4267.692203,4265.640921,4274.35887,4265.640921,4284.102459,4267.692203,4277.435793,4292.820408
120,0,4267.692203,4254.871691,4255.384511,4249.230665,4256.410152,4248.717845,4251.794768,4248.205024,4258.974255,4239.999896,4268.205024,4241.538358,4263.076819,4266.666562
121,0,4277.435793,4257.948614,4262.563998,4256.410152,4261.025537,4249.230665,4251.794768,4250.769127,4265.640921,4247.179383,4272.307588,4243.58964,4271.281947,4273.333229
122,0,4269.743485,4248.717845,4252.820409,4246.153742,4253.333229,4234.871691,4240.512717,4237.948614,4251.794768,4237.948614,4261.025537,4232.307589,4267.692203,4271.794767
123,0,4276.410152,4262.051178,4256.922973,4257.948614,4266.153742,4246.153742,4249.230665,4242.051178,4253.84605,4244.615281,4264.61528,4233.33323,4269.743485,4276.410152
124,0,4282.563998,4269.230665,4263.589639,4266.666562,4267.692203,4257.435793,4250.256306,4246.153742,4258.974255,4246.666563,4265.128101,4232.307589,4269.743485,4272.820408
125,0,4285.640921,4272.307588,4273.846049,4272.820408,4269.230665,4262.563998,4253.333229,4249.743486,4268.205024,4249.743486,4267.179383,4241.025537,4275.384511,4278.974254
126,0,4277.948613,4266.666562,4268.717844,4266.666562,4268.205024,4252.307588,4243.58964,4238.974255,4258.974255,4239.487076,4259.999896,4235.897332,4271.794767,4276.410152
127,0,4276.410152,4268.205024,4264.61528,4268.205024,4272.307588,4255.897332,4242.051178,4239.999896,4244.10246,4240.512717,4257.948614,4231.281948,4266.153742,4271.281947
128,0,4253.333229,4238.974255,4241.538358,4242.051178,4247.179383,4245.128101,4229.743486,4232.307589,4224.615281,4225.128102,4245.640922,4211.794769,4252.820409,4245.128101
0,0,4257.435793,4238.974255,4244.615281,4243.076819,4246.666563,4247.692204,4241.025537,4242.051178,4239.999896,4237.435794,4256.410152,4221.025538,4259.999896,4248.205024
1,0,4287.179382,4273.333229,4271.794767,4275.384511,4273.333229,4267.692203,4262.051178,4265.640921,4262.563998,4271.281947,4284.102459,4251.794768,4281.025536,4275.384511
2,0,4291.794767,4284.102459,4282.563998,4286.666562,4282.563998,4273.846049,4263.589639,4268.717844,4259.487075,4274.87169,4287.179382,4255.384511,4281.025536,4278.461434
3,0,4256.922973,4243.58964,4245.128101,4244.10246,4248.205024,4242.563999,4231.281948,4244.615281,4234.871691,4238.974255,4255.897332,4214.358871,4253.84605,4244.615281
4,0,4243.58964,4224.615281,4222.051179,4222.051179,4234.358871,4237.948614,4225.640922,4241.025537,4225.128102,4225.640922,4243.58964,4196.410154,4248.205024,4234.871691
5,0,4259.487075,4242.563999,4236.922973,4239.487076,4258.974255,4264.10246,4250.256306,4252.820409,4233.84605,4237.435794,4257.948614,4212.307589,4262.051178,4250.769127
6,0,4255.897332,4240.512717,4239.487076,4236.410153,4258.974255,4261.025537,4252.820409,4241.538358,4231.794768,4227.179384,4251.794768,4208.717846,4255.897332,4244.615281
7,0,4246.153742,4235.897332,4233.33323,4232.307589,4246.666563,4249.230665,4242.563999,4237.948614,4228.205025,4222.051179,4237.435794,4199.487077,4247.179383,4236.410153
8,0,4247.692204,4242.051178,4236.922973,4243.076819,4254.35887,4255.897332,4240.512717,4247.692204,4232.307589,4228.717845,4239.487076,4203.589641,4250.769127,4234.871691
9,0,4243.076819,4231.794768,4234.358871,4234.871691,4254.35887,4250.769127,4232.820409,4241.538358,4228.717845,4224.102461,4245.640922,4204.102461,4249.230665,4229.230666
10,0,4222.051179,4202.564,4211.281948,4205.128102,4220.512717,4225.640922,4209.743487,4217.435794,4204.615282,4197.435795,4231.281948,4187.179385,4235.897332,4213.846051
11,0,4246.153742,4232.820409,4236.410153,4237.948614,4239.487076,4248.205024,4231.281948,4239.487076,4227.692204,4224.102461,4249.743486,4215.384512,4252.820409,4240.512717
12,0,4264.61528,4257.435793,4260.512716,4265.128101,4266.153742,4269.743485,4254.871691,4261.538357,4250.256306,4252.307588,4270.256306,4234.871691,4263.076819,4255.897332
13,0,4247.179383,4238.974255,4245.128101,4246.666563,4254.35887,4257.948614,4247.692204,4253.333229,4241.538358,4239.999896,4259.999896,4217.948615,4252.307588,4239.487076
14,0,4212.82041,4195.384513,4205.128102,4199.999897,4208.717846,4218.461435,4207.179384,4215.384512,4203.07682,4188.717846,4222.051179,4180.512718,4227.179384,4202.051179
15,0,4223.58964,4197.948615,4209.230666,4199.999897,4208.717846,4219.999897,4210.769128,4215.897333,4201.538359,4189.230667,4225.640922,4187.179385,4228.717845,4209.743487
16,0,4224.615281,4199.999897,4215.897333,4203.07682,4211.794769,4226.666563,4217.948615,4222.051179,4208.717846,4203.07682,4232.307589,4191.281949,4233.33323,4216.410153
17,0,4211.794769,4197.948615,4214.358871,4200.512718,4205.640923,4225.128102,4211.794769,4214.358871,4208.717846,4201.025538,4224.615281,4185.640923,4232.820409,4210.769128
18,0,4210.256307,4194.358872,4209.230666,4194.871692,4201.538359,4215.897333,4201.025538,4206.153743,4198.974256,4186.666564,4215.384512,4183.076821,4225.128102,4202.564
19,0,4239.999896,4217.948615,4231.281948,4223.07682,4226.153743,4232.820409,4227.179384,4227.692204,4212.82041,4208.205025,4238.461435,4207.179384,4236.922973,4224.102461
20,0,4241.025537,4220.512717,4233.84605,4230.769127,4227.179384,4239.487076,4233.84605,4235.384512,4223.58964,4222.563999,4243.076819,4208.205025,4239.999896,4226.666563
21,0,4224.615281,4209.230666,4222.051179,4216.922974,4215.384512,4233.33323,4221.538358,4226.666563,4219.487076,4212.307589,4227.179384,4191.281949,4227.179384,4213.846051
22,0,4235.897332,4219.999897,4235.897332,4228.717845,4226.153743,4235.897332,4224.615281,4230.256307,4218.974256,4211.281948,4234.871691,4201.538359,4229.230666,4221.538358
23,0,4248.205024,4231.281948,4246.153742,4244.10246,4234.358871,4238.974255,4227.692204,4233.33323,4219.999897,4218.461435,4248.205024,4215.384512,4244.615281,4232.307589
24,0,4234.871691,4217.948615,4225.640922,4228.205025,4222.051179,4231.794768,4214.871692,4225.640922,4217.435794,4215.384512,4241.025537,4203.589641,4244.10246,4226.666563
25,0,4229.743486,4215.897333,4220.512717,4220.512717,4222.563999,4230.769127,4216.410153,4223.07682,4216.922974,4210.769128,4234.871691,4195.897333,4236.922973,4225.640922
26,0,4252.820409,4245.640922,4249.230665,4250.256306,4247.692204,4249.743486,4238.461435,4240.512717,4229.743486,4232.820409,4249.230665,4216.922974,4250.256306,4245.128101
27,0,4246.666563,4236.410153,4240.512717,4241.025537,4238.974255,4244.10246,4225.640922,4233.33323,4220.512717,4223.07682,4240.512717,4209.743487,4246.153742,4233.33323
28,0,4226.153743,4211.794769,4216.410153,4211.794769,4222.051179,4233.33323,4206.666564,4214.358871,4207.179384,4202.564,4227.692204,4192.30759,4231.794768,4215.897333
29,0,4218.461435,4205.128102,4209.743487,4205.640923,4219.487076,4233.84605,4208.717846,4208.717846,4208.205025,4196.410154,4223.58964,4189.230667,4227.692204,4217.948615
30,0,4231.281948,4220.512717,4222.051179,4225.640922,4232.307589,4243.076819,4223.07682,4226.153743,4221.538358,4212.82041,4230.256307,4203.07682,4236.922973,4228.717845
31,0,4214.871692,4198.461436,4201.538359,4199.999897,4208.205025,4222.563999,4204.102461,4210.256307,4200.512718,4192.82041,4212.82041,4181.538359,4221.538358,4197.948615
32,0,4211.794769,4193.846051,4196.410154,4189.743487,4202.051179,4224.102461,4207.692205,4207.179384,4203.589641,4190.769128,4214.358871,4171.79477,4219.999897,4196.410154
33,0,4218.974256,4203.07682,4203.589641,4203.07682,4213.33323,4234.871691,4218.974256,4215.897333,4207.692205,4198.461436,4224.102461,4174.871693,4229.743486,4213.33323
34,0,4225.128102,4214.358871,4214.871692,4218.461435,4226.153743,4242.563999,4224.615281,4219.487076,4198.974256,4201.538359,4226.666563,4184.615282,4233.33323,4224.102461
35,0,4217.948615,4209.230666,4208.717846,4210.769128,4216.922974,4229.230666,4211.794769,4207.179384,4190.256308,4188.717846,4216.922974,4178.461436,4224.102461,4211.794769
36,0,4221.538358,4217.948615,4216.922974,4219.487076,4224.102461,4232.307589,4220.512717,4214.358871,4209.230666,4193.333231,4222.563999,4185.640923,4227.692204,4215.897333
37,0,4215.897333,4206.666564,4213.33323,4215.897333,4224.615281,4237.435794,4222.051179,4216.922974,4208.205025,4183.589641,4211.281948,4187.179385,4222.051179,4209.743487
38,0,4205.640923,4191.794769,4200.512718,4201.025538,4211.794769,4229.743486,4212.82041,4207.179384,4193.846051,4174.358872,4197.948615,4181.025539,4211.794769,4197.435795
39,0,4196.410154,4189.230667,4194.871692,4192.30759,4199.487077,4210.769128,4196.922974,4201.538359,4191.794769,4173.333231,4199.487077,4174.871693,4211.794769,4192.30759
40,0,4211.281948,4211.281948,4218.461435,4213.846051,4221.538358,4224.102461,4209.230666,4218.974256,4207.692205,4172.30759,4209.743487,4194.871692,4226.666563,4205.640923
41,0,4233.33323,4223.07682,4235.384512,4229.743486,4239.999896,4241.025537,4224.102461,4233.33323,4219.999897,4178.974257,4219.487076,4212.82041,4233.84605,4219.999897
42,0,4219.999897,4196.922974,4213.846051,4203.589641,4212.82041,4215.384512,4204.102461,4214.358871,4197.948615,4182.05118,4202.564,4187.179385,4219.999897,4206.153743
43,0,4196.410154,4173.333231,4192.82041,4178.461436,4189.743487,4196.410154,4182.564,4193.333231,4173.333231,4170.769129,4179.999898,4158.461437,4209.743487,4187.692205
44,0,4189.230667,4169.230667,4187.692205,4175.897334,4191.794769,4209.230666,4186.153744,4194.358872,4180.512718,4154.871693,4184.102462,4155.384514,4213.846051,4186.153744
45,0,4196.922974,4183.589641,4201.538359,4195.384513,4206.153743,4225.640922,4205.640923,4214.358871,4211.281948,4176.410154,4209.743487,4173.846052,4227.179384,4204.615282
46,0,4209.230666,4197.948615,4215.384512,4211.794769,4213.33323,4227.179384,4212.82041,4218.461435,4209.230666,4190.769128,4217.948615,4186.666564,4230.769127,4214.871692
47,0,4244.615281,4230.256307,4238.974255,4243.58964,4237.948614,4247.692204,4232.307589,4227.179384,4210.769128,4201.538359,4239.487076,4211.281948,4246.666563,4235.384512
48,0,4245.640922,4232.820409,4237.435794,4245.128101,4239.487076,4253.333229,4237.948614,4224.615281,4212.307589,4202.564,4252.307588,4204.102461,4255.897332,4237.948614
49,0,4245.640922,4244.615281,4247.179383,4255.897332,4246.153742,4268.717844,4255.384511,4239.487076,4230.256307,4225.640922,4264.61528,4212.82041,4271.281947,4248.205024
50,0,4267.692203,4270.256306,4270.256306,4282.563998,4265.128101,4290.256305,4277.435793,4263.589639,4254.35887,4257.435793,4285.640921,4239.487076,4291.281946,4263.589639
51,0,4286.666562,4291.794767,4289.743485,4306.153741,4289.230664,4311.794766,4296.410151,4285.640921,4275.897331,4290.769126,4307.692202,4258.461434,4305.64092,4283.076818
52,0,4256.410152,4262.051178,4262.563998,4274.35887,4260.512716,4291.281946,4267.692203,4263.076819,4251.281947,4268.717844,4290.256305,4229.743486,4288.717844,4264.61528
53,0,4248.205024,4250.769127,4253.333229,4263.589639,4240.512717,4276.410152,4256.410152,4251.794768,4244.615281,4251.281947,4288.717844,4220.512717,4284.61528,4258.461434
54,0,4251.281947,4254.871691,4261.025537,4271.794767,4242.051178,4269.743485,4258.974255,4258.974255,4254.35887,4250.256306,4295.897331,4224.615281,4287.179382,4257.435793
55,0,4227.692204,4233.84605,4242.051178,4247.179383,4225.128102,4249.743486,4239.487076,4243.076819,4233.84605,4230.769127,4278.461434,4204.102461,4271.281947,4236.410153
56,0,4191.281949,4184.102462,4195.384513,4194.871692,4176.922975,4216.922974,4201.025538,4204.102461,4192.82041,4180.512718,4241.025537,4159.487078,4241.025537,4195.384513
57,0,4189.230667,4171.281949,4186.153744,4184.102462,4163.589642,4210.256307,4197.435795,4193.846051,4177.435795,4159.999898,4236.410153,4149.230668,4237.948614,4181.538359
58,0,4177.948616,4159.999898,4175.384513,4172.820411,4154.871693,4196.922974,4184.615282,4184.615282,4165.128103,4148.205027,4225.640922,4142.051181,4234.358871,4168.205026
59,0,4154.871693,4136.410155,4150.769129,4144.615283,4131.794771,4171.281949,4158.974257,4162.564001,4147.179386,4124.102463,4199.999897,4119.487079,4217.948615,4149.743488
60,0,4157.435796,4136.410155,4151.28195,4143.076822,4128.717848,4164.102462,4151.28195,4157.948616,4138.974258,4115.384515,4199.999897,4115.384515,4213.33323,4156.410155
61,0,4158.974257,4141.53836,4154.358873,4145.128104,4129.743489,4163.076821,4146.666565,4154.871693,4130.256309,4106.666566,4200.512718,4115.384515,4215.384512,4159.487078
62,0,4155.897334,4137.948617,4149.230668,4139.999899,4127.179386,4156.922975,4139.487078,4148.717847,4132.820412,4104.615284,4191.794769,4111.794771,4217.435794,4152.307591
63,0,4157.435796,4132.820412,4146.666565,4136.922976,4131.28195,4150.769129,4135.897335,4146.153745,4135.384514,4105.640925,4190.769128,4111.281951,4211.794769,4152.307591
64,0,4154.358873,4131.794771,4147.179386,4137.435796,4136.922976,4152.307591,4135.897335,4147.692206,4133.846053,4105.640925,4194.358872,4115.897335,4208.205025,4153.846052
65,0,4130.76913,4115.897335,4129.230668,4117.435797,4118.974258,4142.564001,4123.076822,4131.794771,4121.02554,4083.589644,4170.256308,4098.461438,4195.384513,4126.666566
66,0,4140.512719,4131.28195,4139.999899,4127.692207,4134.871694,4152.820411,4138.461437,4139.487078,4135.897335,4097.435797,4171.79477,4106.153746,4196.922974,4130.256309
67,0,4157.948616,4149.230668,4157.948616,4148.205027,4161.53836,4166.666565,4155.384514,4153.846052,4147.692206,4117.948617,4189.743487,4124.102463,4207.692205,4157.435796
68,0,4169.230667,4166.666565,4171.79477,4168.717847,4184.615282,4187.692205,4173.846052,4171.281949,4159.487078,4134.871694,4206.666564,4142.564001,4225.640922,4183.589641
69,0,4161.025539,4158.461437,4163.076821,4159.487078,4178.461436,4184.102462,4169.743488,4170.256308,4154.358873,4126.666566,4196.922974,4137.435796,4223.07682,4171.281949
70,0,4168.717847,4163.589642,4169.230667,4163.076821,4183.076821,4188.205026,4172.820411,4173.846052,4158.461437,4133.333232,4198.461436,4142.564001,4222.051179,4172.820411
71,0,4176.922975,4166.153744,4171.79477,4165.128103,4184.615282,4190.256308,4169.230667,4168.717847,4155.897334,4135.897335,4203.589641,4143.589642,4224.615281,4179.487077
72,0,4194.358872,4178.461436,4180.512718,4175.897334,4198.461436,4201.025538,4181.025539,4175.897334,4162.05118,4147.692206,4212.82041,4158.461437,4232.307589,4197.435795
73,0,4204.615282,4184.102462,4184.615282,4178.974257,4200.512718,4201.025538,4183.076821,4181.025539,4168.717847,4150.769129,4213.33323,4169.230667,4233.33323,4212.307589
74,0,4231.794768,4213.846051,4213.33323,4207.692205,4219.487076,4217.435794,4199.487077,4197.435795,4194.358872,4174.358872,4230.256307,4194.358872,4253.84605,4249.743486
75,0,4252.820409,4230.769127,4226.666563,4221.025538,4229.230666,4221.025538,4200.512718,4199.999897,4198.461436,4183.589641,4238.974255,4206.153743,4263.076819,4269.743485
76,0,4254.35887,4221.025538,4215.384512,4203.07682,4212.307589,4204.615282,4186.153744,4188.205026,4178.974257,4167.692206,4228.717845,4198.461436,4250.769127,4266.666562
77,0,4247.179383,4205.640923,4201.538359,4181.025539,4185.128103,4187.179385,4167.179385,4175.897334,4165.640924,4149.743488,4218.461435,4187.179385,4243.076819,4264.61528
78,0,4247.179383,4202.051179,4196.410154,4174.871693,4176.922975,4184.102462,4156.922975,4164.615283,4158.461437,4137.435796,4213.846051,4179.999898,4240.512717,4267.179383
79,0,4262.563998,4216.922974,4207.692205,4189.743487,4194.358872,4191.794769,4165.640924,4167.179385,4158.461437,4148.717847,4215.897333,4189.743487,4244.615281,4277.435793
80,0,4278.461434,4236.410153,4224.615281,4207.692205,4211.281948,4206.666564,4186.666564,4182.564,4175.384513,4172.30759,4223.07682,4204.102461,4256.922973,4292.307587
81,0,4296.922972,4257.435793,4235.384512,4223.07682,4228.205025,4228.205025,4205.128102,4205.128102,4206.666564,4199.487077,4239.999896,4222.051179,4271.794767,4316.922971
82,0,4316.410151,4276.922972,4247.692204,4239.999896,4248.717845,4242.051178,4217.948615,4219.999897,4228.205025,4218.461435,4256.410152,4238.461435,4282.051177,4345.640919
83,0,4353.846047,4319.999894,4288.717844,4286.666562,4289.743485,4274.35887,4257.435793,4252.307588,4267.179383,4259.487075,4284.61528,4271.281947,4307.179382,4379.487072
84,0,4362.563996,4330.769125,4295.38451,4299.999895,4297.435792,4286.666562,4266.153742,4259.487075,4275.897331,4273.333229,4288.205023,4277.948613,4314.358869,4376.410149
85,0,4346.66656,4315.89733,4278.461434,4283.076818,4286.153741,4276.922972,4246.666563,4243.58964,4253.333229,4263.076819,4277.948613,4268.717844,4306.666561,4366.66656
86,0,4316.922971,4284.102459,4258.974255,4253.84605,4260.512716,4252.307588,4225.640922,4221.538358,4221.025538,4233.84605,4258.461434,4242.051178,4288.205023,4348.717842
87,0,4310.769125,4274.87169,4256.922973,4249.230665,4249.230665,4248.717845,4230.256307,4223.58964,4222.051179,4225.128102,4250.769127,4231.281948,4283.076818,4339.999894
88,0,4302.563997,4264.10246,4243.58964,4239.999896,4235.384512,4236.922973,4213.846051,4213.33323,4215.897333,4212.307589,4234.871691,4218.461435,4278.461434,4323.076817
89,0,4297.948613,4259.999896,4237.948614,4236.410153,4235.384512,4227.692204,4199.999897,4202.564,4208.205025,4204.615282,4230.256307,4213.33323,4276.410152,4315.89733
90,0,4279.487075,4242.051178,4223.07682,4216.922974,4221.025538,4215.897333,4189.743487,4192.30759,4200.512718,4188.205026,4219.999897,4197.948615,4262.563998,4296.410151
91,0,4279.487075,4248.717845,4228.205025,4221.025538,4227.692204,4229.743486,4209.230666,4207.692205,4212.82041,4201.538359,4223.07682,4205.128102,4265.128101,4297.948613
92,0,4274.87169,4246.666563,4227.179384,4222.563999,4233.33323,4233.84605,4213.846051,4210.769128,4209.743487,4207.692205,4224.102461,4207.179384,4266.153742,4294.358869
93,0,4252.820409,4221.025538,4209.230666,4204.615282,4216.410153,4217.435794,4195.897333,4190.769128,4191.794769,4187.179385,4209.230666,4186.666564,4250.256306,4269.230665
94,0,4229.230666,4201.538359,4194.358872,4187.179385,4195.897333,4202.051179,4178.461436,4175.384513,4178.461436,4163.076821,4188.717846,4166.666565,4234.358871,4241.025537
95,0,4233.84605,4216.922974,4203.07682,4197.435795,4209.743487,4218.974256,4190.769128,4184.102462,4185.640923,4169.230667,4193.333231,4175.897334,4238.461435,4240.512717
96,0,4237.948614,4218.974256,4206.666564,4199.487077,4221.538358,4229.743486,4197.948615,4192.30759,4195.897333,4184.102462,4203.07682,4181.025539,4242.563999,4244.10246
97,0,4226.153743,4205.640923,4201.538359,4189.743487,4211.794769,4222.051179,4191.794769,4187.179385,4193.333231,4182.05118,4197.948615,4173.333231,4238.461435,4234.871691
98,0,4232.307589,4221.025538,4215.384512,4206.666564,4219.999897,4232.820409,4203.07682,4196.922974,4202.051179,4195.384513,4205.640923,4186.666564,4242.051178,4236.922973
99,0,4243.58964,4236.410153,4227.692204,4224.615281,4234.358871,4251.281947,4216.410153,4209.230666,4215.897333,4210.256307,4217.435794,4199.999897,4246.153742,4238.461435
100,0,4248.205024,4242.563999,4236.410153,4235.897332,4244.615281,4258.974255,4224.102461,4213.33323,4222.563999,4220.512717,4228.717845,4207.179384,4255.384511,4245.640922
101,0,4239.487076,4240.512717,4233.84605,4232.820409,4238.461435,4247.179383,4219.999897,4206.666564,4213.33323,4213.846051,4226.666563,4204.102461,4258.461434,4243.076819
102,0,4242.051178,4250.256306,4242.563999,4238.461435,4241.538358,4251.794768,4227.692204,4215.897333,4221.025538,4221.538358,4229.230666,4212.82041,4259.487075,4244.615281
103,0,4233.84605,4235.897332,4234.871691,4228.205025,4233.33323,4248.717845,4224.615281,4213.33323,4214.358871,4213.33323,4219.999897,4203.589641,4250.769127,4230.769127
104,0,4220.512717,4216.410153,4221.538358,4215.384512,4221.538358,4241.538358,4221.025538,4207.179384,4206.666564,4202.564,4211.794769,4194.358872,4246.153742,4219.487076
105,0,4197.948615,4189.230667,4199.999897,4189.230667,4198.461436,4224.102461,4200.512718,4189.230667,4192.82041,4179.487077,4197.435795,4174.358872,4232.820409,4198.974256
106,0,4196.410154,4191.794769,4199.999897,4191.281949,4202.051179,4225.128102,4198.461436,4187.179385,4190.769128,4177.948616,4198.461436,4171.79477,4231.281948,4194.871692
107,0,4184.615282,4187.179385,4187.179385,4185.640923,4192.82041,4210.769128,4189.743487,4181.538359,4178.974257,4167.179385,4191.281949,4158.461437,4224.102461,4178.461436
108,0,4173.846052,4178.974257,4178.974257,4177.948616,4185.128103,4201.025538,4188.717846,4174.871693,4175.384513,4157.435796,4186.666564,4149.743488,4217.948615,4166.666565
109,0,4170.256308,4169.743488,4177.435795,4171.281949,4184.102462,4204.102461,4185.128103,4168.717847,4172.820411,4152.820411,4178.974257,4149.743488,4213.846051,4166.666565
110,0,4192.30759,4192.30759,4199.487077,4193.846051,4206.666564,4223.07682,4204.615282,4190.256308,4195.897333,4181.025539,4195.384513,4175.897334,4229.230666,4192.30759
111,0,4209.743487,4214.358871,4216.410153,4216.922974,4219.999897,4230.769127,4223.07682,4211.794769,4215.897333,4204.102461,4215.897333,4194.871692,4239.999896,4209.743487
112,0,4216.410153,4219.487076,4222.563999,4223.07682,4223.58964,4237.435794,4232.307589,4218.461435,4218.461435,4208.205025,4221.538358,4203.589641,4242.563999,4217.948615
113,0,4214.358871,4212.307589,4221.025538,4215.384512,4219.999897,4237.948614,4225.640922,4221.025538,4224.102461,4207.692205,4216.922974,4206.153743,4245.128101,4220.512717
114,0,4229.230666,4229.743486,4237.435794,4231.794768,4230.769127,4247.179383,4235.384512,4236.922973,4245.128101,4227.179384,4229.230666,4219.999897,4254.35887,4233.33323
115,0,4252.307588,4258.461434,4258.974255,4261.538357,4254.871691,4270.769126,4258.974255,4255.897332,4263.589639,4254.35887,4248.717845,4238.974255,4262.051178,4253.333229
116,0,4261.025537,4267.179383,4265.640921,4270.769126,4270.256306,4284.61528,4272.307588,4263.076819,4272.307588,4264.61528,4251.794768,4246.666563,4267.692203,4259.487075
117,0,4269.743485,4274.87169,4274.87169,4276.410152,4284.61528,4290.256305,4283.589639,4268.717844,4284.102459,4271.281947,4258.461434,4255.897332,4277.948613,4261.538357
118,0,4262.051178,4267.692203,4269.743485,4272.307588,4277.948613,4283.076818,4278.461434,4258.974255,4263.589639,4260.512716,4256.922973,4248.717845,4271.794767,4250.769127
119,0,4237.948614,4245.640922,4250.256306,4254.35887,4256.922973,4268.717844,4258.974255,4245.640922,4240.512717,4243.076819,4245.128101,4232.820409,4257.435793,4237.948614
120,0,4211.794769,4219.487076,4229.230666,4226.153743,4231.794768,4243.58964,4235.384512,4227.692204,4232.307589,4217.435794,4222.563999,4211.794769,4243.076819,4216.922974
121,0,4221.538358,4231.794768,4237.948614,4232.820409,4237.948614,4247.692204,4242.563999,4232.820409,4239.487076,4226.153743,4227.692204,4217.435794,4249.743486,4221.538358
122,0,4220.512717,4229.743486,4231.281948,4227.179384,4230.769127,4245.640922,4235.384512,4230.769127,4231.794768,4224.615281,4228.717845,4207.179384,4247.692204,4219.999897
123,0,4224.615281,4233.84605,4233.84605,4229.230666,4236.410153,4252.307588,4237.948614,4237.948614,4247.179383,4228.205025,4229.230666,4206.153743,4247.692204,4219.487076
124,0,4224.615281,4235.384512,4235.897332,4232.820409,4247.179383,4265.640921,4249.743486,4242.563999,4250.769127,4231.281948,4229.743486,4208.205025,4247.179383,4208.717846
125,0,4228.205025,4243.58964,4240.512717,4244.10246,4257.948614,4283.589639,4267.692203,4251.794768,4252.307588,4244.10246,4241.025537,4216.410153,4254.871691,4217.435794
126,0,4218.974256,4228.717845,4228.717845,4231.281948,4244.615281,4272.307588,4255.384511,4244.615281,4252.820409,4233.84605,4230.256307,4206.153743,4249.743486,4216.410153
127,0,4224.615281,4225.640922,4231.281948,4225.128102,4243.58964,4266.666562,4252.307588,4243.58964,4259.999896,4237.948614,4229.743486,4209.743487,4249.230665,4219.487076
128,0,4219.487076,4219.999897,4228.205025,4217.948615,4236.410153,4259.487075,4246.666563,4236.410153,4245.128101,4235.384512,4234.358871,4211.281948,4248.205024,4214.871692
0,0,4216.922974,4228.717845,4235.897332,4229.743486,4243.58964,4261.025537,4252.820409,4237.435794,4241.025537,4230.769127,4238.461435,4223.07682,4251.794768,4224.102461
1,0,4229.230666,4244.615281,4250.769127,4249.230665,4262.051178,4270.769126,4265.128101,4249.743486,4254.871691,4239.999896,4242.563999,4238.461435,4255.384511,4238.461435
2,0,4250.256306,4261.025537,4266.666562,4264.61528,4275.897331,4282.563998,4277.435793,4267.179383,4274.35887,4265.128101,4252.820409,4248.717845,4263.589639,4252.307588
3,0,4235.897332,4241.538358,4249.743486,4243.076819,4256.410152,4265.640921,4255.384511,4259.487075,4267.692203,4256.922973,4243.076819,4231.794768,4257.948614,4238.974255
4,0,4204.615282,4204.102461,4218.974256,4208.205025,4229.230666,4244.615281,4231.794768,4236.410153,4241.025537,4223.58964,4222.051179,4204.615282,4238.461435,4209.230666
5,0,4203.07682,4201.025538,4218.461435,4207.692205,4230.256307,4250.769127,4242.051178,4233.84605,4237.948614,4221.538358,4218.461435,4202.564,4234.358871,4202.564
6,0,4212.307589,4215.384512,4227.692204,4219.487076,4241.025537,4258.974255,4253.84605,4238.461435,4247.179383,4232.820409,4218.974256,4209.230666,4244.615281,4211.281948
7,0,4213.33323,4221.538358,4229.230666,4221.025538,4247.692204,4254.35887,4246.666563,4240.512717,4251.794768,4241.025537,4225.128102,4210.256307,4254.35887,4216.922974
8,0,4208.717846,4217.435794,4225.128102,4213.33323,4242.563999,4246.666563,4233.84605,4234.871691,4251.794768,4236.410153,4226.153743,4203.589641,4252.307588,4207.692205
9,0,4206.666564,4216.410153,4220.512717,4211.281948,4239.487076,4246.153742,4232.820409,4229.230666,4248.205024,4226.153743,4217.435794,4202.051179,4246.153742,4199.999897
10,0,4183.076821,4188.205026,4198.974256,4184.102462,4214.358871,4224.102461,4210.769128,4203.589641,4209.743487,4192.30759,4194.871692,4178.974257,4227.179384,4177.948616
11,0,4199.999897,4204.615282,4218.974256,4204.615282,4228.717845,4233.33323,4219.999897,4214.358871,4218.461435,4208.717846,4214.358871,4191.794769,4239.487076,4193.333231
12,0,4238.461435,4253.333229,4254.871691,4253.84605,4270.769126,4266.666562,4255.897332,4251.794768,4269.230665,4254.35887,4249.230665,4229.230666,4265.128101,4230.256307
13,0,4258.461434,4283.589639,4277.948613,4285.1281,4303.076818,4297.435792,4286.666562,4280.512716,4301.025536,4291.281946,4271.794767,4257.435793,4282.051177,4261.538357
14,0,4227.179384,4247.179383,4250.256306,4249.230665,4272.820408,4275.384511,4259.487075,4257.948614,4267.692203,4268.205024,4248.205024,4230.769127,4267.692203,4238.974255
15,0,4203.589641,4218.974256,4222.563999,4216.410153,4244.615281,4251.794768,4237.948614,4239.487076,4246.153742,4238.974255,4225.128102,4205.640923,4253.84605,4211.794769
16,0,4199.999897,4213.846051,4214.871692,4207.692205,4241.025537,4243.076819,4235.897332,4239.487076,4248.205024,4225.640922,4220.512717,4196.410154,4244.615281,4200.512718
17,0,4208.717846,4223.07682,4226.666563,4216.410153,4255.897332,4252.307588,4246.666563,4245.640922,4253.84605,4234.871691,4229.230666,4202.051179,4243.58964,4211.281948
18,0,4189.743487,4202.051179,4207.179384,4197.948615,4239.999896,4236.922973,4228.717845,4227.179384,4233.33323,4222.051179,4212.307589,4184.615282,4232.307589,4195.384513
19,0,4166.153744,4177.948616,4181.538359,4173.846052,4218.461435,4217.435794,4206.153743,4206.666564,4216.410153,4199.487077,4193.846051,4161.025539,4221.025538,4166.666565
20,0,4141.53836,4147.692206,4153.846052,4136.922976,4191.281949,4193.846051,4174.871693,4176.922975,4191.281949,4163.076821,4173.846052,4129.230668,4201.025538,4132.307591
21,0,4133.846053,4137.435796,4145.128104,4123.076822,4183.589641,4184.615282,4166.666565,4159.487078,4170.256308,4141.53836,4160.512719,4119.487079,4188.205026,4124.615284
22,0,4162.564001,4174.358872,4178.974257,4163.076821,4218.974256,4213.33323,4201.025538,4191.281949,4201.538359,4178.461436,4184.102462,4155.897334,4206.666564,4164.102462
23,0,4186.666564,4204.102461,4207.179384,4195.897333,4249.230665,4237.948614,4229.743486,4225.640922,4240.512717,4215.384512,4212.307589,4187.179385,4228.717845,4196.410154
24,0,4174.358872,4188.205026,4192.30759,4176.922975,4233.84605,4226.153743,4218.461435,4219.487076,4226.666563,4202.051179,4205.640923,4183.076821,4224.615281,4184.615282
25,0,4157.948616,4167.179385,4173.846052,4154.871693,4212.82041,4207.692205,4197.948615,4203.589641,4204.102461,4176.922975,4190.769128,4172.820411,4211.794769,4167.692206
26,0,4170.256308,4183.589641,4189.743487,4172.820411,4229.743486,4216.410153,4203.07682,4212.82041,4225.128102,4190.256308,4202.564,4181.538359,4216.922974,4179.487077
27,0,4176.922975,4194.871692,4201.025538,4185.128103,4239.487076,4222.051179,4206.153743,4211.794769,4227.179384,4193.846051,4207.179384,4181.538359,4221.538358,4179.487077
28,0,4194.871692,4214.871692,4217.435794,4208.205025,4256.922973,4238.974255,4221.025538,4218.974256,4229.230666,4208.717846,4214.871692,4201.025538,4233.84605,4191.794769
29,0,4207.692205,4224.615281,4225.640922,4220.512717,4267.692203,4251.794768,4230.769127,4224.615281,4237.948614,4218.461435,4215.897333,4212.307589,4233.84605,4203.07682
30,0,4228.717845,4249.230665,4247.179383,4242.051178,4288.717844,4273.846049,4258.461434,4249.230665,4267.179383,4245.128101,4232.307589,4234.358871,4246.153742,4228.205025
31,0,4239.999896,4267.692203,4263.076819,4258.461434,4303.076818,4281.025536,4275.897331,4269.743485,4283.589639,4271.281947,4251.281947,4254.35887,4267.692203,4251.794768
32,0,4233.33323,4262.563998,4258.461434,4257.948614,4301.538356,4276.922972,4269.230665,4266.666562,4279.999895,4275.384511,4252.820409,4252.820409,4269.743485,4252.820409
33,0,4201.538359,4226.666563,4223.58964,4219.999897,4267.179383,4251.281947,4237.948614,4239.487076,4257.948614,4241.538358,4221.025538,4216.410153,4238.461435,4215.897333
34,0,4204.615282,4231.794768,4224.615281,4218.974256,4263.589639,4244.615281,4236.410153,4244.615281,4263.589639,4246.666563,4219.487076,4215.897333,4238.461435,4214.358871
35,0,4207.692205,4235.384512,4229.743486,4227.179384,4264.10246,4235.897332,4229.230666,4243.58964,4260.512716,4246.666563,4222.563999,4218.974256,4247.179383,4215.384512
36,0,4209.230666,4235.897332,4232.307589,4229.230666,4266.666562,4239.999896,4232.307589,4235.897332,4251.794768,4232.820409,4216.410153,4216.922974,4242.051178,4207.692205
37,0,4211.794769,4239.999896,4230.769127,4227.692204,4272.820408,4246.666563,4243.076819,4239.999896,4257.435793,4235.384512,4215.384512,4215.897333,4239.487076,4206.666564
38,0,4196.922974,4231.794768,4221.538358,4218.461435,4268.205024,4237.435794,4239.487076,4239.999896,4256.922973,4240.512717,4215.897333,4208.205025,4237.948614,4205.640923
39,0,4157.948616,4193.333231,4192.30759,4184.615282,4231.281948,4205.640923,4201.538359,4207.179384,4219.487076,4203.07682,4190.769128,4177.948616,4213.33323,4174.871693
40,0,4157.948616,4188.205026,4189.230667,4179.999898,4225.128102,4201.538359,4193.333231,4193.333231,4205.640923,4186.153744,4182.564,4172.30759,4205.128102,4164.615283
41,0,4180.512718,4207.179384,4205.640923,4196.922974,4245.128101,4217.948615,4208.205025,4208.205025,4226.666563,4207.179384,4196.922974,4189.230667,4216.922974,4182.564
42,0,4175.384513,4206.153743,4210.256307,4197.948615,4247.692204,4226.153743,4214.358871,4219.487076,4239.487076,4219.487076,4203.589641,4197.435795,4222.051179,4190.256308
43,0,4177.948616,4208.205025,4217.435794,4207.692205,4254.35887,4235.384512,4227.179384,4232.307589,4248.205024,4233.84605,4213.846051,4209.743487,4229.743486,4195.384513
44,0,4187.692205,4217.948615,4216.410153,4211.794769,4259.487075,4236.922973,4229.743486,4233.33323,4246.153742,4233.84605,4213.33323,4209.743487,4228.205025,4192.82041
45,0,4198.461436,4240.512717,4221.025538,4218.461435,4265.128101,4238.461435,4231.281948,4239.487076,4254.871691,4233.33323,4212.307589,4212.307589,4225.640922,4199.999897
46,0,4202.051179,4247.692204,4224.615281,4227.692204,4264.10246,4234.871691,4234.871691,4242.051178,4256.410152,4225.128102,4208.205025,4212.307589,4224.102461,4197.948615
47,0,4211.794769,4260.512716,4236.410153,4247.692204,4279.487075,4252.820409,4253.84605,4247.692204,4261.538357,4234.358871,4213.846051,4217.948615,4229.230666,4197.948615
48,0,4201.538359,4258.461434,4227.179384,4237.948614,4275.897331,4254.871691,4244.10246,4231.794768,4245.128101,4227.692204,4206.666564,4203.07682,4218.974256,4186.666564
49,0,4192.30759,4254.871691,4218.461435,4226.666563,4268.205024,4242.051178,4227.179384,4220.512717,4235.384512,4213.33323,4199.999897,4190.769128,4211.794769,4186.153744
50,0,4178.461436,4229.230666,4201.538359,4207.692205,4247.179383,4217.435794,4207.179384,4209.743487,4226.666563,4187.179385,4180.512718,4172.30759,4196.922974,4166.666565
51,0,4183.076821,4225.640922,4205.640923,4211.794769,4247.179383,4222.051179,4209.743487,4214.358871,4233.84605,4192.30759,4181.025539,4178.461436,4196.410154,4166.666565
52,0,4176.922975,4217.948615,4197.435795,4202.564,4238.974255,4212.82041,4197.435795,4199.487077,4215.384512,4180.512718,4178.974257,4171.79477,4191.794769,4164.615283
53,0,4172.30759,4214.358871,4192.82041,4195.897333,4234.358871,4206.153743,4190.769128,4189.743487,4201.538359,4171.79477,4176.922975,4168.205026,4191.281949,4162.564001
54,0,4183.076821,4225.128102,4207.179384,4210.256307,4244.615281,4219.487076,4204.102461,4206.666564,4224.615281,4192.30759,4185.640923,4184.102462,4202.564,4172.820411
55,0,4208.205025,4251.794768,4234.871691,4240.512717,4269.230665,4239.487076,4230.256307,4234.358871,4254.35887,4225.640922,4207.692205,4208.717846,4217.948615,4204.102461
56,0,4203.07682,4249.230665,4233.84605,4233.84605,4262.563998,4230.769127,4225.640922,4228.205025,4243.58964,4219.487076,4206.153743,4203.07682,4212.307589,4201.025538
57,0,4206.153743,4248.205024,4231.281948,4232.307589,4258.974255,4235.384512,4228.205025,4227.692204,4243.076819,4211.794769,4202.564,4204.615282,4213.846051,4195.384513
58,0,4210.256307,4244.615281,4225.128102,4231.281948,4258.974255,4235.897332,4224.615281,4229.230666,4244.10246,4206.666564,4198.461436,4201.025538,4217.435794,4193.846051
59,0,4182.05118,4218.974256,4199.487077,4204.102461,4236.410153,4213.846051,4204.615282,4211.794769,4218.974256,4183.589641,4181.025539,4175.384513,4198.461436,4173.333231
60,0,4162.564001,4205.640923,4188.717846,4191.794769,4223.58964,4208.205025,4203.07682,4210.256307,4217.435794,4178.974257,4176.922975,4171.281949,4187.179385,4161.53836
61,0,4170.256308,4214.358871,4197.435795,4202.564,4232.307589,4221.025538,4214.871692,4218.974256,4231.281948,4189.230667,4186.153744,4182.05118,4193.846051,4167.179385
62,0,4173.333231,4216.410153,4197.435795,4202.051179,4232.307589,4227.179384,4211.794769,4212.82041,4223.58964,4190.256308,4187.179385,4179.999898,4195.384513,4164.615283
63,0,4159.487078,4202.564,4184.615282,4189.230667,4214.358871,4213.33323,4195.897333,4197.435795,4204.615282,4175.897334,4173.333231,4167.179385,4186.666564,4151.28195
64,0,4171.281949,4214.358871,4199.999897,4206.666564,4227.692204,4218.461435,4203.589641,4209.743487,4224.615281,4193.333231,4184.102462,4179.999898,4194.871692,4167.179385
65,0,4169.743488,4202.051179,4197.435795,4200.512718,4229.230666,4212.82041,4196.410154,4205.128102,4231.794768,4195.897333,4191.281949,4176.410154,4193.846051,4164.102462
66,0,4164.102462,4189.230667,4189.743487,4187.179385,4219.999897,4207.692205,4190.256308,4195.384513,4221.025538,4186.666564,4191.281949,4173.846052,4192.30759,4159.487078
67,0,4161.53836,4191.794769,4186.153744,4181.025539,4212.307589,4209.230666,4189.230667,4187.179385,4201.538359,4175.384513,4181.538359,4168.717847,4189.230667,4155.897334
68,0,4179.487077,4214.871692,4205.128102,4202.564,4236.410153,4231.794768,4210.769128,4202.051179,4219.999897,4196.922974,4191.281949,4184.102462,4198.974256,4169.743488
69,0,4182.564,4208.717846,4206.153743,4205.640923,4239.999896,4230.256307,4209.230666,4206.153743,4233.33323,4201.025538,4192.30759,4188.717846,4202.051179,4172.30759
70,0,4173.333231,4201.025538,4198.974256,4195.384513,4225.128102,4217.948615,4197.948615,4193.846051,4218.461435,4190.256308,4187.692205,4186.153744,4201.025538,4170.256308
71,0,4160.512719,4192.82041,4187.692205,4180.512718,4209.743487,4207.179384,4187.692205,4179.999898,4198.974256,4178.461436,4184.615282,4174.871693,4194.358872,4159.999898
72,0,4173.333231,4201.025538,4198.974256,4194.871692,4227.692204,4217.435794,4199.487077,4192.82041,4219.999897,4192.82041,4194.871692,4182.564,4202.051179,4174.358872
73,0,4169.743488,4196.922974,4195.384513,4195.384513,4224.615281,4209.743487,4189.743487,4188.205026,4219.999897,4187.179385,4186.666564,4174.871693,4197.435795,4175.897334
74,0,4164.102462,4199.999897,4191.281949,4191.794769,4215.384512,4204.615282,4185.640923,4178.974257,4208.205025,4187.692205,4183.589641,4169.743488,4194.871692,4170.769129
75,0,4164.102462,4197.948615,4191.281949,4188.717846,4212.82041,4204.615282,4185.640923,4177.435795,4208.717846,4191.794769,4186.153744,4172.30759,4195.384513,4166.153744
76,0,4155.897334,4184.615282,4183.076821,4181.025539,4205.640923,4201.538359,4178.974257,4171.281949,4207.692205,4178.461436,4177.435795,4166.666565,4189.743487,4161.025539
77,0,4142.564001,4174.871693,4169.743488,4169.230667,4191.281949,4187.692205,4168.205026,4161.53836,4198.461436,4164.615283,4165.128103,4150.256309,4183.589641,4150.769129
78,0,4142.051181,4177.435795,4168.205026,4165.128103,4188.717846,4183.589641,4166.153744,4161.53836,4193.846051,4167.179385,4164.615283,4144.102463,4184.102462,4147.692206
79,0,4146.666565,4178.974257,4170.769129,4168.205026,4192.30759,4188.205026,4161.53836,4158.974257,4191.281949,4167.179385,4168.205026,4149.230668,4183.076821,4149.743488
80,0,4145.640924,4171.281949,4168.717847,4167.179385,4184.615282,4182.564,4156.410155,4150.256309,4182.564,4160.512719,4164.102462,4148.717847,4178.974257,4145.640924
81,0,4149.743488,4172.820411,4172.820411,4169.743488,4187.179385,4178.461436,4160.512719,4152.307591,4182.564,4166.666565,4164.102462,4149.230668,4179.999898,4148.717847
82,0,4144.102463,4169.743488,4166.666565,4161.53836,4184.102462,4172.820411,4154.358873,4139.999899,4172.30759,4152.307591,4155.897334,4138.461437,4171.79477,4141.53836
83,0,4148.717847,4174.871693,4168.717847,4166.666565,4183.589641,4181.538359,4157.948616,4138.974258,4177.948616,4147.692206,4158.974257,4143.076822,4172.820411,4144.615283
84,0,4139.999899,4161.025539,4159.999898,4156.410155,4169.743488,4175.384513,4151.79477,4132.820412,4169.743488,4136.410155,4150.769129,4136.922976,4167.692206,4137.948617
85,0,4142.051181,4166.666565,4164.615283,4163.589642,4179.999898,4184.102462,4158.974257,4139.999899,4175.384513,4150.769129,4153.333232,4143.076822,4175.897334,4149.743488
86,0,4147.179386,4172.820411,4166.666565,4169.743488,4188.205026,4191.794769,4163.076821,4146.153745,4188.717846,4164.102462,4157.435796,4147.692206,4184.102462,4154.358873
87,0,4145.128104,4173.333231,4166.153744,4168.717847,4188.717846,4190.256308,4162.564001,4142.564001,4189.230667,4157.435796,4154.871693,4146.153745,4179.999898,4146.153745
88,0,4118.461438,4146.666565,4143.076822,4142.051181,4165.640924,4167.179385,4140.512719,4119.999899,4158.461437,4123.589643,4131.794771,4121.538361,4157.948616,4119.487079
89,0,4113.333233,4137.435796,4137.435796,4133.333232,4158.461437,4164.615283,4137.435796,4119.999899,4154.358873,4127.692207,4131.28195,4118.974258,4155.897334,4119.487079
90,0,4101.025541,4119.487079,4121.02554,4108.205028,4135.897335,4152.307591,4123.589643,4108.205028,4149.230668,4120.51272,4122.051181,4103.589643,4148.717847,4104.102464
91,0,4090.25631,4109.743489,4107.179387,4089.74349,4119.487079,4138.974258,4115.897335,4093.333233,4134.358873,4097.435797,4105.640925,4089.74349,4136.922976,4089.74349
92,0,4095.897336,4112.307592,4111.794771,4097.435797,4124.615284,4139.487078,4121.538361,4098.974259,4131.794771,4101.025541,4106.153746,4098.461438,4136.410155,4097.948618
93,0,4120.51272,4136.922976,4139.487078,4132.307591,4153.846052,4166.153744,4146.666565,4122.564002,4160.512719,4138.461437,4133.846053,4125.128104,4155.384514,4127.179386
94,0,4123.076822,4142.564001,4145.640924,4138.461437,4159.999898,4175.897334,4155.384514,4120.51272,4166.666565,4142.051181,4141.53836,4123.589643,4161.025539,4128.717848
95,0,4113.333233,4132.820412,4138.974258,4125.640925,4149.230668,4169.743488,4154.871693,4108.717848,4149.743488,4126.666566,4133.333232,4110.25631,4154.871693,4118.461438
96,0,4136.922976,4157.948616,4163.589642,4154.358873,4171.281949,4190.256308,4177.435795,4129.743489,4172.820411,4157.435796,4152.307591,4135.897335,4170.769129,4144.102463
97,0,4163.589642,4185.128103,4187.179385,4184.615282,4199.487077,4217.435794,4198.461436,4156.922975,4206.153743,4191.281949,4172.820411,4162.05118,4189.230667,4167.179385
98,0,4157.435796,4175.384513,4178.461436,4174.871693,4190.256308,4211.794769,4188.717846,4158.974257,4200.512718,4182.564,4169.743488,4152.820411,4183.589641,4159.999898
99,0,4142.051181,4162.05118,4165.128103,4159.999898,4170.769129,4192.82041,4173.333231,4147.692206,4190.256308,4163.076821,4161.025539,4136.410155,4171.281949,4149.743488
100,0,4149.743488,4176.410154,4175.384513,4172.820411,4185.640923,4201.025538,4182.05118,4153.846052,4206.666564,4174.358872,4168.205026,4149.230668,4178.461436,4159.487078
101,0,4151.28195,4177.435795,4174.358872,4173.333231,4192.82041,4206.666564,4183.589641,4149.230668,4198.974256,4172.820411,4165.128103,4152.820411,4178.974257,4154.871693
102,0,4165.640924,4192.30759,4183.589641,4189.230667,4203.589641,4220.512717,4201.538359,4161.025539,4207.179384,4188.717846,4175.384513,4166.666565,4184.615282,4165.640924
103,0,4159.999898,4188.205026,4177.948616,4179.999898,4193.333231,4212.82041,4198.974256,4159.999898,4208.205025,4186.666564,4173.333231,4163.589642,4179.487077,4164.102462
104,0,4135.384514,4160.512719,4159.999898,4148.717847,4170.769129,4194.358872,4176.410154,4133.846053,4181.538359,4156.922975,4152.820411,4140.512719,4166.666565,4142.051181
105,0,4113.846053,4129.743489,4141.02554,4126.666566,4148.205027,4173.333231,4152.820411,4105.128105,4152.307591,4123.076822,4128.205027,4114.871694,4150.256309,4116.410156
106,0,4131.794771,4150.769129,4157.435796,4150.256309,4163.589642,4181.025539,4170.769129,4126.153745,4175.384513,4146.153745,4145.640924,4134.358873,4158.974257,4135.897335
107,0,4137.435796,4159.487078,4160.512719,4153.333232,4167.179385,4183.076821,4176.410154,4137.435796,4187.692205,4163.589642,4162.05118,4144.102463,4167.692206,4147.179386
108,0,4142.564001,4159.999898,4163.589642,4156.410155,4169.743488,4187.179385,4175.384513,4137.435796,4194.358872,4168.717847,4167.692206,4149.230668,4173.333231,4151.79477
109,0,4152.820411,4165.640924,4176.922975,4169.743488,4175.384513,4187.692205,4176.922975,4141.02554,4195.897333,4170.769129,4167.692206,4158.461437,4175.384513,4157.948616
110,0,4173.333231,4194.871692,4203.589641,4197.948615,4197.435795,4207.179384,4197.948615,4154.871693,4195.384513,4189.230667,4186.666564,4183.589641,4186.666564,4179.999898
111,0,4168.205026,4188.717846,4195.384513,4188.205026,4190.769128,4203.07682,4187.179385,4144.102463,4176.410154,4184.615282,4184.615282,4175.384513,4182.05118,4171.79477
112,0,4150.769129,4165.128103,4170.769129,4161.53836,4171.281949,4181.025539,4161.025539,4124.615284,4154.358873,4159.999898,4163.076821,4151.79477,4169.230667,4153.333232
113,0,4145.640924,4170.256308,4166.666565,4162.564001,4174.358872,4179.487077,4162.564001,4126.153745,4162.564001,4157.948616,4161.53836,4152.307591,4168.717847,4153.846052
114,0,4142.051181,4174.871693,4168.205026,4166.666565,4179.487077,4191.281949,4176.922975,4132.820412,4177.435795,4169.230667,4166.666565,4154.358873,4171.79477,4153.333232
115,0,4130.76913,4157.948616,4156.922975,4152.820411,4170.769129,4187.692205,4172.30759,4127.692207,4169.743488,4164.102462,4156.922975,4142.051181,4166.153744,4142.564001
116,0,4124.615284,4149.230668,4148.717847,4144.615283,4167.692206,4182.05118,4170.256308,4121.538361,4157.435796,4155.384514,4151.28195,4133.846053,4163.076821,4135.384514
117,0,4133.333232,4167.692206,4158.974257,4161.025539,4179.999898,4199.487077,4186.666564,4136.922976,4177.435795,4171.79477,4166.153744,4145.128104,4173.333231,4145.640924
118,0,4134.358873,4172.30759,4160.512719,4163.076821,4178.974257,4203.07682,4183.589641,4141.02554,4189.743487,4177.948616,4169.743488,4146.666565,4175.384513,4150.769129
119,0,4134.358873,4172.820411,4161.025539,4161.025539,4176.922975,4193.846051,4169.743488,4129.743489,4178.461436,4175.384513,4165.640924,4150.256309,4170.769129,4157.435796
120,0,4120.51272,4158.461437,4152.307591,4147.692206,4160.512719,4182.05118,4156.922975,4107.692207,4151.28195,4154.871693,4155.384514,4143.076822,4162.564001,4150.256309
121,0,4120.51272,4152.307591,4156.922975,4148.717847,4156.922975,4187.179385,4167.179385,4110.25631,4150.769129,4153.846052,4161.025539,4147.179386,4168.205026,4150.256309
122,0,4113.846053,4138.461437,4146.666565,4134.871694,4145.640924,4171.79477,4157.948616,4106.153746,4144.102463,4142.051181,4152.307591,4135.897335,4161.025539,4133.846053
123,0,4112.307592,4138.974258,4145.640924,4133.846053,4143.589642,4163.076821,4152.307591,4103.076823,4146.153745,4136.922976,4145.128104,4131.28195,4154.871693,4127.692207
124,0,4111.794771,4140.512719,4151.28195,4139.999899,4142.051181,4166.666565,4151.79477,4101.538361,4148.205027,4129.230668,4142.051181,4129.743489,4151.28195,4132.307591
125,0,4136.922976,4169.230667,4173.846052,4165.640924,4162.05118,4191.794769,4180.512718,4125.128104,4168.717847,4152.820411,4159.487078,4148.717847,4162.564001,4155.384514
126,0,4150.256309,4181.025539,4178.461436,4170.256308,4166.666565,4196.410154,4189.230667,4136.410155,4174.358872,4167.692206,4167.692206,4153.846052,4165.640924,4156.922975
127,0,4151.28195,4181.538359,4181.025539,4174.871693,4170.256308,4194.871692,4183.589641,4132.307591,4170.256308,4166.153744,4169.743488,4153.846052,4167.692206,4152.307591
128,0,4143.589642,4172.30759,4176.922975,4173.333231,4164.102462,4187.692205,4173.846052,4125.128104,4165.128103,4154.358873,4162.05118,4141.53836,4160.512719,4143.589642
0,0,4161.025539,4192.82041,4192.30759,4192.82041,4177.948616,4206.153743,4194.358872,4146.666565,4189.743487,4173.333231,4171.281949,4151.79477,4168.205026,4161.025539
1,0,4172.820411,4206.153743,4201.538359,4203.07682,4191.794769,4217.948615,4199.487077,4153.333232,4197.948615,4188.717846,4179.999898,4165.640924,4176.410154,4173.333231
2,0,4159.487078,4193.333231,4188.717846,4186.666564,4176.410154,4198.974256,4178.974257,4128.717848,4173.333231,4172.30759,4172.30759,4160.512719,4169.743488,4163.076821
3,0,4150.256309,4182.564,4177.435795,4174.871693,4157.435796,4181.025539,4166.666565,4117.435797,4163.076821,4157.435796,4167.692206,4156.922975,4166.666565,4155.897334
4,0,4152.820411,4177.948616,4177.948616,4175.897334,4158.974257,4183.076821,4169.230667,4119.487079,4164.615283,4157.435796,4169.230667,4159.999898,4171.281949,4158.974257
5,0,4141.53836,4164.102462,4168.717847,4163.076821,4154.358873,4177.948616,4163.589642,4109.743489,4150.256309,4147.179386,4159.487078,4148.717847,4162.564001,4150.256309
6,0,4129.743489,4154.871693,4161.53836,4150.769129,4143.076822,4170.769129,4160.512719,4104.615284,4143.076822,4132.820412,4148.205027,4135.897335,4151.28195,4138.974258
7,0,4149.743488,4175.384513,4182.564,4170.256308,4157.948616,4189.743487,4177.435795,4123.589643,4165.128103,4153.846052,4161.53836,4153.333232,4163.076821,4156.922975
8,0,4152.820411,4173.333231,4184.102462,4172.30759,4159.487078,4192.30759,4178.974257,4124.615284,4163.076821,4166.153744,4165.640924,4155.384514,4162.05118,4157.948616
9,0,4146.666565,4167.692206,4177.435795,4169.743488,4157.435796,4190.769128,4183.076821,4126.153745,4164.102462,4171.79477,4165.640924,4147.692206,4157.948616,4148.205027
10,0,4137.435796,4163.589642,4172.820411,4163.076821,4152.307591,4187.692205,4180.512718,4126.666566,4168.717847,4163.076821,4158.974257,4137.948617,4154.358873,4138.461437
11,0,4134.358873,4161.53836,4173.333231,4159.487078,4149.230668,4185.640923,4173.333231,4127.179386,4171.281949,4162.564001,4159.487078,4144.102463,4152.307591,4143.589642
12,0,4123.589643,4142.051181,4154.871693,4142.564001,4132.820412,4167.692206,4154.358873,4114.358874,4155.384514,4153.846052,4151.28195,4138.974258,4146.666565,4134.358873
13,0,4141.02554,4159.487078,4166.153744,4158.461437,4149.230668,4182.05118,4171.281949,4126.666566,4170.769129,4174.871693,4166.666565,4154.358873,4164.102462,4148.205027
14,0,4148.717847,4174.358872,4175.897334,4167.692206,4160.512719,4192.30759,4183.589641,4136.410155,4189.230667,4187.179385,4182.05118,4163.076821,4172.820411,4161.025539
15,0,4150.256309,4173.333231,4177.948616,4170.769129,4160.512719,4192.30759,4183.076821,4136.922976,4196.410154,4189.743487,4184.102462,4166.153744,4172.820411,4163.076821
16,0,4159.999898,4177.948616,4185.640923,4179.999898,4163.589642,4195.897333,4185.128103,4132.307591,4189.743487,4191.794769,4181.538359,4171.79477,4176.410154,4167.692206
17,0,4209.743487,4242.051178,4239.999896,4240.512717,4218.461435,4242.563999,4241.025537,4170.256308,4219.999897,4241.025537,4223.07682,4225.128102,4212.82041,4225.128102
18,0,4261.025537,4303.589638,4289.230664,4297.948613,4272.820408,4285.1281,4289.743485,4217.948615,4267.179383,4298.974254,4268.717844,4274.87169,4249.743486,4280.512716
19,0,4285.1281,4321.025535,4309.230664,4318.974253,4293.333228,4299.487074,4302.563997,4241.538358,4298.461433,4325.128099,4279.999895,4285.1281,4256.410152,4288.717844
20,0,4283.076818,4311.794766,4311.281946,4314.358869,4288.205023,4293.333228,4293.333228,4239.999896,4296.410151,4314.871689,4271.794767,4273.846049,4246.153742,4274.87169
21,0,4301.538356,4338.974253,4334.358868,4336.922971,4309.230664,4314.358869,4314.358869,4252.820409,4307.179382,4328.205022,4288.717844,4301.025536,4264.10246,4300.512715
22,0,4351.281945,4395.897328,4383.589636,4397.94861,4366.66656,4369.743483,4366.66656,4303.076818,4365.128098,4397.43579,4339.999894,4366.153739,4308.717843,4364.615278
23,0,4391.281944,4434.358866,4418.974251,4446.666558,4412.820405,4412.820405,4407.6922,4349.230663,4416.922969,4455.384506,4388.717841,4414.358866,4342.051176,4419.487071
24,0,4389.230662,4432.307584,4412.307584,4438.46143,4406.666559,4404.102456,4398.461431,4345.128099,4405.640918,4450.769122,4390.256303,4413.846046,4341.538355,4419.487071
25,0,4353.333227,4395.897328,4374.871688,4389.230662,4365.128098,4366.66656,4356.41015,4301.025536,4359.487073,4406.153738,4348.205022,4372.820406,4313.846048,4367.692201
26,0,4350.256304,4393.333226,4374.358867,4388.717841,4366.66656,4370.769124,4355.384509,4298.974254,4364.615278,4409.743482,4344.102458,4367.692201,4312.307587,4360.512714
27,0,4365.640919,4411.281943,4390.256303,4409.230661,4384.102457,4384.102457,4367.692201,4313.333228,4379.487072,4423.076815,4365.640919,4381.538354,4327.179381,4387.6922
28,0,4375.897329,4424.615276,4402.051174,4416.410148,4395.897328,4390.769123,4376.410149,4319.999894,4382.563995,4430.769122,4376.92297,4390.256303,4337.948612,4403.076815
29,0,4385.640918,4434.358866,4412.307584,4428.20502,4414.358866,4408.717841,4398.974251,4332.307586,4397.43579,4447.179378,4381.025534,4397.43579,4343.589637,4408.717841
30,0,4433.846045,4489.74348,4459.999891,4490.2563,4475.384506,4465.128096,4462.563993,4388.205021,4455.384506,4508.205018,4422.563994,4446.666558,4374.358867,4459.48707
31,0,4442.563994,4499.487069,4469.23066,4500.51271,4484.102454,4473.846044,4469.74348,4406.666559,4470.256301,4517.948607,4431.281943,4462.563993,4381.025534,4471.281942
32,0,4426.153738,4477.435788,4453.846045,4475.897326,4459.48707,4455.384506,4443.076814,4393.333226,4455.897327,4497.435787,4418.46143,4455.384506,4373.846047,4458.97425
33,0,4436.410148,4486.153736,4462.563993,4483.589634,4468.717839,4462.563993,4453.333224,4398.461431,4462.051173,4512.820402,4429.743481,4464.615275,4383.076816,4471.794762
34,0,4476.410147,4533.333222,4502.563992,4531.794761,4517.435787,4507.179377,4504.102454,4438.46143,4503.589633,4568.205016,4469.23066,4506.666556,4415.384507,4517.435787
35,0,4479.48707,4535.384504,4506.153736,4534.358863,4524.102453,4512.820402,4506.666556,4448.205019,4511.281941,4572.307581,4474.358865,4514.871684,4421.538353,4521.538351
36,0,4470.769121,4525.128094,4497.948608,4522.563992,4515.384505,4496.922967,4496.410146,4442.563994,4503.076813,4556.410145,4467.179378,4502.051172,4415.384507,4509.230659
37,0,4474.358865,4533.333222,4502.051172,4529.230658,4515.897325,4496.922967,4503.589633,4448.71784,4507.179377,4564.615273,4474.358865,4501.538351,4417.435789,4513.846043
38,0,4490.769121,4554.871683,4521.538351,4550.769119,4534.358863,4522.051171,4523.589633,4466.666557,4528.717838,4586.153734,4486.153736,4522.563992,4428.20502,4535.384504
39,0,4503.589633,4564.102452,4533.846043,4562.05117,4552.307581,4536.922966,4532.307581,4476.410147,4544.615273,4592.30758,4489.74348,4530.256299,4433.846045,4543.589632
40,0,4517.948607,4581.025529,4546.666555,4579.999888,4565.640914,4549.743478,4544.615273,4483.589634,4551.28194,4598.974247,4498.974249,4533.846043,4441.025532,4555.897324
41,0,4534.358863,4605.640913,4564.102452,4599.487067,4576.922965,4567.179375,4557.948606,4489.74348,4557.948606,4616.410144,4512.307582,4550.769119,4451.281942,4572.820401
42,0,4522.051171,4588.717837,4550.256299,4579.487068,4563.589632,4556.410145,4542.051171,4476.410147,4547.179376,4604.102452,4501.025531,4544.615273,4443.589635,4555.384504
43,0,4501.538351,4554.871683,4528.205017,4550.769119,4543.076812,4535.384504,4521.538351,4463.076814,4527.179376,4581.025529,4486.666557,4526.666556,4437.435789,4541.02553
44,0,4509.743479,4554.871683,4534.871684,4553.333222,4543.589632,4540.512709,4528.717838,4467.179378,4527.692197,4586.666555,4496.922967,4529.743479,4448.205019,4559.999888
45,0,4546.666555,4588.717837,4565.640914,4586.153734,4572.307581,4575.897324,4566.666555,4499.487069,4575.384504,4634.358861,4528.205017,4565.128093,4471.794762,4597.435785
46,0,4557.435786,4594.358862,4570.256298,4593.333221,4578.974247,4585.128093,4574.871683,4513.333223,4596.922965,4654.871681,4537.948607,4579.999888,4482.563993,4610.256298
47,0,4559.999888,4596.922965,4576.410145,4597.948606,4583.076811,4579.487068,4565.128093,4510.2563,4585.128093,4652.307579,4543.589632,4582.563991,4486.153736,4616.410144
48,0,4549.230658,4586.153734,4569.230657,4588.205016,4574.871683,4563.589632,4545.128094,4489.74348,4555.897324,4627.179374,4532.820402,4563.076811,4475.384506,4596.410144
49,0,4553.333222,4591.281939,4571.79476,4595.897324,4582.05117,4573.333222,4557.435786,4498.974249,4565.640914,4635.384502,4537.435786,4566.666555,4482.051172,4598.974247
50,0,4570.256298,4606.666554,4585.128093,4614.871682,4595.897324,4591.281939,4579.999888,4519.999889,4597.435785,4664.10245,4556.410145,4587.179375,4496.410146,4621.538349
51,0,4586.666555,4625.640913,4600.512708,4631.794759,4614.871682,4611.281939,4594.871683,4530.76912,4613.846041,4684.61527,4574.358863,4607.692195,4505.128095,4635.897323
52,0,4567.179375,4605.128093,4583.589632,4611.281939,4603.076811,4601.025529,4577.435786,4518.974248,4593.333221,4659.999886,4558.461427,4593.333221,4493.846044,4616.922964
53,0,4568.717837,4607.179375,4585.128093,4616.410144,4608.717836,4605.128093,4584.102452,4526.666556,4598.461426,4656.410143,4553.846042,4593.333221,4496.410146,4619.999887
54,0,4578.461427,4621.025528,4591.281939,4629.230656,4619.487067,4615.897323,4594.358862,4530.76912,4605.640913,4668.717835,4559.487068,4599.999888,4499.99989,4622.56399
55,0,4571.79476,4616.922964,4587.179375,4622.56399,4615.897323,4614.871682,4591.281939,4525.640915,4593.333221,4665.128091,4557.435786,4597.948606,4495.384505,4615.897323
56,0,4554.358863,4597.948606,4571.281939,4602.56399,4597.435785,4597.948606,4577.948606,4521.538351,4584.615273,4645.640912,4542.563991,4581.025529,4483.589634,4604.102452
57,0,4548.717837,4592.820401,4566.666555,4598.974247,4593.333221,4596.410144,4577.435786,4521.538351,4590.769119,4641.538348,4539.487068,4572.820401,4480.512711,4598.461426
58,0,4532.307581,4571.79476,4554.358863,4579.487068,4574.871683,4582.05117,4557.435786,4501.025531,4570.769119,4625.128092,4530.256299,4554.871683,4476.922967,4579.999888
59,0,4501.025531,4536.410145,4519.999889,4538.974248,4537.948607,4552.820401,4525.128094,4475.384506,4536.410145,4585.128093,4500.51271,4517.435787,4457.948609,4548.205017
60,0,4491.281941,4530.256299,4505.128095,4529.743479,4536.410145,4557.948606,4527.179376,4477.435788,4536.410145,4577.435786,4490.769121,4504.615274,4447.692199,4538.974248
61,0,4508.717838,4548.205017,4523.589633,4550.769119,4563.076811,4581.53835,4551.28194,4494.358864,4563.589632,4601.025529,4512.307582,4529.230658,4463.076814,4560.512709
62,0,4518.974248,4548.205017,4534.358863,4551.79476,4555.384504,4571.79476,4545.640914,4494.358864,4570.769119,4606.153734,4518.974248,4540.512709,4473.333224,4572.820401
63,0,4478.974249,4501.538351,4494.358864,4499.99989,4497.435787,4519.999889,4494.358864,4449.23066,4515.384505,4554.358863,4476.410147,4499.487069,4443.076814,4527.692197
64,0,4467.692198,4493.846044,4484.102454,4492.820403,4490.769121,4510.76912,4487.692198,4436.922968,4496.922967,4544.102453,4467.692198,4493.333223,4436.410148,4512.307582
65,0,4481.538352,4509.743479,4494.871685,4510.2563,4506.666556,4522.563992,4502.051172,4452.820404,4522.563992,4559.487068,4482.563993,4504.102454,4446.666558,4523.589633
66,0,4457.435788,4487.179377,4474.871685,4484.102454,4484.102454,4506.153736,4481.538352,4443.589635,4516.410146,4538.974248,4462.051173,4477.948608,4428.71784,4504.102454
67,0,4403.076815,4429.743481,4427.179379,4426.153738,4435.897327,4463.076814,4435.897327,4399.999892,4461.538352,4483.589634,4415.897328,4428.20502,4393.333226,4450.256301
68,0,4413.333225,4441.538353,4435.897327,4438.46143,4450.769122,4470.769121,4449.743481,4405.640918,4465.128096,4493.846044,4424.615276,4433.846045,4399.487072,4450.256301
69,0,4425.640917,4458.461429,4448.71784,4454.358865,4461.538352,4479.48707,4464.102455,4422.051174,4483.076813,4509.230659,4431.794763,4439.487071,4403.076815,4457.435788
70,0,4416.410148,4449.743481,4443.589635,4447.179378,4454.358865,4475.384506,4460.512711,4420.512712,4479.99989,4496.410146,4423.076815,4435.897327,4402.051174,4457.435788
71,0,4417.94861,4446.666558,4437.948609,4443.589635,4451.281942,4472.820403,4454.871686,4410.256302,4470.769121,4485.640916,4422.051174,4438.46143,4403.589636,4452.307583
72,0,4439.999891,4467.179378,4454.871686,4462.051173,4463.589634,4480.512711,4461.025532,4413.333225,4472.820403,4502.051172,4432.820404,4455.384506,4406.153738,4462.563993
73,0,4430.256302,4453.846045,4449.23066,4449.743481,4449.743481,4470.769121,4448.205019,4405.640918,4461.538352,4490.769121,4422.051174,4443.076814,4399.999892,4462.051173
74,0,4422.051174,4440.512712,4440.512712,4438.97425,4444.102455,4476.410147,4453.333224,4405.128097,4459.999891,4482.051172,4422.051174,4431.281943,4405.640918,4463.076814
75,0,4418.974251,4437.948609,4437.948609,4438.97425,4444.102455,4475.384506,4454.358865,4404.615277,4460.512711,4486.666557,4429.743481,4432.307584,4406.666559,4461.025532
76,0,4413.333225,4434.871686,4437.948609,4436.410148,4441.025532,4465.640916,4445.128096,4401.025533,4455.897327,4483.589634,4426.153738,4432.307584,4399.999892,4457.435788
77,0,4417.435789,4436.922968,4440.512712,4436.410148,4442.563994,4476.410147,4447.692199,4410.769123,4466.666557,4485.640916,4424.615276,4436.410148,4404.102456,4462.051173
78,0,4423.076815,4441.538353,4440.512712,4438.97425,4440.512712,4483.076813,4451.281942,4420.512712,4472.820403,4491.281941,4426.666558,4444.102455,4408.20502,4464.615275
79,0,4403.589636,4422.563994,4418.46143,4417.94861,4418.974251,4455.897327,4422.563994,4397.43579,4447.179378,4468.717839,4409.230661,4427.179379,4391.281944,4443.076814
80,0,4364.615278,4384.615277,4385.640918,4377.948611,4388.717841,4425.128097,4386.666559,4359.487073,4412.820405,4423.076815,4373.846047,4386.666559,4364.102457,4398.974251
81,0,4365.640919,4388.205021,4394.358867,4385.128098,4396.410149,4435.384507,4398.974251,4367.692201,4426.666558,4429.230661,4373.846047,4386.153739,4370.256303,4397.94861
82,0,4376.92297,4400.512713,4402.563995,4401.025533,4402.051174,4441.025532,4408.20502,4376.92297,4434.871686,4442.051173,4381.025534,4394.358867,4378.974252,4412.307584
83,0,4385.640918,4408.717841,4404.615277,4408.20502,4406.666559,4445.128096,4409.743482,4375.897329,4430.769122,4446.666558,4379.999893,4401.538354,4380.512713,4421.538353
84,0,4379.487072,4401.025533,4402.563995,4400.512713,4406.666559,4441.025532,4405.640918,4370.769124,4427.179379,4442.563994,4370.256303,4399.999892,4378.461431,4419.999892
85,0,4375.897329,4402.051174,4406.153738,4403.076815,4407.6922,4437.948609,4407.6922,4375.897329,4430.256302,4444.102455,4374.358867,4403.076815,4382.563995,4422.563994
86,0,4343.589637,4369.230662,4372.307585,4369.230662,4375.897329,4417.94861,4383.076816,4353.333227,4402.563995,4408.20502,4354.871688,4370.769124,4359.999893,4386.153739
87,0,4333.846048,4351.281945,4359.999893,4351.794765,4369.743483,4414.871687,4377.948611,4348.205022,4405.640918,4394.871687,4346.15374,4361.025534,4348.205022,4370.769124
88,0,4353.333227,4364.102457,4379.487072,4367.17938,4381.025534,4409.743482,4383.076816,4361.538355,4426.153738,4410.769123,4353.846047,4377.43579,4357.435791,4388.717841
89,0,4370.769124,4386.666559,4399.487072,4390.256303,4387.6922,4413.333225,4391.281944,4368.717842,4424.615276,4426.153738,4362.563996,4392.820405,4370.256303,4402.563995
90,0,4367.692201,4388.205021,4395.384508,4391.794764,4387.6922,4422.563994,4395.897328,4360.512714,4402.051174,4414.871687,4354.358868,4389.230662,4365.640919,4391.281944
91,0,4393.846046,4418.46143,4418.974251,4423.076815,4416.922969,4450.769122,4425.640917,4379.487072,4422.051174,4436.410148,4369.743483,4411.281943,4376.92297,4418.974251
92,0,4413.846046,4443.589635,4440.512712,4450.256301,4429.230661,4459.48707,4437.948609,4396.922969,4449.23066,4461.538352,4386.153739,4430.256302,4391.794764,4441.538353
93,0,4415.897328,4457.435788,4449.23066,4464.102455,4434.871686,4470.769121,4444.615276,4404.615277,4457.948609,4468.205019,4393.846046,4438.97425,4401.538354,4444.102455
94,0,4431.281943,4478.461429,4461.538352,4479.48707,4452.307583,4495.384505,4461.025532,4422.563994,4474.358865,4485.640916,4406.153738,4454.871686,4411.794764,4458.461429
95,0,4456.410147,4499.487069,4476.922967,4494.358864,4467.692198,4510.2563,4478.974249,4444.615276,4503.076813,4511.281941,4418.46143,4471.281942,4423.589635,4481.025531
96,0,4476.410147,4518.461428,4494.358864,4513.846043,4485.640916,4519.999889,4491.281941,4456.410147,4519.999889,4529.230658,4430.769122,4487.179377,4435.384507,4495.897326
97,0,4487.179377,4530.76912,4507.692197,4530.76912,4496.922967,4532.307581,4495.897326,4455.897327,4519.999889,4538.461427,4437.948609,4498.974249,4445.128096,4510.2563
98,0,4481.025531,4519.999889,4499.99989,4518.974248,4483.589634,4529.743479,4485.128095,4450.256301,4511.281941,4538.974248,4432.820404,4492.307582,4444.102455,4513.846043
99,0,4464.102455,4495.897326,4478.974249,4490.2563,4462.051173,4502.051172,4464.102455,4431.794763,4479.99989,4517.948607,4420.512712,4475.384506,4436.922968,4494.871685
100,0,4473.846044,4506.153736,4490.769121,4503.076813,4475.384506,4506.666556,4480.512711,4442.563994,4497.435787,4527.179376,4432.307584,4491.794762,4446.666558,4504.102454
101,0,4487.692198,4514.358864,4503.589633,4521.538351,4483.589634,4524.615274,4504.102454,4466.153737,4539.999889,4541.53835,4440.512712,4504.102454,4452.307583,4521.02553
102,0,4497.435787,4522.051171,4515.384505,4533.846043,4492.307582,4530.76912,4510.2563,4477.948608,4542.051171,4556.410145,4451.281942,4514.871684,4460.512711,4530.76912
103,0,4483.589634,4513.333223,4511.794761,4521.02553,4487.692198,4514.358864,4491.794762,4464.102455,4514.871684,4551.28194,4449.23066,4512.307582,4460.512711,4519.487069
104,0,4479.48707,4514.358864,4509.230659,4515.897325,4487.179377,4513.846043,4492.307582,4466.153737,4521.538351,4551.28194,4447.692199,4514.358864,4459.999891,4525.128094
105,0,4472.307583,4500.51271,4490.769121,4501.025531,4471.281942,4501.025531,4477.948608,4451.281942,4499.99989,4529.230658,4435.897327,4498.974249,4449.23066,4518.461428
106,0,4457.435788,4476.922967,4473.333224,4480.512711,4449.743481,4478.974249,4453.333224,4425.640917,4465.640916,4502.563992,4421.538353,4479.99989,4438.97425,4492.820403
107,0,4433.333225,4448.205019,4456.410147,4455.384506,4423.076815,4457.435788,4435.384507,4409.743482,4450.256301,4474.871685,4400.512713,4454.358865,4422.563994,4462.563993
108,0,4444.615276,4457.435788,4468.205019,4469.23066,4438.97425,4478.461429,4462.051173,4435.384507,4485.128095,4486.666557,4407.6922,4461.538352,4425.640917,4478.461429
109,0,4442.051173,4448.71784,4459.999891,4463.076814,4441.538353,4479.99989,4465.128096,4445.128096,4504.615274,4491.281941,4407.179379,4459.48707,4425.128097,4477.948608
110,0,4436.410148,4442.563994,4452.307583,4458.461429,4436.410148,4466.666557,4453.846045,4432.307584,4473.846044,4485.640916,4402.563995,4451.281942,4426.153738,4463.589634
111,0,4442.563994,4453.846045,4456.410147,4466.666557,4441.025532,4464.615275,4452.820404,4421.538353,4442.051173,4481.538352,4402.051174,4447.692199,4427.179379,4465.640916
112,0,4439.487071,4455.897327,4454.871686,4459.999891,4441.538353,4473.846044,4461.025532,4424.615276,4462.563993,4477.948608,4397.94861,4446.153737,4421.538353,4469.74348
113,0,4438.97425,4451.794763,4452.820404,4458.97425,4439.487071,4481.538352,4468.205019,4432.820404,4477.948608,4477.435788,4398.461431,4446.666558,4417.94861,4463.589634
114,0,4449.23066,4454.871686,4459.999891,4473.333224,4444.615276,4484.102454,4469.74348,4438.46143,4470.769121,4481.538352,4403.589636,4449.23066,4419.999892,4455.897327
115,0,4437.948609,4441.025532,4451.281942,4461.025532,4432.820404,4464.615275,4448.71784,4429.230661,4458.97425,4472.307583,4394.358867,4439.487071,4415.897328,4448.205019
116,0,4418.46143,4425.640917,4436.410148,4441.025532,4415.897328,4438.46143,4423.589635,4405.128097,4433.333225,4457.948609,4381.538354,4423.589635,4411.794764,4444.615276
117,0,4431.281943,4436.922968,4448.205019,4455.897327,4431.794763,4444.615276,4430.256302,4407.6922,4437.948609,4473.846044,4391.281944,4436.922968,4419.487071,4452.307583
118,0,4419.999892,4414.358866,4433.846045,4437.435789,4422.563994,4436.922968,4420.512712,4403.076815,4441.538353,4459.999891,4381.538354,4427.179379,4406.153738,4427.179379
119,0,4399.999892,4388.717841,4409.230661,4409.230661,4400.512713,4419.999892,4405.128097,4387.17938,4424.615276,4435.897327,4367.17938,4404.102456,4396.410149,4413.846046
120,0,4400.512713,4386.666559,4405.128097,4410.256302,4401.025533,4417.94861,4404.102456,4380.512713,4414.871687,4433.333225,4368.717842,4398.461431,4403.076815,4429.743481
121,0,4421.538353,4408.20502,4427.692199,4438.46143,4433.846045,4442.051173,4426.666558,4403.076815,4444.615276,4464.615275,4393.333226,4427.179379,4422.051174,4461.025532
122,0,4417.94861,4404.615277,4426.666558,4433.333225,4435.897327,4443.589635,4426.666558,4403.589636,4440.512712,4464.102455,4394.871687,4428.20502,4420.512712,4458.97425
123,0,4408.20502,4393.846046,4414.871687,4419.487071,4423.076815,4437.948609,4420.512712,4397.94861,4432.820404,4449.743481,4382.563995,4408.20502,4410.769123,4444.102455
124,0,4389.743482,4369.743483,4395.897328,4396.922969,4405.128097,4427.179379,4408.20502,4392.307585,4437.948609,4430.769122,4367.692201,4384.615277,4396.410149,4420.512712
125,0,4393.333226,4370.769124,4397.94861,4401.538354,4411.281943,4431.794763,4411.794764,4392.307585,4434.358866,4432.820404,4372.307585,4388.205021,4398.974251,4423.076815
126,0,4394.358867,4368.205021,4392.307585,4399.487072,4404.102456,4424.615276,4399.487072,4375.897329,4399.999892,4421.025533,4364.615278,4378.974252,4399.487072,4416.922969
127,0,4391.281944,4366.66656,4389.743482,4396.410149,4398.461431,4418.46143,4392.820405,4373.333226,4393.846046,4413.846046,4360.512714,4370.769124,4399.999892,4412.307584
128,0,4369.743483,4345.128099,4368.717842,4370.256303,4379.487072,4394.358867,4371.794765,4356.92297,4385.640918,4392.307585,4346.66656,4349.743483,4386.153739,4397.94861
0,0,4346.66656,4314.871689,4341.025535,4334.358868,4355.897329,4374.871688,4350.769124,4329.230663,4359.999893,4359.999893,4325.64092,4323.589638,4367.692201,4374.871688
1,0,4345.128099,4307.692202,4339.999894,4325.64092,4352.307586,4371.794765,4348.205022,4327.179381,4352.307586,4348.717842,4322.563997,4321.025535,4363.076816,4369.230662
2,0,4363.589637,4330.256304,4359.999893,4349.230663,4371.281944,4381.538354,4362.051175,4344.102458,4370.769124,4364.615278,4336.922971,4341.025535,4373.846047,4383.589636
3,0,4353.333227,4319.999894,4345.128099,4341.538355,4361.025534,4376.92297,4349.743483,4332.307586,4363.589637,4352.307586,4324.615279,4325.64092,4363.076816,4371.281944
4,0,4331.281945,4295.38451,4322.051176,4314.871689,4338.461432,4363.589637,4327.692202,4310.256305,4330.256304,4319.999894,4302.051177,4296.922972,4342.563996,4350.769124
5,0,4345.128099,4309.230664,4339.999894,4326.666561,4351.794765,4363.589637,4337.435791,4321.538356,4325.64092,4331.281945,4311.794766,4310.769125,4349.743483,4362.051175
6,0,4349.230663,4311.281946,4344.102458,4329.743484,4355.897329,4365.128098,4348.717842,4332.307586,4339.999894,4341.538355,4317.435792,4317.435792,4353.846047,4362.563996
7,0,4340.512714,4299.487074,4331.281945,4321.538356,4348.205022,4369.230662,4345.640919,4331.794766,4349.230663,4335.89733,4313.846048,4306.153741,4345.128099,4351.794765
8,0,4347.692201,4309.743484,4337.435791,4328.717843,4351.281945,4370.769124,4345.128099,4332.820407,4349.230663,4332.820407,4313.333228,4308.205023,4343.589637,4356.41015
9,0,4371.794765,4340.512714,4365.128098,4356.41015,4374.358867,4386.153739,4370.256303,4353.333227,4377.43579,4355.897329,4328.717843,4332.820407,4364.102457,4380.512713
10,0,4349.743483,4313.846048,4345.640919,4333.846048,4351.794765,4368.717842,4352.820406,4331.281945,4356.92297,4334.358868,4313.846048,4311.281946,4355.897329,4360.512714
11,0,4326.666561,4288.717844,4321.538356,4308.205023,4324.615279,4344.615278,4319.999894,4299.487074,4313.333228,4307.179382,4294.87169,4287.179382,4336.922971,4336.41015
12,0,4314.871689,4274.87169,4305.1281,4290.769126,4304.615279,4325.128099,4298.974254,4286.666562,4295.897331,4290.256305,4282.051177,4274.35887,4321.538356,4319.999894
13,0,4309.743484,4265.128101,4300.512715,4279.999895,4299.487074,4321.538356,4297.948613,4288.205023,4301.025536,4286.153741,4282.563998,4269.230665,4319.999894,4316.922971
14,0,4288.717844,4240.512717,4283.076818,4254.871691,4281.538357,4307.692202,4281.025536,4272.820408,4288.717844,4266.666562,4266.153742,4244.615281,4310.256305,4298.974254
15,0,4298.974254,4254.35887,4291.281946,4266.666562,4296.410151,4323.589638,4298.974254,4288.717844,4311.794766,4282.563998,4274.87169,4253.84605,4315.89733,4314.871689
16,0,4325.128099,4279.487075,4309.230664,4294.358869,4323.076817,4352.307586,4324.615279,4312.820407,4342.051176,4308.205023,4298.974254,4282.051177,4331.281945,4336.922971
17,0,4345.128099,4302.563997,4325.64092,4315.38451,4341.025535,4368.717842,4336.922971,4316.410151,4336.922971,4323.589638,4311.794766,4298.461433,4344.615278,4348.205022
18,0,4327.692202,4287.692203,4304.615279,4293.333228,4321.538356,4344.102458,4310.256305,4291.794767,4296.922972,4305.1281,4291.281946,4275.897331,4331.281945,4330.256304
19,0,4297.435792,4252.307588,4275.384511,4260.512716,4295.897331,4324.615279,4288.205023,4278.974254,4297.435792,4278.974254,4269.743485,4246.666563,4312.307587,4301.025536
20,0,4292.307587,4247.692204,4277.435793,4258.974255,4294.87169,4328.717843,4293.333228,4286.666562,4315.38451,4280.512716,4274.87169,4246.666563,4312.820407,4294.87169
21,0,4301.025536,4267.179383,4290.256305,4274.87169,4306.153741,4328.717843,4300.512715,4283.076818,4284.102459,4290.256305,4285.1281,4258.461434,4319.999894,4310.256305
22,0,4295.897331,4257.948614,4280.512716,4269.230665,4303.589638,4323.076817,4291.281946,4272.820408,4261.025537,4279.999895,4276.410152,4248.717845,4315.89733,4312.820407
23,0,4283.589639,4235.897332,4264.61528,4253.84605,4295.38451,4323.076817,4287.179382,4274.35887,4283.589639,4267.179383,4264.10246,4233.84605,4309.743484,4302.563997
24,0,4283.589639,4239.999896,4265.640921,4258.974255,4295.897331,4321.538356,4287.692203,4278.974254,4290.769126,4269.743485,4268.205024,4237.948614,4311.281946,4301.025536
25,0,4272.307588,4229.743486,4259.999896,4247.692204,4282.051177,4304.615279,4273.846049,4267.692203,4271.794767,4257.948614,4264.10246,4232.307589,4302.563997,4287.692203
26,0,4267.692203,4215.897333,4263.589639,4239.999896,4276.410152,4298.974254,4275.384511,4272.820408,4282.563998,4255.897332,4261.538357,4232.307589,4300.512715,4283.076818
27,0,4268.205024,4211.794769,4261.538357,4233.84605,4267.179383,4288.717844,4268.205024,4263.076819,4263.076819,4243.58964,4249.743486,4224.615281,4294.87169,4278.974254
28,0,4275.384511,4227.179384,4256.410152,4235.897332,4266.153742,4279.487075,4254.871691,4243.076819,4230.256307,4229.743486,4239.999896,4217.435794,4290.769126,4282.051177
29,0,4263.076819,4213.846051,4237.948614,4218.461435,4254.871691,4267.692203,4241.538358,4232.307589,4227.692204,4208.205025,4227.179384,4200.512718,4276.922972,4270.769126
30,0,4252.820409,4196.922974,4231.794768,4208.205025,4251.794768,4277.435793,4251.281947,4250.256306,4261.025537,4205.128102,4226.666563,4196.410154,4269.743485,4260.512716
31,0,4245.640922,4190.256308,4226.666563,4203.589641,4243.58964,4270.769126,4246.153742,4245.640922,4253.333229,4200.512718,4215.897333,4189.230667,4262.563998,4245.640922
32,0,4270.256306,4221.025538,4250.256306,4232.307589,4262.051178,4267.692203,4249.230665,4242.563999,4230.769127,4221.538358,4222.563999,4210.769128,4271.281947,4261.538357
33,0,4284.102459,4228.717845,4263.076819,4242.051178,4268.205024,4266.153742,4249.743486,4245.640922,4225.640922,4226.153743,4231.281948,4224.102461,4274.87169,4273.333229
34,0,4271.281947,4215.384512,4253.84605,4226.153743,4260.512716,4277.948613,4253.333229,4251.794768,4241.538358,4217.948615,4236.410153,4216.922974,4273.846049,4275.384511
35,0,4240.512717,4193.333231,4229.230666,4198.461436,4239.487076,4267.179383,4239.487076,4237.948614,4228.717845,4201.025538,4224.102461,4194.871692,4264.10246,4252.307588
36,0,4236.922973,4188.205026,4229.230666,4198.974256,4231.281948,4233.84605,4233.33323,4229.743486,4216.410153,4194.871692,4216.410153,4190.769128,4260.512716,4233.33323
37,0,4238.461435,4178.461436,4226.153743,4195.897333,4227.692204,4185.640923,4231.794768,4229.743486,4224.102461,4189.230667,4210.769128,4182.05118,4252.820409,4223.58964
38,0,4234.358871,4175.384513,4220.512717,4189.743487,4230.769127,4158.461437,4236.410153,4228.205025,4222.051179,4190.769128,4214.358871,4175.897334,4250.256306,4229.230666
39,0,4241.538358,4190.256308,4228.717845,4199.999897,4235.384512,4153.846052,4242.051178,4229.230666,4207.692205,4200.512718,4224.102461,4186.153744,4262.563998,4242.563999
40,0,4254.871691,4205.128102,4238.461435,4213.846051,4241.538358,4148.205027,4245.128101,4233.33323,4205.640923,4205.640923,4226.666563,4195.897333,4271.794767,4251.794768
41,0,4250.256306,4198.461436,4232.307589,4208.717846,4240.512717,4134.358873,4239.487076,4235.384512,4217.948615,4198.974256,4222.563999,4190.256308,4259.999896,4247.179383
42,0,4229.230666,4175.384513,4213.33323,4187.179385,4221.025538,4123.589643,4231.794768,4230.769127,4225.640922,4181.025539,4210.256307,4171.281949,4241.025537,4219.999897
43,0,4225.128102,4176.922975,4209.743487,4186.666564,4210.256307,4117.435797,4228.205025,4227.692204,4223.07682,4176.922975,4201.025538,4167.692206,4241.025537,4208.205025
44,0,4223.07682,4174.358872,4205.640923,4184.102462,4205.128102,4098.461438,4208.717846,4207.692205,4193.333231,4163.076821,4190.256308,4162.05118,4237.948614,4204.615282
45,0,4221.538358,4171.281949,4204.102461,4181.538359,4208.205025,4099.487079,4211.281948,4205.640923,4193.333231,4166.153744,4196.410154,4164.102462,4235.384512,4208.717846
46,0,4210.256307,4165.640924,4196.410154,4174.871693,4198.974256,4105.640925,4224.615281,4217.948615,4209.743487,4173.846052,4197.435795,4159.487078,4235.384512,4204.102461
47,0,4213.33323,4173.333231,4202.051179,4182.05118,4201.025538,4106.153746,4226.666563,4218.974256,4207.692205,4181.538359,4203.07682,4164.615283,4244.615281,4209.743487
48,0,4207.692205,4158.461437,4194.871692,4171.281949,4190.256308,4085.640926,4197.948615,4194.358872,4183.076821,4161.53836,4194.358872,4153.333232,4234.871691,4197.948615
49,0,4210.769128,4156.410155,4193.846051,4172.30759,4186.153744,4092.820413,4202.051179,4197.435795,4195.897333,4161.025539,4184.615282,4148.205027,4225.640922,4192.30759
50,0,4197.948615,4146.153745,4180.512718,4160.512719,4171.79477,4089.74349,4203.589641,4197.435795,4199.487077,4153.846052,4170.769129,4139.999899,4214.871692,4179.487077
51,0,4189.230667,4134.871694,4171.79477,4146.666565,4163.589642,4077.948618,4193.333231,4189.230667,4194.358872,4146.153745,4172.30759,4139.487078,4210.256307,4177.948616
52,0,4191.794769,4129.230668,4171.281949,4142.051181,4159.487078,4073.846054,4181.025539,4177.435795,4177.435795,4139.487078,4170.769129,4134.358873,4209.230666,4177.435795
53,0,4213.846051,4157.435796,4193.846051,4173.333231,4179.999898,4095.384515,4201.025538,4187.179385,4175.384513,4154.358873,4179.999898,4149.743488,4223.07682,4191.794769
54,0,4228.717845,4182.05118,4210.769128,4198.461436,4197.948615,4115.384515,4223.58964,4211.281948,4208.205025,4171.281949,4195.384513,4167.692206,4236.410153,4208.205025
55,0,4241.025537,4194.358872,4221.025538,4209.743487,4209.230666,4129.743489,4233.33323,4229.230666,4234.871691,4187.179385,4211.794769,4179.999898,4244.615281,4225.640922
56,0,4236.410153,4181.025539,4207.692205,4197.435795,4198.461436,4118.974258,4213.846051,4209.743487,4193.333231,4175.897334,4203.589641,4165.128103,4238.461435,4219.487076
57,0,4225.640922,4169.743488,4198.461436,4186.153744,4183.076821,4108.205028,4207.179384,4201.538359,4176.410154,4161.025539,4194.871692,4154.871693,4232.820409,4212.307589
58,0,4227.692204,4176.922975,4210.256307,4192.30759,4185.640923,4117.435797,4223.07682,4225.128102,4214.871692,4173.333231,4208.205025,4175.897334,4237.435794,4222.563999
59,0,4226.153743,4178.461436,4213.33323,4195.897333,4192.30759,4121.538361,4224.102461,4223.07682,4213.846051,4177.948616,4214.358871,4185.128103,4239.487076,4220.512717
60,0,4207.179384,4156.922975,4191.794769,4177.948616,4180.512718,4113.846053,4211.794769,4203.589641,4199.487077,4159.487078,4193.333231,4163.076821,4230.256307,4200.512718
61,0,4191.281949,4137.948617,4172.820411,4156.410155,4163.589642,4103.076823,4200.512718,4194.358872,4194.871692,4142.564001,4170.769129,4145.128104,4220.512717,4187.179385
62,0,4211.794769,4165.128103,4195.384513,4174.871693,4186.666564,4106.153746,4203.07682,4197.435795,4183.076821,4162.564001,4183.589641,4166.666565,4227.179384,4204.102461
63,0,4223.58964,4179.999898,4209.230666,4186.153744,4199.487077,4106.153746,4200.512718,4191.794769,4176.410154,4172.30759,4190.256308,4173.846052,4228.205025,4208.717846
64,0,4209.230666,4159.999898,4192.30759,4172.30759,4182.564,4105.128105,4197.948615,4191.794769,4194.358872,4163.076821,4176.922975,4158.974257,4222.051179,4195.897333
65,0,4186.666564,4135.384514,4166.153744,4151.79477,4162.564001,4093.846054,4191.281949,4185.128103,4183.076821,4139.487078,4155.897334,4138.461437,4210.256307,4173.846052
66,0,4215.384512,4173.333231,4199.487077,4185.640923,4197.948615,4122.051181,4222.051179,4211.281948,4201.538359,4167.179385,4177.435795,4162.564001,4227.179384,4197.435795
67,0,4218.974256,4177.948616,4207.179384,4191.794769,4204.615282,4131.794771,4216.922974,4216.922974,4217.948615,4176.922975,4183.589641,4163.589642,4228.205025,4199.999897
68,0,4190.769128,4147.179386,4177.948616,4166.153744,4177.435795,4108.205028,4184.615282,4192.30759,4195.897333,4150.256309,4165.128103,4142.051181,4212.82041,4172.30759
69,0,4169.743488,4124.102463,4158.461437,4140.512719,4152.307591,4087.692208,4170.769129,4176.410154,4172.820411,4118.974258,4146.666565,4125.128104,4200.512718,4147.692206
70,0,4169.743488,4124.102463,4163.589642,4135.897335,4148.717847,4095.384515,4181.538359,4184.102462,4178.974257,4121.02554,4147.179386,4127.692207,4198.461436,4153.846052
71,0,4157.435796,4108.717848,4154.871693,4126.153745,4134.871694,4079.48708,4162.05118,4166.153744,4152.820411,4112.820412,4136.922976,4120.51272,4188.205026,4145.128104
72,0,4165.640924,4118.461438,4163.076821,4138.461437,4145.128104,4075.384516,4156.410155,4155.384514,4128.717848,4115.897335,4141.53836,4130.256309,4194.871692,4147.179386
73,0,4175.384513,4132.820412,4167.692206,4143.589642,4154.871693,4085.640926,4158.461437,4158.974257,4135.384514,4122.051181,4152.307591,4131.794771,4202.564,4155.384514
74,0,4174.871693,4138.974258,4161.025539,4142.564001,4155.384514,4095.384515,4159.487078,4163.076821,4156.410155,4125.640925,4150.256309,4121.02554,4199.487077,4158.974257
75,0,4176.922975,4146.666565,4163.076821,4148.717847,4161.53836,4098.461438,4166.153744,4167.179385,4169.743488,4134.871694,4149.230668,4121.538361,4199.487077,4162.05118
76,0,4177.435795,4147.179386,4168.205026,4151.79477,4165.640924,4098.974259,4172.820411,4174.358872,4175.384513,4141.02554,4154.358873,4130.256309,4204.615282,4167.179385
77,0,4167.179385,4132.307591,4158.974257,4143.076822,4158.461437,4105.128105,4175.897334,4180.512718,4178.461436,4134.358873,4149.743488,4126.153745,4199.487077,4157.948616
78,0,4162.564001,4121.02554,4151.28195,4137.948617,4150.769129,4106.666566,4176.410154,4174.871693,4164.615283,4124.102463,4137.435796,4115.384515,4189.230667,4138.974258
79,0,4170.256308,4127.179386,4158.461437,4143.076822,4151.28195,4090.769131,4165.640924,4167.692206,4146.666565,4122.051181,4137.948617,4119.999899,4188.717846,4138.974258
80,0,4170.769129,4131.28195,4158.461437,4141.53836,4150.256309,4074.871695,4155.384514,4166.153744,4141.53836,4114.358874,4142.051181,4129.230668,4190.256308,4147.179386
81,0,4177.948616,4144.102463,4164.102462,4149.743488,4158.461437,4086.666567,4165.128103,4170.769129,4150.256309,4124.102463,4151.79477,4144.102463,4197.435795,4161.025539
82,0,4165.640924,4125.640925,4149.230668,4129.230668,4137.948617,4077.435798,4146.153745,4153.846052,4134.871694,4115.384515,4139.487078,4129.743489,4190.769128,4148.717847
83,0,4144.615283,4095.384515,4128.205027,4098.974259,4111.794771,4059.48708,4121.02554,4146.153745,4130.256309,4098.461438,4124.102463,4109.230669,4178.974257,4131.28195
84,0,4124.615284,4072.820413,4110.25631,4079.9999,4095.384515,4048.71785,4109.743489,4133.846053,4122.564002,4075.384516,4110.76913,4087.179387,4163.076821,4114.358874
85,0,4146.153745,4098.461438,4132.307591,4111.281951,4116.410156,4067.179388,4129.230668,4138.461437,4126.153745,4088.717849,4124.615284,4098.461438,4174.871693,4132.820412
86,0,4158.461437,4111.794771,4143.076822,4127.179386,4126.666566,4076.410157,4131.28195,4147.179386,4135.897335,4097.435797,4127.179386,4105.640925,4179.487077,4140.512719
87,0,4153.846052,4113.333233,4140.512719,4125.640925,4130.76913,4081.538362,4136.410155,4158.461437,4144.615283,4101.538361,4122.051181,4103.589643,4170.769129,4136.922976
88,0,4152.820411,4119.487079,4139.999899,4128.205027,4141.02554,4085.640926,4146.153745,4161.025539,4138.974258,4105.128105,4125.128104,4104.102464,4172.820411,4133.846053
89,0,4171.79477,4142.564001,4152.307591,4149.743488,4166.666565,4112.307592,4169.230667,4174.871693,4158.974257,4125.640925,4146.666565,4124.615284,4193.846051,4147.692206
90,0,4163.589642,4131.28195,4145.640924,4137.948617,4154.358873,4107.179387,4161.53836,4174.871693,4166.153744,4126.153745,4143.589642,4126.153745,4189.230667,4143.076822
91,0,4156.410155,4121.02554,4146.666565,4127.179386,4135.897335,4098.461438,4156.922975,4171.281949,4158.974257,4126.153745,4139.487078,4127.692207,4185.128103,4143.076822
92,0,4170.256308,4131.28195,4157.948616,4138.974258,4141.53836,4110.25631,4163.589642,4178.461436,4164.615283,4135.897335,4151.28195,4139.999899,4194.871692,4150.256309
93,0,4185.640923,4146.666565,4167.692206,4157.948616,4158.974257,4117.948617,4169.230667,4186.153744,4174.871693,4145.128104,4164.615283,4152.820411,4198.974256,4161.025539
94,0,4186.153744,4151.28195,4168.205026,4160.512719,4162.05118,4107.692207,4163.076821,4182.05118,4161.53836,4140.512719,4162.564001,4150.256309,4195.897333,4161.025539
95,0,4184.615282,4152.820411,4169.743488,4159.487078,4161.53836,4117.948617,4167.179385,4182.05118,4157.948616,4136.922976,4157.948616,4144.102463,4198.974256,4152.307591
96,0,4190.769128,4158.461437,4176.410154,4167.179385,4166.666565,4138.974258,4181.025539,4197.435795,4187.179385,4153.846052,4163.076821,4144.615283,4202.564,4156.410155
97,0,4183.076821,4148.205027,4166.666565,4157.435796,4159.999898,4125.640925,4171.281949,4190.256308,4182.05118,4152.307591,4154.871693,4133.333232,4195.897333,4159.999898
98,0,4171.79477,4137.948617,4156.922975,4145.128104,4153.333232,4116.410156,4162.564001,4180.512718,4163.076821,4139.999899,4146.666565,4128.205027,4192.30759,4155.384514
99,0,4168.717847,4132.820412,4156.410155,4139.487078,4147.179386,4123.589643,4163.076821,4184.102462,4174.871693,4136.922976,4148.717847,4133.846053,4189.230667,4150.256309
100,0,4184.615282,4144.615283,4167.692206,4152.307591,4153.333232,4125.640925,4163.589642,4185.640923,4182.564,4150.256309,4161.53836,4150.256309,4192.30759,4167.179385
101,0,4186.666564,4145.128104,4165.128103,4154.871693,4154.358873,4115.384515,4154.871693,4168.205026,4148.717847,4141.53836,4157.435796,4148.205027,4190.256308,4169.230667
102,0,4199.487077,4166.153744,4186.666564,4177.435795,4181.025539,4145.128104,4181.538359,4192.30759,4178.974257,4166.153744,4175.384513,4167.179385,4204.615282,4182.05118
103,0,4198.974256,4166.153744,4186.666564,4171.79477,4178.974257,4152.820411,4181.538359,4203.07682,4210.256307,4174.871693,4182.564,4168.717847,4208.717846,4177.948616
104,0,4187.692205,4150.256309,4166.153744,4148.205027,4157.948616,4131.794771,4159.999898,4184.102462,4184.102462,4153.333232,4167.692206,4151.79477,4199.999897,4165.128103
105,0,4184.615282,4144.102463,4159.487078,4141.02554,4153.846052,4128.717848,4161.53836,4176.922975,4167.179385,4147.692206,4162.05118,4144.615283,4194.871692,4166.666565
106,0,4223.58964,4188.205026,4199.487077,4185.640923,4192.82041,4166.153744,4204.102461,4207.692205,4202.051179,4193.333231,4195.384513,4179.999898,4219.999897,4211.794769
107,0,4232.820409,4198.461436,4206.666564,4196.922974,4195.384513,4168.205026,4203.589641,4211.281948,4201.025538,4193.846051,4197.948615,4182.564,4223.58964,4216.922974
108,0,4218.974256,4183.589641,4189.743487,4181.025539,4179.487077,4148.205027,4181.025539,4194.358872,4177.435795,4162.05118,4177.435795,4158.974257,4211.794769,4196.922974
109,0,4217.948615,4179.487077,4183.589641,4176.410154,4175.897334,4136.410155,4168.205026,4180.512718,4167.179385,4149.743488,4166.666565,4144.102463,4206.666564,4195.384513
110,0,4213.33323,4172.30759,4176.410154,4170.256308,4167.179385,4132.820412,4162.564001,4176.922975,4169.743488,4151.79477,4162.05118,4139.487078,4205.128102,4196.410154
111,0,4185.640923,4142.564001,4147.692206,4135.384514,4133.846053,4111.281951,4136.410155,4160.512719,4151.79477,4128.717848,4147.692206,4122.051181,4191.794769,4175.384513
112,0,4179.487077,4133.846053,4132.307591,4115.897335,4118.974258,4095.384515,4123.076822,4150.256309,4142.564001,4109.230669,4142.564001,4111.794771,4185.640923,4171.79477
113,0,4178.461436,4120.51272,4124.102463,4102.564002,4111.794771,4085.640926,4115.384515,4148.205027,4147.692206,4099.487079,4137.948617,4102.564002,4178.974257,4171.79477
114,0,4169.230667,4101.538361,4112.307592,4087.692208,4097.948618,4079.48708,4104.102464,4133.333232,4127.692207,4085.128105,4128.717848,4092.307592,4169.743488,4165.128103
115,0,4194.358872,4131.28195,4127.179386,4111.794771,4111.794771,4092.820413,4115.384515,4133.846053,4108.717848,4097.948618,4136.410155,4107.692207,4182.564,4189.230667
116,0,4208.205025,4139.487078,4134.871694,4119.487079,4112.307592,4089.230669,4115.384515,4138.461437,4114.358874,4101.025541,4129.230668,4109.230669,4182.564,4200.512718
117,0,4183.076821,4094.871695,4117.435797,4084.615285,4080.512721,4063.589644,4093.333233,4122.564002,4106.666566,4071.794772,4106.153746,4087.179387,4161.53836,4179.487077
118,0,4162.05118,4073.846054,4101.025541,4065.128106,4055.897337,4044.615286,4077.948618,4093.846054,4060.512721,4034.871696,4088.205028,4069.23067,4147.179386,4166.153744
119,0,4181.538359,4111.794771,4121.538361,4094.358874,4079.9999,4058.461439,4095.384515,4107.692207,4070.769131,4053.333234,4102.051182,4089.230669,4162.05118,4190.769128
120,0,4195.384513,4124.102463,4136.410155,4107.179387,4102.051182,4069.74349,4106.153746,4128.205027,4118.461438,4083.076823,4117.948617,4104.102464,4175.384513,4205.128102
121,0,4215.897333,4139.487078,4155.384514,4128.717848,4125.640925,4093.846054,4125.128104,4141.53836,4139.999899,4111.794771,4141.53836,4123.589643,4194.871692,4229.743486
122,0,4220.512717,4152.820411,4156.410155,4137.948617,4128.205027,4099.9999,4123.076822,4134.871694,4114.358874,4108.717848,4145.128104,4126.153745,4197.435795,4233.84605
123,0,4221.025538,4163.076821,4157.948616,4140.512719,4131.794771,4100.51272,4114.358874,4139.999899,4124.102463,4108.717848,4142.564001,4129.743489,4193.846051,4227.179384
124,0,4215.384512,4154.871693,4153.333232,4134.871694,4131.28195,4098.974259,4109.743489,4147.692206,4149.230668,4116.922976,4141.02554,4129.743489,4194.871692,4225.128102
125,0,4198.974256,4138.974258,4138.974258,4121.538361,4119.487079,4094.358874,4108.717848,4141.53836,4135.897335,4117.435797,4135.897335,4121.538361,4190.769128,4217.948615
126,0,4152.307591,4091.281951,4098.974259,4072.820413,4073.333234,4061.025542,4079.48708,4109.743489,4092.307592,4073.846054,4096.922977,4081.538362,4152.820411,4154.358873
127,0,4139.487078,4081.025541,4097.435797,4067.692208,4068.717849,4059.999901,4082.564003,4109.230669,4091.281951,4063.076824,4088.717849,4072.307593,4142.051181,4128.205027
128,0,4144.102463,4092.820413,4109.743489,4081.538362,4085.128105,4069.74349,4094.358874,4123.076822,4110.76913,4078.974259,4105.640925,4081.538362,4155.897334,4143.076822
0,0,4127.692207,4082.051182,4096.922977,4066.666567,4080.512721,4063.076824,4092.307592,4118.974258,4107.692207,4067.179388,4097.435797,4066.666567,4147.179386,4126.153745
1,0,4131.794771,4098.461438,4105.640925,4085.128105,4097.948618,4079.9999,4108.205028,4123.589643,4102.051182,4074.871695,4099.487079,4069.74349,4144.102463,4115.897335
2,0,4170.256308,4154.358873,4148.205027,4145.128104,4145.128104,4121.538361,4141.02554,4150.769129,4122.051181,4126.666566,4137.435796,4112.307592,4174.871693,4153.333232
3,0,4159.999898,4144.102463,4136.922976,4136.410155,4135.897335,4113.846053,4127.692207,4150.769129,4134.871694,4123.076822,4131.794771,4103.076823,4171.79477,4143.076822
4,0,4116.410156,4094.358874,4096.922977,4087.692208,4100.51272,4081.538362,4097.435797,4122.564002,4110.76913,4073.846054,4091.794772,4058.461439,4136.922976,4093.333233
5,0,4122.564002,4109.743489,4113.333233,4107.692207,4119.999899,4092.307592,4105.640925,4125.128104,4102.564002,4081.025541,4097.948618,4073.846054,4142.051181,4101.025541
6,0,4132.307591,4122.564002,4123.076822,4122.051181,4127.692207,4095.897336,4108.717848,4136.922976,4120.51272,4092.820413,4101.538361,4088.205028,4152.307591,4110.76913
7,0,4130.256309,4116.922976,4113.846053,4110.25631,4124.615284,4100.51272,4117.948617,4145.640924,4139.487078,4097.948618,4094.871695,4087.179387,4153.333232,4110.25631
8,0,4125.640925,4113.846053,4111.281951,4105.640925,4134.358873,4116.922976,4132.307591,4146.666565,4127.179386,4105.128105,4103.589643,4089.74349,4158.974257,4114.358874
9,0,4123.076822,4113.333233,4113.333233,4110.76913,4141.53836,4125.640925,4133.846053,4149.230668,4115.897335,4111.281951,4115.384515,4095.897336,4164.615283,4116.410156
10,0,4104.102464,4090.769131,4096.410156,4090.769131,4109.743489,4097.435797,4108.205028,4132.820412,4095.897336,4086.666567,4091.794772,4072.307593,4144.615283,4089.230669
11,0,4106.666566,4088.205028,4107.179387,4087.179387,4098.461438,4085.640926,4104.615284,4130.256309,4085.640926,4076.410157,4083.076823,4068.717849,4137.948617,4086.666567
12,0,4101.025541,4077.948618,4107.692207,4081.025541,4101.025541,4077.948618,4094.871695,4119.999899,4063.589644,4059.999901,4081.538362,4064.102465,4134.871694,4085.128105
13,0,4087.179387,4070.769131,4092.307592,4077.435798,4100.51272,4076.410157,4085.640926,4107.692207,4048.205029,4051.281952,4073.333234,4053.333234,4128.205027,4071.794772
14,0,4071.281952,4063.589644,4078.974259,4069.23067,4081.538362,4070.769131,4084.102464,4101.025541,4045.128106,4045.128106,4062.564003,4038.46144,4114.358874,4050.256311
15,0,4085.640926,4084.615285,4101.025541,4089.74349,4097.948618,4092.307592,4118.461438,4134.358873,4088.717849,4072.820413,4084.615285,4055.897337,4124.102463,4061.538362
16,0,4095.384515,4095.897336,4109.743489,4106.153746,4115.384515,4102.564002,4130.256309,4150.769129,4109.230669,4090.769131,4096.922977,4068.205029,4135.384514,4068.205029
17,0,4095.384515,4096.922977,4104.615284,4108.205028,4111.281951,4094.871695,4113.333233,4131.28195,4081.538362,4082.564003,4090.769131,4062.051183,4135.897335,4062.051183
18,0,4086.666567,4088.717849,4094.358874,4093.846054,4097.948618,4087.179387,4103.076823,4125.128104,4078.461439,4072.307593,4084.102464,4054.358875,4127.179386,4058.97426
19,0,4092.307592,4092.307592,4103.076823,4098.974259,4104.615284,4097.948618,4120.51272,4138.974258,4097.435797,4080.512721,4092.820413,4072.307593,4129.743489,4078.974259
20,0,4097.948618,4090.25631,4113.333233,4103.589643,4100.51272,4098.974259,4115.897335,4127.692207,4072.820413,4073.333234,4093.846054,4076.410157,4132.307591,4079.9999
21,0,4079.9999,4077.948618,4087.692208,4081.538362,4089.74349,4083.589644,4092.820413,4106.153746,4048.71785,4053.333234,4081.538362,4053.846055,4122.564002,4055.897337
22,0,4072.307593,4080.512721,4076.410157,4076.922977,4090.25631,4084.102464,4099.487079,4117.435797,4074.871695,4064.102465,4087.692208,4054.871696,4121.538361,4059.999901
23,0,4090.25631,4078.461439,4117.435797,4089.230669,4076.922977,4097.435797,4122.564002,4135.897335,4088.205028,4084.615285,4105.128105,4074.871695,4130.76913,4080.512721
24,0,4104.102464,4081.025541,4132.307591,4092.820413,4086.666567,4108.205028,4127.692207,4148.205027,4093.846054,4102.564002,4114.358874,4085.128105,4140.512719,4086.153746
25,0,4079.9999,4081.538362,4087.179387,4082.564003,4106.153746,4097.435797,4110.25631,4138.461437,4095.897336,4095.384515,4102.051182,4071.794772,4134.358873,4071.281952
26,0,4075.897336,4087.692208,4086.153746,4097.435797,4112.307592,4098.461438,4116.410156,4132.820412,4088.717849,4091.281951,4104.615284,4074.358875,4132.820412,4073.846054
27,0,4076.410157,4072.820413,4092.307592,4089.74349,4103.076823,4095.897336,4115.384515,4129.743489,4079.48708,4076.922977,4101.025541,4064.615285,4125.640925,4058.97426
28,0,4069.23067,4069.23067,4078.461439,4077.948618,4115.384515,4092.820413,4107.692207,4131.28195,4090.769131,4076.410157,4093.846054,4059.48708,4121.538361,4048.71785
29,0,4087.179387,4098.974259,4099.487079,4106.666566,4140.512719,4112.820412,4125.640925,4138.461437,4096.410156,4102.051182,4107.692207,4082.564003,4136.410155,4075.384516
30,0,4157.435796,4176.922975,4174.871693,4189.230667,4210.256307,4179.999898,4195.384513,4192.82041,4143.589642,4178.461436,4167.179385,4147.692206,4185.128103,4149.230668
31,0,4201.025538,4223.07682,4214.871692,4236.922973,4254.871691,4215.897333,4232.307589,4237.435794,4196.922974,4231.281948,4205.128102,4189.230667,4217.435794,4192.30759
32,0,4224.102461,4245.128101,4246.153742,4258.974255,4260.512716,4235.897332,4250.256306,4255.897332,4225.640922,4256.922973,4219.999897,4214.871692,4231.281948,4213.846051
33,0,4259.999896,4285.1281,4281.025536,4295.38451,4297.435792,4276.922972,4290.769126,4288.717844,4251.794768,4294.358869,4245.640922,4249.230665,4248.717845,4245.640922
34,0,4315.38451,4344.615278,4323.076817,4356.41015,4368.205021,4326.666561,4348.205022,4349.743483,4310.256305,4359.999893,4295.897331,4304.615279,4289.230664,4302.563997
35,0,4322.051176,4337.948612,4328.717843,4355.897329,4364.102457,4321.025535,4345.128099,4350.769124,4313.333228,4364.615278,4302.051177,4310.256305,4297.948613,4313.333228
36,0,4301.025536,4309.743484,4311.281946,4327.179381,4334.871689,4303.589638,4317.435792,4316.410151,4270.256306,4333.846048,4280.512716,4289.230664,4281.025536,4292.820408
37,0,4297.948613,4312.820407,4306.666561,4326.15374,4336.41015,4305.64092,4313.846048,4311.281946,4263.589639,4330.769125,4276.922972,4290.256305,4279.999895,4288.717844
38,0,4315.89733,4325.128099,4328.205022,4341.538355,4346.66656,4319.999894,4335.89733,4329.743484,4293.333228,4347.692201,4290.769126,4309.230664,4295.38451,4303.589638
39,0,4329.230663,4325.64092,4351.794765,4348.717842,4351.281945,4328.205022,4346.66656,4345.128099,4315.89733,4359.487073,4304.102459,4324.102458,4304.102459,4316.410151
40,0,4322.563997,4330.769125,4344.102458,4347.179381,4365.640919,4323.076817,4335.89733,4349.743483,4311.281946,4360.512714,4304.615279,4326.666561,4301.538356,4317.948612
41,0,4318.974253,4344.102458,4328.717843,4350.256304,4387.17938,4323.076817,4332.307586,4346.15374,4297.948613,4365.128098,4306.666561,4327.692202,4303.076818,4315.89733
42,0,4327.179381,4354.871688,4336.41015,4359.487073,4394.358867,4330.256304,4342.563996,4341.538355,4295.38451,4370.256303,4314.358869,4330.769125,4307.692202,4321.025535
43,0,4340.512714,4368.205021,4360.512714,4377.43579,4398.974251,4338.974253,4358.461432,4357.948611,4317.435792,4384.615277,4326.15374,4346.66656,4316.410151,4344.615278
44,0,4346.15374,4366.66656,4367.692201,4381.538354,4407.6922,4344.615278,4368.717842,4370.769124,4328.717843,4391.794764,4330.256304,4359.487073,4322.563997,4357.948611
45,0,4377.948611,4401.025533,4389.743482,4411.794764,4444.102455,4371.794765,4398.461431,4395.384508,4352.307586,4424.615276,4356.92297,4391.794764,4346.15374,4384.615277
46,0,4396.410149,4433.333225,4403.589636,4436.410148,4448.205019,4375.897329,4401.538354,4403.076815,4364.615278,4431.794763,4368.205021,4404.615277,4350.256304,4399.999892
47,0,4406.153738,4446.666558,4411.794764,4445.128096,4442.563994,4374.871688,4399.999892,4399.487072,4364.102457,4419.999892,4354.871688,4396.922969,4337.948612,4397.43579
48,0,4416.410148,4453.846045,4417.94861,4445.128096,4455.384506,4377.948611,4402.051174,4392.820405,4355.384509,4411.281943,4340.512714,4385.128098,4331.794766,4377.948611
49,0,4433.846045,4490.2563,4436.922968,4471.794762,4484.615275,4392.307585,4409.743482,4402.563995,4362.563996,4423.076815,4353.846047,4397.94861,4341.025535,4384.102457
50,0,4434.871686,4504.615274,4443.076814,4487.692198,4480.512711,4397.94861,4410.769123,4408.20502,4370.769124,4426.666558,4362.051175,4406.666559,4343.076817,4392.820405
51,0,4450.769122,4516.922966,4458.97425,4503.589633,4488.717839,4416.410148,4431.281943,4422.051174,4394.358867,4452.820404,4375.384508,4422.563994,4354.871688,4405.128097
52,0,4453.846045,4519.487069,4455.384506,4501.025531,4497.435787,4419.999892,4431.794763,4421.538353,4396.410149,4462.563993,4376.410149,4415.897328,4357.948611,4394.358867
53,0,4459.999891,4531.794761,4463.076814,4515.897325,4512.307582,4437.435789,4446.153737,4442.051173,4422.051174,4476.922967,4386.153739,4422.051174,4365.128098,4401.538354
54,0,4468.717839,4540.512709,4479.99989,4533.846043,4525.128094,4452.820404,4464.615275,4467.692198,4457.435788,4501.538351,4404.102456,4445.128096,4377.43579,4424.615276
55,0,4453.846045,4519.487069,4464.615275,4515.384505,4512.307582,4435.897327,4448.205019,4449.743481,4434.358866,4492.820403,4397.43579,4439.999891,4370.256303,4413.333225
56,0,4432.307584,4494.358864,4440.512712,4487.179377,4486.666557,4414.871687,4425.640917,4426.153738,4392.307585,4468.717839,4383.589636,4418.46143,4358.461432,4389.230662
57,0,4433.333225,4501.025531,4445.640917,4491.281941,4486.153736,4419.487071,4434.871686,4432.820404,4393.846046,4468.205019,4389.743482,4422.563994,4363.589637,4396.922969
58,0,4431.281943,4496.410146,4447.692199,4491.794762,4488.717839,4416.922969,4428.71784,4425.128097,4393.333226,4461.538352,4387.6922,4420.512712,4358.461432,4399.487072
59,0,4412.820405,4466.153737,4423.076815,4466.666557,4467.692198,4396.922969,4401.538354,4397.43579,4366.153739,4429.230661,4365.128098,4391.281944,4341.025535,4372.307585
60,0,4391.794764,4442.563994,4402.051174,4443.589635,4444.615276,4375.897329,4385.128098,4387.6922,4354.358868,4407.179379,4349.743483,4369.743483,4331.794766,4345.640919
61,0,4364.615278,4417.94861,4384.615277,4417.94861,4423.589635,4351.794765,4365.640919,4369.230662,4336.41015,4383.076816,4330.256304,4345.640919,4315.38451,4319.487074
62,0,4358.974252,4413.333225,4384.102457,4413.333225,4423.589635,4356.92297,4363.589637,4358.461432,4326.666561,4373.846047,4323.076817,4342.563996,4309.743484,4320.512715
63,0,4356.92297,4404.102456,4377.948611,4406.666559,4420.512712,4356.41015,4365.640919,4361.025534,4327.692202,4365.128098,4319.487074,4345.128099,4307.692202,4323.589638
64,0,4347.179381,4388.717841,4365.640919,4392.307585,4410.256302,4339.999894,4359.999893,4364.615278,4336.922971,4359.487073,4313.333228,4336.922971,4302.563997,4309.743484
65,0,4317.948612,4357.435791,4337.435791,4356.92297,4378.974252,4314.871689,4332.307586,4339.487073,4312.820407,4332.307586,4291.281946,4303.076818,4281.538357,4272.820408
66,0,4304.102459,4343.589637,4325.128099,4342.051176,4363.589637,4308.205023,4320.512715,4322.051176,4281.025536,4315.89733,4286.153741,4291.794767,4273.846049,4262.051178
67,0,4289.743485,4324.102458,4307.692202,4329.230663,4348.205022,4285.1281,4302.051177,4308.205023,4256.410152,4296.922972,4274.35887,4275.384511,4262.563998,4247.179383
68,0,4283.076818,4317.948612,4299.999895,4324.615279,4336.41015,4266.666562,4288.717844,4305.64092,4265.128101,4290.769126,4266.666562,4263.076819,4256.922973,4233.84605
69,0,4254.871691,4285.1281,4269.743485,4286.153741,4290.256305,4231.281948,4248.717845,4273.333229,4241.025537,4250.256306,4243.58964,4230.769127,4241.025537,4205.128102
70,0,4233.84605,4256.410152,4244.615281,4254.35887,4266.153742,4212.307589,4225.640922,4238.974255,4197.948615,4216.410153,4224.615281,4203.589641,4223.07682,4188.717846
71,0,4224.615281,4245.640922,4236.410153,4246.153742,4269.743485,4212.307589,4219.999897,4229.230666,4183.589641,4208.717846,4216.410153,4194.358872,4209.743487,4177.435795
72,0,4225.640922,4250.256306,4241.025537,4248.205024,4270.256306,4213.846051,4222.563999,4236.410153,4197.948615,4211.794769,4221.538358,4203.589641,4215.897333,4181.025539
73,0,4243.076819,4261.538357,4253.84605,4255.897332,4270.256306,4217.948615,4234.358871,4251.281947,4219.487076,4226.153743,4240.512717,4219.999897,4234.871691,4206.666564
74,0,4267.179383,4278.461434,4275.384511,4277.948613,4290.769126,4237.435794,4256.922973,4271.794767,4237.948614,4255.897332,4265.128101,4242.563999,4253.333229,4239.999896
75,0,4260.512716,4266.666562,4271.281947,4273.333229,4290.256305,4231.281948,4246.666563,4263.589639,4225.128102,4252.820409,4264.10246,4236.410153,4252.307588,4237.435794
76,0,4228.205025,4236.922973,4243.58964,4242.563999,4259.999896,4205.640923,4220.512717,4235.897332,4193.333231,4218.974256,4243.58964,4207.692205,4237.435794,4210.769128
77,0,4214.358871,4230.769127,4233.33323,4231.281948,4249.230665,4203.589641,4219.999897,4237.948614,4195.384513,4212.307589,4238.974255,4204.102461,4229.230666,4205.128102
78,0,4214.871692,4231.794768,4234.358871,4231.281948,4253.84605,4209.743487,4222.051179,4246.666563,4210.769128,4217.435794,4238.461435,4206.153743,4228.717845,4208.717846
79,0,4224.102461,4236.410153,4236.922973,4239.999896,4262.051178,4212.82041,4220.512717,4244.10246,4212.82041,4223.58964,4242.051178,4200.512718,4237.435794,4213.33323
80,0,4218.461435,4231.794768,4227.179384,4234.358871,4255.897332,4208.205025,4212.82041,4229.230666,4195.897333,4214.871692,4243.58964,4187.692205,4232.307589,4204.615282
81,0,4221.025538,4235.384512,4230.256307,4234.358871,4254.871691,4211.281948,4212.82041,4227.692204,4197.435795,4211.281948,4250.256306,4195.384513,4231.281948,4212.82041
82,0,4226.666563,4236.410153,4234.358871,4234.358871,4248.717845,4207.179384,4207.692205,4224.615281,4201.538359,4206.666564,4248.205024,4201.538359,4234.871691,4218.974256
