title:A                                                                               , recorded:02.07.20 12.49.15, sampling:128, subject:S                                                                               , labels:COUNTER INTERPOLATED AF3 F7 F3 FC5 T7 P7 O1 O2 P8 T8 FC6 F4 F8 AF4,, units:emotiv,,,,,,,,,
48,0,4003.076825,3981.538364,3932.820417,4048.205029,4119.487079,3857.435803,3921.538366,3829.743496,3935.89734,4074.358875,3842.051188,3921.538366,3643.076834,3866.153752
49,0,4033.333235,4012.820415,3972.307595,4058.97426,4141.53836,3890.769136,3947.692211,3859.487085,3968.205031,4084.102464,3866.666572,3948.717852,3688.205038,3889.743495
50,0,4064.615285,4036.922978,4006.153748,4076.410157,4156.922975,3925.64093,3959.999903,3887.692213,3998.461441,4106.153746,3904.102469,3985.128108,3730.256319,3926.666571
51,0,4061.025542,4029.230671,4001.538364,4070.256311,4138.974258,3923.076827,3942.564006,3887.179392,3994.871697,4093.333233,3909.743494,3979.487082,3743.589652,3929.743494
52,0,4062.051183,4026.666568,4004.615287,4065.640926,4137.435796,3920.512725,3939.487083,3895.38452,4001.538364,4087.179387,3888.717854,3982.051185,3743.076832,3930.769135
53,0,4014.358876,3984.102467,3956.41016,4015.384517,4089.74349,3870.256316,3889.743495,3844.615291,3945.640929,4038.97426,3824.102471,3937.948622,3691.794782,3875.897341
54,0,4010.769133,4001.025543,3941.025545,4019.487081,4086.153746,3863.589649,3887.179392,3827.692214,3926.666571,4046.666568,3832.307599,3926.15375,3694.358884,3871.281957
55,0,4043.589645,4044.615286,3963.076826,4053.846055,4123.076822,3889.743495,3924.615289,3851.794778,3957.435801,4085.128105,3867.179393,3950.256314,3723.076832,3904.615289
56,0,4055.384516,4075.384516,3977.4358,4088.205028,4159.487078,3904.102469,3962.564006,3874.35888,3988.205031,4132.820412,3865.128111,3977.948621,3705.640935,3917.948622
57,0,4015.897338,4062.564003,3949.743493,4081.025541,4142.051181,3883.076828,3958.974262,3854.35888,3963.589647,4128.205027,3831.281958,3957.948621,3652.820423,3888.205033
58,0,4028.71785,4104.102464,3964.615288,4117.435797,4178.974257,3912.820417,3993.846056,3872.820418,3979.999903,4159.999898,3856.922983,3973.333236,3663.076834,3911.281956
59,0,4051.281952,4131.794771,3985.640928,4138.974258,4209.230666,3940.512724,4017.435799,3895.897341,4011.281953,4193.333231,3879.999905,3995.384518,3670.769141,3928.717853
60,0,4104.615284,4187.179385,4038.46144,4198.974256,4258.461434,3991.281954,4069.23067,3943.076827,4073.333234,4254.871691,3921.025545,4054.358875,3706.153756,3981.025544
61,0,4137.435796,4233.33323,4071.794772,4253.333229,4295.38451,4026.153748,4104.615284,3972.820416,4102.564002,4298.974254,3947.692211,4102.564002,3745.128114,4022.564004
62,0,4176.410154,4259.999896,4104.615284,4281.025536,4324.102458,4057.948619,4137.948617,4004.102466,4127.179386,4325.64092,3996.922979,4139.487078,3775.897344,4072.307593
63,0,4172.820411,4235.384512,4089.74349,4255.384511,4310.256305,4043.076824,4126.153745,3995.897338,4122.051181,4307.179382,4011.281953,4113.333233,3769.230677,4087.692208
64,0,4161.025539,4222.563999,4086.666567,4247.179383,4297.948613,4043.589645,4113.333233,3994.871697,4117.948617,4288.717844,4010.769133,4097.435797,3766.153754,4091.281951
65,0,4133.333232,4175.897334,4059.999901,4205.640923,4248.205024,4019.999902,4070.256311,3971.281954,4079.48708,4230.256307,3976.92298,4062.564003,3746.153755,4038.97426
66,0,4135.384514,4129.743489,4027.179389,4153.846052,4211.794769,3997.94862,4045.128106,3946.15375,4053.333234,4171.281949,3950.256314,4017.435799,3737.948627,3995.384518
67,0,4155.384514,4104.615284,4013.846056,4124.102463,4198.461436,3999.487082,4027.179389,3950.256314,4060.512721,4154.358873,3955.897339,4000.512723,3739.487088,3999.999902
68,0,4136.410155,4070.256311,3998.461441,4087.179387,4163.589642,3977.4358,3989.743492,3934.358878,4029.743491,4131.794771,3936.922981,3975.897339,3729.230678,3968.717852
69,0,4130.256309,4063.589644,4005.640928,4074.871695,4153.846052,3971.281954,3990.256313,3937.948622,4015.897338,4113.333233,3933.333237,3973.846057,3774.871703,3936.41016
70,0,4124.102463,4062.051183,3996.922979,4067.692208,4158.461437,3969.230672,3994.871697,3937.435801,4012.820415,4086.666567,3928.205032,3965.640929,3833.33324,3914.358879
71,0,4135.384514,4074.358875,4002.051184,4078.461439,4176.410154,3982.564005,3998.974261,3955.384519,4032.307594,4098.974259,3943.076827,3982.564005,3850.769137,3932.820417
72,0,4138.461437,4089.230669,4004.102466,4092.307592,4189.230667,3983.589646,4004.102466,3960.512724,4031.281953,4121.02554,3959.487083,3999.999902,3844.10247,3947.692211
73,0,4174.871693,4150.256309,4026.153748,4152.820411,4240.512717,4026.153748,4054.358875,3984.102467,4064.102465,4182.564,3998.974261,4054.871696,3882.051187,4002.564005
74,0,4193.333231,4180.512718,4037.948619,4184.615282,4269.230665,4063.589644,4081.538362,4002.051184,4102.051182,4212.307589,4013.846056,4094.358874,3888.205033,4051.281952
75,0,4216.410153,4222.051179,4067.692208,4232.820409,4321.025535,4095.384515,4125.128104,4034.358876,4153.333232,4261.538357,4029.230671,4139.487078,3886.666572,4097.435797
76,0,4215.384512,4231.281948,4066.153747,4250.256306,4337.435791,4088.717849,4141.02554,4027.179389,4150.769129,4283.076818,4019.487081,4143.589642,3874.35888,4098.974259
77,0,4263.589639,4278.974254,4101.538361,4299.999895,4381.025534,4122.564002,4177.435795,4048.205029,4174.871693,4329.230663,4051.281952,4181.025539,3895.897341,4145.640924
78,0,4322.051176,4338.974253,4150.256309,4356.41015,4435.897327,4171.79477,4220.512717,4088.717849,4216.410153,4380.512713,4093.846054,4232.307589,3924.102468,4198.974256
79,0,4382.051175,4403.589636,4209.743487,4419.999892,4499.487069,4231.281948,4284.102459,4148.205027,4276.410152,4450.256301,4144.102463,4299.487074,3964.615288,4261.025537
80,0,4388.717841,4412.820405,4217.435794,4435.897327,4507.692197,4229.743486,4290.769126,4162.05118,4296.410151,4469.23066,4153.846052,4318.461433,3975.897339,4282.051177
81,0,4417.435789,4424.615276,4249.743486,4461.025532,4528.717838,4262.051178,4317.435792,4196.922974,4337.948612,4490.2563,4199.487077,4353.846047,4005.640928,4309.230664
82,0,4436.410148,4402.563995,4266.666562,4451.794763,4526.666556,4295.38451,4327.179381,4216.410153,4355.897329,4488.205018,4228.717845,4371.794765,4030.769132,4313.846048
83,0,4432.307584,4383.076816,4267.692203,4438.97425,4515.384505,4300.512715,4315.38451,4223.58964,4361.538355,4475.384506,4231.794768,4379.487072,4050.256311,4309.230664
84,0,4382.563995,4338.461432,4241.538358,4396.922969,4470.769121,4259.487075,4267.179383,4209.743487,4339.487073,4424.102456,4214.358871,4346.66656,4043.076824,4260.512716
85,0,4356.41015,4296.922972,4230.256307,4358.974252,4435.897327,4242.051178,4242.051178,4195.384513,4294.358869,4373.333226,4212.82041,4305.64092,4044.102465,4218.461435
86,0,4373.846047,4287.692203,4247.179383,4355.897329,4433.846045,4265.128101,4246.666563,4220.512717,4292.307587,4371.794765,4245.128101,4311.281946,4081.025541,4229.743486
87,0,4389.230662,4286.666562,4252.820409,4363.589637,4440.512712,4273.846049,4244.10246,4241.538358,4319.999894,4383.076816,4265.128101,4319.999894,4101.538361,4239.487076
88,0,4410.256302,4296.922972,4271.794767,4378.974252,4452.307583,4279.487075,4248.205024,4253.333229,4336.922971,4397.43579,4276.410152,4321.538356,4093.333233,4256.922973
89,0,4421.538353,4293.846049,4286.153741,4384.102457,4451.794763,4276.922972,4249.743486,4252.820409,4323.589638,4393.846046,4285.1281,4327.179381,4085.640926,4257.948614
90,0,4448.71784,4321.538356,4310.769125,4418.46143,4489.230659,4308.717843,4282.051177,4285.640921,4362.051175,4423.589635,4324.102458,4367.692201,4106.153746,4273.333229
91,0,4450.769122,4347.179381,4314.871689,4436.410148,4513.846043,4324.102458,4303.589638,4298.461433,4390.769123,4446.153737,4322.563997,4373.846047,4104.102464,4285.640921
92,0,4467.179378,4394.358867,4333.333227,4477.435788,4540.512709,4335.384509,4332.820407,4300.512715,4406.153738,4488.205018,4318.974253,4404.102456,4111.281951,4337.435791
93,0,4449.23066,4399.487072,4324.615279,4477.948608,4528.717838,4321.025535,4327.692202,4270.256306,4385.128098,4479.99989,4312.820407,4411.794764,4094.871695,4349.743483
94,0,4458.461429,4446.153737,4337.435791,4507.179377,4562.563991,4344.102458,4358.461432,4275.897331,4409.230661,4515.897325,4323.076817,4433.846045,4094.871695,4378.974252
95,0,4482.051172,4501.025531,4359.487073,4544.102453,4599.487067,4372.820406,4393.846046,4293.846049,4440.512712,4566.666555,4312.820407,4455.384506,4104.102464,4407.179379
96,0,4509.743479,4545.640914,4388.205021,4585.128093,4636.410143,4403.589636,4428.71784,4318.461433,4471.281942,4606.666554,4332.307586,4497.435787,4122.051181,4447.692199
97,0,4456.410147,4519.999889,4348.717842,4558.974247,4607.692195,4366.153739,4396.410149,4282.563998,4435.897327,4577.435786,4309.743484,4472.307583,4085.640926,4421.025533
98,0,4436.922968,4523.589633,4344.102458,4549.743478,4593.333221,4358.974252,4396.410149,4279.487075,4428.71784,4577.948606,4301.538356,4458.461429,4085.128105,4402.563995
99,0,4442.051173,4531.794761,4350.256304,4550.256299,4593.846042,4367.17938,4406.153738,4285.1281,4430.256302,4578.974247,4307.179382,4457.435788,4111.794771,4406.666559
100,0,4436.410148,4532.820402,4362.051175,4558.974247,4605.128093,4385.640918,4420.512712,4297.435792,4438.97425,4568.717837,4326.15374,4467.692198,4130.76913,4417.435789
101,0,4375.897329,4462.051173,4318.461433,4495.384505,4541.02553,4340.512714,4362.563996,4264.10246,4405.128097,4509.230659,4290.256305,4425.128097,4104.102464,4351.281945
102,0,4316.922971,4383.076816,4259.999896,4409.743482,4454.871686,4270.256306,4284.61528,4214.871692,4341.025535,4438.97425,4249.743486,4361.025534,4083.076823,4291.281946
103,0,4293.333228,4335.89733,4235.897332,4361.538355,4408.717841,4240.512717,4243.58964,4198.974256,4308.205023,4392.307585,4250.256306,4318.461433,4079.9999,4279.999895
104,0,4315.38451,4325.64092,4257.948614,4355.384509,4404.615277,4261.025537,4247.179383,4225.128102,4330.769125,4374.358867,4270.769126,4329.743484,4092.307592,4285.1281
105,0,4338.461432,4325.128099,4277.435793,4348.205022,4396.922969,4266.666562,4237.435794,4241.538358,4343.076817,4367.17938,4285.1281,4356.41015,4114.358874,4288.717844
106,0,4334.871689,4320.512715,4276.922972,4341.538355,4390.769123,4265.128101,4227.692204,4236.410153,4332.820407,4362.563996,4292.820408,4349.230663,4124.102463,4285.640921
107,0,4352.820406,4351.794765,4301.025536,4379.487072,4424.615276,4294.87169,4261.025537,4272.307588,4367.692201,4394.871687,4318.974253,4364.615278,4137.948617,4308.205023
108,0,4358.974252,4369.230662,4304.615279,4390.256303,4434.871686,4296.410151,4268.717844,4285.640921,4379.999893,4400.512713,4320.512715,4372.820406,4143.076822,4308.717843
109,0,4368.717842,4391.794764,4309.743484,4401.025533,4453.333224,4313.333228,4279.999895,4288.205023,4392.820405,4422.051174,4314.358869,4379.999893,4154.871693,4310.256305
110,0,4362.563996,4398.974251,4305.64092,4416.410148,4466.666557,4324.102458,4297.435792,4281.538357,4388.717841,4433.846045,4295.38451,4375.897329,4149.230668,4296.410151
111,0,4377.43579,4438.46143,4313.846048,4465.128096,4505.128095,4337.948612,4336.41015,4295.38451,4410.256302,4478.974249,4315.38451,4418.974251,4153.846052,4324.615279
112,0,4369.230662,4438.46143,4298.974254,4459.999891,4494.358864,4327.692202,4336.41015,4271.794767,4409.230661,4486.666557,4313.333228,4428.71784,4136.410155,4329.743484
113,0,4374.358867,4450.256301,4296.922972,4466.666557,4494.358864,4332.307586,4344.102458,4253.333229,4397.43579,4504.615274,4293.333228,4426.666558,4131.28195,4331.281945
114,0,4341.538355,4438.46143,4265.128101,4456.922968,4471.281942,4296.410151,4327.179381,4223.58964,4350.256304,4495.897326,4252.307588,4399.999892,4101.538361,4302.051177
115,0,4317.435792,4432.307584,4252.820409,4452.307583,4454.871686,4274.87169,4321.538356,4216.922974,4342.563996,4494.358864,4248.717845,4394.358867,4080.512721,4289.743485
116,0,4268.205024,4385.640918,4212.307589,4407.179379,4405.640918,4235.384512,4273.846049,4178.974257,4302.563997,4450.256301,4198.974256,4348.717842,4038.46144,4235.384512
117,0,4257.948614,4371.281944,4206.153743,4394.871687,4389.230662,4234.871691,4259.487075,4170.769129,4283.076818,4419.487071,4174.358872,4329.230663,4025.128107,4208.205025
118,0,4257.435793,4363.076816,4206.666564,4387.6922,4371.794765,4224.102461,4251.281947,4169.230667,4285.1281,4402.563995,4166.666565,4323.076817,4024.615286,4188.205026
119,0,4264.61528,4349.230663,4217.948615,4374.871688,4355.384509,4214.871692,4252.307588,4170.256308,4281.538357,4397.43579,4161.025539,4323.589638,4033.333235,4171.281949
120,0,4255.384511,4309.230664,4210.769128,4331.794766,4329.230663,4213.33323,4232.307589,4156.410155,4258.461434,4356.92297,4156.410155,4294.87169,4031.794773,4131.794771
121,0,4255.897332,4296.922972,4207.692205,4306.666561,4315.89733,4223.07682,4223.58964,4162.05118,4262.563998,4318.461433,4175.897334,4283.076818,4037.948619,4115.897335
122,0,4262.563998,4293.333228,4215.897333,4295.38451,4298.974254,4218.974256,4207.692205,4184.102462,4272.820408,4313.333228,4192.82041,4298.461433,4055.897337,4125.640925
123,0,4271.794767,4286.666562,4230.769127,4286.666562,4284.102459,4229.230666,4198.461436,4198.461436,4281.025536,4320.512715,4207.179384,4303.589638,4070.769131,4119.487079
124,0,4281.025536,4292.820408,4244.10246,4288.717844,4276.410152,4246.153742,4209.230666,4215.897333,4304.102459,4319.999894,4228.205025,4297.435792,4077.435798,4105.128105
125,0,4266.666562,4282.563998,4232.820409,4270.769126,4245.128101,4223.07682,4193.333231,4206.666564,4285.1281,4286.153741,4214.358871,4269.743485,4068.717849,4068.717849
126,0,4281.538357,4298.461433,4250.769127,4283.076818,4255.384511,4233.84605,4201.025538,4215.897333,4287.179382,4297.948613,4215.384512,4273.846049,4078.974259,4074.358875
127,0,4296.922972,4332.307586,4266.666562,4312.820407,4280.512716,4252.307588,4221.538358,4232.307589,4310.256305,4328.717843,4233.33323,4274.35887,4091.794772,4089.230669
128,0,4332.820407,4399.487072,4296.410151,4369.230662,4325.64092,4284.102459,4266.666562,4264.61528,4352.307586,4384.102457,4265.128101,4302.563997,4116.922976,4130.76913
0,0,4339.487073,4421.538353,4303.589638,4382.051175,4342.051176,4300.512715,4281.538357,4257.435793,4351.281945,4399.999892,4257.948614,4326.666561,4108.717848,4145.128104
1,0,4364.102457,4469.74348,4324.615279,4432.307584,4390.769123,4335.384509,4325.64092,4276.922972,4382.051175,4451.281942,4276.410152,4370.256303,4108.717848,4178.974257
2,0,4370.256303,4502.051172,4329.743484,4467.692198,4411.281943,4340.512714,4361.538355,4288.717844,4404.102456,4483.076813,4280.512716,4362.563996,4114.358874,4203.589641
3,0,4382.563995,4531.794761,4345.128099,4493.333223,4419.999892,4353.333227,4387.6922,4293.846049,4415.384507,4509.230659,4295.897331,4335.384509,4137.948617,4218.974256
4,0,4361.538355,4518.461428,4325.64092,4477.948608,4399.999892,4340.512714,4365.640919,4268.717844,4384.615277,4503.589633,4288.205023,4283.076818,4123.076822,4186.666564
5,0,4359.999893,4528.205017,4321.538356,4485.128095,4410.256302,4344.102458,4363.076816,4272.820408,4389.743482,4511.281941,4290.256305,4268.717844,4122.051181,4190.256308
6,0,4341.025535,4532.820402,4301.538356,4479.48707,4392.307585,4325.128099,4347.179381,4261.538357,4377.43579,4502.563992,4268.717844,4249.230665,4114.358874,4172.820411
7,0,4353.846047,4547.692196,4316.922971,4487.179377,4391.794764,4339.487073,4365.640919,4275.384511,4386.666559,4519.487069,4278.974254,4267.692203,4122.051181,4170.769129
8,0,4377.43579,4530.76912,4332.307586,4477.948608,4391.281944,4347.692201,4369.743483,4296.410151,4415.384507,4511.281941,4295.897331,4280.512716,4134.358873,4179.999898
9,0,4373.846047,4495.384505,4325.64092,4453.846045,4377.43579,4340.512714,4356.41015,4295.38451,4409.743482,4468.717839,4284.102459,4257.435793,4132.820412,4178.461436
10,0,4339.487073,4431.281943,4297.435792,4394.871687,4321.538356,4308.717843,4305.1281,4262.563998,4352.820406,4409.743482,4248.717845,4206.666564,4116.410156,4135.897335
11,0,4348.717842,4400.512713,4304.102459,4365.128098,4294.358869,4298.461433,4275.897331,4258.461434,4343.589637,4382.563995,4256.922973,4188.205026,4118.974258,4127.692207
12,0,4376.410149,4407.6922,4322.051176,4376.92297,4316.410151,4319.999894,4285.640921,4298.974254,4382.563995,4378.974252,4308.205023,4199.487077,4106.153746,4157.948616
13,0,4378.461431,4400.512713,4319.999894,4378.461431,4322.563997,4335.384509,4295.38451,4319.999894,4385.128098,4370.256303,4324.102458,4188.717846,4069.74349,4151.79477
14,0,4387.6922,4388.205021,4321.538356,4370.769124,4313.333228,4338.974253,4294.358869,4326.666561,4386.153739,4384.102457,4322.051176,4181.025539,4075.897336,4149.743488
15,0,4386.666559,4374.358867,4307.692202,4359.999893,4294.87169,4323.076817,4275.897331,4319.999894,4386.666559,4381.538354,4324.615279,4165.128103,4087.179387,4136.922976
16,0,4412.820405,4408.717841,4326.15374,4399.487072,4325.64092,4345.640919,4299.999895,4341.538355,4413.333225,4404.615277,4352.307586,4183.076821,4106.153746,4156.410155
17,0,4423.076815,4434.871686,4332.820407,4423.076815,4345.128099,4357.435791,4323.589638,4345.640919,4421.538353,4428.71784,4347.179381,4190.769128,4115.384515,4172.30759
18,0,4461.538352,4490.2563,4374.358867,4479.99989,4396.922969,4403.589636,4383.076816,4383.076816,4466.666557,4495.897326,4380.512713,4259.487075,4151.79477,4225.128102
19,0,4507.692197,4544.615273,4430.256302,4544.615273,4458.97425,4462.051173,4447.179378,4426.666558,4515.384505,4548.205017,4430.769122,4354.358868,4189.230667,4279.487075
20,0,4564.615273,4622.051169,4484.102454,4626.666554,4537.435786,4519.487069,4522.051171,4477.948608,4582.05117,4627.692195,4484.102454,4436.922968,4237.435794,4347.179381
21,0,4535.384504,4619.487067,4453.846045,4619.999887,4529.743479,4495.384505,4517.948607,4457.948609,4573.846042,4638.974246,4459.999891,4419.487071,4222.563999,4333.333227
22,0,4529.743479,4623.589631,4451.281942,4625.640913,4532.307581,4504.102454,4524.615274,4458.461429,4579.999888,4643.58963,4448.205019,4426.666558,4226.153743,4314.358869
23,0,4561.025529,4653.84604,4479.48707,4664.10245,4563.589632,4541.02553,4552.820401,4487.692198,4612.8204,4679.999886,4470.769121,4466.666557,4262.563998,4324.102458
24,0,4577.948606,4671.281937,4494.358864,4682.563988,4585.128093,4554.871683,4573.846042,4499.99989,4626.666554,4713.333218,4497.948608,4486.666557,4283.076818,4341.025535
25,0,4521.02553,4612.30758,4436.922968,4617.948605,4535.384504,4501.025531,4525.128094,4443.589635,4575.384504,4655.897322,4448.71784,4428.71784,4237.948614,4274.87169
26,0,4505.128095,4591.79476,4419.487071,4593.333221,4523.589633,4495.897326,4517.948607,4435.384507,4561.53835,4630.769118,4430.769122,4421.025533,4233.84605,4253.333229
27,0,4526.666556,4588.717837,4444.102455,4589.230657,4522.051171,4523.076812,4521.538351,4470.769121,4583.076811,4638.461425,4469.23066,4438.97425,4265.640921,4267.179383
28,0,4540.512709,4578.461427,4472.307583,4579.487068,4505.640915,4533.846043,4506.666556,4495.897326,4598.974247,4621.538349,4500.51271,4435.897327,4287.179382,4249.230665
29,0,4547.179376,4568.717837,4487.179377,4573.846042,4495.897326,4529.743479,4489.74348,4515.384505,4604.615272,4602.05117,4512.307582,4430.769122,4306.666561,4206.666564
30,0,4555.897324,4560.512709,4493.846044,4570.256298,4496.922967,4536.922966,4489.74348,4533.333222,4610.256298,4599.999888,4524.615274,4429.743481,4331.281945,4166.666565
31,0,4544.102453,4543.076812,4488.205018,4553.333222,4482.563993,4539.999889,4484.615275,4532.307581,4605.640913,4584.615273,4528.205017,4422.563994,4342.563996,4149.230668
32,0,4532.307581,4534.871684,4488.205018,4549.230658,4475.897326,4544.102453,4485.128095,4527.692197,4599.999888,4569.743478,4526.153735,4426.153738,4329.743484,4142.051181
33,0,4535.384504,4537.948607,4489.74348,4558.461427,4484.102454,4542.051171,4484.102454,4536.410145,4605.640913,4582.563991,4541.02553,4429.743481,4317.948612,4149.743488
34,0,4518.461428,4518.974248,4463.589634,4539.999889,4465.640916,4521.538351,4463.589634,4512.307582,4587.692196,4572.820401,4530.76912,4384.102457,4302.051177,4122.564002
35,0,4557.948606,4564.102452,4496.410146,4583.589632,4505.128095,4558.974247,4502.563992,4539.999889,4618.974246,4614.358862,4559.999888,4412.820405,4331.794766,4152.820411
36,0,4580.512709,4596.410144,4512.307582,4614.358862,4531.28194,4573.846042,4523.076812,4560.512709,4627.179374,4635.384502,4578.461427,4441.538353,4346.15374,4188.205026
37,0,4587.692196,4619.999887,4518.461428,4634.871682,4553.846042,4584.615273,4543.589632,4563.076811,4637.948605,4664.615271,4583.076811,4434.358866,4342.051176,4215.384512
38,0,4583.076811,4626.153733,4522.563992,4644.615271,4563.589632,4586.153734,4555.384504,4551.79476,4637.948605,4679.487065,4568.205016,4411.794764,4328.717843,4231.794768
39,0,4625.128092,4684.10245,4554.358863,4708.717834,4624.615272,4627.179374,4607.179375,4583.076811,4678.974245,4731.281936,4597.435785,4455.897327,4357.435791,4281.025536
40,0,4609.230657,4693.846039,4527.179376,4716.922962,4630.256297,4617.435785,4612.30758,4569.230657,4675.384501,4745.128089,4587.692196,4460.512711,4351.794765,4271.281947
41,0,4597.948606,4690.769116,4527.692197,4717.435782,4630.256297,4622.051169,4623.589631,4565.128093,4679.487065,4760.512704,4582.563991,4460.512711,4345.128099,4268.205024
42,0,4614.871682,4702.051167,4549.230658,4736.922961,4653.84604,4641.538348,4640.512707,4583.076811,4706.153731,4779.999883,4602.56399,4472.307583,4360.512714,4283.076818
43,0,4641.538348,4729.743474,4571.281939,4763.589627,4683.076809,4663.58963,4666.153732,4610.256298,4728.717833,4807.17937,4636.410143,4502.563992,4394.358867,4322.051176
44,0,4619.999887,4695.897321,4557.948606,4725.64091,4649.230656,4648.717835,4644.102451,4595.897324,4709.743475,4776.92296,4621.025528,4481.538352,4384.615277,4306.153741
45,0,4612.30758,4674.871681,4566.153734,4703.589629,4628.717836,4643.58963,4623.589631,4597.948606,4709.743475,4737.435782,4629.230656,4467.692198,4393.846046,4298.461433
46,0,4624.102451,4668.717835,4585.640914,4701.025526,4623.589631,4650.256297,4610.769118,4617.435785,4711.794757,4719.487064,4657.435784,4477.948608,4419.487071,4303.589638
47,0,4633.33322,4651.794758,4597.948606,4693.333219,4619.487067,4665.128091,4609.743477,4636.410143,4711.794757,4718.974244,4665.640912,4478.974249,4434.358866,4300.512715
48,0,4605.640913,4604.615272,4571.79476,4653.84604,4588.717837,4639.999887,4577.435786,4628.717836,4695.897321,4677.435783,4650.256297,4441.538353,4431.794763,4265.128101
49,0,4589.230657,4578.974247,4553.333222,4633.846041,4573.333222,4619.487067,4563.589632,4616.922964,4685.128091,4648.717835,4641.538348,4429.230661,4429.230661,4231.281948
50,0,4605.640913,4588.205016,4569.230657,4651.794758,4589.230657,4637.948605,4584.102452,4637.948605,4699.487065,4676.922963,4655.897322,4468.205019,4452.307583,4260.512716
51,0,4634.871682,4609.743477,4596.922965,4683.076809,4624.102451,4674.871681,4613.846041,4670.256296,4732.820397,4713.846039,4688.717834,4502.563992,4484.615275,4298.461433
52,0,4663.58963,4643.07681,4619.999887,4719.999885,4664.615271,4701.025526,4640.512707,4694.35886,4771.794755,4751.794756,4726.666551,4531.28194,4506.666556,4326.15374
53,0,4664.615271,4644.615271,4615.897323,4724.102449,4661.025527,4698.461424,4641.538348,4685.640911,4775.897319,4755.384499,4720.512705,4540.512709,4501.538351,4330.256304
54,0,4692.307578,4674.871681,4634.358861,4752.307576,4686.666552,4719.999885,4668.717835,4708.205013,4800.512703,4783.076806,4736.410141,4576.922965,4523.076812,4372.307585
55,0,4698.974244,4690.769116,4640.512707,4763.589627,4707.179372,4725.12809,4679.999886,4712.307577,4799.999883,4791.281934,4746.666551,4574.871683,4529.743479,4399.487072
56,0,4755.89732,4759.487063,4695.384501,4831.794754,4776.92296,4784.615268,4742.051166,4753.333217,4856.410138,4864.102445,4790.256293,4602.56399,4561.025529,4473.333224
57,0,4784.615268,4788.717832,4714.87168,4863.076804,4803.589626,4807.69219,4768.717832,4775.384499,4889.23065,4900.512701,4809.230652,4612.8204,4578.461427,4519.487069
58,0,4803.076806,4801.538344,4728.205013,4881.538342,4825.640908,4819.487062,4788.717832,4791.794755,4910.25629,4917.948598,4825.128087,4638.974246,4595.897324,4555.897324
59,0,4802.051165,4808.205011,4727.692192,4890.769111,4833.846036,4817.9486,4791.794755,4785.640909,4909.230649,4934.358854,4816.410139,4648.205015,4600.512708,4563.589632
60,0,4806.153729,4821.025523,4731.794756,4901.025521,4843.589625,4828.20501,4802.563985,4788.717832,4908.205008,4951.794751,4819.999882,4655.384502,4607.692195,4568.717837
61,0,4797.43578,4799.487062,4717.435782,4880.512701,4831.281933,4824.615267,4795.897319,4774.358858,4894.358855,4923.076803,4804.102447,4648.205015,4587.692196,4550.256299
62,0,4821.538344,4814.871677,4737.435782,4897.435778,4845.128087,4846.666548,4819.487062,4794.871678,4912.307572,4931.281931,4818.974241,4680.512706,4592.820401,4578.461427
63,0,4834.871677,4819.487062,4761.538345,4904.615265,4847.179369,4853.846035,4821.538344,4823.076805,4926.153726,4942.051161,4848.20501,4701.538347,4606.153734,4599.999888
64,0,4819.487062,4795.897319,4768.205012,4882.051163,4839.487061,4849.743471,4801.025524,4831.281933,4924.615264,4916.922957,4863.589625,4697.435783,4622.56399,4588.205016
65,0,4771.281935,4747.179371,4736.410141,4835.897318,4804.615267,4823.076805,4756.922961,4811.794754,4898.461419,4865.128086,4846.666548,4669.743476,4620.512708,4538.974248
66,0,4755.384499,4734.358859,4725.12809,4829.743472,4794.871678,4813.846036,4750.256294,4803.589626,4890.256291,4857.435779,4846.153728,4652.820399,4618.461426,4508.205018
67,0,4770.769114,4735.3845,4740.512705,4831.794754,4799.487062,4819.487062,4757.948602,4815.384498,4905.128085,4869.743471,4859.999881,4653.33322,4645.128092,4519.487069
68,0,4792.307575,4748.205012,4763.076807,4842.051164,4808.717831,4834.871677,4767.179371,4827.69219,4912.820393,4876.922958,4866.666548,4681.538347,4676.410142,4556.922965
69,0,4792.820396,4768.205012,4764.615268,4857.948599,4820.512703,4842.051164,4768.205012,4828.20501,4905.640906,4880.512701,4872.307573,4702.051167,4689.230655,4574.871683
70,0,4786.153729,4770.256294,4752.307576,4856.922958,4825.640908,4842.051164,4767.692191,4818.461421,4906.153726,4879.999881,4865.128086,4694.35886,4677.435783,4560.512709
71,0,4823.589626,4795.897319,4777.948601,4884.102445,4849.230651,4865.640907,4791.794755,4843.589625,4938.974238,4915.897316,4886.666547,4722.051167,4695.897321,4598.461426
72,0,4844.615266,4813.846036,4799.999883,4906.153726,4856.922958,4881.025522,4807.69219,4855.897317,4943.589623,4927.179367,4904.102444,4747.179371,4712.820398,4638.974246
73,0,4884.615265,4863.589625,4842.563984,4956.922956,4904.102444,4922.563982,4852.820394,4891.281932,4986.666545,4971.79475,4941.538341,4804.102447,4731.794756,4698.461424
74,0,4894.358855,4867.692189,4846.666548,4958.974238,4909.74347,4922.563982,4856.922958,4898.974239,4998.974237,4985.128083,4948.205007,4815.897318,4722.563987,4712.820398
75,0,4934.358854,4907.179367,4881.025522,5004.615262,4950.76911,4960.512699,4903.076803,4932.820392,5033.33321,5034.358851,4981.025519,4854.871676,4740.512705,4752.307576
76,0,4928.205008,4915.897316,4876.410137,5015.897313,4958.461417,4969.230648,4911.794752,4932.307572,5041.025518,5049.230646,4978.461417,4863.076804,4738.461423,4756.41014
77,0,4917.435777,4911.281931,4869.743471,5005.128083,4949.743469,4957.948597,4901.538342,4928.205008,5045.640902,5046.666543,4973.846032,4858.46142,4727.692192,4754.871679
78,0,4908.717829,4903.076803,4857.435779,4997.948596,4932.307572,4931.281931,4888.717829,4909.230649,5029.230646,5034.358851,4955.897315,4834.358856,4705.12809,4744.102448
79,0,4921.025521,4924.102444,4866.666548,5020.512698,4948.205007,4944.615264,4917.435777,4918.974239,5034.358851,5053.84603,4964.615263,4842.051164,4711.794757,4761.025525
80,0,4924.615264,4913.846034,4870.769112,5008.205006,4948.717828,4964.102443,4925.640905,4942.563982,5049.743466,5052.307569,4979.999878,4851.281933,4715.897321,4764.615268
81,0,4944.615264,4908.205008,4883.076804,5002.05116,4952.820392,4983.076801,4923.589623,4957.948597,5054.871671,5038.974236,4990.769109,4857.948599,4728.205013,4775.897319
82,0,4944.102443,4889.74347,4866.666548,4987.692186,4934.871674,4964.102443,4899.48706,4936.410136,5027.692185,5013.846031,4972.307571,4837.9486,4722.051167,4773.333217
83,0,4935.384495,4857.948599,4850.256292,4963.076802,4903.589624,4938.974238,4877.435778,4924.102444,5013.846031,4989.743468,4961.53834,4824.615267,4721.538346,4766.15373
84,0,4918.974239,4812.820395,4829.743472,4917.948598,4857.948599,4906.666547,4840.512702,4907.179367,4991.79475,4949.230648,4943.076802,4805.640908,4722.051167,4736.410141
85,0,4914.871675,4799.999883,4813.333216,4893.846034,4833.846036,4880.512701,4815.384498,4876.410137,4950.76911,4915.897316,4916.922957,4791.281934,4716.410141,4732.307577
86,0,4929.230649,4810.769113,4818.461421,4902.051162,4836.922959,4877.435778,4809.743472,4874.871676,4937.948597,4907.179367,4921.538341,4793.333216,4737.948602,4760.512704
87,0,4976.922955,4841.025523,4849.743471,4934.358854,4863.076804,4907.692188,4837.9486,4907.179367,4969.743468,4934.358854,4952.307571,4817.9486,4769.743473,4804.102447
88,0,5019.999877,4873.333214,4868.205009,4958.461417,4876.410137,4925.640905,4859.999881,4925.640905,4993.333211,4969.230648,4971.79475,4841.025523,4788.717832,4844.102446
89,0,5041.538338,4894.358855,4868.205009,4969.230648,4874.871676,4927.179367,4866.153727,4918.461418,4994.358852,4965.640904,4966.153725,4843.589625,4784.615268,4864.102445
90,0,5072.820389,4934.358854,4893.333214,5005.640903,4909.230649,4951.28193,4894.871675,4943.076802,5028.717826,4993.333211,4979.487058,4877.948599,4786.66655,4898.461419
91,0,5053.84603,4927.179367,4878.97424,4988.717827,4896.922957,4937.948597,4879.48706,4933.333213,5014.871672,4989.230647,4964.102443,4872.820394,4763.076807,4872.820394
92,0,5073.333209,4965.128084,4895.897316,5019.487057,4919.99988,4967.692186,4910.769111,4952.820392,5038.974236,5020.512698,4982.05116,4893.846034,4762.051166,4877.948599
93,0,5070.256286,4972.820391,4894.358855,5028.717826,4921.538341,4970.256289,4919.99988,4952.307571,5048.205005,5015.384493,4965.640904,4878.97424,4741.538346,4856.410138
94,0,5081.538337,4983.589622,4905.128085,5042.051159,4936.410136,4980.512699,4937.948597,4961.53834,5061.025517,5031.794749,4964.102443,4879.999881,4733.846038,4854.871676
95,0,5089.230645,4993.846032,4909.230649,5056.410133,4948.717828,4995.384493,4951.28193,4969.743468,5069.230645,5063.58962,4979.487058,4886.666547,4744.615269,4858.46142
96,0,5117.948593,5026.153723,4941.538341,5089.743465,4980.512699,5033.33321,4988.205006,5004.102442,5106.666542,5107.692183,5012.30757,4920.5127,4774.358858,4884.615265
97,0,5107.692183,5009.230647,4939.487059,5073.333209,4967.179366,5023.589621,4978.461417,4999.487057,5099.487055,5090.769106,4993.846032,4923.589623,4749.743474,4874.358855
98,0,5100.512696,5005.128083,4936.922956,5067.692184,4966.666545,5023.0768,4973.846032,4996.410134,5083.589619,5074.871671,4985.640904,4925.640905,4746.15373,4875.384496
99,0,5079.999876,4990.256288,4928.205008,5050.256287,4956.922956,5014.358852,4959.487058,4996.410134,5072.307568,5062.563979,4993.846032,4907.692188,4755.384499,4858.46142
100,0,5036.922954,4940.5127,4902.051162,4999.487057,4910.25629,4978.974237,4921.538341,4975.384494,5046.153723,5026.153723,4991.281929,4869.743471,4747.179371,4809.743472
101,0,4991.79475,4889.23065,4864.102445,4946.153725,4855.897317,4936.922956,4879.48706,4937.948597,5007.692185,4977.948596,4958.461417,4831.281933,4727.179372,4756.41014
102,0,4980.512699,4888.205009,4860.512702,4939.999879,4851.281933,4934.358854,4880.512701,4933.333213,5000.512698,4965.640904,4938.974238,4830.256292,4730.256295,4734.871679
103,0,4970.769109,4874.358855,4855.897317,4926.666546,4841.025523,4923.589623,4859.999881,4936.410136,4989.743468,4944.102443,4941.538341,4826.153728,4738.974243,4716.922962
104,0,4942.563982,4842.563984,4828.20501,4892.820393,4812.820395,4896.922957,4829.230651,4913.846034,4959.999879,4908.205008,4931.281931,4802.563985,4729.743474,4688.717834
105,0,4906.666547,4816.922959,4793.333216,4859.487061,4781.538345,4870.256291,4806.666549,4888.205009,4936.410136,4890.256291,4899.48706,4779.999883,4719.487064,4657.435784
106,0,4888.205009,4803.076806,4777.435781,4848.20501,4765.640909,4853.333215,4795.897319,4874.358855,4919.487059,4874.871676,4884.102445,4775.384499,4705.12809,4635.384502
107,0,4905.640906,4822.051164,4792.820396,4875.897317,4794.871678,4869.743471,4815.897318,4891.281932,4934.358854,4889.74347,4901.538342,4803.076806,4716.410141,4652.820399
108,0,4914.871675,4838.46142,4804.102447,4889.23065,4816.922959,4891.794752,4843.076805,4908.205008,4954.871674,4909.230649,4909.230649,4822.563985,4734.871679,4666.153732
109,0,4947.179366,4881.025522,4833.846036,4927.179367,4849.230651,4929.230649,4888.205009,4939.999879,4997.948596,4949.743469,4942.051161,4853.846035,4759.487063,4703.076808
110,0,4946.666546,4888.717829,4830.769113,4932.307572,4846.666548,4928.717828,4888.205009,4932.820392,4990.256288,4942.563982,4939.487059,4848.71783,4744.615269,4694.35886
111,0,4998.461416,4953.846033,4882.563983,4992.820391,4910.25629,4984.102442,4942.563982,4974.358853,5037.948595,5005.640903,4976.922955,4906.153726,4756.41014,4745.128089
112,0,5006.153724,4965.640904,4893.846034,5002.56398,4929.230649,4995.897314,4950.76911,4983.076801,5054.871671,5030.256287,4984.615263,4912.820393,4745.64091,4772.820396
113,0,4988.205006,4944.102443,4879.48706,4981.025519,4915.897316,4978.974237,4937.435777,4965.640904,5034.871672,5002.56398,4968.717827,4897.435778,4720.512705,4774.871678
114,0,4977.435776,4941.02552,4864.615266,4976.410135,4909.230649,4967.692186,4931.794751,4948.717828,5019.999877,4993.333211,4951.794751,4899.99988,4704.61527,4771.794755
115,0,5003.589621,4981.025519,4895.384496,5015.384493,4942.563982,4995.897314,4960.512699,4979.487058,5054.358851,5046.666543,4985.640904,4932.307572,4738.974243,4806.153729
116,0,4994.871673,4967.179366,4897.435778,5003.076801,4931.794751,4991.281929,4951.28193,4977.948596,5057.435774,5041.538338,4987.692186,4921.025521,4741.538346,4798.974242
117,0,4967.179366,4935.384495,4875.384496,4969.743468,4904.615265,4970.769109,4935.897315,4960.512699,5035.897313,5001.538339,4961.53834,4908.717829,4729.230654,4775.384499
118,0,4927.692187,4893.333214,4841.025523,4929.743469,4868.205009,4935.384495,4904.615265,4938.974238,5000.512698,4960.512699,4935.897315,4882.563983,4710.256295,4739.487064
119,0,4902.563983,4856.922958,4828.717831,4899.48706,4842.563984,4923.076803,4880.512701,4929.230649,4980.512699,4934.358854,4931.794751,4847.692189,4707.179372,4704.61527
120,0,4883.076804,4825.128087,4818.974241,4874.871676,4824.615267,4917.435777,4858.97424,4926.666546,4975.897314,4910.25629,4931.794751,4825.640908,4715.3845,4675.897322
121,0,4874.358855,4822.563985,4811.794754,4871.794753,4822.051164,4911.281931,4854.358856,4923.589623,4970.769109,4900.512701,4923.076803,4829.230651,4721.538346,4671.794758
122,0,4857.948599,4809.743472,4802.563985,4852.307574,4802.051165,4894.358855,4837.9486,4907.179367,4948.205007,4885.128086,4907.179367,4825.128087,4718.461423,4658.461425
123,0,4842.563984,4783.076806,4794.871678,4828.717831,4778.974242,4883.589624,4822.563985,4892.820393,4931.281931,4865.128086,4900.512701,4813.333216,4711.794757,4633.846041
124,0,4827.69219,4768.205012,4776.92296,4821.538344,4767.692191,4869.743471,4806.666549,4882.563983,4922.563982,4853.333215,4885.128086,4798.974242,4707.179372,4613.333221
125,0,4804.102447,4758.461422,4754.871679,4805.128088,4747.179371,4847.179369,4787.692191,4858.97424,4899.99988,4831.281933,4858.46142,4775.384499,4687.179373,4589.230657
126,0,4806.666549,4771.281935,4762.051166,4810.769113,4753.333217,4852.820394,4796.92296,4863.589625,4907.692188,4837.9486,4867.179368,4769.230653,4688.717834,4591.281939
127,0,4787.17937,4747.179371,4748.717833,4795.384498,4742.563987,4838.974241,4790.256293,4848.71783,4890.769111,4813.846036,4849.230651,4741.538346,4668.205014,4554.871683
128,0,4806.153729,4763.589627,4763.076807,4819.999882,4761.538345,4853.333215,4811.794754,4858.97424,4903.076803,4834.358856,4857.948599,4766.66655,4665.128091,4568.205016
0,0,4824.615267,4785.640909,4774.871678,4833.846036,4768.205012,4865.128086,4818.974241,4867.692189,4909.74347,4854.871676,4876.410137,4783.076806,4679.999886,4609.743477
1,0,4879.48706,4851.281933,4827.179369,4894.871675,4822.051164,4918.461418,4872.820394,4912.307572,4965.128084,4919.487059,4927.692187,4834.871677,4721.025526,4693.846039
2,0,4898.974239,4878.97424,4843.589625,4924.102444,4838.974241,4932.307572,4893.846034,4926.153726,4994.871673,4954.358853,4937.948597,4855.897317,4730.256295,4719.999885
3,0,4929.743469,4912.307572,4867.692189,4952.307571,4863.589625,4960.512699,4927.179367,4953.846033,5021.538339,4990.256288,4957.435776,4879.48706,4750.769115,4747.692192
4,0,4945.640905,4932.307572,4876.922958,4970.256289,4880.512701,4979.999878,4950.76911,4968.717827,5037.948595,5008.205006,4964.102443,4889.23065,4753.846038,4769.743473
5,0,4951.794751,4951.794751,4889.23065,4992.30757,4898.974239,4994.871673,4969.743468,4984.102442,5064.615261,5028.205005,4983.076801,4903.076803,4766.66655,4790.256293
6,0,4946.666546,4940.5127,4893.333214,4982.05116,4892.307573,4995.897314,4962.563981,4993.846032,5062.563979,5022.051159,4995.384493,4901.538342,4771.281935,4787.17937
7,0,4940.5127,4922.563982,4887.692188,4963.589622,4877.948599,4989.743468,4951.28193,4992.820391,5035.897313,4993.333211,4983.076801,4896.922957,4771.794755,4773.846037
8,0,4896.922957,4876.410137,4840.512702,4918.461418,4830.769113,4944.615264,4909.230649,4954.871674,4995.384493,4945.640905,4936.922956,4859.487061,4746.666551,4716.410141
9,0,4862.051163,4832.307574,4811.794754,4878.461419,4791.281934,4912.820393,4872.307573,4925.640905,4971.79475,4909.230649,4918.461418,4818.461421,4738.461423,4660.512707
10,0,4856.410138,4801.025524,4814.358857,4849.230651,4771.794755,4906.153726,4855.897317,4919.99988,4957.435776,4882.563983,4925.640905,4796.92296,4756.922961,4638.461425
11,0,4902.051162,4844.102446,4852.820394,4889.23065,4806.666549,4940.5127,4897.435778,4957.435776,4994.358852,4921.025521,4959.487058,4836.410138,4800.512703,4688.205014
12,0,4927.179367,4882.051163,4869.743471,4927.692187,4833.846036,4959.999879,4913.846034,4986.153724,5019.487057,4950.76911,4982.563981,4863.589625,4833.333215,4723.076808
13,0,4900.512701,4849.743471,4846.153728,4905.640906,4811.794754,4936.410136,4882.051163,4964.102443,4985.640904,4910.769111,4970.256289,4828.717831,4814.871677,4687.179373
14,0,4896.922957,4836.410138,4842.563984,4895.897316,4802.563985,4927.692187,4873.846035,4957.948597,4979.999878,4903.076803,4967.692186,4807.17937,4817.43578,4674.35886
15,0,4915.897316,4851.281933,4854.358856,4908.717829,4809.230652,4942.051161,4895.384496,4965.640904,4993.846032,4918.974239,4958.461417,4816.922959,4831.794754,4690.769116
16,0,4923.589623,4859.999881,4857.948599,4921.538341,4817.43578,4952.820392,4907.692188,4970.769109,5003.076801,4929.743469,4955.384494,4838.46142,4829.230651,4707.692193
17,0,4904.102444,4836.410138,4837.9486,4904.102444,4797.948601,4932.820392,4890.256291,4950.76911,4987.692186,4912.820393,4949.230648,4819.999882,4811.794754,4688.717834
18,0,4966.153725,4897.435778,4889.23065,4966.666545,4854.871676,4985.128083,4952.307571,4997.948596,5040.512697,4977.435776,4998.974237,4881.538342,4843.589625,4749.230653
19,0,4975.897314,4905.128085,4890.769111,4971.28193,4856.922958,4985.640904,4956.410135,5000.512698,5034.358851,4978.461417,4993.333211,4900.512701,4841.538343,4768.717832
20,0,4959.487058,4896.410137,4874.871676,4962.051161,4845.640907,4972.307571,4944.102443,4983.076801,5023.589621,4969.230648,4982.563981,4877.435778,4828.717831,4761.025525
21,0,4936.922956,4885.640906,4851.281933,4952.307571,4833.846036,4956.922956,4927.692187,4960.512699,5014.358852,4974.871673,4968.205007,4842.051164,4814.358857,4738.461423
22,0,4959.999879,4910.25629,4870.769112,4969.230648,4855.897317,4978.461417,4951.794751,4982.05116,5027.692185,5002.05116,4985.128083,4870.769112,4830.256292,4768.205012
23,0,4974.358853,4917.948598,4879.999881,4973.333212,4859.487061,4990.256288,4964.615263,4996.922955,5043.0768,5007.179365,4998.461416,4888.717829,4841.538343,4782.563986
24,0,4976.410135,4922.563982,4881.025522,4983.076801,4864.102445,4994.358852,4966.153725,4998.461416,5052.820389,5007.692185,4996.410134,4885.128086,4859.487061,4779.999883
25,0,4965.128084,4909.230649,4878.461419,4975.384494,4856.922958,4983.589622,4952.820392,4994.871673,5035.897313,4991.281929,4980.512699,4878.461419,4861.025522,4761.025525
26,0,4973.333212,4905.640906,4896.410137,4969.743468,4851.794753,4989.743468,4958.461417,5012.30757,5038.974236,4984.615263,5003.076801,4884.102445,4878.461419,4749.743474
27,0,4976.410135,4898.461419,4899.48706,4959.487058,4838.974241,4988.717827,4955.384494,5008.717826,5041.025518,4973.846032,5018.461416,4871.281932,4898.461419,4733.846038
28,0,4965.640904,4887.692188,4891.794752,4952.307571,4832.820395,4981.025519,4941.538341,4990.769109,5026.153723,4959.487058,4998.461416,4862.051163,4908.205008,4725.64091
29,0,4938.974238,4856.922958,4871.281932,4928.205008,4815.384498,4963.076802,4906.666547,4978.974237,4998.974237,4922.051162,4975.897314,4847.692189,4907.692188,4706.666552
30,0,4934.871674,4855.897317,4865.640907,4923.076803,4819.999882,4969.230648,4907.179367,4986.666545,5001.538339,4914.871675,4986.666545,4839.487061,4913.333213,4699.487065
31,0,4937.435777,4868.205009,4869.743471,4928.717828,4827.179369,4973.333212,4916.410136,4993.333211,5018.461416,4937.948597,4999.999878,4838.974241,4942.051161,4708.717834
32,0,4945.128084,4882.563983,4884.615265,4945.128084,4833.333215,4981.025519,4928.717828,4998.461416,5026.666544,4952.307571,5007.179365,4854.871676,4958.974238,4728.205013
33,0,4966.666545,4917.948598,4903.076803,4975.897314,4859.487061,5005.640903,4952.307571,5022.56398,5045.128082,4974.871673,5016.922954,4883.589624,4966.666545,4757.435781
33,0,4966.666545,4917.948598,4903.076803,4975.897314,4859.487061,5005.640903,4952.307571,5022.56398,5045.128082,4974.871673,5016.922954,4883.589624,4966.666545,4757.435781
34,0,4977.435776,4941.02552,4910.769111,4991.79475,4870.769112,5019.999877,4971.28193,5037.435774,5063.58962,4992.30757,5026.153723,4891.281932,4972.820391,4776.92296
35,0,5022.56398,4987.179365,4949.743469,5041.538338,4906.666547,5061.538338,5014.871672,5072.820389,5117.948593,5046.153723,5078.461414,4929.230649,5000.512698,4829.230651
36,0,5023.0768,4976.410135,4944.615264,5035.897313,4894.871675,5051.794748,5005.640903,5062.051158,5104.102439,5035.897313,5069.230645,4922.051162,4982.05116,4822.563985
37,0,5039.999877,4991.79475,4963.076802,5051.794748,4911.794752,5059.999876,5024.102441,5072.307568,5106.153721,5052.820389,5067.179363,4936.922956,4975.384494,4839.999882
38,0,5037.948595,4992.30757,4967.692186,5050.769107,4912.820393,5058.461415,5029.230646,5076.410132,5109.743465,5056.410133,5073.84603,4936.922956,4978.974237,4856.410138
39,0,5045.128082,4998.974237,4976.922955,5056.922953,4918.974239,5069.230645,5036.922954,5082.051158,5120.512695,5064.10244,5085.128081,4957.435776,4983.589622,4883.076804
40,0,5015.384493,4975.384494,4946.153725,5036.922954,4888.717829,5038.461415,5005.640903,5041.025518,5089.230645,5049.743466,5045.128082,4938.974238,4948.717828,4861.025522
41,0,5017.435775,4985.128083,4952.307571,5049.230646,4897.435778,5038.974236,5014.871672,5041.538338,5089.743465,5058.974235,5055.897312,4936.922956,4950.256289,4874.871676
42,0,5034.871672,4995.897314,4979.487058,5061.025517,4922.051162,5066.153722,5038.974236,5075.897312,5118.974234,5063.58962,5083.589619,4958.461417,4967.692186,4900.512701
43,0,5042.051159,4999.487057,4993.333211,5064.615261,4936.922956,5090.769106,5054.871671,5097.435773,5139.999874,5076.410132,5085.640901,4981.025519,4995.384493,4908.205008
44,0,5027.179364,4988.205006,4982.563981,5054.871671,4929.230649,5085.640901,5044.615261,5090.256286,5133.333208,5080.512696,5081.538337,4973.846032,5005.640903,4899.99988
45,0,5012.30757,4974.358853,4975.897314,5041.025518,4923.076803,5077.948594,5032.82039,5086.666542,5121.538336,5062.051158,5082.051158,4966.153725,5007.179365,4900.512701
46,0,4973.333212,4922.563982,4941.538341,4995.384493,4889.74347,5045.128082,4993.846032,5066.153722,5090.256286,5008.717826,5043.0768,4928.717828,4990.256288,4865.128086
47,0,4957.948597,4901.538342,4924.102444,4977.435776,4875.384496,5029.230646,4984.102442,5056.410133,5076.410132,4993.333211,5019.999877,4895.384496,4989.743468,4839.999882
48,0,4959.487058,4898.461419,4926.153726,4969.743468,4861.025522,5015.897313,4976.922955,5049.743466,5066.666543,4994.358852,5022.051159,4885.640906,5005.640903,4830.769113
49,0,4955.384494,4889.74347,4927.692187,4957.948597,4847.692189,5005.128083,4963.076802,5035.384492,5049.743466,4978.974237,5022.56398,4883.076804,5009.743467,4822.051164
50,0,4951.28193,4888.717829,4918.461418,4958.461417,4853.846035,5006.666544,4951.794751,5029.743467,5045.128082,4974.358853,5026.666544,4870.256291,5017.948595,4809.230652
51,0,4953.333212,4897.948598,4913.846034,4961.53834,4858.46142,5006.666544,4952.307571,5034.871672,5048.717825,4976.922955,5022.56398,4867.692189,5014.871672,4807.17937
52,0,4969.743468,4912.307572,4925.640905,4973.846032,4868.205009,5016.922954,4971.79475,5049.230646,5064.10244,4987.179365,5015.384493,4886.666547,5010.769108,4830.769113
53,0,4956.922956,4887.692188,4908.717829,4958.974238,4860.512702,5012.82039,4968.205007,5034.358851,5051.794748,4968.205007,4997.948596,4858.46142,4992.30757,4814.358857
54,0,4984.102442,4918.461418,4932.820392,4992.820391,4895.384496,5038.461415,4993.333211,5057.948594,5082.563978,5010.769108,5031.281928,4878.461419,4995.384493,4839.999882
55,0,4989.230647,4926.666546,4936.922956,4990.769109,4886.153727,5029.230646,4991.281929,5053.33321,5075.897312,5011.281929,5028.717826,4883.076804,4977.948596,4838.46142
56,0,5018.461416,4961.53834,4966.153725,5021.538339,4918.461418,5068.205004,5034.871672,5075.897312,5103.589619,5038.974236,5043.58962,4903.589624,4983.589622,4861.025522
57,0,5041.025518,4994.358852,4984.615263,5055.897312,4955.897315,5102.051157,5063.076799,5101.538337,5138.974233,5081.538337,5062.563979,4918.974239,5001.025519,4888.205009
58,0,5083.076799,5043.58962,5022.051159,5102.563978,4996.410134,5129.743464,5098.461414,5141.538336,5181.538335,5133.333208,5105.12808,4967.179366,5038.974236,4948.205007
59,0,5092.820388,5044.615261,5023.0768,5108.205003,4994.358852,5123.589618,5104.102439,5141.025515,5186.66654,5141.538336,5112.307567,4977.948596,5038.974236,4967.179366
60,0,5095.897311,5038.461415,5021.025518,5106.153721,4994.871673,5128.717823,5101.025516,5135.89731,5185.640899,5139.487054,5112.307567,4970.769109,5035.384492,4967.692186
61,0,5101.538337,5039.487056,5031.281928,5099.487055,4996.922955,5138.461413,5093.846029,5145.6409,5184.102437,5129.743464,5114.87167,4976.410135,5034.871672,4974.871673
62,0,5114.358849,5050.769107,5052.307569,5104.102439,5005.640903,5153.846028,5107.692183,5170.769104,5197.948591,5136.922951,5129.230644,4994.358852,5050.256287,4990.769109
63,0,5075.897312,5012.30757,5020.512698,5069.230645,4970.769109,5121.025516,5076.410132,5144.615259,5174.358848,5107.692183,5101.025516,4952.820392,5024.102441,4951.794751
64,0,5039.487056,4974.871673,4989.743468,5032.307569,4935.384495,5086.666542,5041.025518,5101.025516,5133.846028,5061.538338,5060.512697,4906.666547,4995.897314,4914.358854
65,0,5034.358851,4956.410135,4986.153724,5008.717826,4913.846034,5070.256286,5027.179364,5089.230645,5116.410131,5037.948595,5047.692184,4899.99988,5009.743467,4910.25629
66,0,5044.615261,4953.846033,4990.256288,5005.640903,4906.666547,5065.640902,5025.640903,5092.307568,5117.948593,5038.974236,5054.871671,4910.769111,5030.769108,4921.025521
67,0,5030.256287,4927.692187,4962.051161,4983.589622,4886.666547,5043.58962,4989.230647,5070.256286,5091.281927,5007.179365,5039.487056,4881.025522,5017.948595,4888.205009
68,0,5017.435775,4906.666547,4938.974238,4960.512699,4866.153727,5025.640903,4965.640904,5057.948594,5074.871671,4979.999878,5012.82039,4851.794753,4990.769109,4856.922958
69,0,5021.538339,4903.076803,4936.410136,4955.897315,4852.820394,5014.871672,4965.128084,5059.999876,5077.948594,4985.128083,5003.076801,4850.769112,4993.846032,4863.076804
70,0,5029.230646,4901.538342,4936.410136,4956.922956,4846.666548,5015.384493,4973.846032,5048.717825,5065.640902,4976.410135,4996.922955,4849.743471,4994.358852,4865.640907
71,0,5073.84603,4950.256289,4971.79475,5001.025519,4890.256291,5064.10244,5023.589621,5085.640901,5107.179362,5023.0768,5030.769108,4898.974239,5008.717826,4902.051162
72,0,5075.384491,4951.28193,4971.28193,4999.999878,4883.589624,5061.538338,5022.051159,5087.179363,5111.281926,5033.846031,5028.717826,4905.128085,4997.948596,4893.333214
73,0,5085.640901,4953.846033,4977.435776,5013.333211,4887.179368,5060.512697,5028.205005,5085.128081,5112.307567,5040.512697,5024.615262,4909.230649,4984.102442,4890.256291
74,0,5086.666542,4950.76911,4979.999878,5016.410134,4885.128086,5056.922953,5034.358851,5083.589619,5104.102439,5025.640903,5013.846031,4912.307572,4972.820391,4877.435778
75,0,5133.846028,5012.30757,5030.769108,5072.307568,4936.410136,5106.153721,5089.743465,5127.179362,5145.6409,5074.35885,5052.820389,4970.256289,5006.666544,4927.692187
76,0,5147.179361,5041.025518,5045.640902,5096.922952,4957.435776,5121.538336,5103.076798,5134.871669,5166.15372,5110.769106,5064.615261,4986.153724,5012.82039,4958.461417
77,0,5148.205002,5048.205005,5051.794748,5100.512696,4964.615263,5126.666541,5105.12808,5142.051156,5181.538335,5123.076798,5070.256286,4991.79475,5011.794749,4974.871673
78,0,5147.692182,5048.717825,5049.743466,5091.794747,4962.051161,5124.102439,5102.563978,5144.615259,5183.076796,5113.846029,5066.153722,4999.487057,5004.102442,4971.79475
79,0,5173.333207,5075.897312,5067.692184,5109.743465,4982.05116,5136.922951,5118.461413,5153.333207,5193.333206,5127.692182,5079.999876,5016.410134,5019.999877,4982.05116
80,0,5182.563976,5084.10244,5076.922953,5110.769106,4988.205006,5137.948592,5116.922952,5153.333207,5193.846027,5130.256285,5086.153722,5006.153724,5023.0768,4981.53834
81,0,5164.102438,5062.051158,5062.051158,5083.589619,4969.743468,5121.025516,5090.769106,5142.051156,5174.358848,5102.563978,5068.205004,4983.076801,5015.384493,4956.410135
82,0,5128.205003,5019.487057,5020.512698,5032.307569,4928.205008,5081.025517,5044.615261,5105.12808,5133.333208,5055.384492,5036.410133,4944.615264,4996.922955,4907.692188
83,0,5116.922952,4997.435775,4998.461416,5001.538339,4907.179367,5050.769107,5019.999877,5077.435773,5103.076798,5025.128082,5027.692185,4918.974239,4986.153724,4877.948599
84,0,5099.487055,4958.974238,4973.333212,4962.563981,4876.922958,5011.794749,4977.435776,5051.794748,5067.692184,4977.435776,5011.794749,4889.23065,4978.461417,4844.615266
85,0,5089.230645,4945.640905,4958.974238,4941.538341,4863.589625,4995.897314,4959.999879,5041.538338,5055.384492,4953.333212,4993.846032,4873.333214,4976.410135,4831.281933
86,0,5085.128081,4947.692187,4958.974238,4937.435777,4863.589625,4993.333211,4962.563981,5047.179364,5063.58962,4965.128084,4994.871673,4871.281932,4982.05116,4840.512702
87,0,5068.205004,4924.615264,4944.102443,4914.871675,4843.589625,4969.230648,4944.102443,5026.153723,5038.461415,4945.640905,4976.410135,4848.20501,4964.615263,4822.563985
88,0,5057.435774,4914.871675,4926.666546,4900.512701,4834.358856,4958.974238,4933.333213,5007.179365,5019.999877,4927.692187,4951.794751,4823.589626,4951.794751,4799.999883
89,0,5062.563979,4916.922957,4922.051162,4896.410137,4838.974241,4964.102443,4937.948597,5002.05116,5014.871672,4921.025521,4944.615264,4801.025524,4941.538341,4798.461421
90,0,5098.461414,4942.051161,4939.487059,4921.538341,4860.512702,4978.974237,4953.846033,5014.358852,5029.230646,4943.589623,4964.102443,4806.153729,4930.76911,4832.820395
91,0,5083.589619,4914.871675,4908.205008,4888.717829,4827.179369,4945.128084,4918.461418,4976.922955,4993.333211,4908.717829,4935.384495,4765.128089,4898.461419,4798.461421
92,0,5118.461413,4953.846033,4933.846033,4917.948598,4861.538343,4970.769109,4950.76911,4995.897314,5019.999877,4939.487059,4949.743469,4783.589627,4908.717829,4810.769113
93,0,5147.179361,4975.384494,4957.435776,4941.02552,4882.051163,4987.692186,4969.743468,5017.435775,5045.128082,4972.307571,4959.487058,4799.487062,4911.794752,4814.358857
94,0,5184.102437,4993.333211,4983.076801,4971.79475,4910.769111,5010.769108,4997.435775,5038.974236,5069.230645,5005.128083,4975.897314,4826.153728,4926.153726,4836.922959
95,0,5199.999873,4998.461416,4991.79475,4994.358852,4938.974238,5020.512698,5016.922954,5046.666543,5077.435773,5023.0768,4989.230647,4848.20501,4939.487059,4861.025522
96,0,5204.102437,5003.076801,5004.615262,5007.692185,4957.435776,5032.307569,5026.153723,5060.512697,5090.256286,5034.358851,5011.281929,4870.256291,4959.999879,4883.076804
97,0,5182.051155,4972.820391,4989.230647,4985.640904,4937.435777,5025.640903,5009.230647,5044.102441,5091.281927,5018.974236,4993.333211,4851.281933,4938.974238,4878.97424
98,0,5174.358848,4951.794751,4986.153724,4975.384494,4937.948597,5028.205005,5012.82039,5039.999877,5091.281927,5014.358852,4990.256288,4837.9486,4921.025521,4889.74347
99,0,5161.538335,4936.922956,4989.230647,4965.128084,4929.230649,5015.897313,4998.461416,5041.538338,5068.205004,4996.410134,4999.487057,4828.717831,4906.153726,4888.717829
100,0,5146.666541,4923.076803,4987.179365,4950.76911,4910.25629,5004.615262,4974.871673,5035.384492,5049.230646,4969.230648,5001.025519,4810.256293,4907.179367,4865.640907
101,0,5122.051157,4893.333214,4960.512699,4921.538341,4887.179368,4983.076801,4944.615264,5014.871672,5031.281928,4936.410136,4983.076801,4778.974242,4914.871675,4829.230651
102,0,5123.076798,4896.922957,4965.640904,4928.205008,4901.538342,4989.743468,4952.820392,5017.435775,5029.230646,4938.461418,4982.563981,4778.974242,4930.25629,4843.076805
103,0,5121.025516,4890.256291,4976.922955,4930.25629,4906.666547,4998.974237,4956.922956,5026.666544,5032.307569,4946.666546,4979.999878,4783.589627,4939.999879,4869.23065
104,0,5078.461414,4833.333215,4940.5127,4882.563983,4862.563984,4959.487058,4911.794752,4990.256288,4992.30757,4899.48706,4931.794751,4738.974243,4917.435777,4841.538343
105,0,5021.538339,4773.846037,4888.205009,4823.076805,4805.128088,4901.538342,4851.281933,4938.461418,4934.358854,4829.230651,4872.820394,4686.666552,4889.23065,4787.692191
106,0,5022.56398,4783.076806,4898.461419,4835.897318,4818.461421,4914.358854,4869.743471,4942.563982,4936.922956,4837.9486,4879.48706,4696.922962,4891.794752,4812.307575
107,0,5081.025517,4849.743471,4953.846033,4908.717829,4893.846034,4976.922955,4934.871674,4997.948596,4999.999878,4919.99988,4948.205007,4752.307576,4953.333212,4894.871675
108,0,5075.384491,4849.743471,4944.615264,4907.179367,4892.820393,4966.666545,4923.076803,4986.666545,4997.435775,4911.794752,4936.410136,4737.435782,4981.53834,4895.384496
109,0,5090.256286,4869.23065,4963.076802,4928.205008,4908.717829,4978.974237,4937.948597,5000.512698,5014.871672,4929.743469,4937.435777,4757.435781,4987.179365,4918.974239
110,0,5106.666542,4883.076804,4978.461417,4946.153725,4927.692187,4997.948596,4962.051161,5025.640903,5027.179364,4954.358853,4965.640904,4785.640909,4982.05116,4939.487059
111,0,5144.615259,4929.743469,5004.615262,4998.461416,4978.461417,5037.948595,5014.871672,5059.999876,5073.333209,5001.538339,5006.153724,4830.769113,5008.717826,4976.922955
112,0,5134.358849,4918.974239,4985.128083,4994.358852,4971.28193,5025.128082,5006.153724,5045.640902,5074.871671,4999.999878,4982.05116,4816.922959,5005.640903,4972.820391
113,0,5129.230644,4901.538342,4976.922955,4980.512699,4961.02552,5020.512698,4999.999878,5037.948595,5057.435774,5001.025519,4969.230648,4807.17937,4991.281929,5002.05116
114,0,5108.205003,4876.922958,4946.666546,4957.435776,4939.487059,5000.512698,4985.128083,5014.871672,5032.82039,4979.487058,4936.410136,4785.128088,4962.563981,5026.153723
115,0,5096.922952,4869.23065,4929.743469,4949.230648,4930.76911,4990.769109,4979.999878,5007.179365,5030.769108,4963.076802,4912.820393,4772.820396,4956.410135,5025.640903
116,0,5101.538337,4865.128086,4937.435777,4945.128084,4926.666546,4996.922955,4975.897314,5010.256288,5029.230646,4959.487058,4919.99988,4779.999883,4955.897315,5008.205006
117,0,5105.12808,4864.102445,4945.128084,4942.051161,4927.692187,5008.205006,4977.948596,5018.461416,5030.769108,4952.820392,4938.461418,4792.307575,4962.563981,5007.179365
118,0,5065.640902,4826.666549,4906.153726,4900.512701,4892.820393,4974.358853,4942.563982,4996.922955,5008.205006,4909.74347,4926.153726,4753.333217,4947.179366,4980.512699
119,0,5030.256287,4788.205011,4873.333214,4859.487061,4850.256292,4934.871674,4900.512701,4963.076802,4964.102443,4870.769112,4911.281931,4714.87168,4929.230649,4951.28193
120,0,5017.948595,4765.640909,4866.666548,4841.538343,4829.230651,4920.5127,4877.435778,4946.153725,4935.384495,4851.794753,4902.051162,4709.743475,4926.153726,4937.435777
121,0,5016.922954,4760.512704,4874.358855,4845.640907,4836.922959,4930.76911,4883.076804,4957.435776,4949.230648,4849.230651,4908.205008,4719.999885,4943.589623,4946.153725
122,0,5024.102441,4767.179371,4884.102445,4852.307574,4842.563984,4940.5127,4888.205009,4975.897314,4968.717827,4856.922958,4941.02552,4731.281936,4983.589622,4958.461417
123,0,5056.922953,4802.563985,4911.281931,4885.640906,4867.179368,4961.02552,4910.25629,4994.358852,4984.102442,4889.74347,4971.79475,4759.487063,5014.358852,4995.384493
124,0,5084.61526,4828.20501,4933.333213,4915.897316,4893.333214,4978.974237,4930.25629,5010.769108,4997.435775,4916.410136,4973.846032,4781.025524,5027.692185,5029.230646
125,0,5094.87167,4829.230651,4938.974238,4923.589623,4900.512701,4992.30757,4945.128084,5016.410134,5008.205006,4917.948598,4969.230648,4781.025524,5024.102441,5043.58962
126,0,5117.435772,4846.153728,4955.384494,4943.076802,4916.410136,5013.333211,4965.128084,5036.410133,5041.538338,4951.28193,4996.922955,4795.897319,5028.205005,5083.076799
127,0,5081.538337,4802.051165,4928.205008,4905.128085,4876.410137,4970.769109,4925.640905,4994.358852,5002.05116,4917.435777,4966.666545,4756.41014,4996.922955,5050.256287
128,0,5091.281927,4813.846036,4946.153725,4919.99988,4889.23065,4976.922955,4942.563982,4990.256288,4994.871673,4920.5127,4962.051161,4765.128089,4989.230647,5040.512697
0,0,5125.12808,4848.71783,4976.410135,4952.307571,4921.538341,5007.179365,4978.974237,5022.051159,5025.128082,4951.28193,4988.205006,4789.230652,4996.922955,5068.205004
1,0,5165.640899,4892.307573,5008.717826,4997.435775,4967.179366,5051.281928,5020.512698,5060.512697,5079.487055,5006.153724,5015.897313,4823.076805,5015.384493,5132.820387
2,0,5150.769105,4884.102445,4991.281929,4992.820391,4953.333212,5039.999877,5006.153724,5041.538338,5064.615261,5004.102442,4994.871673,4809.743472,5008.205006,5131.281926
3,0,5176.41013,4915.897316,5018.461416,5026.666544,4973.333212,5056.922953,5030.256287,5055.897312,5069.743466,5023.0768,5020.512698,4835.384497,5031.794749,5154.358848
4,0,5189.743463,4927.692187,5028.205005,5041.025518,4990.769109,5070.256286,5048.205005,5061.538338,5081.538337,5032.82039,5020.512698,4838.46142,5028.717826,5169.230643
5,0,5181.538335,4922.563982,5019.487057,5032.307569,4994.358852,5076.410132,5048.205005,5060.512697,5091.281927,5032.82039,5013.333211,4824.102446,5026.666544,5160.512694
6,0,5176.41013,4917.948598,5027.179364,5027.692185,4989.230647,5074.871671,5037.435774,5073.84603,5095.897311,5026.153723,5038.461415,4832.307574,5041.025518,5157.435771
7,0,5158.974233,4891.281932,5032.307569,5016.922954,4970.256289,5061.538338,5020.512698,5074.35885,5076.410132,4999.999878,5045.128082,4836.410138,5045.128082,5156.922951
8,0,5103.589619,4823.589626,4986.666545,4958.461417,4913.846034,5014.871672,4970.769109,5027.179364,5020.512698,4946.666546,4999.487057,4782.051165,5012.30757,5106.153721
9,0,5082.563978,4795.897319,4961.02552,4927.179367,4889.74347,4996.922955,4949.230648,5006.666544,5002.56398,4927.692187,4986.153724,4742.563987,5007.692185,5071.794748
10,0,5087.692183,4798.461421,4961.53834,4928.717828,4892.820393,4999.487057,4945.128084,5020.512698,5015.384493,4919.487059,4991.281929,4747.179371,5032.307569,5064.10244
11,0,5077.435773,4793.846037,4951.794751,4922.563982,4887.179368,4995.384493,4939.999879,5014.871672,5001.025519,4898.461419,4979.999878,4751.281935,5025.640903,5055.897312
12,0,5060.512697,4777.948601,4942.563982,4905.640906,4868.71783,4983.589622,4929.743469,4999.487057,4979.487058,4890.769111,4986.153724,4743.076807,5014.358852,5050.769107
13,0,5044.102441,4765.128089,4941.02552,4894.358855,4851.281933,4968.717827,4919.487059,4991.79475,4975.897314,4893.333214,4979.487058,4726.666551,5006.666544,5045.128082
14,0,5025.640903,4758.461422,4929.230649,4886.153727,4843.589625,4956.922956,4909.74347,4986.153724,4978.461417,4895.897316,4954.358853,4712.820398,4999.487057,5030.769108
15,0,5015.897313,4756.41014,4919.487059,4882.051163,4839.999882,4954.358853,4907.692188,4971.79475,4963.589622,4878.97424,4946.153725,4703.589629,4986.153724,5015.897313
16,0,5068.717825,4819.487062,4966.153725,4943.589623,4893.846034,5000.512698,4956.922956,5008.205006,5001.025519,4919.99988,4989.230647,4747.179371,5002.56398,5063.58962
17,0,5069.230645,4826.153728,4963.076802,4944.615264,4896.922957,5000.512698,4958.461417,5012.82039,5009.230647,4927.179367,4982.563981,4741.538346,4995.897314,5055.384492
18,0,5085.640901,4849.743471,4975.897314,4967.179366,4919.99988,5024.102441,4985.128083,5034.358851,5039.487056,4963.589622,5001.025519,4763.589627,5004.102442,5071.794748
19,0,5094.35885,4868.205009,4987.692186,4989.230647,4936.922956,5036.410133,4999.999878,5046.153723,5049.230646,4979.999878,5015.384493,4778.974242,5003.076801,5079.487055
20,0,5098.461414,4883.076804,4993.333211,4997.948596,4951.28193,5045.128082,5014.871672,5047.179364,5052.307569,4987.179365,5010.256288,4785.640909,4994.358852,5084.61526
21,0,5063.076799,4855.384497,4955.897315,4964.615263,4921.538341,5016.922954,4988.205006,5008.717826,5021.538339,4963.589622,4971.28193,4742.051166,4966.666545,5065.640902
22,0,5064.615261,4868.71783,4961.02552,4974.871673,4927.692187,5015.897313,4986.666545,5007.692185,5022.051159,4962.563981,4973.846032,4732.820397,4972.820391,5076.410132
23,0,5062.563979,4867.179368,4953.846033,4963.076802,4919.487059,4997.948596,4968.717827,4986.153724,5001.538339,4938.974238,4951.28193,4723.076808,4956.410135,5065.640902
24,0,5025.128082,4832.307574,4916.410136,4910.25629,4869.23065,4955.897315,4924.615264,4938.461418,4950.256289,4899.99988,4912.307572,4692.820398,4930.76911,5028.717826
25,0,4963.076802,4772.307576,4873.333214,4850.769112,4805.128088,4907.179367,4870.256291,4904.102444,4905.128085,4847.692189,4879.999881,4649.230656,4903.589624,4982.05116
26,0,4932.307572,4732.307577,4858.46142,4821.025523,4787.17937,4895.384496,4853.846035,4902.563983,4891.794752,4803.589626,4863.589625,4629.743477,4895.384496,4948.205007
27,0,4918.461418,4709.743475,4846.153728,4798.461421,4779.487063,4891.794752,4843.076805,4903.076803,4885.128086,4783.076806,4864.102445,4621.538349,4899.99988,4922.563982
28,0,4899.48706,4696.922962,4833.333215,4783.589627,4763.076807,4879.48706,4829.743472,4894.358855,4866.153727,4766.66655,4859.487061,4603.076811,4898.974239,4909.230649
29,0,4867.179368,4655.897322,4806.666549,4747.179371,4728.205013,4849.743471,4800.512703,4872.307573,4834.871677,4722.563987,4820.512703,4566.153734,4876.922958,4884.102445
30,0,4830.256292,4607.692195,4770.769114,4698.974244,4686.666552,4817.43578,4767.179371,4839.487061,4801.538344,4685.128091,4790.769114,4517.948607,4849.743471,4846.153728
31,0,4798.461421,4584.615273,4747.692192,4673.333219,4662.563989,4795.897319,4743.076807,4816.410139,4777.435781,4677.948604,4789.743473,4484.102454,4842.563984,4811.281934
32,0,4766.15373,4563.076811,4731.281936,4653.33322,4637.948605,4769.743473,4724.102449,4790.769114,4748.205012,4644.615271,4753.846038,4466.153737,4821.538344,4784.615268
33,0,4777.948601,4586.666555,4746.666551,4676.410142,4638.461425,4774.358858,4730.256295,4802.563985,4763.076807,4654.358861,4752.820397,4487.179377,4832.820395,4811.281934
34,0,4794.358857,4604.102452,4749.743474,4689.743475,4622.56399,4779.999883,4728.205013,4803.076806,4776.92296,4676.410142,4773.846037,4477.435788,4845.640907,4824.102446
35,0,4835.897318,4644.102451,4780.512704,4730.256295,4647.179374,4813.846036,4763.589627,4826.153728,4811.794754,4716.410141,4798.974242,4492.307582,4854.358856,4864.615266
36,0,4825.128087,4647.692194,4776.92296,4726.153731,4645.640912,4813.846036,4769.230653,4828.717831,4802.563985,4701.025526,4786.153729,4491.794762,4833.333215,4862.563984
37,0,4819.999882,4668.717835,4774.358858,4739.487064,4660.512707,4828.717831,4798.974242,4837.9486,4809.743472,4719.487064,4783.589627,4494.358864,4828.20501,4868.205009
38,0,4801.025524,4660.512707,4747.692192,4729.230654,4642.051169,4812.820395,4794.358857,4815.384498,4793.333216,4716.922962,4751.281935,4462.563993,4808.205011,4853.333215
39,0,4811.794754,4677.435783,4761.025525,4741.538346,4650.256297,4820.512703,4809.743472,4822.563985,4802.563985,4731.281936,4751.794756,4478.974249,4808.205011,4874.871676
40,0,4816.922959,4694.35886,4774.358858,4755.384499,4664.10245,4827.179369,4822.563985,4833.333215,4815.384498,4754.871679,4748.717833,4512.820402,4812.820395,4889.74347
41,0,4829.743472,4716.922962,4791.281934,4776.41014,4687.692193,4839.999882,4841.025523,4848.20501,4832.307574,4778.974242,4758.974243,4538.974248,4833.846036,4885.128086
42,0,4825.640908,4700.512706,4779.999883,4761.538345,4678.974245,4830.256292,4826.666549,4829.230651,4823.076805,4763.589627,4764.615268,4495.897326,4828.20501,4859.487061
43,0,4845.640907,4704.61527,4795.897319,4765.640909,4686.153732,4840.512702,4828.717831,4833.846036,4837.435779,4773.333217,4788.205011,4485.128095,4843.076805,4875.384496
44,0,4867.692189,4709.230654,4828.717831,4776.41014,4693.333219,4853.333215,4829.230651,4859.487061,4859.999881,4782.563986,4807.69219,4527.179376,4870.256291,4890.256291
45,0,4861.025522,4676.410142,4826.666549,4748.205012,4669.230655,4838.974241,4801.538344,4852.820394,4837.435779,4742.563987,4809.743472,4543.076812,4868.71783,4862.563984
46,0,4832.820395,4623.07681,4788.717832,4694.35886,4624.102451,4798.461421,4751.281935,4818.974241,4793.846037,4686.666552,4792.307575,4514.871684,4842.563984,4815.384498
47,0,4830.256292,4623.589631,4788.205011,4697.435783,4627.692195,4795.897319,4753.333217,4824.102446,4796.410139,4685.640911,4789.743473,4523.589633,4848.71783,4811.794754
48,0,4809.743472,4613.333221,4784.615268,4691.794757,4626.666554,4795.897319,4753.333217,4830.256292,4793.333216,4674.871681,4790.256293,4534.871684,4860.512702,4798.461421
49,0,4786.153729,4578.974247,4762.563986,4665.128091,4609.230657,4782.563986,4742.051166,4814.358857,4779.999883,4653.33322,4766.66655,4515.897325,4842.051164,4782.051165
50,0,4798.974242,4607.692195,4782.563986,4696.922962,4638.974246,4802.051165,4762.563986,4843.076805,4815.897318,4693.333219,4782.051165,4543.076812,4860.512702,4818.974241
51,0,4755.384499,4615.384503,4785.128088,4708.205013,4649.230656,4811.281934,4767.692191,4847.179369,4819.487062,4704.102449,4798.461421,4548.717837,4870.769112,4826.666549
52,0,4704.61527,4594.358862,4768.717832,4692.307578,4633.33322,4797.948601,4757.435781,4826.666549,4799.999883,4692.820398,4798.974242,4538.974248,4856.922958,4822.051164
53,0,4704.102449,4583.076811,4766.15373,4679.487065,4618.974246,4777.948601,4746.666551,4808.717831,4782.563986,4677.435783,4778.461422,4534.358863,4838.46142,4821.538344
54,0,4757.948602,4642.563989,4814.358857,4733.333218,4671.794758,4823.076805,4796.410139,4840.512702,4827.69219,4730.769115,4792.307575,4572.820401,4850.256292,4864.102445
55,0,4741.025525,4633.33322,4803.589626,4726.666551,4661.538348,4816.410139,4788.205011,4826.153728,4817.9486,4726.666551,4778.461422,4559.999888,4828.20501,4841.538343
56,0,4768.717832,4642.563989,4818.461421,4751.281935,4677.435783,4824.102446,4805.128088,4825.640908,4816.410139,4735.89732,4790.256293,4574.871683,4831.794754,4853.846035
57,0,4805.640908,4658.461425,4835.897318,4780.512704,4706.666552,4840.512702,4827.69219,4835.897318,4826.666549,4763.589627,4803.076806,4588.717837,4848.20501,4872.820394
58,0,4818.461421,4665.128091,4843.076805,4791.281934,4716.410141,4852.307574,4841.538343,4853.846035,4853.333215,4791.794755,4809.743472,4596.922965,4858.46142,4882.051163
59,0,4810.769113,4655.384502,4825.128087,4778.461422,4697.948603,4832.820395,4827.69219,4841.025523,4846.153728,4786.153729,4792.307575,4579.999888,4841.025523,4872.307573
60,0,4837.9486,4693.333219,4846.666548,4816.922959,4736.410141,4854.871676,4848.71783,4854.871676,4850.769112,4809.230652,4813.846036,4601.538349,4861.538343,4885.640906
61,0,4837.435779,4691.794757,4855.384497,4823.076805,4752.307576,4871.281932,4852.820394,4867.692189,4862.563984,4808.205011,4821.025523,4614.358862,4871.794753,4871.794753
62,0,4811.281934,4647.692194,4835.384497,4771.794755,4713.846039,4857.948599,4829.230651,4864.615266,4859.487061,4768.717832,4812.307575,4598.461426,4865.128086,4837.435779
63,0,4787.692191,4607.179375,4812.820395,4722.563987,4672.307578,4830.769113,4794.358857,4848.71783,4828.717831,4723.076808,4803.076806,4570.769119,4852.307574,4813.846036
64,0,4772.820396,4584.102452,4808.717831,4711.281936,4666.666553,4817.9486,4779.487063,4839.999882,4807.17937,4702.563988,4802.563985,4558.974247,4849.743471,4806.666549
65,0,4752.820397,4559.487068,4802.051165,4698.461424,4655.384502,4804.615267,4765.640909,4842.563984,4811.794754,4689.743475,4811.281934,4557.948606,4864.102445,4787.17937
65,0,4752.820397,4559.487068,4802.051165,4698.461424,4655.384502,4804.615267,4765.640909,4842.563984,4811.794754,4689.743475,4811.281934,4557.948606,4864.102445,4787.17937
66,0,4761.538345,4575.384504,4812.820395,4711.281936,4662.051168,4817.9486,4777.435781,4853.846035,4827.69219,4707.692193,4833.333215,4576.922965,4881.538342,4795.897319
67,0,4764.615268,4588.717837,4817.9486,4721.538346,4670.256296,4825.128087,4775.384499,4856.922958,4823.076805,4718.461423,4844.615266,4582.563991,4887.179368,4814.358857
68,0,4739.999884,4563.589632,4799.999883,4701.025526,4658.974245,4807.69219,4758.461422,4842.051164,4805.640908,4690.769116,4821.538344,4556.922965,4873.846035,4799.999883
69,0,4741.025525,4562.05117,4798.461421,4700.512706,4662.051168,4806.153729,4763.589627,4845.128087,4813.333216,4701.025526,4818.974241,4551.79476,4874.871676,4787.17937
70,0,4746.15373,4562.563991,4805.640908,4706.666552,4655.897322,4804.615267,4768.205012,4833.333215,4803.589626,4706.666552,4823.076805,4545.640914,4869.743471,4787.17937
71,0,4771.794755,4592.30758,4834.358856,4742.051166,4678.974245,4828.20501,4797.948601,4844.615266,4818.974241,4729.230654,4846.666548,4568.717837,4882.051163,4829.230651
72,0,4762.563986,4591.281939,4826.666549,4734.871679,4672.820399,4822.563985,4794.358857,4846.153728,4817.9486,4718.461423,4832.820395,4570.256298,4870.769112,4814.871677
73,0,4784.615268,4623.07681,4854.358856,4766.66655,4701.538347,4849.230651,4823.589626,4866.153727,4847.692189,4756.41014,4837.9486,4600.512708,4868.71783,4830.769113
74,0,4769.230653,4623.589631,4848.71783,4765.640909,4694.87168,4836.410138,4814.358857,4839.487061,4825.640908,4756.41014,4823.589626,4585.640914,4848.20501,4823.076805
75,0,4762.051166,4645.640912,4852.820394,4779.999883,4704.61527,4839.487061,4824.615267,4837.9486,4821.025523,4764.102448,4827.69219,4598.461426,4851.794753,4831.794754
76,0,4764.615268,4678.974245,4872.820394,4810.769113,4728.717833,4863.076804,4847.692189,4857.948599,4846.666548,4801.538344,4843.589625,4627.179374,4871.281932,4857.435779
77,0,4810.769113,4744.615269,4932.307572,4875.384496,4793.333216,4923.589623,4901.025521,4914.358854,4916.410136,4879.48706,4902.563983,4687.692193,4922.051162,4925.128085
78,0,4834.871677,4773.333217,4955.897315,4900.512701,4822.563985,4945.128084,4919.99988,4938.461418,4947.692187,4901.025521,4927.692187,4719.487064,4937.948597,4953.333212
79,0,4837.9486,4782.051165,4956.410135,4899.48706,4820.512703,4943.589623,4916.922957,4937.948597,4940.5127,4885.128086,4922.563982,4727.692192,4936.410136,4942.563982
80,0,4832.820395,4764.102448,4955.897315,4882.563983,4801.025524,4933.333213,4900.512701,4936.922956,4928.717828,4869.23065,4921.538341,4719.999885,4930.76911,4920.5127
81,0,4855.897317,4763.589627,4979.999878,4895.897316,4818.461421,4950.76911,4916.410136,4969.230648,4959.999879,4885.128086,4957.948597,4745.128089,4956.922956,4935.897315
82,0,4874.871676,4771.794755,4989.230647,4912.820393,4838.46142,4972.307571,4927.179367,4997.435775,4986.666545,4895.384496,4984.615263,4775.897319,4989.743468,4957.435776
83,0,4881.538342,4775.384499,4984.102442,4916.922957,4841.025523,4980.512699,4925.128085,5001.025519,4977.435776,4893.333214,4989.743468,4776.41014,4998.461416,4958.974238
84,0,4872.820394,4747.692192,4970.256289,4887.692188,4820.512703,4962.563981,4909.74347,4992.30757,4959.999879,4870.769112,4982.563981,4749.230653,4999.999878,4931.794751
85,0,4898.461419,4766.66655,4996.410134,4906.153726,4845.640907,4984.102442,4937.948597,5005.640903,4987.692186,4887.692188,4996.410134,4771.794755,5022.56398,4962.051161
86,0,4941.02552,4825.128087,5036.922954,4958.974238,4891.281932,5025.640903,4968.205007,5040.512697,5030.769108,4934.358854,5034.871672,4829.230651,5067.692184,5019.487057
87,0,4955.897315,4849.743471,5051.281928,4980.512699,4904.615265,5032.307569,4971.79475,5055.897312,5045.640902,4953.333212,5052.820389,4854.871676,5085.640901,5037.435774
88,0,4981.53834,4876.410137,5077.435773,5003.076801,4926.153726,5047.179364,4988.205006,5068.717825,5066.153722,4983.076801,5072.307568,4870.769112,5095.384491,5064.10244
89,0,4983.076801,4871.794753,5075.897312,4995.384493,4922.563982,5050.769107,4987.692186,5059.999876,5063.58962,4983.589622,5064.615261,4859.487061,5082.563978,5069.230645
90,0,4993.333211,4880.512701,5082.563978,5007.692185,4934.871674,5061.538338,5005.640903,5076.410132,5078.461414,4992.820391,5072.820389,4882.051163,5079.999876,5088.205004
91,0,4985.640904,4875.384496,5073.84603,4997.435775,4930.25629,5047.179364,5002.05116,5070.769107,5063.58962,4971.28193,5057.435774,4877.435778,5063.58962,5073.84603
92,0,5010.256288,4911.794752,5102.051157,5031.281928,4965.640904,5078.974235,5037.948595,5095.897311,5096.922952,5013.846031,5071.281927,4893.333214,5062.563979,5102.051157
93,0,4987.692186,4894.871675,5087.179363,5024.102441,4951.28193,5071.794748,5029.743467,5092.307568,5098.461414,5021.025518,5069.230645,4878.97424,5043.58962,5092.820388
94,0,4987.692186,4896.410137,5088.717824,5027.692185,4959.999879,5078.974235,5036.410133,5093.333209,5093.846029,5016.922954,5079.999876,4891.794752,5043.0768,5090.769106
95,0,4991.79475,4906.666547,5091.794747,5037.435774,4971.28193,5079.999876,5038.974236,5080.512696,5090.769106,5020.512698,5065.640902,4888.205009,5035.897313,5085.128081
96,0,5002.56398,4923.076803,5105.12808,5053.33321,4981.53834,5086.153722,5051.281928,5091.281927,5112.820388,5045.128082,5065.640902,4887.692188,5046.153723,5086.666542
97,0,5015.897313,4921.025521,5116.922952,5047.692184,4983.589622,5094.87167,5054.871671,5113.846029,5126.153721,5046.666543,5082.051158,4907.692188,5050.256287,5086.666542
98,0,5029.230646,4912.307572,5123.589618,5041.025518,4987.692186,5106.153721,5053.84603,5120.512695,5122.563977,5035.384492,5089.743465,4928.205008,5057.948594,5083.076799
99,0,5021.025518,4899.48706,5112.307567,5033.33321,4977.435776,5094.35885,5041.025518,5107.179362,5109.743465,5022.56398,5086.153722,4907.692188,5068.205004,5069.743466
100,0,5026.153723,4910.25629,5120.512695,5042.051159,4991.79475,5097.948593,5047.692184,5117.948593,5115.897311,5024.615262,5105.640901,4900.512701,5095.384491,5082.563978
101,0,4998.461416,4872.820394,5094.87167,5005.640903,4970.256289,5073.333209,5022.051159,5103.076798,5091.794747,4994.871673,5079.487055,4883.076804,5087.692183,5052.820389
102,0,4958.461417,4818.974241,5056.922953,4965.128084,4930.25629,5039.487056,4991.79475,5065.128081,5057.948594,4958.974238,5042.563979,4850.256292,5062.051158,4996.410134
103,0,4955.384494,4816.922959,5056.922953,4963.076802,4932.307572,5036.922954,4981.025519,5063.076799,5052.307569,4950.76911,5055.897312,4841.538343,5082.051158,4990.769109
104,0,4971.79475,4839.487061,5078.461414,4982.563981,4959.999879,5053.33321,4989.230647,5083.076799,5061.538338,4963.076802,5070.769107,4863.076804,5104.61526,5026.153723
105,0,4975.897314,4834.871677,5080.512696,4988.205006,4960.512699,5051.281928,4992.820391,5084.10244,5067.692184,4975.897314,5064.615261,4872.307573,5108.717824,5035.384492
106,0,4956.922956,4803.076806,5055.384492,4960.512699,4932.820392,5023.589621,4972.307571,5049.743466,5043.0768,4946.153725,5037.435774,4841.538343,5082.563978,4998.461416
107,0,4952.820392,4806.153729,5049.230646,4955.897315,4933.846033,5017.948595,4965.128084,5042.563979,5036.922954,4935.384495,5018.461416,4842.563984,5057.435774,4996.410134
108,0,4927.692187,4787.17937,5033.33321,4938.974238,4913.846034,4998.461416,4943.589623,5022.56398,5016.410134,4916.922957,4987.179365,4829.743472,5028.717826,4977.948596
109,0,4947.179366,4807.69219,5058.461415,4966.153725,4941.02552,5022.051159,4970.769109,5038.974236,5044.102441,4954.358853,5026.153723,4850.769112,5035.897313,4996.410134
110,0,4937.948597,4803.589626,5050.256287,4953.846033,4941.02552,5016.410134,4965.640904,5033.33321,5037.435774,4945.640905,5026.666544,4840.512702,5027.179364,4989.230647
111,0,4961.02552,4849.230651,5077.435773,4992.30757,4981.025519,5051.281928,5005.128083,5057.435774,5062.563979,4973.333212,5019.487057,4866.153727,5033.846031,5026.666544
112,0,4970.769109,4880.512701,5092.307568,5023.0768,5004.615262,5071.794748,5033.33321,5069.743466,5081.538337,5009.743467,5025.640903,4878.461419,5034.358851,5048.205005
113,0,4984.102442,4898.461419,5104.102439,5034.358851,5022.051159,5087.692183,5051.794748,5085.640901,5096.410132,5032.307569,5055.384492,4891.794752,5046.153723,5059.487056
114,0,4985.128083,4898.974239,5099.999875,5030.256287,5022.051159,5086.153722,5046.153723,5084.10244,5102.051157,5027.179364,5048.205005,4888.205009,5041.538338,5050.769107
115,0,4989.230647,4917.435777,5102.563978,5041.538338,5025.128082,5083.589619,5043.0768,5088.717824,5110.256285,5033.846031,5044.615261,4898.461419,5049.230646,5046.666543
116,0,4985.640904,4911.794752,5098.461414,5030.256287,5013.333211,5072.820389,5027.692185,5089.743465,5096.410132,5025.128082,5049.743466,4907.179367,5047.179364,5038.974236
117,0,4975.384494,4877.435778,5086.153722,4998.974237,4994.358852,5061.538338,5004.615262,5079.999876,5072.820389,4993.846032,5046.153723,4889.23065,5046.666543,5020.512698
118,0,4946.666546,4835.897318,5050.769107,4959.487058,4961.02552,5031.281928,4970.769109,5050.769107,5044.615261,4945.640905,5024.102441,4850.769112,5041.025518,4978.974237
119,0,4936.922956,4834.871677,5041.025518,4949.743469,4952.820392,5018.461416,4965.128084,5041.025518,5034.358851,4930.25629,5011.794749,4848.71783,5050.256287,4963.076802
120,0,4922.563982,4817.9486,5030.256287,4931.281931,4932.820392,5005.128083,4942.563982,5035.384492,5014.871672,4914.358854,4994.358852,4844.615266,5053.84603,4950.76911
121,0,4898.461419,4790.769114,4986.666545,4905.640906,4908.205008,4989.230647,4919.487059,5019.999877,4994.871673,4886.666547,4980.512699,4819.999882,5039.999877,4924.102444
122,0,4877.435778,4771.281935,4938.461418,4882.051163,4894.358855,4971.28193,4906.666547,5005.640903,4987.179365,4874.358855,4975.384494,4794.358857,5039.487056,4894.871675
123,0,4872.307573,4757.948602,4926.153726,4869.743471,4888.205009,4963.076802,4907.692188,4999.999878,4980.512699,4872.820394,4964.102443,4785.128088,5035.897313,4884.615265
124,0,4877.948599,4764.615268,4932.820392,4881.025522,4892.307573,4971.28193,4916.410136,5010.769108,4988.717827,4876.922958,4961.02552,4797.43578,5031.794749,4900.512701
125,0,4864.615266,4760.512704,4922.563982,4878.97424,4883.076804,4967.692186,4911.794752,5003.589621,4984.102442,4864.102445,4950.256289,4783.076806,5022.051159,4895.897316
126,0,4881.538342,4783.076806,4937.948597,4899.48706,4904.102444,4976.922955,4924.102444,5006.666544,4995.384493,4893.333214,4960.512699,4779.999883,5026.153723,4906.666547
127,0,4856.410138,4755.89732,4914.358854,4869.23065,4878.97424,4949.743469,4897.948598,4975.384494,4961.53834,4864.615266,4931.794751,4741.538346,4994.358852,4867.692189
128,0,4865.640907,4775.384499,4935.897315,4895.897316,4905.128085,4979.487058,4935.897315,4996.922955,4984.102442,4883.076804,4942.051161,4763.076807,4990.769109,4891.794752
0,0,4851.281933,4777.435781,4928.717828,4896.922957,4898.974239,4971.79475,4932.307572,4988.205006,4973.846032,4880.512701,4930.25629,4748.717833,4977.435776,4893.846034
1,0,4847.179369,4790.256293,4915.384495,4894.871675,4890.769111,4953.333212,4916.410136,4969.743468,4955.384494,4872.820394,4912.307572,4725.64091,4964.102443,4885.640906
2,0,4852.820394,4804.102447,4914.358854,4901.538342,4891.794752,4951.28193,4917.948598,4966.666545,4957.435776,4874.358855,4891.794752,4720.512705,4956.922956,4879.48706
3,0,4871.794753,4824.102446,4933.846033,4920.5127,4909.74347,4977.435776,4940.5127,4988.205006,4977.948596,4895.384496,4908.717829,4742.563987,4967.179366,4898.974239
4,0,4826.666549,4786.153729,4887.179368,4873.846035,4870.769112,4938.461418,4896.922957,4938.974238,4932.820392,4853.333215,4874.358855,4692.820398,4926.153726,4862.563984
5,0,4812.307575,4781.538345,4871.794753,4855.384497,4853.333215,4921.025521,4886.153727,4913.333213,4911.794752,4837.435779,4847.179369,4669.230655,4916.410136,4832.307574
6,0,4870.769112,4821.025523,4924.615264,4896.410137,4884.102445,4962.563981,4928.205008,4967.692186,4957.435776,4877.948599,4889.74347,4729.230654,4955.384494,4861.025522
7,0,4886.666547,4806.666549,4932.307572,4886.666547,4878.97424,4965.128084,4921.025521,4987.692186,4964.615263,4861.025522,4919.487059,4741.538346,4964.102443,4866.666548
8,0,4817.43578,4726.666551,4861.025522,4808.205011,4810.256293,4902.563983,4852.307574,4935.384495,4905.128085,4777.435781,4872.307573,4666.666553,4928.205008,4797.43578
9,0,4801.025524,4714.358859,4844.102446,4796.410139,4791.281934,4888.205009,4840.512702,4919.487059,4884.102445,4755.384499,4842.051164,4647.692194,4931.281931,4769.743473
10,0,4823.076805,4725.64091,4862.051163,4807.69219,4796.410139,4893.333214,4848.20501,4930.76911,4891.794752,4761.538345,4853.333215,4670.769117,4956.410135,4785.640909
11,0,4808.717831,4701.538347,4846.153728,4779.487063,4776.92296,4870.256291,4828.20501,4912.820393,4869.743471,4738.974243,4849.230651,4666.153732,4941.538341,4775.897319
12,0,4784.615268,4686.153732,4822.563985,4758.974243,4757.435781,4853.333215,4802.563985,4894.358855,4845.640907,4726.153731,4840.512702,4652.820399,4928.717828,4747.179371
13,0,4772.307576,4685.640911,4814.871677,4756.922961,4750.256294,4852.820394,4799.999883,4885.640906,4842.051164,4718.461423,4826.153728,4643.07681,4923.589623,4738.974243
14,0,4778.461422,4701.025526,4818.974241,4768.717832,4763.589627,4858.46142,4811.794754,4892.820393,4859.999881,4726.666551,4816.922959,4648.205015,4922.563982,4759.487063
15,0,4755.384499,4681.538347,4794.358857,4747.179371,4747.179371,4840.512702,4797.43578,4875.897317,4836.410138,4705.640911,4794.358857,4624.102451,4898.461419,4736.410141
16,0,4776.41014,4710.256295,4815.897318,4778.974242,4774.871678,4871.794753,4835.897318,4899.99988,4857.435779,4738.461423,4824.102446,4652.820399,4907.179367,4765.640909
17,0,4786.66655,4725.64091,4825.128087,4794.358857,4782.563986,4881.538342,4850.769112,4913.333213,4873.846035,4755.89732,4836.410138,4671.794758,4912.820393,4791.281934
18,0,4797.948601,4747.179371,4833.846036,4816.410139,4801.538344,4892.307573,4863.076804,4923.589623,4894.358855,4786.153729,4834.871677,4693.333219,4911.794752,4818.974241
19,0,4767.692191,4726.153731,4807.17937,4797.43578,4775.897319,4863.076804,4834.358856,4893.846034,4873.333214,4777.948601,4804.615267,4672.307578,4880.512701,4801.538344
20,0,4775.897319,4738.461423,4817.9486,4803.076806,4775.384499,4866.666548,4842.563984,4891.794752,4877.948599,4789.743473,4806.153729,4681.538347,4879.48706,4813.333216
21,0,4786.153729,4756.922961,4829.743472,4818.974241,4786.66655,4873.333214,4853.333215,4885.128086,4871.794753,4804.102447,4804.102447,4699.487065,4889.74347,4830.769113
22,0,4814.871677,4798.461421,4863.589625,4866.666548,4830.769113,4908.717829,4890.769111,4911.281931,4891.281932,4842.563984,4837.9486,4752.307576,4923.076803,4867.179368
23,0,4821.538344,4796.410139,4868.205009,4867.179368,4841.025523,4919.487059,4896.410137,4920.5127,4913.333213,4847.692189,4851.281933,4771.281935,4922.563982,4873.333214
24,0,4799.487062,4754.871679,4840.512702,4819.999882,4803.589626,4889.74347,4857.435779,4888.205009,4887.179368,4804.615267,4828.20501,4737.435782,4902.563983,4843.076805
25,0,4761.538345,4704.61527,4806.153729,4774.358858,4754.871679,4847.179369,4811.794754,4857.435779,4832.820395,4748.205012,4798.461421,4701.538347,4879.48706,4799.999883
26,0,4751.794756,4678.461424,4801.025524,4758.974243,4738.974243,4837.9486,4802.051165,4865.640907,4829.230651,4722.563987,4804.615267,4702.563988,4878.97424,4786.153729
27,0,4735.3845,4625.128092,4781.025524,4716.922962,4706.666552,4815.897318,4768.717832,4849.743471,4820.512703,4688.717834,4801.538344,4680.512706,4879.48706,4766.15373
28,0,4731.794756,4588.717837,4770.769114,4699.487065,4691.794757,4802.051165,4756.41014,4833.333215,4796.92296,4678.461424,4799.487062,4681.025527,4886.666547,4767.692191
29,0,4748.205012,4593.333221,4785.128088,4717.948603,4703.076808,4812.820395,4769.743473,4855.897317,4808.717831,4693.333219,4818.461421,4719.487064,4907.179367,4782.563986
30,0,4751.281935,4590.769119,4784.102447,4718.974244,4703.589629,4822.051164,4770.256294,4861.538343,4824.102446,4690.256296,4819.999882,4732.820397,4903.076803,4777.435781
31,0,4751.281935,4585.640914,4773.333217,4718.461423,4704.61527,4824.615267,4765.640909,4859.999881,4823.076805,4693.333219,4821.538344,4734.871679,4904.615265,4774.358858
32,0,4760.512704,4593.333221,4779.487063,4729.230654,4722.051167,4834.871677,4783.076806,4865.640907,4823.076805,4700.512706,4824.102446,4749.230653,4912.820393,4781.538345
33,0,4795.897319,4632.8204,4810.769113,4766.66655,4754.871679,4860.512702,4818.974241,4891.281932,4853.846035,4736.410141,4847.179369,4786.66655,4928.717828,4816.922959
34,0,4783.076806,4614.871682,4790.256293,4748.717833,4727.692192,4837.435779,4795.897319,4867.179368,4833.333215,4716.410141,4826.666549,4769.743473,4909.74347,4799.999883
35,0,4797.43578,4631.794759,4799.999883,4767.692191,4750.769115,4857.948599,4814.358857,4873.333214,4848.71783,4736.922961,4828.20501,4781.025524,4907.692188,4816.922959
36,0,4798.974242,4643.07681,4803.076806,4772.820396,4759.487063,4865.128086,4821.025523,4878.97424,4853.333215,4751.794756,4827.179369,4778.974242,4899.99988,4818.974241
37,0,4806.666549,4668.205014,4807.69219,4786.66655,4765.128089,4866.666548,4832.820395,4879.999881,4857.948599,4767.692191,4819.487062,4785.128088,4895.384496,4828.717831
38,0,4783.076806,4659.487066,4786.153729,4776.41014,4752.307576,4846.666548,4816.922959,4848.20501,4833.333215,4749.743474,4786.66655,4758.461422,4870.256291,4812.307575
39,0,4793.333216,4673.84604,4804.102447,4797.948601,4783.076806,4868.71783,4835.897318,4860.512702,4844.615266,4769.743473,4814.871677,4770.769114,4879.48706,4831.794754
40,0,4788.205011,4674.871681,4797.948601,4801.025524,4784.615268,4863.589625,4838.974241,4864.102445,4850.769112,4787.17937,4829.743472,4784.102447,4881.538342,4841.538343
41,0,4782.051165,4681.538347,4793.333216,4803.076806,4775.897319,4851.794753,4832.820395,4857.435779,4848.71783,4790.769114,4817.9486,4791.794755,4879.999881,4844.102446
42,0,4792.307575,4679.999886,4811.281934,4801.025524,4776.41014,4852.820394,4829.743472,4858.46142,4844.102446,4769.743473,4810.256293,4798.461421,4870.256291,4840.512702
43,0,4800.512703,4664.10245,4822.563985,4782.563986,4766.66655,4853.846035,4831.281933,4873.846035,4844.615266,4748.717833,4828.717831,4807.69219,4878.461419,4830.769113
44,0,4770.256294,4616.922964,4790.769114,4735.89732,4721.025526,4825.128087,4801.538344,4866.153727,4825.128087,4720.512705,4831.794754,4784.102447,4878.97424,4799.487062
45,0,4749.230653,4585.128093,4775.384499,4717.435782,4701.025526,4809.743472,4778.461422,4852.307574,4805.128088,4694.35886,4826.153728,4762.563986,4873.333214,4771.794755
46,0,4729.743474,4558.461427,4763.589627,4697.435783,4681.538347,4788.205011,4747.179371,4835.384497,4791.281934,4661.025527,4807.69219,4736.922961,4863.076804,4731.794756
47,0,4712.820398,4539.487068,4741.538346,4668.717835,4649.230656,4757.948602,4722.051167,4815.897318,4770.256294,4635.384502,4779.999883,4710.256295,4846.153728,4705.640911
48,0,4707.179372,4532.307581,4727.692192,4652.307579,4631.281938,4744.615269,4706.153731,4806.153729,4748.205012,4618.974246,4772.307576,4695.897321,4841.025523,4698.974244
49,0,4704.61527,4532.820402,4725.12809,4647.692194,4629.230656,4741.025525,4696.410142,4794.358857,4735.89732,4601.538349,4770.769114,4687.179373,4838.974241,4690.256296
50,0,4715.3845,4549.743478,4732.820397,4657.435784,4635.384502,4739.487064,4702.051167,4796.92296,4749.230653,4617.948605,4771.281935,4705.12809,4845.128087,4703.589629
51,0,4720.512705,4557.948606,4735.3845,4660.512707,4633.846041,4736.410141,4712.820398,4786.66655,4745.128089,4623.589631,4764.102448,4722.051167,4831.281933,4711.794757
52,0,4745.64091,4618.974246,4757.435781,4701.025526,4668.717835,4769.743473,4749.230653,4802.563985,4767.692191,4658.461425,4801.025524,4743.589628,4833.333215,4734.358859
53,0,4736.410141,4671.281937,4744.615269,4702.051167,4670.769117,4768.205012,4746.15373,4807.69219,4770.769114,4664.10245,4810.769113,4722.563987,4830.256292,4722.563987
54,0,4763.589627,4733.846038,4769.743473,4730.256295,4704.102449,4790.769114,4780.512704,4834.871677,4801.538344,4699.487065,4825.128087,4754.871679,4846.666548,4763.589627
55,0,4753.333217,4724.102449,4762.563986,4718.974244,4694.35886,4782.051165,4774.358858,4819.487062,4793.846037,4705.640911,4807.69219,4749.230653,4825.128087,4762.563986
56,0,4743.076807,4720.512705,4750.256294,4718.461423,4685.128091,4776.92296,4768.205012,4808.205011,4789.743473,4714.358859,4788.717832,4745.128089,4800.512703,4756.922961
57,0,4728.205013,4721.025526,4731.281936,4715.897321,4667.179373,4762.563986,4753.846038,4786.66655,4767.692191,4694.87168,4759.487063,4735.3845,4785.128088,4742.563987
58,0,4752.820397,4755.384499,4753.333217,4741.538346,4693.333219,4783.076806,4774.358858,4800.512703,4779.487063,4717.948603,4788.717832,4746.15373,4809.743472,4763.076807
59,0,4762.563986,4767.692191,4753.333217,4747.692192,4704.61527,4777.435781,4779.999883,4801.025524,4784.615268,4742.563987,4789.230652,4737.435782,4806.666549,4770.256294
60,0,4755.384499,4756.922961,4739.487064,4737.435782,4686.666552,4756.922961,4775.384499,4787.17937,4774.358858,4723.076808,4757.948602,4732.307577,4791.794755,4754.871679
61,0,4725.12809,4699.999885,4711.794757,4685.128091,4630.769118,4724.102449,4735.3845,4758.974243,4737.948602,4653.84604,4739.999884,4723.589628,4770.256294,4710.769116
62,0,4716.922962,4666.153732,4705.640911,4644.102451,4604.102452,4715.897321,4706.666552,4753.333217,4711.794757,4626.666554,4760.512704,4723.589628,4773.846037,4677.948604
63,0,4718.974244,4658.974245,4708.717834,4630.256297,4600.512708,4715.3845,4699.999885,4767.692191,4711.794757,4626.153733,4763.589627,4727.692192,4792.820396,4654.358861
64,0,4719.999885,4661.538348,4709.743475,4626.153733,4596.922965,4711.794757,4703.589629,4779.487063,4721.538346,4603.076811,4749.230653,4740.512705,4801.538344,4639.487066
65,0,4705.640911,4642.563989,4696.410142,4602.05117,4583.076811,4698.461424,4676.922963,4767.179371,4705.640911,4574.358863,4749.743474,4728.205013,4792.307575,4619.487067
66,0,4679.487065,4615.897323,4675.384501,4573.333222,4559.999888,4674.35886,4641.025528,4729.743474,4666.666553,4550.256299,4740.512705,4692.307578,4773.846037,4588.205016
67,0,4659.999886,4595.897324,4655.384502,4551.28194,4530.76912,4642.563989,4613.846041,4701.025526,4637.435784,4527.179376,4712.820398,4668.205014,4764.102448,4562.05117
68,0,4651.281938,4588.717837,4640.512707,4534.358863,4519.999889,4627.179374,4608.205016,4687.692193,4622.56399,4503.076813,4683.589629,4668.717835,4746.15373,4549.230658
69,0,4668.717835,4636.410143,4658.461425,4565.640914,4561.53835,4655.384502,4637.948605,4711.794757,4653.84604,4538.461427,4699.999885,4696.410142,4752.307576,4572.820401
70,0,4634.358861,4629.230656,4629.230656,4547.179376,4545.128094,4634.358861,4616.410144,4690.769116,4632.307579,4521.538351,4674.35886,4663.076809,4737.948602,4543.076812
71,0,4614.358862,4609.230657,4608.205016,4531.794761,4525.640915,4612.30758,4596.410144,4664.10245,4606.153734,4489.74348,4641.538348,4639.487066,4713.846039,4522.563992
72,0,4595.897324,4584.102452,4588.205016,4512.820402,4504.615274,4582.563991,4566.666555,4630.256297,4575.897324,4461.025532,4606.666554,4609.230657,4673.84604,4498.974249
73,0,4588.205016,4599.999888,4588.717837,4524.615274,4513.846043,4578.974247,4579.999888,4623.589631,4570.769119,4492.307582,4596.922965,4623.07681,4659.999886,4512.307582
74,0,4548.717837,4585.640914,4562.05117,4511.281941,4498.461428,4553.333222,4572.307581,4600.512708,4538.974248,4497.948608,4573.846042,4621.538349,4648.205015,4505.128095
75,0,4564.102452,4614.358862,4571.281939,4538.974248,4526.666556,4567.179375,4595.384503,4614.358862,4555.897324,4521.02553,4593.846042,4648.717835,4663.58963,4539.999889
76,0,4586.153734,4642.051169,4580.512709,4560.512709,4547.692196,4573.333222,4606.666554,4622.56399,4570.769119,4542.051171,4608.205016,4670.769117,4668.717835,4573.846042
77,0,4594.358862,4649.743476,4592.30758,4574.358863,4556.410145,4578.461427,4614.871682,4624.615272,4568.717837,4556.922965,4606.666554,4688.205014,4675.384501,4587.179375
78,0,4541.53835,4602.05117,4548.205017,4534.871684,4509.743479,4535.384504,4575.384504,4580.512709,4517.948607,4511.794761,4555.384504,4644.615271,4637.948605,4534.871684
79,0,4485.640916,4553.846042,4501.538351,4481.025531,4466.666557,4488.205018,4533.846043,4536.410145,4465.640916,4459.48707,4514.871684,4581.53835,4602.05117,4479.99989
80,0,4457.435788,4510.2563,4485.128095,4431.794763,4441.538353,4464.102455,4507.692197,4515.384505,4445.640917,4419.487071,4490.2563,4547.692196,4583.076811,4445.128096
81,0,4454.358865,4481.025531,4487.692198,4407.179379,4425.128097,4471.794762,4492.820403,4517.948607,4451.281942,4392.820405,4488.717839,4532.307581,4585.128093,4422.563994
82,0,4451.794763,4456.410147,4487.692198,4391.281944,4411.794764,4483.589634,4474.358865,4530.256299,4455.897327,4368.205021,4502.051172,4506.666556,4597.948606,4401.025533
83,0,4471.281942,4465.128096,4515.384505,4398.974251,4436.922968,4509.743479,4496.922967,4563.589632,4479.99989,4369.743483,4531.28194,4526.666556,4616.410144,4421.538353
84,0,4493.846044,4473.846044,4537.435786,4404.102456,4448.71784,4518.974248,4509.230659,4587.692196,4498.461428,4380.512713,4557.435786,4566.666555,4629.743477,4450.256301
85,0,4487.692198,4461.025532,4531.28194,4392.820405,4429.230661,4502.051172,4494.871685,4574.871683,4489.230659,4369.230662,4559.487068,4569.230657,4631.794759,4446.153737
86,0,4495.384505,4475.897326,4539.999889,4413.333225,4439.999891,4502.563992,4498.461428,4584.102452,4503.589633,4385.640918,4572.820401,4575.384504,4652.820399,4462.051173
87,0,4502.563992,4498.974249,4545.640914,4428.71784,4456.410147,4516.922966,4511.794761,4592.820401,4509.230659,4391.794764,4582.563991,4586.666555,4658.461425,4478.974249
88,0,4519.999889,4535.897325,4565.640914,4463.589634,4493.333223,4553.846042,4544.102453,4615.384503,4530.76912,4425.128097,4604.102452,4614.871682,4670.769117,4508.205018
89,0,4517.435787,4543.589632,4568.717837,4479.99989,4504.102454,4553.333222,4551.28194,4617.435785,4532.307581,4442.563994,4601.025529,4613.333221,4671.281937,4513.846043
90,0,4558.461427,4598.461426,4603.589631,4531.794761,4552.820401,4589.230657,4598.461426,4654.358861,4581.025529,4501.538351,4635.384502,4665.128091,4690.769116,4572.820401
91,0,4563.076811,4614.358862,4607.179375,4549.230658,4564.102452,4605.640913,4609.743477,4657.948604,4598.461426,4523.076812,4641.025528,4675.897322,4688.205014,4592.820401
92,0,4552.307581,4628.717836,4605.640913,4569.743478,4569.743478,4601.025529,4622.56399,4645.640912,4588.717837,4537.948607,4621.538349,4659.999886,4685.640911,4592.820401
93,0,4523.589633,4625.640913,4577.435786,4562.563991,4558.461427,4568.205016,4618.461426,4619.999887,4553.333222,4531.794761,4588.205016,4634.871682,4664.10245,4579.487068
94,0,4531.28194,4644.615271,4579.999888,4578.974247,4578.974247,4583.076811,4638.461425,4625.128092,4560.512709,4549.230658,4602.56399,4655.897322,4662.563989,4609.230657
95,0,4509.743479,4626.666554,4557.435786,4564.615273,4565.128093,4570.769119,4621.538349,4603.076811,4542.051171,4534.358863,4589.230657,4638.974246,4639.487066,4585.128093
96,0,4511.281941,4623.589631,4554.871683,4559.999888,4564.102452,4565.640914,4624.615272,4606.666554,4538.974248,4536.922966,4583.076811,4639.487066,4639.487066,4565.128093
97,0,4533.333222,4626.153733,4565.128093,4563.076811,4572.820401,4574.358863,4636.410143,4621.538349,4562.563991,4549.743478,4594.358862,4672.307578,4667.179373,4590.769119
98,0,4538.974248,4612.30758,4566.153734,4559.999888,4563.076811,4578.974247,4625.128092,4620.512708,4567.179375,4549.230658,4623.589631,4674.35886,4687.179373,4609.743477
99,0,4510.76912,4557.435786,4543.076812,4513.846043,4516.410146,4559.999888,4570.769119,4599.999888,4535.897325,4499.487069,4621.538349,4618.461426,4667.692194,4561.53835
100,0,4507.179377,4525.128094,4544.615273,4475.897326,4493.846044,4557.948606,4544.102453,4598.461426,4533.846043,4456.922968,4603.076811,4599.999888,4658.974245,4526.153735
101,0,4531.794761,4527.692197,4566.153734,4474.358865,4496.922967,4564.102452,4552.307581,4615.897323,4554.871683,4457.435788,4611.794759,4627.692195,4683.589629,4532.307581
102,0,4544.102453,4531.28194,4570.769119,4482.563993,4502.563992,4570.769119,4562.563991,4624.102451,4557.948606,4463.589634,4628.205015,4638.461425,4697.435783,4539.999889
103,0,4518.461428,4497.948608,4544.102453,4461.025532,4487.179377,4558.974247,4532.820402,4612.30758,4541.53835,4435.897327,4607.179375,4600.512708,4681.025527,4516.922966
104,0,4490.2563,4464.102455,4521.02553,4433.333225,4462.051173,4533.333222,4501.025531,4587.179375,4517.948607,4396.922969,4558.974247,4569.230657,4655.897322,4485.128095
105,0,4501.025531,4481.025531,4527.692197,4450.769122,4469.23066,4533.846043,4510.2563,4586.153734,4516.922966,4414.871687,4556.410145,4581.025529,4654.871681,4491.281941
106,0,4489.230659,4472.820403,4512.307582,4440.512712,4461.025532,4528.205017,4506.666556,4571.79476,4498.974249,4408.717841,4553.846042,4570.769119,4643.07681,4481.025531
107,0,4496.922967,4481.538352,4519.487069,4448.71784,4476.410147,4543.589632,4524.102453,4583.076811,4514.358864,4420.512712,4558.461427,4588.205016,4645.128092,4493.333223
108,0,4506.666556,4495.384505,4527.179376,4467.179378,4488.717839,4548.717837,4535.897325,4589.743478,4522.563992,4440.512712,4555.384504,4606.666554,4640.512707,4498.974249
109,0,4545.128094,4555.897324,4562.05117,4530.256299,4546.153735,4584.615273,4579.999888,4615.384503,4559.487068,4502.051172,4585.128093,4653.84604,4657.948604,4548.717837
110,0,4544.615273,4578.461427,4562.05117,4550.769119,4564.615273,4588.205016,4592.820401,4611.794759,4566.666555,4527.179376,4585.640914,4645.128092,4656.922963,4561.025529
111,0,4565.128093,4614.358862,4577.948606,4587.692196,4589.743478,4603.076811,4628.205015,4628.717836,4591.281939,4572.820401,4599.999888,4665.128091,4677.435783,4587.692196
112,0,4551.28194,4607.692195,4561.025529,4587.692196,4583.589632,4582.563991,4618.974246,4613.846041,4571.79476,4573.846042,4587.179375,4674.871681,4674.35886,4586.666555
113,0,4547.179376,4605.640913,4564.102452,4589.230657,4589.230657,4584.615273,4618.974246,4610.769118,4559.999888,4570.256298,4586.153734,4687.692193,4673.333219,4599.487067
114,0,4532.820402,4593.846042,4558.974247,4578.461427,4576.922965,4572.820401,4610.256298,4599.487067,4552.307581,4565.640914,4569.743478,4675.897322,4659.999886,4600.512708
115,0,4524.102453,4591.281939,4551.28194,4578.974247,4574.358863,4566.153734,4610.256298,4597.435785,4557.435786,4568.717837,4558.461427,4658.974245,4652.820399,4594.871683
116,0,4505.128095,4553.333222,4530.76912,4548.205017,4547.179376,4554.871683,4584.102452,4578.974247,4536.922966,4526.153735,4538.974248,4628.205015,4635.897323,4559.999888
117,0,4486.153736,4503.589633,4522.051171,4499.99989,4503.589633,4539.999889,4545.640914,4557.948606,4504.102454,4474.871685,4530.76912,4594.358862,4629.743477,4516.410146
118,0,4459.48707,4454.358865,4508.205018,4446.153737,4455.384506,4509.743479,4503.589633,4539.999889,4482.563993,4437.948609,4522.051171,4567.692196,4621.538349,4481.025531
119,0,4459.48707,4428.20502,4504.102454,4422.051174,4439.487071,4501.025531,4490.2563,4537.435786,4477.435788,4405.640918,4523.589633,4567.692196,4613.333221,4478.974249
120,0,4486.666557,4426.153738,4516.410146,4425.640917,4448.71784,4527.179376,4496.922967,4559.487068,4491.281941,4390.769123,4549.230658,4573.333222,4624.102451,4490.2563
121,0,4509.230659,4452.307583,4539.999889,4448.71784,4474.871685,4561.025529,4521.02553,4589.743478,4524.102453,4421.025533,4578.974247,4576.410145,4646.153733,4510.2563
122,0,4528.717838,4484.615275,4563.076811,4477.435788,4498.974249,4575.384504,4543.589632,4616.410144,4554.871683,4467.179378,4608.205016,4584.615273,4673.84604,4537.948607
123,0,4540.512709,4480.512711,4569.230657,4481.025531,4499.487069,4570.256298,4547.179376,4620.512708,4554.358863,4462.051173,4610.769118,4591.79476,4685.640911,4551.79476
124,0,4552.820401,4488.717839,4575.384504,4493.333223,4511.794761,4580.512709,4556.410145,4626.153733,4564.102452,4466.153737,4611.794759,4602.56399,4689.743475,4574.871683
125,0,4503.589633,4458.97425,4529.230658,4456.922968,4474.871685,4547.179376,4524.615274,4582.05117,4519.999889,4438.46143,4569.230657,4550.256299,4649.743476,4533.846043
126,0,4474.871685,4444.615276,4503.076813,4443.076814,4459.999891,4527.179376,4512.307582,4559.487068,4494.871685,4434.871686,4542.051171,4519.999889,4629.743477,4509.230659
127,0,4468.205019,4447.179378,4496.922967,4448.71784,4462.051173,4522.051171,4512.820402,4554.871683,4496.922967,4435.384507,4526.666556,4504.102454,4621.025528,4504.615274
128,0,4501.538351,4503.589633,4528.205017,4499.99989,4500.51271,4553.333222,4553.333222,4573.333222,4527.692197,4483.589634,4542.563991,4535.384504,4633.846041,4550.256299
0,0,4509.230659,4526.153735,4535.897325,4521.02553,4505.640915,4549.230658,4554.358863,4559.999888,4514.358864,4502.563992,4543.076812,4548.717837,4637.435784,4575.384504
1,0,4528.717838,4555.897324,4558.974247,4555.384504,4538.974248,4565.640914,4577.435786,4571.79476,4530.76912,4533.333222,4573.846042,4579.999888,4658.974245,4611.794759
2,0,4500.51271,4538.974248,4533.333222,4537.948607,4524.102453,4551.28194,4569.743478,4564.615273,4525.128094,4528.717838,4564.615273,4567.179375,4641.025528,4589.743478
3,0,4486.153736,4532.307581,4517.435787,4531.794761,4511.281941,4546.153735,4571.281939,4567.179375,4519.487069,4531.794761,4546.153735,4561.53835,4627.692195,4579.487068
4,0,4499.487069,4544.615273,4528.205017,4548.205017,4524.615274,4551.79476,4587.179375,4572.820401,4527.692197,4548.717837,4550.256299,4570.256298,4633.846041,4602.56399
5,0,4533.846043,4568.717837,4565.640914,4572.820401,4550.769119,4581.53835,4619.487067,4601.538349,4561.53835,4573.846042,4597.948606,4584.615273,4666.666553,4624.615272
6,0,4545.640914,4543.076812,4576.922965,4552.307581,4536.410145,4598.974247,4611.794759,4615.897323,4572.820401,4551.28194,4616.410144,4577.948606,4676.410142,4601.025529
7,0,4564.615273,4522.051171,4584.102452,4537.435786,4524.102453,4614.358862,4598.974247,4622.56399,4573.333222,4524.615274,4621.538349,4586.153734,4682.563988,4597.435785
8,0,4572.820401,4506.153736,4587.692196,4526.666556,4510.76912,4607.692195,4575.897324,4625.128092,4572.820401,4503.076813,4631.281938,4585.128093,4692.820398,4601.538349
9,0,4546.153735,4464.615275,4567.692196,4491.281941,4480.512711,4575.384504,4541.53835,4610.256298,4555.897324,4458.97425,4616.410144,4545.640914,4679.487065,4574.358863
10,0,4505.128095,4404.615277,4529.230658,4436.410148,4436.922968,4536.922966,4499.99989,4578.974247,4516.922966,4412.307584,4581.53835,4488.717839,4654.358861,4523.589633
11,0,4501.025531,4382.563995,4521.538351,4421.025533,4421.025533,4532.307581,4491.794762,4559.487068,4494.871685,4397.43579,4558.461427,4467.692198,4646.666553,4510.2563
12,0,4520.51271,4406.153738,4542.051171,4449.23066,4437.435789,4543.076812,4501.025531,4568.205016,4504.102454,4407.6922,4563.589632,4478.974249,4653.33322,4536.410145
13,0,4477.435788,4367.692201,4504.102454,4411.281943,4401.025533,4503.076813,4465.640916,4533.846043,4465.128096,4361.538355,4533.333222,4434.358866,4618.974246,4502.051172
14,0,4438.46143,4322.051176,4464.102455,4368.205021,4367.17938,4474.871685,4443.589635,4508.205018,4435.897327,4338.461432,4505.128095,4395.384508,4594.358862,4465.128096
15,0,4391.281944,4282.051177,4419.487071,4330.256304,4323.589638,4430.769122,4406.666559,4463.076814,4388.205021,4308.717843,4457.948609,4343.589637,4556.922965,4417.94861
16,0,4387.17938,4310.769125,4418.46143,4352.307586,4329.743484,4423.589635,4414.871687,4446.153737,4376.410149,4330.256304,4445.128096,4338.461432,4543.589632,4425.128097
17,0,4417.435789,4355.384509,4445.128096,4398.974251,4368.717842,4450.769122,4453.333224,4468.205019,4404.615277,4382.051175,4463.589634,4369.743483,4564.102452,4463.589634
18,0,4487.692198,4432.307584,4506.153736,4490.2563,4457.435788,4524.615274,4538.461427,4535.897325,4485.640916,4471.281942,4522.563992,4443.076814,4614.358862,4546.153735
19,0,4481.025531,4446.153737,4499.99989,4503.589633,4466.153737,4524.102453,4552.307581,4535.384504,4485.128095,4480.512711,4514.871684,4450.769122,4607.692195,4555.897324
20,0,4493.333223,4467.179378,4515.384505,4521.02553,4476.922967,4531.28194,4567.179375,4541.53835,4487.692198,4496.922967,4526.666556,4474.358865,4617.948605,4582.05117
21,0,4524.102453,4493.846044,4541.53835,4556.922965,4510.76912,4556.410145,4589.230657,4565.128093,4520.51271,4546.153735,4557.435786,4493.333223,4641.538348,4614.871682
22,0,4534.358863,4501.538351,4550.256299,4570.256298,4528.205017,4566.666555,4599.999888,4574.358863,4533.846043,4561.53835,4556.922965,4488.205018,4644.102451,4610.256298
23,0,4490.769121,4447.179378,4510.76912,4513.333223,4474.358865,4516.922966,4551.28194,4523.589633,4476.410147,4483.589634,4494.358864,4443.589635,4595.897324,4556.410145
24,0,4472.307583,4424.102456,4494.871685,4489.74348,4452.307583,4496.922967,4522.563992,4505.128095,4454.358865,4450.256301,4483.076813,4424.615276,4582.563991,4531.28194
25,0,4485.640916,4420.512712,4508.717838,4489.230659,4458.97425,4516.922966,4512.307582,4528.205017,4482.051172,4457.435788,4516.410146,4429.230661,4606.153734,4524.102453
26,0,4498.974249,4399.487072,4522.563992,4462.563993,4438.46143,4528.717838,4497.948608,4538.974248,4485.128095,4431.281943,4529.230658,4434.871686,4610.769118,4507.692197
27,0,4480.512711,4349.743483,4502.563992,4410.256302,4389.743482,4502.051172,4466.666557,4528.717838,4461.025532,4386.666559,4521.538351,4424.102456,4592.30758,4471.281942
28,0,4462.563993,4317.948612,4485.128095,4390.769123,4379.487072,4493.333223,4466.153737,4532.307581,4462.051173,4374.871688,4516.922966,4419.487071,4593.846042,4449.23066
29,0,4465.128096,4314.358869,4484.615275,4396.410149,4388.205021,4504.102454,4471.281942,4547.692196,4477.948608,4378.974252,4524.615274,4425.128097,4611.281939,4454.871686
30,0,4454.358865,4297.948613,4471.794762,4381.025534,4366.66656,4487.692198,4451.794763,4530.256299,4456.410147,4351.281945,4514.871684,4404.615277,4600.512708,4446.153737
31,0,4452.820404,4304.102459,4474.358865,4391.281944,4370.256303,4486.666557,4456.410147,4528.717838,4453.333224,4355.897329,4509.743479,4411.794764,4594.358862,4446.153737
32,0,4442.563994,4303.589638,4471.794762,4392.307585,4368.717842,4482.563993,4456.922968,4524.102453,4450.256301,4359.999893,4498.974249,4413.846046,4585.640914,4435.384507
33,0,4452.820404,4317.435792,4481.538352,4403.076815,4376.92297,4486.153736,4462.563993,4524.102453,4454.358865,4371.794765,4500.51271,4403.076815,4581.53835,4441.025532
34,0,4444.102455,4312.307587,4468.205019,4398.461431,4366.153739,4467.179378,4448.71784,4500.51271,4432.307584,4359.487073,4478.461429,4367.17938,4555.897324,4428.71784
35,0,4469.23066,4365.128098,4493.333223,4453.846045,4409.743482,4494.358864,4488.717839,4514.871684,4455.897327,4409.230661,4497.948608,4411.281943,4565.640914,4475.897326
36,0,4472.820403,4399.999892,4499.99989,4483.076813,4442.051173,4504.102454,4515.897325,4515.897325,4456.922968,4445.128096,4512.820402,4445.640917,4573.846042,4499.487069
37,0,4483.589634,4424.102456,4509.743479,4502.563992,4467.692198,4518.461428,4544.615273,4531.28194,4465.640916,4477.948608,4534.871684,4465.128096,4591.281939,4529.743479
38,0,4463.076814,4413.333225,4486.153736,4491.281941,4448.205019,4499.99989,4532.307581,4519.999889,4457.435788,4477.435788,4518.461428,4457.435788,4582.563991,4533.846043
39,0,4447.692199,4407.6922,4468.205019,4488.717839,4441.025532,4484.615275,4525.128094,4506.153736,4453.846045,4481.025531,4510.2563,4465.128096,4575.897324,4534.358863
40,0,4393.333226,4347.179381,4415.384507,4438.97425,4394.871687,4431.281943,4471.794762,4454.358865,4398.461431,4438.97425,4481.025531,4416.922969,4546.153735,4486.666557
41,0,4360.512714,4307.179382,4387.6922,4400.512713,4361.538355,4407.179379,4435.384507,4424.102456,4365.128098,4406.666559,4451.794763,4380.512713,4531.28194,4461.538352
42,0,4362.051175,4298.974254,4392.307585,4384.615277,4356.92297,4414.871687,4434.871686,4424.102456,4375.897329,4393.333226,4435.897327,4391.794764,4525.640915,4475.897326
43,0,4376.92297,4299.487074,4408.717841,4379.999893,4362.051175,4428.20502,4445.640917,4439.999891,4384.615277,4392.307585,4464.615275,4406.666559,4532.820402,4486.666557
44,0,4364.102457,4256.922973,4398.974251,4339.999894,4328.717843,4415.384507,4417.435789,4438.97425,4371.281944,4364.102457,4478.461429,4375.384508,4535.384504,4445.128096
45,0,4369.230662,4230.769127,4405.128097,4318.461433,4311.794766,4419.999892,4400.512713,4442.563994,4377.43579,4337.948612,4467.179378,4364.102457,4540.512709,4414.358866
46,0,4398.461431,4239.487076,4422.563994,4329.743484,4322.051176,4432.307584,4397.43579,4455.897327,4389.743482,4324.615279,4469.23066,4387.6922,4546.153735,4415.384507
47,0,4411.281943,4243.076819,4427.179379,4332.307586,4331.794766,4442.051173,4403.589636,4456.410147,4388.717841,4310.256305,4483.076813,4396.922969,4549.743478,4421.025533
48,0,4425.128097,4256.922973,4443.076814,4340.512714,4349.743483,4463.076814,4419.999892,4477.435788,4412.307584,4332.307586,4513.333223,4405.128097,4570.769119,4438.97425
49,0,4429.743481,4257.948614,4452.307583,4339.999894,4353.333227,4465.640916,4423.076815,4495.384505,4423.076815,4347.692201,4531.794761,4426.666558,4579.999888,4461.025532
50,0,4441.025532,4272.820408,4456.410147,4358.461432,4369.230662,4471.281942,4442.563994,4513.333223,4436.922968,4371.281944,4541.53835,4470.769121,4588.717837,4499.99989
51,0,4422.051174,4268.717844,4432.307584,4352.820406,4362.051175,4455.897327,4437.948609,4498.461428,4427.179379,4368.717842,4524.102453,4455.384506,4574.358863,4497.435787
52,0,4434.871686,4296.922972,4443.589635,4374.358867,4381.025534,4465.640916,4445.640917,4503.076813,4438.46143,4393.846046,4530.76912,4458.461429,4574.358863,4514.358864
53,0,4437.948609,4309.230664,4448.71784,4381.025534,4385.128098,4461.025532,4450.769122,4490.2563,4427.692199,4393.846046,4506.666556,4470.256301,4557.435786,4518.461428
54,0,4459.999891,4354.358868,4469.23066,4425.128097,4417.435789,4484.615275,4499.99989,4505.128095,4445.128096,4439.487071,4516.922966,4516.410146,4562.563991,4572.307581
55,0,4452.307583,4372.820406,4453.846045,4442.051173,4421.538353,4479.99989,4499.99989,4499.487069,4445.640917,4466.666557,4522.051171,4510.76912,4558.974247,4591.281939
56,0,4461.538352,4394.358867,4457.435788,4459.48707,4445.128096,4489.230659,4511.794761,4505.640915,4464.615275,4483.076813,4513.846043,4501.025531,4561.53835,4591.79476
57,0,4467.179378,4405.640918,4462.563993,4466.666557,4455.897327,4490.2563,4524.615274,4506.153736,4459.999891,4478.974249,4497.948608,4494.358864,4551.79476,4584.102452
58,0,4496.410146,4445.128096,4490.2563,4505.640915,4486.153736,4518.461428,4552.307581,4528.205017,4472.820403,4513.333223,4527.179376,4519.999889,4568.205016,4622.56399
59,0,4481.538352,4432.307584,4467.692198,4491.281941,4468.717839,4508.205018,4537.948607,4517.435787,4467.179378,4513.333223,4510.2563,4507.692197,4557.948606,4628.205015
60,0,4448.71784,4397.94861,4433.333225,4446.666558,4434.358866,4477.435788,4516.922966,4497.948608,4445.640917,4481.025531,4483.076813,4477.948608,4535.897325,4594.358862
61,0,4445.128096,4369.230662,4428.71784,4413.846046,4420.512712,4471.794762,4504.615274,4494.358864,4438.46143,4449.743481,4494.871685,4464.102455,4532.820402,4563.589632
62,0,4505.128095,4393.333226,4482.563993,4444.615276,4449.23066,4524.102453,4528.205017,4542.563991,4493.333223,4468.717839,4553.333222,4504.102454,4575.897324,4596.922965
63,0,4546.666555,4406.153738,4522.563992,4461.025532,4454.358865,4550.769119,4527.692197,4584.102452,4530.256299,4472.307583,4588.717837,4528.717838,4606.666554,4622.56399
64,0,4533.846043,4376.92297,4513.333223,4429.230661,4434.871686,4537.435786,4506.666556,4575.384504,4512.820402,4437.435789,4568.205016,4507.692197,4595.897324,4591.281939
65,0,4501.538351,4337.435791,4487.692198,4386.666559,4406.153738,4511.281941,4480.512711,4551.28194,4489.230659,4406.666559,4534.871684,4485.128095,4572.820401,4550.256299
66,0,4477.948608,4303.076818,4464.615275,4351.281945,4370.256303,4486.153736,4454.358865,4527.692197,4462.563993,4373.846047,4514.358864,4469.23066,4552.820401,4537.948607
67,0,4463.076814,4292.820408,4445.640917,4339.487073,4355.384509,4471.794762,4435.384507,4516.410146,4442.563994,4356.41015,4503.076813,4449.23066,4542.051171,4530.76912
68,0,4430.256302,4272.820408,4418.46143,4315.89733,4331.794766,4451.794763,4417.435789,4485.640916,4408.20502,4325.128099,4460.512711,4416.922969,4514.358864,4504.102454
69,0,4457.948609,4311.794766,4449.23066,4353.333227,4363.589637,4482.051172,4455.384506,4509.230659,4440.512712,4360.512714,4484.615275,4454.871686,4534.871684,4544.615273
70,0,4503.589633,4373.846047,4490.769121,4415.384507,4415.384507,4520.51271,4498.461428,4556.922965,4492.820403,4421.025533,4545.640914,4501.538351,4574.358863,4594.871683
71,0,4541.53835,4439.999891,4523.076812,4475.384506,4464.615275,4550.769119,4539.487068,4588.205016,4526.666556,4486.666557,4575.384504,4545.128094,4592.30758,4639.487066
72,0,4495.897326,4415.384507,4485.640916,4447.692199,4431.281943,4506.666556,4503.076813,4529.743479,4469.23066,4462.563993,4509.230659,4506.666556,4545.640914,4594.871683
73,0,4475.384506,4412.820405,4468.717839,4449.743481,4427.179379,4491.794762,4498.461428,4498.461428,4445.640917,4459.999891,4477.435788,4482.051172,4529.230658,4580.512709
74,0,4451.281942,4410.256302,4438.97425,4443.076814,4414.871687,4465.128096,4490.769121,4477.948608,4428.71784,4455.897327,4461.538352,4456.922968,4511.794761,4572.820401
75,0,4441.538353,4415.897328,4428.20502,4435.897327,4411.794764,4450.256301,4488.717839,4462.563993,4411.794764,4451.281942,4453.333224,4448.71784,4498.461428,4577.948606
76,0,4455.384506,4430.256302,4434.871686,4448.71784,4421.025533,4461.538352,4495.897326,4460.512711,4408.20502,4461.025532,4448.205019,4452.307583,4500.51271,4597.435785
77,0,4513.846043,4484.615275,4477.948608,4504.615274,4470.256301,4512.820402,4546.153735,4511.281941,4464.102455,4516.410146,4493.333223,4499.487069,4536.410145,4650.256297
78,0,4524.102453,4485.640916,4479.99989,4502.563992,4476.922967,4515.384505,4550.769119,4520.51271,4476.922967,4514.871684,4508.717838,4504.615274,4533.846043,4649.230656
79,0,4521.538351,4484.102454,4481.538352,4496.922967,4478.974249,4519.487069,4546.153735,4523.076812,4475.897326,4501.538351,4516.922966,4501.538351,4538.974248,4639.999887
80,0,4522.563992,4468.717839,4483.589634,4478.461429,4464.615275,4525.640915,4521.02553,4534.358863,4484.102454,4480.512711,4519.487069,4497.948608,4551.28194,4633.846041
81,0,4498.974249,4414.871687,4460.512711,4419.487071,4413.846046,4498.974249,4464.615275,4514.871684,4457.435788,4421.538353,4497.435787,4457.435788,4527.692197,4590.256298
82,0,4454.358865,4355.897329,4429.743481,4356.41015,4355.384509,4458.461429,4412.820405,4487.179377,4414.871687,4366.66656,4468.717839,4410.769123,4496.410146,4531.794761
83,0,4442.051173,4345.640919,4434.358866,4347.179381,4347.179381,4461.538352,4419.487071,4494.358864,4418.46143,4362.563996,4474.358865,4407.6922,4498.461428,4527.692197
84,0,4436.922968,4344.615278,4432.820404,4346.66656,4350.256304,4464.615275,4422.563994,4504.102454,4431.794763,4361.025534,4480.512711,4404.102456,4501.025531,4527.692197
85,0,4396.922969,4299.999895,4393.333226,4299.487074,4307.692202,4424.102456,4379.999893,4466.153737,4387.17938,4305.1281,4440.512712,4367.17938,4466.666557,4487.179377
86,0,4378.461431,4281.025536,4378.974252,4283.076818,4292.820408,4404.102456,4362.051175,4448.71784,4368.205021,4292.307587,4432.307584,4357.948611,4454.871686,4473.846044
87,0,4356.41015,4271.794767,4365.640919,4274.35887,4283.076818,4385.128098,4349.230663,4428.71784,4344.615278,4283.589639,4425.640917,4332.307586,4443.076814,4449.743481
88,0,4362.563996,4300.512715,4374.871688,4302.051177,4299.487074,4391.794764,4365.640919,4427.692199,4344.102458,4295.38451,4420.512712,4335.89733,4439.999891,4453.846045
89,0,4365.128098,4317.948612,4373.333226,4320.512715,4309.230664,4393.333226,4377.43579,4425.128097,4352.307586,4312.820407,4408.717841,4348.205022,4428.71784,4457.948609
90,0,4382.051175,4364.615278,4387.6922,4365.640919,4352.820406,4416.922969,4417.435789,4440.512712,4373.846047,4369.230662,4431.794763,4379.487072,4441.538353,4505.640915
91,0,4354.871688,4378.461431,4367.17938,4373.846047,4361.538355,4405.640918,4424.615276,4417.94861,4347.179381,4374.358867,4409.230661,4370.256303,4427.179379,4514.358864
92,0,4361.025534,4413.333225,4379.487072,4404.615277,4381.538354,4415.897328,4449.23066,4427.692199,4363.589637,4398.461431,4406.666559,4395.384508,4431.281943,4540.512709
93,0,4367.17938,4429.743481,4390.256303,4424.102456,4388.717841,4422.051174,4452.307583,4437.948609,4386.153739,4422.563994,4426.666558,4409.743482,4436.922968,4550.256299
94,0,4381.025534,4446.153737,4405.128097,4446.666558,4413.333225,4446.153737,4472.820403,4452.307583,4408.717841,4450.256301,4448.71784,4423.589635,4438.46143,4564.102452
95,0,4354.871688,4426.666558,4382.563995,4426.666558,4394.358867,4422.051174,4451.794763,4426.153738,4378.461431,4428.20502,4407.179379,4398.974251,4400.512713,4548.717837
96,0,4342.563996,4427.179379,4379.487072,4418.46143,4384.615277,4411.281943,4439.487071,4413.846046,4358.974252,4415.897328,4390.769123,4395.897328,4388.717841,4545.640914
97,0,4323.076817,4399.999892,4369.743483,4397.94861,4371.794765,4406.666559,4424.102456,4407.6922,4356.41015,4398.461431,4400.512713,4386.153739,4390.769123,4528.205017
