title:A                                                                               , recorded:02.07.20 13.03.30, sampling:128, subject:S                                                                               , labels:COUNTER INTERPOLATED AF3 F7 F3 FC5 T7 P7 O1 O2 P8 T8 FC6 F4 F8 AF4,, units:emotiv,,,,,,,,,
127,0,4104.102464,4222.051179,4212.82041,4207.692205,4230.256307,4192.30759,4227.692204,4287.179382,4359.999893,4235.384512,4257.948614,4221.538358,4208.717846,4234.358871
128,0,4098.974259,4217.948615,4199.487077,4192.30759,4224.102461,4189.743487,4221.025538,4278.461434,4353.333227,4231.281948,4255.384511,4218.461435,4205.128102,4232.307589
0,0,4092.307592,4216.410153,4198.461436,4192.82041,4211.794769,4181.538359,4223.07682,4279.487075,4351.794765,4219.487076,4249.743486,4216.410153,4199.999897,4235.897332
1,0,4103.076823,4220.512717,4208.717846,4205.640923,4227.692204,4174.358872,4229.230666,4285.1281,4354.871688,4216.922974,4253.84605,4224.615281,4202.051179,4240.512717
2,0,4111.281951,4220.512717,4216.410153,4212.307589,4230.769127,4175.897334,4225.640922,4278.461434,4351.794765,4224.102461,4259.999896,4229.743486,4205.640923,4243.076819
3,0,4106.153746,4217.435794,4217.435794,4207.692205,4204.615282,4189.230667,4218.461435,4273.846049,4351.281945,4227.692204,4259.487075,4227.179384,4206.153743,4244.615281
4,0,4105.640925,4219.999897,4218.461435,4207.692205,4198.461436,4197.948615,4224.102461,4278.461434,4360.512714,4232.820409,4257.948614,4224.615281,4207.692205,4246.666563
5,0,4112.307592,4221.538358,4219.487076,4211.281948,4215.897333,4197.948615,4234.358871,4283.076818,4363.076816,4239.487076,4263.076819,4228.205025,4209.230666,4251.281947
6,0,4103.589643,4214.871692,4207.692205,4199.999897,4213.33323,4192.82041,4228.205025,4279.999895,4348.205022,4225.640922,4256.922973,4218.974256,4201.538359,4244.615281
7,0,4095.384515,4211.281948,4198.461436,4193.846051,4200.512718,4185.640923,4217.435794,4270.256306,4336.41015,4209.230666,4245.640922,4207.179384,4193.846051,4230.769127
8,0,4105.640925,4219.487076,4209.230666,4211.281948,4212.307589,4190.769128,4226.153743,4267.692203,4342.563996,4216.410153,4249.230665,4213.846051,4197.948615,4234.358871
9,0,4113.846053,4223.58964,4218.461435,4219.487076,4225.128102,4204.102461,4232.820409,4269.743485,4346.15374,4217.435794,4255.897332,4220.512717,4201.538359,4241.538358
10,0,4104.615284,4217.435794,4212.82041,4206.153743,4216.410153,4203.589641,4224.615281,4268.717844,4340.512714,4206.153743,4249.743486,4209.743487,4197.948615,4231.794768
11,0,4106.666566,4215.384512,4209.230666,4199.999897,4209.743487,4195.384513,4223.07682,4274.35887,4344.615278,4211.794769,4247.179383,4206.666564,4198.461436,4227.179384
12,0,4115.897335,4216.410153,4212.307589,4202.051179,4218.974256,4194.358872,4226.153743,4279.999895,4351.281945,4223.58964,4254.871691,4219.999897,4206.153743,4238.461435
13,0,4116.410156,4215.384512,4217.435794,4200.512718,4218.461435,4204.102461,4225.640922,4273.846049,4348.205022,4220.512717,4261.025537,4229.230666,4214.871692,4244.615281
14,0,4116.410156,4214.358871,4223.07682,4199.999897,4210.256307,4205.128102,4229.230666,4275.897331,4350.256304,4215.384512,4261.025537,4229.743486,4215.897333,4244.10246
15,0,4124.615284,4217.435794,4226.153743,4207.692205,4224.615281,4198.974256,4234.871691,4287.179382,4359.487073,4224.102461,4265.128101,4234.871691,4218.461435,4248.205024
16,0,4127.179386,4218.461435,4221.025538,4207.179384,4236.922973,4204.615282,4233.33323,4283.589639,4357.435791,4232.307589,4270.256306,4238.974255,4223.58964,4251.794768
17,0,4126.153745,4215.384512,4214.358871,4200.512718,4219.999897,4215.897333,4227.692204,4271.794767,4345.640919,4225.128102,4263.589639,4232.820409,4222.051179,4251.794768
18,0,4128.205027,4218.461435,4213.33323,4203.07682,4209.743487,4218.974256,4227.692204,4267.692203,4342.051176,4216.922974,4252.307588,4224.615281,4217.948615,4249.230665
19,0,4123.076822,4216.922974,4207.179384,4199.999897,4219.999897,4214.871692,4231.794768,4267.692203,4342.563996,4213.846051,4246.666563,4216.410153,4213.33323,4238.974255
20,0,4116.410156,4204.102461,4194.358872,4186.153744,4219.999897,4210.256307,4228.205025,4266.666562,4338.974253,4204.615282,4240.512717,4205.128102,4202.564,4224.102461
21,0,4120.51272,4205.128102,4194.871692,4189.743487,4215.384512,4208.205025,4227.179384,4265.640921,4338.974253,4197.948615,4236.410153,4203.589641,4202.564,4227.179384
22,0,4135.897335,4217.435794,4207.179384,4205.128102,4218.974256,4208.205025,4234.871691,4265.640921,4341.025535,4203.07682,4243.58964,4218.461435,4215.897333,4238.974255
23,0,4138.461437,4214.871692,4208.205025,4202.051179,4217.948615,4202.051179,4229.743486,4265.128101,4337.948612,4205.128102,4243.076819,4216.410153,4214.358871,4235.384512
24,0,4134.358873,4208.205025,4207.179384,4197.948615,4215.897333,4198.974256,4218.461435,4262.051178,4333.846048,4200.512718,4235.384512,4207.179384,4204.102461,4228.717845
25,0,4136.922976,4213.846051,4214.871692,4202.051179,4222.563999,4205.128102,4224.102461,4266.153742,4335.89733,4202.564,4233.84605,4212.82041,4207.179384,4230.256307
26,0,4146.666565,4214.871692,4218.974256,4202.564,4225.128102,4208.717846,4237.435794,4279.999895,4346.15374,4212.307589,4239.487076,4225.128102,4214.871692,4234.871691
27,0,4146.153745,4205.640923,4212.307589,4199.999897,4220.512717,4209.230666,4237.435794,4284.102459,4352.820406,4219.999897,4245.128101,4226.666563,4215.384512,4237.435794
28,0,4145.640924,4205.128102,4207.692205,4199.487077,4213.33323,4209.743487,4232.307589,4275.897331,4346.66656,4214.358871,4249.230665,4224.615281,4215.384512,4235.384512
29,0,4149.743488,4214.358871,4211.794769,4202.051179,4217.435794,4209.743487,4232.307589,4273.846049,4344.615278,4215.384512,4250.256306,4224.102461,4222.051179,4231.794768
30,0,4154.871693,4217.948615,4213.846051,4203.589641,4223.58964,4210.769128,4232.820409,4277.948613,4350.769124,4228.717845,4249.743486,4223.58964,4225.640922,4231.794768
31,0,4156.922975,4216.922974,4210.769128,4206.666564,4227.692204,4210.256307,4233.84605,4279.999895,4348.205022,4226.666563,4250.769127,4226.666563,4225.640922,4238.974255
32,0,4158.461437,4222.051179,4213.33323,4210.256307,4230.769127,4208.205025,4232.820409,4277.435793,4340.512714,4214.358871,4251.794768,4227.179384,4228.205025,4243.076819
33,0,4158.974257,4223.07682,4219.487076,4212.82041,4221.538358,4211.794769,4229.743486,4268.205024,4339.487073,4212.82041,4247.179383,4221.025538,4230.769127,4241.025537
34,0,4166.153744,4218.461435,4223.07682,4212.307589,4216.410153,4209.743487,4227.179384,4268.205024,4340.512714,4214.871692,4243.076819,4221.538358,4231.281948,4243.076819
35,0,4176.410154,4220.512717,4225.128102,4212.307589,4234.871691,4198.461436,4223.07682,4278.461434,4341.025535,4212.307589,4249.743486,4229.230666,4234.358871,4251.281947
36,0,4175.897334,4221.538358,4223.07682,4210.256307,4240.512717,4201.025538,4220.512717,4271.794767,4341.025535,4214.871692,4255.897332,4228.717845,4236.922973,4254.35887
37,0,4172.30759,4218.974256,4218.461435,4205.128102,4213.33323,4210.256307,4222.563999,4259.487075,4341.538355,4214.871692,4251.281947,4223.58964,4233.33323,4248.717845
38,0,4171.79477,4219.999897,4218.974256,4203.589641,4202.051179,4207.179384,4226.666563,4268.205024,4345.128099,4213.33323,4245.640922,4225.128102,4230.256307,4246.666563
39,0,4175.897334,4220.512717,4225.640922,4207.692205,4215.384512,4206.153743,4232.820409,4284.102459,4351.794765,4228.205025,4250.256306,4232.820409,4235.384512,4251.794768
40,0,4172.30759,4216.410153,4221.025538,4207.179384,4217.948615,4210.256307,4233.33323,4278.974254,4353.333227,4233.84605,4249.230665,4229.230666,4234.358871,4245.640922
41,0,4164.615283,4212.82041,4208.205025,4199.487077,4212.307589,4203.589641,4227.692204,4267.179383,4348.205022,4219.487076,4243.076819,4222.563999,4223.58964,4233.33323
42,0,4163.076821,4211.794769,4205.128102,4197.435795,4214.871692,4199.999897,4232.307589,4271.281947,4347.692201,4216.922974,4245.640922,4222.563999,4224.102461,4238.974255
43,0,4168.717847,4213.846051,4209.743487,4203.07682,4219.999897,4211.281948,4244.615281,4282.051177,4353.846047,4232.307589,4248.717845,4228.205025,4234.358871,4246.666563
44,0,4165.128103,4215.384512,4208.205025,4203.589641,4217.948615,4214.871692,4242.563999,4276.922972,4352.820406,4231.281948,4236.410153,4224.615281,4231.794768,4236.410153
45,0,4159.999898,4210.256307,4206.153743,4199.999897,4221.025538,4208.205025,4233.84605,4265.640921,4343.589637,4219.999897,4222.563999,4214.871692,4227.179384,4229.230666
46,0,4160.512719,4202.051179,4208.717846,4198.974256,4216.922974,4199.999897,4231.794768,4269.743485,4341.538355,4219.999897,4217.435794,4211.281948,4225.128102,4231.281948
47,0,4163.589642,4202.564,4213.33323,4201.025538,4202.051179,4199.487077,4232.820409,4281.538357,4345.128099,4222.051179,4216.922974,4216.922974,4220.512717,4229.230666
48,0,4161.53836,4208.205025,4218.461435,4199.999897,4204.615282,4206.666564,4232.820409,4281.025536,4344.615278,4222.563999,4217.948615,4221.538358,4223.58964,4228.205025
49,0,4161.025539,4205.640923,4221.025538,4198.461436,4217.435794,4209.230666,4231.281948,4274.35887,4341.025535,4221.025538,4222.563999,4218.974256,4228.205025,4230.256307
50,0,4163.589642,4203.589641,4217.435794,4202.564,4215.897333,4205.128102,4231.281948,4275.897331,4341.538355,4217.435794,4226.153743,4216.922974,4226.666563,4230.769127
51,0,4166.666565,4211.794769,4216.410153,4205.128102,4214.871692,4207.179384,4230.256307,4278.461434,4343.076817,4219.487076,4225.640922,4216.922974,4228.205025,4230.769127
52,0,4165.640924,4216.410153,4215.384512,4202.051179,4214.358871,4213.846051,4229.743486,4274.35887,4341.025535,4227.692204,4223.58964,4216.410153,4230.769127,4230.769127
53,0,4173.333231,4215.897333,4217.435794,4203.589641,4211.281948,4211.281948,4235.897332,4277.435793,4345.640919,4236.410153,4228.717845,4222.051179,4236.410153,4241.025537
54,0,4183.589641,4218.461435,4219.487076,4210.769128,4233.33323,4199.999897,4236.410153,4281.025536,4352.820406,4236.410153,4234.871691,4226.153743,4246.666563,4250.256306
55,0,4183.589641,4219.999897,4213.33323,4210.769128,4247.179383,4206.666564,4229.230666,4274.87169,4349.743483,4234.871691,4233.33323,4223.58964,4248.205024,4248.717845
56,0,4182.05118,4217.435794,4207.179384,4205.640923,4213.846051,4221.538358,4231.794768,4280.512716,4343.589637,4235.384512,4231.281948,4225.128102,4241.025537,4249.230665
57,0,4179.999898,4214.358871,4207.179384,4201.025538,4190.256308,4218.461435,4234.871691,4288.205023,4342.051176,4226.666563,4226.153743,4220.512717,4236.922973,4245.640922
58,0,4174.358872,4210.256307,4204.615282,4199.487077,4210.769128,4212.82041,4232.820409,4274.87169,4342.563996,4215.384512,4223.07682,4214.871692,4232.307589,4235.384512
59,0,4176.922975,4211.794769,4206.666564,4203.07682,4228.717845,4221.025538,4238.974255,4267.179383,4342.051176,4225.640922,4217.948615,4218.461435,4231.281948,4239.487076
60,0,4191.794769,4224.102461,4218.974256,4208.205025,4224.615281,4219.487076,4241.025537,4276.410152,4338.974253,4237.948614,4198.974256,4226.666563,4238.461435,4251.794768
61,0,4185.640923,4219.487076,4219.999897,4204.102461,4213.33323,4208.717846,4236.410153,4279.487075,4337.948612,4233.84605,4175.384513,4223.58964,4234.358871,4244.10246
62,0,4167.692206,4198.461436,4208.717846,4195.897333,4201.538359,4204.102461,4230.769127,4273.846049,4339.487073,4227.692204,4169.743488,4219.487076,4217.435794,4229.230666
63,0,4172.30759,4200.512718,4204.615282,4193.846051,4204.615282,4198.461436,4219.487076,4270.256306,4335.89733,4221.538358,4174.358872,4218.974256,4214.871692,4228.205025
64,0,4189.230667,4221.538358,4209.230666,4201.025538,4217.435794,4198.461436,4223.58964,4275.897331,4336.41015,4222.051179,4179.999898,4220.512717,4230.256307,4234.358871
65,0,4183.076821,4225.128102,4208.205025,4204.102461,4211.794769,4202.051179,4235.384512,4282.051177,4343.589637,4231.794768,4180.512718,4216.922974,4235.897332,4232.820409
66,0,4166.666565,4209.230666,4193.333231,4194.871692,4201.025538,4200.512718,4222.051179,4272.820408,4342.051176,4230.769127,4172.30759,4209.230666,4226.666563,4223.58964
67,0,4162.564001,4199.999897,4181.025539,4185.128103,4207.692205,4198.974256,4210.769128,4258.974255,4333.846048,4225.640922,4167.692206,4208.205025,4219.999897,4216.922974
68,0,4166.153744,4200.512718,4185.128103,4184.102462,4216.922974,4202.051179,4222.051179,4261.025537,4331.794766,4229.743486,4171.281949,4211.281948,4220.512717,4211.281948
69,0,4164.615283,4199.487077,4187.692205,4185.128103,4214.358871,4201.538359,4221.538358,4261.025537,4332.820407,4225.128102,4165.640924,4204.615282,4215.897333,4206.153743
70,0,4171.281949,4198.461436,4188.717846,4190.769128,4211.281948,4201.025538,4217.948615,4259.999896,4336.922971,4218.974256,4162.05118,4203.589641,4214.358871,4209.230666
71,0,4181.025539,4205.640923,4196.410154,4201.025538,4210.256307,4210.256307,4228.205025,4263.076819,4341.538355,4227.179384,4170.256308,4210.769128,4216.922974,4214.358871
72,0,4181.538359,4212.82041,4197.948615,4202.051179,4210.769128,4214.871692,4231.281948,4262.051178,4340.512714,4232.820409,4172.820411,4209.230666,4216.922974,4213.33323
73,0,4184.615282,4213.33323,4199.487077,4197.948615,4218.461435,4209.743487,4226.666563,4268.717844,4342.051176,4231.281948,4169.743488,4209.230666,4219.999897,4215.897333
74,0,4191.794769,4213.33323,4205.640923,4203.07682,4216.410153,4206.666564,4224.615281,4275.384511,4341.025535,4227.692204,4167.179385,4211.281948,4221.025538,4218.974256
75,0,4202.564,4219.999897,4213.33323,4215.897333,4210.769128,4209.230666,4228.717845,4272.307588,4338.974253,4231.794768,4169.743488,4215.897333,4223.58964,4223.58964
76,0,4211.794769,4227.692204,4214.871692,4218.461435,4227.179384,4202.564,4229.743486,4272.307588,4341.025535,4239.487076,4176.922975,4218.974256,4234.871691,4233.33323
77,0,4209.743487,4222.051179,4206.153743,4207.692205,4238.974255,4197.948615,4223.58964,4271.794767,4336.41015,4232.820409,4176.410154,4213.33323,4233.84605,4227.692204
78,0,4195.384513,4209.230666,4192.30759,4196.922974,4219.999897,4208.717846,4224.615281,4266.153742,4328.717843,4220.512717,4166.153744,4201.025538,4215.384512,4210.256307
79,0,4193.333231,4211.794769,4189.743487,4200.512718,4204.615282,4221.538358,4234.871691,4271.794767,4333.846048,4223.58964,4165.128103,4201.538359,4212.82041,4209.230666
80,0,4200.512718,4217.948615,4195.384513,4203.589641,4212.307589,4217.435794,4234.871691,4275.384511,4339.999894,4230.769127,4170.769129,4205.128102,4221.025538,4216.410153
81,0,4203.07682,4213.846051,4197.435795,4201.538359,4221.025538,4206.666564,4229.743486,4266.666562,4335.89733,4230.256307,4170.769129,4203.589641,4218.974256,4215.384512
82,0,4203.07682,4215.384512,4197.435795,4203.589641,4222.051179,4206.153743,4236.410153,4271.281947,4335.89733,4229.743486,4170.256308,4205.640923,4218.461435,4215.384512
83,0,4201.025538,4214.358871,4194.358872,4201.538359,4211.794769,4205.128102,4234.871691,4278.974254,4336.41015,4227.692204,4171.79477,4208.717846,4218.974256,4213.846051
84,0,4194.358872,4207.179384,4191.794769,4194.871692,4202.051179,4202.051179,4218.974256,4264.61528,4326.15374,4225.640922,4169.230667,4206.153743,4217.948615,4209.230666
85,0,4201.025538,4212.307589,4194.871692,4193.846051,4216.410153,4211.281948,4219.487076,4261.025537,4325.128099,4229.743486,4172.820411,4207.179384,4227.179384,4213.33323
86,0,4209.743487,4219.999897,4196.922974,4198.974256,4228.717845,4219.487076,4234.871691,4279.487075,4340.512714,4239.487076,4181.025539,4212.82041,4234.358871,4218.974256
87,0,4211.281948,4215.897333,4199.487077,4202.564,4218.974256,4211.794769,4230.769127,4273.846049,4343.589637,4245.128101,4183.589641,4215.384512,4231.794768,4217.435794
88,0,4212.82041,4215.384512,4202.051179,4207.179384,4220.512717,4209.743487,4219.487076,4251.794768,4333.846048,4239.999896,4176.922975,4211.794769,4229.743486,4215.384512
89,0,4223.07682,4223.58964,4209.743487,4212.82041,4226.153743,4216.410153,4231.794768,4261.025537,4341.025535,4237.435794,4175.897334,4212.82041,4231.281948,4219.999897
90,0,4216.410153,4217.435794,4207.179384,4201.025538,4214.358871,4207.692205,4234.358871,4273.333229,4341.538355,4237.948614,4174.871693,4211.794769,4222.563999,4218.461435
91,0,4202.051179,4202.564,4191.281949,4184.615282,4209.743487,4195.384513,4217.948615,4259.999896,4324.102458,4235.384512,4167.692206,4203.589641,4212.82041,4207.692205
92,0,4207.179384,4204.102461,4190.769128,4187.179385,4217.948615,4203.07682,4222.563999,4259.999896,4327.692202,4231.794768,4167.692206,4205.128102,4215.897333,4206.153743
93,0,4218.461435,4215.384512,4207.179384,4201.538359,4217.948615,4219.487076,4235.897332,4275.384511,4341.025535,4236.922973,4175.897334,4213.846051,4229.230666,4219.999897
94,0,4223.58964,4219.999897,4212.82041,4214.358871,4215.897333,4219.999897,4236.922973,4277.948613,4331.794766,4242.563999,4177.948616,4215.897333,4232.307589,4227.692204
95,0,4219.999897,4216.922974,4200.512718,4211.281948,4224.102461,4210.769128,4235.384512,4274.87169,4319.487074,4239.999896,4170.256308,4206.153743,4218.461435,4216.410153
96,0,4213.33323,4214.871692,4190.769128,4195.897333,4224.102461,4206.153743,4228.205025,4266.153742,4314.871689,4231.794768,4164.615283,4199.487077,4210.256307,4206.666564
97,0,4212.82041,4213.33323,4191.794769,4191.281949,4214.871692,4201.538359,4219.487076,4262.051178,4307.692202,4228.205025,4165.640924,4198.974256,4212.82041,4209.743487
98,0,4226.666563,4216.922974,4202.564,4204.102461,4210.769128,4201.025538,4229.230666,4277.435793,4312.307587,4241.025537,4176.922975,4208.205025,4221.025538,4219.999897
99,0,4234.871691,4222.563999,4209.230666,4210.256307,4218.974256,4208.717846,4236.410153,4279.999895,4322.051176,4252.307588,4186.666564,4214.358871,4229.743486,4225.640922
100,0,4231.794768,4221.025538,4204.102461,4208.205025,4227.692204,4214.358871,4223.07682,4256.922973,4317.435792,4243.58964,4183.076821,4211.281948,4228.717845,4220.512717
101,0,4225.640922,4217.435794,4195.897333,4205.128102,4223.07682,4210.256307,4216.410153,4247.692204,4304.102459,4226.666563,4169.743488,4206.153743,4214.358871,4212.82041
102,0,4231.794768,4218.461435,4202.051179,4205.128102,4216.410153,4210.256307,4226.153743,4264.10246,4309.743484,4235.384512,4172.30759,4216.410153,4219.487076,4222.051179
103,0,4235.897332,4221.538358,4212.82041,4210.256307,4217.948615,4209.230666,4231.794768,4274.35887,4324.615279,4253.333229,4185.128103,4227.692204,4235.384512,4234.871691
104,0,4230.256307,4217.435794,4208.205025,4206.153743,4217.948615,4194.871692,4222.563999,4266.153742,4315.38451,4240.512717,4181.025539,4220.512717,4227.692204,4225.640922
105,0,4226.666563,4213.846051,4201.538359,4203.589641,4217.948615,4187.179385,4216.410153,4258.974255,4298.461433,4227.692204,4172.30759,4211.281948,4218.461435,4216.922974
106,0,4234.358871,4219.487076,4208.717846,4211.794769,4221.538358,4196.922974,4225.128102,4262.563998,4305.64092,4239.487076,4182.05118,4216.410153,4226.666563,4226.153743
107,0,4232.820409,4219.999897,4210.256307,4206.666564,4217.948615,4204.102461,4233.33323,4264.61528,4314.871689,4245.640922,4184.102462,4217.948615,4226.153743,4226.153743
108,0,4221.538358,4207.179384,4197.948615,4196.922974,4212.307589,4203.07682,4231.281948,4263.076819,4307.692202,4233.84605,4172.820411,4208.205025,4210.256307,4210.769128
109,0,4214.871692,4197.948615,4192.82041,4199.487077,4213.33323,4202.564,4226.153743,4262.563998,4304.102459,4226.666563,4168.717847,4203.589641,4204.102461,4203.589641
110,0,4218.974256,4204.615282,4202.051179,4203.07682,4208.205025,4204.615282,4229.743486,4263.076819,4309.230664,4234.358871,4173.333231,4205.640923,4211.794769,4211.281948
111,0,4230.769127,4215.384512,4213.846051,4203.589641,4214.358871,4202.564,4235.897332,4267.692203,4311.281946,4243.58964,4182.05118,4210.769128,4218.974256,4217.435794
112,0,4235.384512,4218.461435,4214.358871,4208.717846,4230.769127,4198.974256,4227.179384,4263.589639,4303.076818,4242.051178,4185.128103,4208.717846,4218.974256,4215.384512
113,0,4226.666563,4212.307589,4201.025538,4205.640923,4226.153743,4197.948615,4212.307589,4246.153742,4289.230664,4230.256307,4178.461436,4201.025538,4213.846051,4210.769128
114,0,4219.487076,4207.179384,4191.794769,4194.358872,4209.230666,4197.435795,4216.410153,4252.307588,4294.87169,4228.205025,4175.897334,4200.512718,4211.794769,4211.281948
115,0,4230.256307,4211.794769,4198.974256,4198.974256,4211.794769,4201.025538,4230.769127,4273.846049,4316.922971,4241.538358,4189.230667,4211.281948,4217.435794,4215.897333
116,0,4242.563999,4218.974256,4211.281948,4209.230666,4226.153743,4205.128102,4232.307589,4272.307588,4322.051176,4251.281947,4192.82041,4217.948615,4224.615281,4225.640922
117,0,4245.128101,4217.435794,4210.769128,4207.179384,4229.743486,4204.102461,4221.538358,4258.461434,4309.230664,4247.179383,4185.640923,4215.897333,4223.58964,4233.33323
118,0,4241.025537,4216.410153,4205.128102,4206.153743,4223.58964,4204.615282,4219.487076,4259.999896,4307.179382,4241.025537,4189.230667,4211.794769,4223.58964,4229.743486
119,0,4249.230665,4225.128102,4215.384512,4218.461435,4219.999897,4214.358871,4233.33323,4269.743485,4318.974253,4245.640922,4202.051179,4219.487076,4234.358871,4234.358871
120,0,4255.897332,4227.179384,4223.07682,4223.07682,4226.666563,4215.384512,4235.897332,4269.743485,4323.076817,4250.256306,4204.615282,4223.58964,4238.461435,4244.10246
121,0,4249.743486,4217.435794,4210.769128,4210.769128,4226.666563,4194.358872,4217.948615,4264.61528,4314.358869,4247.692204,4193.333231,4211.794769,4225.128102,4232.307589
122,0,4239.487076,4212.82041,4204.615282,4201.538359,4218.974256,4184.615282,4210.769128,4257.435793,4306.153741,4246.153742,4185.128103,4201.538359,4215.897333,4220.512717
123,0,4242.563999,4215.897333,4210.256307,4203.07682,4216.410153,4196.922974,4217.948615,4249.230665,4304.102459,4247.179383,4189.743487,4207.692205,4218.974256,4226.153743
124,0,4243.076819,4215.384512,4208.717846,4203.07682,4215.897333,4207.692205,4218.461435,4245.128101,4307.179382,4247.692204,4192.30759,4211.281948,4219.487076,4223.58964
125,0,4238.974255,4213.846051,4208.205025,4201.538359,4215.897333,4210.256307,4219.999897,4252.307588,4305.1281,4244.615281,4189.743487,4207.692205,4217.435794,4215.897333
126,0,4234.871691,4209.743487,4205.128102,4200.512718,4212.82041,4209.230666,4222.051179,4256.410152,4293.846049,4234.358871,4189.743487,4206.153743,4215.897333,4216.410153
127,0,4232.820409,4207.179384,4197.435795,4201.538359,4208.717846,4204.615282,4216.410153,4256.410152,4295.38451,4229.230666,4194.871692,4204.615282,4214.358871,4215.897333
128,0,4239.487076,4213.33323,4203.589641,4202.051179,4212.82041,4201.538359,4214.871692,4264.61528,4314.871689,4235.897332,4199.487077,4210.256307,4216.410153,4215.897333
0,0,4243.58964,4213.33323,4209.743487,4198.461436,4219.487076,4199.999897,4216.410153,4257.948614,4310.769125,4237.948614,4199.999897,4212.307589,4221.025538,4219.487076
1,0,4236.410153,4207.179384,4203.07682,4199.999897,4218.461435,4193.846051,4213.846051,4244.10246,4292.820408,4230.256307,4196.922974,4204.615282,4218.461435,4215.384512
2,0,4235.384512,4210.769128,4203.07682,4205.128102,4216.410153,4196.410154,4213.33323,4251.794768,4298.974254,4228.717845,4194.358872,4204.102461,4214.871692,4214.358871
3,0,4247.179383,4217.435794,4211.281948,4208.205025,4213.846051,4205.640923,4215.897333,4257.948614,4306.153741,4234.358871,4200.512718,4214.358871,4219.999897,4222.051179
4,0,4245.640922,4213.846051,4209.743487,4203.07682,4212.82041,4199.999897,4213.846051,4244.10246,4295.897331,4232.820409,4203.589641,4213.33323,4222.051179,4223.07682
5,0,4241.538358,4212.82041,4210.256307,4204.102461,4216.410153,4188.717846,4212.82041,4244.615281,4296.922972,4228.205025,4202.051179,4212.82041,4219.487076,4223.58964
6,0,4250.256306,4219.487076,4221.025538,4213.846051,4217.948615,4192.30759,4217.435794,4261.025537,4311.281946,4230.769127,4204.615282,4219.487076,4226.153743,4230.769127
7,0,4257.435793,4224.615281,4223.58964,4212.82041,4222.563999,4202.051179,4218.974256,4252.820409,4313.333228,4233.84605,4210.256307,4222.563999,4233.33323,4234.871691
8,0,4250.769127,4222.563999,4215.384512,4209.230666,4229.743486,4203.589641,4217.435794,4242.051178,4306.153741,4230.256307,4204.102461,4219.999897,4229.743486,4232.307589
9,0,4249.230665,4216.922974,4213.33323,4213.846051,4229.743486,4201.025538,4216.922974,4258.974255,4307.692202,4226.666563,4204.615282,4223.58964,4227.692204,4231.794768
10,0,4251.794768,4222.563999,4215.384512,4217.435794,4229.743486,4199.999897,4215.897333,4265.128101,4311.281946,4228.717845,4215.384512,4223.58964,4233.84605,4233.33323
11,0,4253.84605,4230.256307,4217.435794,4216.410153,4230.769127,4202.564,4219.487076,4248.717845,4308.717843,4232.820409,4215.384512,4218.974256,4231.281948,4233.84605
12,0,4246.666563,4217.435794,4213.33323,4211.794769,4219.999897,4196.922974,4214.871692,4243.076819,4299.999895,4226.153743,4201.025538,4211.281948,4218.461435,4228.205025
13,0,4235.897332,4196.410154,4198.974256,4195.897333,4212.82041,4183.589641,4199.999897,4242.051178,4291.281946,4208.205025,4190.769128,4202.051179,4209.230666,4213.33323
14,0,4240.512717,4202.564,4198.461436,4191.281949,4214.871692,4188.205026,4203.589641,4240.512717,4292.820408,4204.102461,4192.82041,4203.589641,4210.256307,4213.846051
15,0,4252.307588,4218.974256,4216.410153,4212.307589,4217.435794,4208.205025,4225.640922,4257.948614,4305.64092,4216.410153,4196.922974,4214.358871,4212.82041,4224.102461
16,0,4257.435793,4222.051179,4228.717845,4226.153743,4225.640922,4215.897333,4235.897332,4269.230665,4313.846048,4229.230666,4206.153743,4223.58964,4224.615281,4231.281948
17,0,4259.487075,4219.999897,4225.640922,4214.871692,4223.07682,4205.640923,4227.692204,4260.512716,4309.743484,4231.794768,4215.897333,4228.717845,4241.538358,4244.615281
18,0,4259.999896,4214.358871,4226.666563,4205.640923,4214.871692,4191.794769,4223.07682,4265.128101,4311.281946,4224.615281,4216.410153,4234.358871,4242.051178,4253.84605
19,0,4263.076819,4214.358871,4233.33323,4217.948615,4219.487076,4181.538359,4221.025538,4267.179383,4311.281946,4225.640922,4215.897333,4238.461435,4237.948614,4253.84605
20,0,4272.307588,4224.102461,4234.358871,4230.256307,4222.563999,4186.153744,4217.948615,4252.307588,4302.563997,4232.307589,4222.563999,4235.897332,4247.692204,4262.051178
21,0,4271.794767,4222.563999,4223.58964,4213.846051,4222.051179,4199.999897,4221.538358,4252.307588,4296.922972,4224.615281,4221.538358,4230.256307,4252.820409,4264.61528
22,0,4264.61528,4213.846051,4214.871692,4198.461436,4231.794768,4208.205025,4222.563999,4257.435793,4291.794767,4213.33323,4218.461435,4232.307589,4245.640922,4254.35887
23,0,4266.666562,4223.58964,4225.128102,4214.358871,4237.948614,4204.102461,4218.974256,4246.666563,4296.410151,4226.153743,4225.128102,4239.487076,4248.717845,4257.435793
24,0,4270.256306,4227.692204,4232.307589,4226.666563,4229.230666,4183.076821,4216.922974,4246.666563,4308.717843,4236.410153,4221.025538,4237.435794,4248.205024,4260.512716
25,0,4258.974255,4213.33323,4219.999897,4213.846051,4224.102461,4164.615283,4216.922974,4252.820409,4303.076818,4215.897333,4207.692205,4224.615281,4236.410153,4245.640922
26,0,4252.307588,4204.615282,4208.717846,4199.999897,4226.153743,4169.743488,4214.358871,4248.205024,4290.256305,4196.922974,4209.743487,4222.051179,4232.307589,4235.384512
27,0,4246.666563,4201.025538,4206.153743,4196.410154,4225.640922,4180.512718,4211.794769,4248.717845,4293.846049,4199.999897,4205.128102,4221.025538,4229.230666,4230.769127
28,0,4251.281947,4205.640923,4215.384512,4207.179384,4222.051179,4181.538359,4217.435794,4254.871691,4302.051177,4213.846051,4196.410154,4218.974256,4228.205025,4231.281948
29,0,4264.61528,4223.58964,4232.307589,4225.128102,4218.461435,4189.230667,4226.153743,4259.487075,4309.230664,4228.717845,4202.564,4224.615281,4238.974255,4243.58964
30,0,4272.820408,4233.84605,4239.999896,4227.692204,4233.84605,4207.692205,4233.33323,4267.179383,4318.461433,4233.84605,4214.358871,4234.358871,4250.256306,4253.84605
31,0,4271.794767,4231.794768,4237.948614,4225.128102,4253.84605,4209.230666,4238.974255,4264.10246,4312.307587,4225.128102,4215.384512,4235.897332,4248.717845,4250.769127
32,0,4273.333229,4233.33323,4238.974255,4229.743486,4245.640922,4198.461436,4241.538358,4260.512716,4304.615279,4217.435794,4215.384512,4233.84605,4242.051178,4247.692204
33,0,4270.769126,4232.307589,4236.922973,4227.179384,4236.410153,4187.692205,4236.410153,4266.153742,4313.333228,4220.512717,4212.82041,4233.33323,4237.948614,4248.717845
34,0,4263.589639,4223.58964,4224.615281,4215.384512,4243.58964,4177.435795,4225.640922,4258.974255,4312.820407,4220.512717,4204.102461,4226.666563,4233.33323,4242.563999
35,0,4262.051178,4223.58964,4216.922974,4213.846051,4249.230665,4176.922975,4224.102461,4250.769127,4292.820408,4211.794769,4205.640923,4223.07682,4233.33323,4238.461435
36,0,4266.666562,4231.794768,4223.58964,4223.07682,4258.974255,4183.589641,4231.281948,4265.640921,4289.230664,4211.281948,4216.410153,4229.743486,4238.974255,4243.58964
37,0,4271.281947,4235.897332,4232.307589,4232.820409,4256.410152,4184.102462,4235.897332,4276.922972,4310.769125,4224.102461,4218.461435,4237.435794,4244.615281,4250.256306
38,0,4272.820408,4237.435794,4231.794768,4234.358871,4236.922973,4173.846052,4230.256307,4259.999896,4315.89733,4231.794768,4213.33323,4233.84605,4248.717845,4252.307588
39,0,4264.10246,4231.794768,4219.999897,4216.922974,4231.281948,4172.30759,4217.948615,4247.179383,4296.410151,4218.974256,4205.640923,4218.974256,4240.512717,4242.563999
40,0,4243.076819,4212.82041,4208.205025,4198.461436,4237.948614,4188.717846,4215.897333,4253.84605,4291.794767,4206.153743,4195.897333,4204.615282,4219.487076,4222.051179
41,0,4245.640922,4207.692205,4212.82041,4203.07682,4234.871691,4198.461436,4218.974256,4258.461434,4306.153741,4214.871692,4205.128102,4214.358871,4224.615281,4229.743486
42,0,4268.205024,4219.487076,4226.666563,4216.922974,4229.230666,4179.487077,4215.384512,4251.794768,4303.076818,4223.07682,4228.717845,4233.84605,4258.974255,4266.666562
43,0,4274.87169,4213.846051,4235.897332,4219.487076,4225.128102,4170.256308,4216.922974,4251.281947,4296.410151,4218.461435,4236.922973,4242.051178,4273.333229,4284.102459
44,0,4264.61528,4193.846051,4235.897332,4208.205025,4229.743486,4189.230667,4226.153743,4262.051178,4303.076818,4218.974256,4230.769127,4239.487076,4273.333229,4281.025536
45,0,4272.820408,4189.743487,4241.025537,4208.717846,4247.692204,4196.922974,4236.410153,4271.794767,4308.205023,4235.384512,4243.58964,4250.769127,4296.922972,4297.948613
46,0,4284.102459,4190.256308,4247.692204,4218.974256,4244.615281,4189.230667,4248.717845,4275.384511,4315.38451,4254.35887,4260.512716,4266.153742,4319.999894,4316.410151
47,0,4276.410152,4183.076821,4241.025537,4214.871692,4227.179384,4185.640923,4250.256306,4272.307588,4314.358869,4248.205024,4255.897332,4257.948614,4305.1281,4304.102459
48,0,4261.025537,4179.999898,4231.794768,4201.025538,4233.84605,4176.922975,4233.84605,4262.563998,4292.820408,4229.230666,4243.58964,4237.435794,4284.102459,4284.61528
49,0,4264.10246,4182.05118,4237.435794,4203.07682,4246.666563,4159.999898,4230.256307,4261.025537,4289.230664,4232.820409,4249.743486,4241.538358,4289.743485,4286.666562
50,0,4272.820408,4184.102462,4246.666563,4216.922974,4239.999896,4162.05118,4246.666563,4273.333229,4316.410151,4251.281947,4256.922973,4256.922973,4297.948613,4293.333228
51,0,4269.230665,4185.640923,4244.615281,4213.33323,4239.487076,4183.076821,4253.333229,4284.102459,4330.769125,4252.307588,4252.307588,4256.410152,4294.358869,4290.256305
52,0,4264.10246,4186.666564,4245.640922,4204.102461,4253.84605,4176.922975,4248.205024,4279.487075,4326.666561,4246.153742,4258.461434,4255.897332,4299.999895,4291.281946
53,0,4267.692203,4184.615282,4253.333229,4209.743487,4246.153742,4161.025539,4243.58964,4274.87169,4325.64092,4249.743486,4271.281947,4264.10246,4308.205023,4296.922972
54,0,4263.076819,4183.076821,4252.307588,4221.025538,4231.794768,4181.025539,4248.717845,4282.051177,4326.15374,4250.256306,4267.692203,4265.640921,4301.538356,4296.410151
55,0,4254.35887,4185.640923,4246.153742,4215.897333,4247.692204,4208.717846,4261.538357,4288.717844,4328.717843,4251.281947,4261.025537,4262.563998,4299.487074,4292.820408
56,0,4253.333229,4180.512718,4241.538358,4202.051179,4254.35887,4206.666564,4257.948614,4282.051177,4323.589638,4252.307588,4259.487075,4260.512716,4302.051177,4287.179382
57,0,4249.743486,4174.358872,4238.461435,4201.025538,4232.307589,4200.512718,4246.666563,4271.281947,4307.179382,4247.692204,4255.384511,4255.897332,4291.794767,4284.61528
58,0,4250.769127,4189.230667,4245.128101,4218.974256,4231.281948,4200.512718,4257.948614,4283.076818,4309.743484,4252.820409,4260.512716,4260.512716,4294.358869,4293.846049
59,0,4253.333229,4201.538359,4250.769127,4227.692204,4247.692204,4188.205026,4265.128101,4293.333228,4323.076817,4262.563998,4266.666562,4261.538357,4308.205023,4294.87169
60,0,4249.743486,4188.717846,4243.076819,4209.743487,4253.333229,4182.05118,4250.769127,4273.333229,4325.128099,4244.10246,4261.538357,4252.820409,4291.794767,4285.640921
61,0,4247.692204,4180.512718,4237.435794,4201.025538,4249.230665,4191.794769,4245.128101,4265.640921,4323.589638,4224.102461,4261.538357,4250.256306,4271.794767,4286.666562
62,0,4254.35887,4193.333231,4240.512717,4215.897333,4233.33323,4195.897333,4248.717845,4279.487075,4321.025535,4239.999896,4266.153742,4252.307588,4287.179382,4288.717844
63,0,4251.794768,4198.461436,4241.538358,4219.999897,4228.717845,4194.871692,4247.179383,4274.87169,4318.461433,4243.58964,4253.84605,4251.281947,4292.820408,4283.589639
64,0,4246.666563,4194.871692,4239.487076,4209.743487,4246.153742,4198.974256,4244.615281,4258.974255,4314.358869,4217.948615,4240.512717,4249.743486,4266.666562,4274.87169
65,0,4244.10246,4198.974256,4242.051178,4211.281948,4249.743486,4185.128103,4235.897332,4255.897332,4299.999895,4203.07682,4241.025537,4238.461435,4259.999896,4266.666562
66,0,4243.076819,4199.999897,4241.538358,4218.974256,4238.461435,4167.179385,4227.179384,4261.538357,4298.974254,4194.358872,4242.563999,4231.281948,4275.897331,4264.61528
67,0,4238.461435,4192.30759,4232.820409,4216.922974,4242.051178,4183.589641,4236.410153,4265.640921,4309.743484,4185.128103,4236.410153,4234.871691,4273.846049,4265.128101
68,0,4235.384512,4186.666564,4229.230666,4211.281948,4247.179383,4203.589641,4245.128101,4256.922973,4299.487074,4179.487077,4235.384512,4237.948614,4266.666562,4262.563998
69,0,4234.358871,4189.743487,4228.205025,4210.256307,4243.58964,4197.948615,4243.076819,4251.794768,4293.846049,4162.05118,4242.563999,4237.435794,4278.461434,4262.051178
70,0,4236.410153,4195.384513,4227.692204,4213.846051,4247.692204,4194.358872,4248.205024,4271.794767,4314.358869,4148.205027,4249.743486,4241.025537,4292.820408,4270.256306
71,0,4232.820409,4190.769128,4225.128102,4211.281948,4239.487076,4197.948615,4250.256306,4283.076818,4321.025535,4151.28195,4251.281947,4238.461435,4287.179382,4269.230665
72,0,4227.692204,4186.666564,4225.640922,4205.128102,4225.128102,4194.871692,4244.615281,4271.794767,4315.38451,4132.307591,4245.128101,4233.33323,4275.897331,4259.487075
73,0,4227.179384,4188.717846,4229.743486,4204.615282,4241.538358,4194.871692,4254.35887,4276.922972,4324.102458,4103.076823,4231.794768,4234.871691,4277.948613,4259.999896
74,0,4221.025538,4187.179385,4227.692204,4196.922974,4254.35887,4194.358872,4263.589639,4284.102459,4324.615279,4102.051182,4221.538358,4229.743486,4274.87169,4257.948614
75,0,4216.922974,4188.717846,4223.07682,4192.82041,4236.922973,4199.487077,4254.35887,4274.35887,4317.948612,4110.25631,4226.153743,4228.717845,4272.307588,4250.769127
76,0,4225.640922,4199.487077,4231.281948,4207.692205,4232.307589,4223.07682,4249.743486,4269.230665,4321.025535,4107.179387,4236.410153,4236.410153,4287.179382,4255.384511
77,0,4231.794768,4203.589641,4239.999896,4212.307589,4247.179383,4230.769127,4254.35887,4266.153742,4316.922971,4101.025541,4233.33323,4239.487076,4287.179382,4262.051178
78,0,4222.051179,4196.410154,4229.743486,4195.897333,4247.692204,4203.589641,4246.666563,4260.512716,4306.666561,4091.281951,4216.410153,4234.358871,4265.640921,4248.717845
79,0,4220.512717,4193.333231,4226.666563,4196.410154,4241.025537,4192.82041,4241.538358,4265.128101,4308.205023,4082.564003,4210.769128,4237.948614,4266.153742,4243.076819
80,0,4230.256307,4202.051179,4241.025537,4215.897333,4246.153742,4216.922974,4252.307588,4269.743485,4314.358869,4082.051182,4216.922974,4245.640922,4275.384511,4257.435793
81,0,4233.84605,4207.692205,4241.538358,4216.922974,4251.794768,4218.461435,4249.743486,4262.051178,4310.769125,4082.051182,4213.33323,4243.076819,4263.589639,4257.948614
82,0,4219.999897,4189.230667,4233.84605,4203.07682,4249.230665,4193.333231,4243.58964,4268.717844,4315.38451,4095.897336,4211.794769,4239.487076,4265.128101,4250.769127
83,0,4224.102461,4189.743487,4246.666563,4212.82041,4243.58964,4203.589641,4259.487075,4286.666562,4327.179381,4116.922976,4230.256307,4255.897332,4282.563998,4261.538357
84,0,4246.153742,4236.410153,4259.487075,4234.871691,4245.128101,4234.871691,4267.692203,4275.384511,4322.563997,4108.717848,4234.358871,4261.025537,4281.025536,4272.820408
85,0,4245.128101,4258.461434,4245.640922,4228.717845,4250.256306,4218.461435,4245.128101,4255.897332,4307.692202,4082.564003,4210.256307,4231.281948,4261.025537,4256.410152
86,0,4222.051179,4244.615281,4229.743486,4212.307589,4247.692204,4185.128103,4226.666563,4256.410152,4299.999895,4067.179388,4184.615282,4209.743487,4231.281948,4226.666563
87,0,4226.153743,4265.128101,4236.922973,4229.230666,4247.692204,4198.974256,4233.84605,4253.333229,4295.897331,4060.512721,4184.102462,4224.102461,4209.743487,4218.461435
88,0,4235.384512,4291.794767,4241.538358,4247.692204,4250.256306,4225.128102,4238.461435,4238.461435,4283.076818,4057.435798,4194.358872,4229.230666,4213.33323,4224.102461
89,0,4215.897333,4265.640921,4227.692204,4229.230666,4248.205024,4216.410153,4231.281948,4234.871691,4272.820408,4062.564003,4186.153744,4213.33323,4217.435794,4210.769128
90,0,4197.948615,4245.128101,4222.051179,4212.307589,4245.640922,4211.281948,4233.84605,4244.10246,4282.563998,4067.692208,4174.871693,4214.871692,4201.538359,4196.922974
91,0,4202.051179,4256.922973,4229.230666,4218.974256,4236.922973,4218.461435,4242.563999,4253.84605,4294.87169,4078.461439,4186.153744,4230.769127,4193.333231,4205.640923
92,0,4210.256307,4258.461434,4233.33323,4224.102461,4233.33323,4198.461436,4247.692204,4260.512716,4294.358869,4095.384515,4205.128102,4241.538358,4206.153743,4217.435794
93,0,4208.205025,4251.281947,4228.717845,4221.025538,4243.58964,4173.846052,4244.10246,4263.589639,4299.999895,4090.769131,4205.640923,4244.615281,4219.487076,4218.974256
94,0,4201.538359,4249.743486,4224.102461,4215.897333,4247.692204,4179.487077,4242.051178,4266.153742,4310.256305,4083.076823,4196.922974,4247.179383,4220.512717,4216.922974
95,0,4203.07682,4251.281947,4231.281948,4216.410153,4234.358871,4183.589641,4245.128101,4262.051178,4303.589638,4090.769131,4195.897333,4251.794768,4215.897333,4216.410153
96,0,4207.692205,4248.205024,4237.948614,4223.07682,4224.615281,4174.871693,4240.512717,4249.230665,4290.769126,4093.846054,4201.538359,4256.410152,4214.358871,4218.461435
97,0,4209.230666,4250.256306,4235.897332,4223.07682,4230.769127,4172.820411,4234.871691,4245.128101,4291.794767,4091.794772,4206.153743,4261.025537,4217.435794,4225.640922
98,0,4213.33323,4256.410152,4235.384512,4217.948615,4247.179383,4155.897334,4234.358871,4249.230665,4291.794767,4094.871695,4199.999897,4265.128101,4213.846051,4224.102461
99,0,4210.769128,4251.794768,4232.307589,4215.384512,4251.794768,4137.948617,4231.281948,4248.205024,4279.999895,4090.25631,4189.743487,4254.35887,4202.564,4209.230666
100,0,4211.281948,4248.717845,4232.307589,4222.051179,4231.794768,4161.53836,4229.230666,4254.35887,4283.076818,4088.205028,4192.82041,4250.256306,4198.974256,4208.717846
101,0,4211.794769,4249.230665,4233.84605,4223.58964,4217.435794,4176.410154,4232.307589,4255.384511,4288.717844,4103.076823,4193.846051,4253.333229,4205.640923,4215.384512
102,0,4201.025538,4237.948614,4223.07682,4210.769128,4217.948615,4161.025539,4230.256307,4242.051178,4278.461434,4099.9999,4183.076821,4245.640922,4197.435795,4205.128102
103,0,4194.358872,4229.743486,4216.922974,4207.692205,4214.358871,4169.230667,4232.820409,4247.179383,4278.974254,4092.307592,4182.05118,4244.10246,4188.717846,4198.461436
104,0,4208.205025,4244.615281,4229.743486,4218.974256,4225.128102,4173.846052,4242.563999,4266.153742,4295.897331,4115.384515,4200.512718,4264.61528,4208.205025,4216.410153
105,0,4205.640923,4250.256306,4224.615281,4215.384512,4252.820409,4142.564001,4233.84605,4255.897332,4296.410151,4128.205027,4199.999897,4265.640921,4214.358871,4221.025538
106,0,4198.974256,4243.076819,4210.769128,4205.640923,4250.769127,4143.076822,4223.58964,4241.025537,4291.281946,4119.487079,4189.743487,4255.384511,4201.538359,4212.82041
107,0,4210.256307,4248.717845,4223.58964,4214.358871,4222.563999,4162.05118,4231.281948,4255.384511,4293.846049,4121.538361,4196.410154,4265.128101,4204.102461,4217.948615
108,0,4209.743487,4248.717845,4228.205025,4217.435794,4216.410153,4148.717847,4233.84605,4265.128101,4287.692203,4123.076822,4203.589641,4270.769126,4207.179384,4212.307589
109,0,4203.07682,4245.128101,4219.487076,4213.846051,4233.33323,4148.205027,4228.205025,4259.999896,4293.846049,4127.179386,4206.153743,4272.820408,4204.615282,4206.666564
110,0,4215.384512,4252.820409,4230.256307,4222.051179,4241.025537,4165.128103,4230.769127,4259.487075,4308.717843,4147.179386,4213.846051,4290.256305,4215.897333,4223.07682
111,0,4218.461435,4251.281947,4237.948614,4219.487076,4235.897332,4160.512719,4233.33323,4261.025537,4301.538356,4141.53836,4213.33323,4291.794767,4219.487076,4225.128102
112,0,4214.871692,4247.692204,4231.794768,4221.025538,4231.794768,4161.53836,4231.281948,4257.948614,4289.743485,4121.02554,4204.615282,4280.512716,4212.307589,4216.922974
113,0,4227.179384,4256.410152,4242.563999,4235.384512,4227.179384,4174.871693,4233.84605,4263.076819,4301.538356,4138.974258,4204.615282,4295.897331,4216.410153,4232.307589
114,0,4229.230666,4253.333229,4245.128101,4226.153743,4223.58964,4165.640924,4235.897332,4269.230665,4309.230664,4162.05118,4203.589641,4299.487074,4217.435794,4235.384512
115,0,4222.563999,4243.076819,4225.128102,4207.179384,4231.281948,4165.640924,4231.794768,4257.435793,4295.38451,4153.846052,4200.512718,4272.820408,4214.871692,4216.410153
116,0,4219.487076,4238.974255,4216.410153,4205.640923,4235.897332,4190.256308,4231.794768,4244.10246,4289.743485,4146.153745,4202.051179,4267.692203,4216.922974,4213.846051
117,0,4208.717846,4224.615281,4218.974256,4203.07682,4220.512717,4188.205026,4235.384512,4248.205024,4297.435792,4156.410155,4202.564,4289.230664,4212.307589,4219.487076
118,0,4197.948615,4219.487076,4207.179384,4201.025538,4209.743487,4162.05118,4234.358871,4248.205024,4288.205023,4155.897334,4187.179385,4281.025536,4206.666564,4211.794769
119,0,4215.897333,4247.179383,4205.640923,4216.410153,4224.102461,4164.102462,4231.794768,4242.051178,4279.487075,4137.948617,4185.640923,4272.820408,4196.922974,4215.897333
120,0,4227.692204,4264.10246,4217.435794,4216.410153,4234.358871,4179.999898,4231.794768,4244.615281,4286.153741,4131.794771,4196.410154,4286.153741,4178.461436,4220.512717
121,0,4231.281948,4263.076819,4222.051179,4211.281948,4234.871691,4178.974257,4230.769127,4250.256306,4287.692203,4153.846052,4193.333231,4287.692203,4193.333231,4222.051179
122,0,4245.128101,4273.846049,4226.153743,4233.84605,4228.205025,4176.410154,4231.281948,4248.717845,4287.692203,4169.743488,4184.615282,4288.205023,4223.07682,4237.435794
123,0,4251.794768,4277.948613,4230.769127,4244.10246,4216.410153,4167.692206,4232.307589,4247.179383,4292.307587,4158.461437,4184.102462,4297.948613,4211.281948,4242.563999
124,0,4240.512717,4264.61528,4225.640922,4216.922974,4224.102461,4155.897334,4231.281948,4247.179383,4291.794767,4156.410155,4187.179385,4295.897331,4193.846051,4232.307589
125,0,4241.025537,4262.563998,4226.153743,4203.07682,4241.025537,4172.30759,4231.281948,4253.333229,4290.769126,4173.333231,4191.794769,4294.358869,4209.230666,4236.922973
126,0,4255.384511,4278.461434,4243.076819,4232.820409,4228.205025,4185.640923,4236.410153,4265.128101,4296.922972,4177.435795,4203.07682,4310.256305,4228.205025,4254.871691
127,0,4257.948614,4277.948613,4251.794768,4245.640922,4214.358871,4164.615283,4241.538358,4263.076819,4292.307587,4163.076821,4205.640923,4315.89733,4222.563999,4253.84605
128,0,4243.076819,4254.871691,4234.871691,4217.948615,4222.051179,4155.897334,4241.538358,4255.897332,4287.692203,4168.717847,4198.974256,4300.512715,4213.33323,4236.410153
0,0,4240.512717,4251.794768,4227.179384,4212.307589,4214.871692,4174.871693,4244.10246,4271.794767,4301.025536,4202.051179,4203.589641,4297.435792,4222.563999,4230.769127
1,0,4249.230665,4267.179383,4237.948614,4232.307589,4217.948615,4177.948616,4246.153742,4276.922972,4303.589638,4205.640923,4208.205025,4302.563997,4232.307589,4241.538358
2,0,4234.358871,4252.307588,4224.615281,4214.358871,4231.794768,4167.692206,4233.84605,4248.205024,4282.563998,4168.205026,4193.333231,4281.538357,4207.692205,4232.307589
3,0,4221.538358,4237.948614,4210.769128,4195.384513,4222.563999,4169.230667,4223.58964,4237.435794,4282.563998,4159.999898,4181.538359,4266.153742,4192.30759,4219.487076
4,0,4238.461435,4259.487075,4232.820409,4223.07682,4220.512717,4168.717847,4236.410153,4262.563998,4304.615279,4187.692205,4193.846051,4285.1281,4212.82041,4234.358871
5,0,4241.025537,4260.512716,4235.897332,4226.153743,4236.922973,4175.384513,4244.10246,4268.205024,4303.589638,4186.153744,4196.922974,4287.692203,4209.743487,4235.897332
6,0,4225.128102,4246.153742,4216.410153,4202.564,4231.281948,4196.410154,4239.487076,4256.922973,4296.410151,4179.999898,4186.666564,4262.563998,4198.461436,4219.487076
7,0,4238.461435,4255.897332,4227.692204,4212.307589,4226.666563,4193.846051,4246.666563,4264.61528,4312.820407,4200.512718,4196.922974,4273.333229,4214.358871,4227.692204
8,0,4251.281947,4266.666562,4240.512717,4231.794768,4251.794768,4174.358872,4246.666563,4268.205024,4317.435792,4207.179384,4208.717846,4292.307587,4221.025538,4241.025537
9,0,4248.717845,4264.10246,4232.307589,4229.743486,4253.333229,4181.025539,4234.358871,4258.974255,4297.948613,4194.871692,4205.128102,4285.1281,4211.281948,4240.512717
10,0,4250.256306,4262.051178,4231.794768,4221.025538,4237.435794,4202.564,4238.461435,4262.051178,4296.410151,4200.512718,4199.999897,4278.461434,4218.461435,4245.128101
11,0,4247.179383,4253.333229,4226.666563,4216.922974,4232.307589,4192.30759,4243.58964,4267.179383,4307.179382,4211.794769,4198.974256,4274.87169,4220.512717,4238.974255
12,0,4231.794768,4243.58964,4214.358871,4214.358871,4212.82041,4167.692206,4229.230666,4252.820409,4298.974254,4191.281949,4190.256308,4261.538357,4196.922974,4218.974256
13,0,4229.743486,4247.692204,4216.410153,4215.384512,4207.692205,4170.769129,4225.640922,4244.615281,4288.717844,4175.897334,4180.512718,4254.871691,4189.230667,4213.846051
14,0,4230.769127,4246.153742,4215.897333,4211.794769,4231.794768,4189.743487,4232.820409,4255.897332,4291.794767,4199.999897,4178.974257,4253.333229,4205.128102,4216.410153
15,0,4236.410153,4247.692204,4218.974256,4221.025538,4241.025537,4197.435795,4233.33323,4264.61528,4295.38451,4217.948615,4196.922974,4265.128101,4218.461435,4228.205025
16,0,4247.179383,4254.35887,4233.84605,4234.871691,4230.256307,4199.999897,4239.999896,4264.61528,4291.794767,4204.615282,4211.794769,4282.563998,4217.435794,4241.538358
17,0,4246.153742,4250.769127,4230.769127,4225.128102,4226.666563,4206.153743,4246.153742,4263.589639,4294.87169,4196.922974,4202.051179,4272.820408,4216.410153,4239.487076
18,0,4239.999896,4245.128101,4215.384512,4214.871692,4225.640922,4196.922974,4235.384512,4254.35887,4297.435792,4205.640923,4189.743487,4253.84605,4218.974256,4230.769127
19,0,4244.10246,4246.153742,4217.948615,4221.538358,4225.640922,4183.589641,4227.179384,4245.128101,4293.333228,4207.179384,4193.846051,4255.897332,4214.358871,4228.205025
20,0,4256.410152,4255.384511,4235.897332,4231.794768,4240.512717,4198.461436,4233.84605,4253.333229,4302.051177,4213.846051,4205.640923,4271.794767,4218.974256,4238.974255
21,0,4256.922973,4256.410152,4237.435794,4227.692204,4235.897332,4214.358871,4234.358871,4255.384511,4307.179382,4222.563999,4210.256307,4268.205024,4229.230666,4245.640922
22,0,4248.717845,4253.333229,4226.666563,4227.692204,4219.487076,4205.128102,4227.179384,4246.153742,4297.435792,4218.461435,4207.692205,4255.384511,4227.179384,4236.410153
23,0,4251.794768,4263.076819,4225.640922,4241.538358,4235.897332,4202.564,4234.871691,4255.384511,4302.051177,4223.58964,4205.128102,4256.410152,4226.666563,4236.922973
24,0,4262.563998,4271.794767,4230.769127,4245.128101,4252.307588,4214.358871,4243.076819,4267.692203,4308.717843,4239.487076,4206.666564,4261.025537,4234.871691,4246.666563
25,0,4255.384511,4264.10246,4224.615281,4231.281948,4232.820409,4209.743487,4234.871691,4256.922973,4297.435792,4232.820409,4207.179384,4254.35887,4233.84605,4242.563999
26,0,4246.666563,4261.025537,4221.025538,4229.230666,4218.461435,4195.897333,4228.717845,4243.58964,4290.256305,4212.82041,4205.640923,4251.794768,4224.102461,4233.84605
27,0,4250.256306,4265.640921,4226.153743,4237.948614,4232.307589,4193.333231,4234.358871,4247.179383,4289.230664,4216.410153,4198.974256,4253.84605,4221.538358,4234.871691
28,0,4249.230665,4255.897332,4222.051179,4233.84605,4233.84605,4185.128103,4230.256307,4248.717845,4282.051177,4233.33323,4193.846051,4247.179383,4222.051179,4230.256307
29,0,4234.358871,4243.076819,4210.256307,4219.999897,4225.640922,4171.281949,4224.615281,4244.10246,4278.974254,4226.666563,4198.461436,4238.461435,4214.871692,4221.538358
30,0,4234.358871,4243.58964,4212.307589,4215.897333,4232.307589,4185.640923,4233.33323,4245.128101,4280.512716,4214.358871,4208.205025,4244.10246,4214.871692,4228.717845
31,0,4246.666563,4247.179383,4222.563999,4225.128102,4231.794768,4208.717846,4235.384512,4242.051178,4282.563998,4216.922974,4209.230666,4251.794768,4224.102461,4238.461435
32,0,4257.948614,4249.230665,4227.179384,4235.897332,4218.974256,4210.256307,4231.794768,4244.10246,4293.333228,4228.717845,4211.281948,4253.333229,4229.230666,4241.025537
33,0,4261.025537,4250.256306,4228.205025,4239.999896,4215.384512,4207.692205,4234.871691,4254.871691,4299.487074,4241.025537,4215.384512,4253.333229,4232.820409,4243.076819
34,0,4258.461434,4250.256306,4228.205025,4241.025537,4225.640922,4213.33323,4235.897332,4252.307588,4295.38451,4244.615281,4212.82041,4253.333229,4234.358871,4245.128101
35,0,4255.384511,4248.205024,4228.205025,4236.410153,4229.743486,4210.769128,4229.230666,4238.461435,4291.281946,4232.307589,4211.794769,4253.333229,4229.743486,4242.563999
36,0,4256.922973,4249.230665,4226.666563,4229.743486,4232.820409,4194.871692,4225.640922,4240.512717,4291.794767,4228.205025,4219.487076,4255.384511,4237.435794,4246.666563
37,0,4259.487075,4251.794768,4221.538358,4232.820409,4237.435794,4186.666564,4229.743486,4250.769127,4294.358869,4245.128101,4220.512717,4255.897332,4248.205024,4253.84605
38,0,4252.820409,4248.717845,4216.922974,4232.820409,4223.07682,4197.435795,4232.307589,4246.666563,4288.717844,4248.717845,4205.128102,4247.692204,4232.820409,4244.615281
39,0,4247.179383,4240.512717,4216.922974,4221.025538,4205.640923,4217.948615,4232.820409,4243.58964,4279.487075,4231.794768,4196.922974,4241.025537,4213.846051,4227.179384
40,0,4243.076819,4233.33323,4214.358871,4214.871692,4207.692205,4219.999897,4231.281948,4248.205024,4282.563998,4230.256307,4202.564,4235.384512,4217.948615,4221.538358
41,0,4242.051178,4232.820409,4214.871692,4220.512717,4223.07682,4210.256307,4234.871691,4251.794768,4295.897331,4244.615281,4212.307589,4241.025537,4228.205025,4229.230666
42,0,4247.692204,4242.051178,4224.615281,4229.230666,4231.281948,4203.589641,4232.820409,4248.717845,4292.307587,4249.743486,4218.461435,4251.794768,4230.256307,4238.974255
43,0,4253.333229,4248.717845,4227.692204,4236.410153,4218.974256,4198.461436,4223.58964,4243.076819,4280.512716,4243.58964,4218.974256,4250.769127,4226.153743,4237.435794
44,0,4246.666563,4247.179383,4222.051179,4234.358871,4205.128102,4200.512718,4226.153743,4249.230665,4288.205023,4249.743486,4215.384512,4241.538358,4224.102461,4232.307589
45,0,4244.10246,4243.076819,4220.512717,4229.230666,4209.743487,4202.564,4227.179384,4251.281947,4293.846049,4260.512716,4216.410153,4244.10246,4230.769127,4233.84605
46,0,4244.10246,4239.999896,4217.948615,4228.205025,4215.384512,4191.794769,4216.922974,4239.487076,4281.025536,4254.35887,4214.358871,4244.615281,4232.820409,4234.358871
47,0,4243.076819,4239.487076,4215.384512,4225.640922,4214.358871,4192.30759,4219.487076,4239.999896,4282.563998,4250.256306,4210.256307,4241.025537,4226.666563,4230.769127
48,0,4245.640922,4247.179383,4217.948615,4223.07682,4226.153743,4185.128103,4234.358871,4254.871691,4303.076818,4265.640921,4213.33323,4241.538358,4231.281948,4234.871691
49,0,4253.333229,4251.281947,4220.512717,4225.640922,4235.384512,4132.820412,4230.256307,4249.230665,4303.589638,4272.820408,4221.025538,4245.128101,4236.922973,4243.076819
50,0,4241.538358,4241.538358,4212.307589,4227.179384,4229.743486,4086.666567,4218.461435,4234.871691,4285.640921,4256.410152,4214.358871,4236.922973,4220.512717,4230.256307
51,0,4224.615281,4230.769127,4201.025538,4220.512717,4215.897333,4096.922977,4227.692204,4243.58964,4277.948613,4249.743486,4201.025538,4222.051179,4208.205025,4213.846051
52,0,4229.230666,4229.230666,4203.589641,4217.435794,4201.025538,4113.846053,4236.410153,4248.205024,4279.999895,4249.743486,4202.051179,4222.563999,4219.999897,4225.640922
53,0,4238.461435,4224.102461,4210.256307,4212.82041,4204.102461,4101.025541,4224.102461,4233.33323,4278.974254,4243.076819,4213.846051,4233.84605,4235.384512,4246.666563
54,0,4230.769127,4208.717846,4201.538359,4200.512718,4214.871692,4079.9999,4211.281948,4231.794768,4269.230665,4251.281947,4216.922974,4230.769127,4234.871691,4245.128101
55,0,4233.33323,4208.205025,4203.07682,4206.666564,4219.487076,4076.922977,4224.102461,4248.205024,4270.769126,4274.35887,4215.897333,4225.128102,4232.820409,4245.128101
56,0,4245.640922,4218.974256,4216.922974,4219.999897,4219.999897,4096.922977,4237.948614,4253.333229,4279.999895,4279.999895,4216.410153,4234.871691,4237.435794,4251.794768
57,0,4246.666563,4217.948615,4218.974256,4218.461435,4212.307589,4109.743489,4230.256307,4249.230665,4281.538357,4269.230665,4221.025538,4242.051178,4242.051178,4251.281947
58,0,4242.051178,4214.358871,4216.410153,4214.871692,4205.128102,4081.538362,4219.487076,4248.717845,4278.461434,4272.820408,4227.179384,4238.974255,4241.025537,4250.256306
59,0,4235.384512,4214.871692,4211.794769,4212.307589,4213.33323,4062.564003,4217.948615,4245.128101,4275.384511,4277.948613,4221.538358,4232.307589,4232.307589,4245.640922
60,0,4233.84605,4216.922974,4206.153743,4205.640923,4221.538358,4090.25631,4218.974256,4245.640922,4281.025536,4279.999895,4213.846051,4234.871691,4234.358871,4241.025537
61,0,4234.871691,4216.922974,4206.153743,4205.640923,4211.794769,4098.974259,4218.974256,4250.769127,4287.179382,4284.61528,4218.974256,4237.948614,4246.666563,4242.563999
62,0,4232.820409,4215.384512,4209.743487,4212.307589,4206.666564,4088.205028,4223.07682,4248.717845,4284.102459,4284.102459,4227.692204,4236.922973,4249.743486,4244.10246
63,0,4232.307589,4219.999897,4212.307589,4216.410153,4213.846051,4114.871694,4232.820409,4245.640922,4275.897331,4287.692203,4228.717845,4239.487076,4248.205024,4249.743486
64,0,4235.897332,4219.999897,4212.82041,4213.846051,4215.897333,4143.076822,4230.256307,4248.205024,4276.922972,4289.743485,4227.179384,4243.58964,4247.179383,4250.769127
65,0,4223.58964,4206.666564,4206.153743,4201.025538,4211.281948,4125.640925,4218.461435,4249.230665,4277.435793,4282.563998,4220.512717,4233.84605,4239.487076,4234.871691
66,0,4215.897333,4205.128102,4203.589641,4197.435795,4204.102461,4114.358874,4220.512717,4248.205024,4271.794767,4285.1281,4221.538358,4228.205025,4235.384512,4227.692204
67,0,4223.07682,4219.999897,4213.33323,4212.82041,4201.025538,4133.846053,4231.281948,4250.256306,4272.820408,4297.948613,4229.230666,4233.33323,4240.512717,4236.410153
68,0,4222.051179,4217.435794,4213.846051,4217.435794,4205.640923,4138.461437,4230.256307,4249.230665,4273.846049,4295.897331,4225.128102,4229.230666,4235.384512,4233.33323
69,0,4215.897333,4210.769128,4210.256307,4212.82041,4212.82041,4129.743489,4227.692204,4245.640922,4274.35887,4295.897331,4220.512717,4224.615281,4231.794768,4231.281948
70,0,4230.256307,4225.128102,4220.512717,4219.999897,4215.384512,4134.871694,4232.820409,4249.230665,4278.974254,4312.307587,4232.820409,4238.461435,4245.640922,4247.179383
71,0,4234.871691,4228.717845,4223.58964,4223.58964,4215.897333,4144.102463,4233.84605,4249.743486,4280.512716,4314.358869,4238.461435,4242.051178,4248.717845,4255.384511
72,0,4221.538358,4216.410153,4214.871692,4213.33323,4216.922974,4142.051181,4231.794768,4247.179383,4278.461434,4307.692202,4228.717845,4229.230666,4235.897332,4247.692204
73,0,4221.025538,4219.487076,4212.307589,4210.769128,4216.922974,4129.743489,4230.769127,4251.281947,4277.948613,4316.922971,4227.692204,4231.281948,4235.897332,4245.640922
74,0,4231.794768,4231.794768,4221.025538,4222.563999,4217.948615,4126.153745,4230.256307,4256.922973,4282.051177,4328.205022,4233.33323,4241.538358,4247.179383,4252.820409
75,0,4234.358871,4231.281948,4223.58964,4225.640922,4212.82041,4141.02554,4230.769127,4254.871691,4281.025536,4324.615279,4232.307589,4239.487076,4247.692204,4253.333229
76,0,4226.153743,4225.640922,4218.974256,4215.384512,4203.07682,4154.358873,4229.230666,4256.922973,4270.256306,4318.461433,4225.640922,4226.153743,4239.487076,4243.58964
77,0,4228.717845,4230.256307,4223.07682,4218.974256,4212.82041,4165.640924,4234.871691,4264.10246,4262.051178,4322.051176,4226.666563,4226.666563,4235.897332,4243.58964
78,0,4232.820409,4237.435794,4223.58964,4232.307589,4229.743486,4169.230667,4239.487076,4257.435793,4258.461434,4322.051176,4229.230666,4229.230666,4235.897332,4249.230665
79,0,4224.615281,4229.230666,4210.769128,4225.128102,4217.948615,4150.769129,4229.230666,4245.640922,4249.743486,4305.1281,4220.512717,4219.487076,4225.128102,4238.974255
80,0,4214.871692,4216.410153,4202.564,4211.794769,4202.564,4143.589642,4220.512717,4242.051178,4243.58964,4294.87169,4207.179384,4210.256307,4214.358871,4226.153743
81,0,4223.07682,4222.051179,4208.717846,4215.384512,4206.666564,4173.333231,4229.230666,4242.051178,4254.35887,4309.743484,4208.205025,4221.538358,4226.153743,4233.33323
82,0,4229.230666,4231.794768,4213.33323,4217.948615,4206.153743,4181.538359,4230.256307,4245.640922,4262.051178,4323.589638,4217.948615,4229.743486,4241.538358,4247.179383
83,0,4226.153743,4229.743486,4213.33323,4213.846051,4203.589641,4151.79477,4217.948615,4249.743486,4259.487075,4320.512715,4221.538358,4225.640922,4236.410153,4248.717845
84,0,4228.717845,4230.769127,4216.922974,4214.358871,4218.461435,4144.615283,4222.563999,4251.281947,4261.538357,4319.999894,4222.051179,4227.692204,4233.33323,4248.717845
85,0,4230.256307,4228.717845,4213.33323,4208.717846,4216.922974,4156.922975,4231.794768,4248.717845,4253.84605,4316.922971,4220.512717,4229.230666,4232.820409,4244.615281
86,0,4224.102461,4219.487076,4210.256307,4202.564,4198.974256,4162.05118,4229.743486,4248.205024,4243.076819,4309.743484,4218.461435,4225.640922,4229.743486,4241.538358
87,0,4230.256307,4224.102461,4221.025538,4214.358871,4206.153743,4164.615283,4231.281948,4250.769127,4251.281947,4314.871689,4227.692204,4233.84605,4238.974255,4247.692204
88,0,4231.794768,4234.358871,4226.153743,4225.128102,4222.563999,4170.769129,4232.307589,4255.384511,4259.999896,4326.666561,4229.743486,4241.538358,4249.743486,4251.794768
89,0,4219.999897,4226.666563,4219.999897,4211.794769,4216.410153,4174.358872,4229.230666,4256.410152,4249.230665,4327.692202,4224.102461,4237.435794,4244.10246,4248.717845
90,0,4215.384512,4214.871692,4215.897333,4199.487077,4198.974256,4160.512719,4227.692204,4251.281947,4237.948614,4316.410151,4222.563999,4233.33323,4236.922973,4244.615281
91,0,4221.025538,4221.025538,4221.538358,4209.230666,4201.025538,4152.307591,4227.179384,4245.128101,4240.512717,4311.281946,4228.717845,4236.410153,4239.999896,4246.153742
92,0,4224.102461,4231.794768,4225.128102,4219.999897,4209.230666,4173.846052,4228.205025,4246.666563,4245.128101,4313.333228,4229.743486,4236.922973,4241.538358,4249.230665
93,0,4224.102461,4234.358871,4226.153743,4218.974256,4206.153743,4192.30759,4231.281948,4258.461434,4249.230665,4313.846048,4222.051179,4230.256307,4235.384512,4246.153742
94,0,4222.051179,4229.743486,4223.58964,4217.435794,4203.07682,4173.846052,4220.512717,4255.897332,4247.179383,4312.307587,4211.281948,4223.58964,4225.128102,4235.897332
95,0,4217.948615,4223.07682,4215.897333,4216.922974,4204.102461,4147.179386,4209.230666,4235.384512,4226.666563,4307.692202,4204.615282,4218.461435,4215.897333,4228.205025
96,0,4215.897333,4217.435794,4210.256307,4209.743487,4200.512718,4154.358873,4214.358871,4228.205025,4216.410153,4303.589638,4205.640923,4218.461435,4215.897333,4227.179384
97,0,4211.794769,4220.512717,4210.769128,4207.692205,4199.999897,4186.666564,4219.487076,4239.999896,4234.871691,4306.666561,4208.205025,4219.487076,4223.07682,4229.230666
98,0,4213.846051,4229.743486,4217.435794,4216.410153,4208.205025,4203.589641,4217.948615,4247.179383,4245.128101,4314.358869,4215.384512,4224.615281,4224.615281,4234.871691
99,0,4212.82041,4223.58964,4214.871692,4212.82041,4205.128102,4182.564,4215.897333,4241.538358,4228.205025,4308.205023,4216.922974,4222.563999,4217.435794,4232.307589
100,0,4209.743487,4211.794769,4208.717846,4204.102461,4194.871692,4167.179385,4213.846051,4235.897332,4221.538358,4296.410151,4213.33323,4221.025538,4215.897333,4227.179384
101,0,4209.230666,4212.82041,4208.717846,4205.128102,4196.922974,4178.461436,4213.846051,4239.999896,4230.769127,4294.87169,4211.794769,4222.051179,4217.948615,4231.794768
102,0,4213.33323,4212.307589,4208.205025,4203.07682,4203.589641,4170.769129,4213.846051,4247.179383,4225.128102,4298.974254,4212.307589,4222.051179,4217.948615,4233.33323
103,0,4208.717846,4203.589641,4198.974256,4195.384513,4198.461436,4151.79477,4209.230666,4243.58964,4213.846051,4295.897331,4206.666564,4216.922974,4214.871692,4225.128102
104,0,4206.153743,4204.102461,4194.871692,4195.384513,4196.410154,4168.205026,4211.794769,4236.922973,4219.487076,4287.692203,4206.153743,4211.794769,4215.897333,4219.487076
105,0,4212.82041,4213.33323,4202.564,4197.948615,4208.717846,4199.487077,4224.615281,4242.051178,4234.358871,4297.948613,4214.358871,4213.846051,4219.999897,4226.666563
106,0,4222.051179,4215.384512,4208.717846,4195.384513,4205.128102,4203.07682,4233.84605,4249.743486,4244.10246,4316.410151,4216.922974,4221.538358,4220.512717,4234.871691
107,0,4223.07682,4214.358871,4209.230666,4201.025538,4189.743487,4196.410154,4230.769127,4247.692204,4248.717845,4316.410151,4212.82041,4223.07682,4222.051179,4233.33323
108,0,4224.102461,4218.974256,4210.769128,4211.281948,4195.897333,4201.538359,4219.999897,4246.153742,4246.666563,4308.205023,4217.435794,4221.025538,4230.256307,4232.307589
109,0,4226.153743,4225.640922,4212.82041,4211.794769,4212.307589,4206.153743,4214.871692,4246.153742,4234.871691,4304.102459,4219.487076,4222.051179,4234.871691,4236.410153
110,0,4223.58964,4224.615281,4208.717846,4208.717846,4206.153743,4202.051179,4216.922974,4243.076819,4229.743486,4305.64092,4210.256307,4219.999897,4226.153743,4234.358871
111,0,4221.025538,4218.974256,4205.640923,4211.794769,4193.846051,4189.230667,4216.922974,4241.025537,4234.358871,4308.717843,4209.230666,4215.384512,4218.974256,4228.205025
112,0,4222.051179,4216.922974,4206.666564,4213.33323,4205.640923,4177.435795,4214.871692,4240.512717,4225.128102,4300.512715,4217.948615,4216.922974,4219.999897,4228.717845
113,0,4222.563999,4216.922974,4207.692205,4205.128102,4218.461435,4181.025539,4217.948615,4243.58964,4214.871692,4289.743485,4217.948615,4219.999897,4219.487076,4233.33323
114,0,4216.922974,4214.358871,4205.128102,4197.948615,4207.179384,4196.922974,4217.948615,4246.153742,4223.07682,4296.922972,4209.743487,4214.871692,4214.871692,4231.794768
115,0,4217.435794,4214.871692,4206.666564,4202.564,4197.435795,4206.153743,4216.410153,4247.692204,4235.897332,4310.256305,4208.205025,4215.384512,4215.384512,4232.820409
116,0,4225.128102,4221.538358,4211.281948,4207.179384,4212.307589,4195.897333,4223.58964,4253.333229,4241.538358,4311.794766,4210.769128,4219.999897,4224.102461,4238.974255
117,0,4231.281948,4225.640922,4210.256307,4205.640923,4225.640922,4190.256308,4225.640922,4255.897332,4245.128101,4309.743484,4213.846051,4221.538358,4233.33323,4240.512717
118,0,4227.692204,4227.179384,4202.051179,4206.666564,4217.435794,4199.487077,4216.410153,4248.205024,4245.640922,4311.794766,4217.435794,4217.435794,4233.84605,4236.922973
119,0,4227.692204,4228.205025,4199.999897,4209.230666,4202.051179,4201.025538,4214.871692,4241.025537,4239.487076,4311.794766,4213.846051,4212.82041,4223.58964,4233.84605
120,0,4232.307589,4229.230666,4205.640923,4209.743487,4199.487077,4198.974256,4223.07682,4245.128101,4232.820409,4309.743484,4210.256307,4210.256307,4218.974256,4231.794768
121,0,4235.384512,4230.769127,4209.230666,4208.205025,4212.307589,4213.33323,4222.563999,4248.205024,4231.794768,4306.666561,4222.051179,4217.435794,4228.717845,4233.33323
122,0,4236.410153,4235.897332,4211.794769,4212.82041,4219.999897,4217.948615,4218.461435,4247.179383,4241.025537,4309.743484,4227.692204,4224.615281,4236.410153,4238.974255
123,0,4239.487076,4234.358871,4211.794769,4215.384512,4218.974256,4199.999897,4215.897333,4246.153742,4243.076819,4312.307587,4219.999897,4218.461435,4230.769127,4238.974255
3,0,4361.025534,4315.38451,4248.717845,4241.538358,4221.025538,4183.076821,4213.846051,4236.922973,4233.84605,4283.076818,4239.487076,4246.153742,4262.563998,4354.871688
4,0,4387.6922,4341.538355,4258.974255,4259.487075,4231.794768,4171.281949,4215.897333,4232.307589,4238.974255,4292.307587,4233.84605,4250.769127,4265.128101,4373.846047
5,0,4386.153739,4335.384509,4251.281947,4255.384511,4217.948615,4177.435795,4208.717846,4237.948614,4231.794768,4274.87169,4228.717845,4241.538358,4252.307588,4370.256303
6,0,4373.846047,4314.358869,4238.461435,4246.666563,4195.384513,4183.589641,4202.051179,4231.281948,4224.615281,4255.897332,4230.256307,4229.230666,4244.615281,4359.999893
7,0,4375.897329,4311.281946,4238.974255,4250.769127,4189.743487,4190.769128,4206.153743,4227.179384,4225.128102,4265.640921,4232.820409,4231.281948,4248.205024,4360.512714
8,0,4374.871688,4316.922971,4245.640922,4247.179383,4205.640923,4207.692205,4214.358871,4237.948614,4236.922973,4285.1281,4230.769127,4242.051178,4254.35887,4365.128098
9,0,4354.871688,4301.025536,4235.897332,4231.281948,4220.512717,4209.230666,4217.435794,4240.512717,4237.948614,4280.512716,4225.640922,4237.948614,4246.666563,4347.179381
10,0,4329.230663,4280.512716,4219.487076,4225.128102,4212.82041,4199.999897,4215.384512,4235.897332,4221.025538,4265.128101,4218.461435,4223.07682,4229.743486,4314.871689
11,0,4319.999894,4277.948613,4220.512717,4231.281948,4198.461436,4197.948615,4209.743487,4241.025537,4224.102461,4263.589639,4216.922974,4226.153743,4228.717845,4297.948613
12,0,4307.179382,4269.743485,4223.58964,4229.230666,4198.461436,4190.769128,4206.666564,4248.717845,4247.179383,4269.230665,4218.461435,4231.794768,4234.358871,4286.666562
13,0,4284.61528,4248.717845,4213.33323,4216.922974,4209.743487,4197.948615,4210.769128,4247.179383,4248.205024,4267.692203,4216.410153,4222.563999,4224.102461,4264.10246
14,0,4271.794767,4242.051178,4204.615282,4208.717846,4218.461435,4227.179384,4218.461435,4242.563999,4234.358871,4271.794767,4213.846051,4215.897333,4217.948615,4247.692204
15,0,4270.256306,4243.076819,4213.33323,4211.281948,4217.948615,4230.769127,4223.58964,4249.230665,4242.563999,4278.461434,4218.974256,4223.58964,4230.256307,4245.128101
16,0,4259.999896,4231.281948,4223.58964,4215.384512,4215.384512,4203.07682,4223.07682,4257.948614,4254.871691,4278.974254,4224.102461,4230.256307,4237.435794,4241.538358
17,0,4246.666563,4218.974256,4215.384512,4207.692205,4217.948615,4190.769128,4218.461435,4257.948614,4249.230665,4282.051177,4223.58964,4223.58964,4229.230666,4228.717845
18,0,4231.281948,4210.769128,4191.794769,4187.179385,4217.948615,4201.538359,4212.82041,4248.205024,4241.025537,4279.999895,4213.846051,4210.769128,4218.461435,4210.256307
19,0,4215.897333,4202.564,4181.025539,4178.461436,4205.640923,4204.615282,4209.230666,4247.179383,4245.128101,4266.153742,4199.487077,4200.512718,4210.769128,4194.871692
20,0,4219.999897,4205.128102,4193.846051,4196.410154,4207.179384,4208.205025,4215.897333,4258.974255,4249.743486,4267.692203,4203.07682,4204.102461,4213.33323,4196.410154
21,0,4228.205025,4208.205025,4198.461436,4205.128102,4230.769127,4228.717845,4230.769127,4256.922973,4245.640922,4282.051177,4216.410153,4208.717846,4218.974256,4200.512718
22,0,4219.999897,4206.666564,4191.281949,4196.410154,4233.84605,4241.538358,4234.871691,4248.717845,4245.640922,4284.61528,4217.948615,4207.692205,4216.922974,4193.846051
23,0,4218.974256,4215.384512,4202.051179,4207.179384,4217.435794,4237.435794,4227.692204,4252.307588,4251.281947,4284.102459,4216.922974,4210.769128,4218.974256,4194.358872
24,0,4231.281948,4218.974256,4214.358871,4218.461435,4215.897333,4234.871691,4226.666563,4254.871691,4250.769127,4288.205023,4222.051179,4219.487076,4224.615281,4204.615282
25,0,4221.538358,4201.025538,4199.999897,4197.948615,4216.922974,4222.563999,4224.615281,4244.10246,4243.076819,4272.820408,4215.897333,4211.794769,4212.82041,4195.384513
26,0,4217.435794,4201.025538,4194.871692,4193.846051,4225.128102,4199.999897,4218.461435,4241.025537,4246.153742,4259.999896,4212.307589,4205.640923,4205.128102,4185.128103
27,0,4229.230666,4218.974256,4209.230666,4214.871692,4245.128101,4196.410154,4216.922974,4252.307588,4252.820409,4273.333229,4214.871692,4214.871692,4214.358871,4193.846051
28,0,4225.640922,4211.281948,4206.666564,4207.692205,4236.922973,4193.846051,4219.487076,4256.410152,4247.179383,4279.487075,4206.153743,4216.410153,4212.307589,4189.230667
29,0,4208.717846,4193.333231,4188.717846,4188.717846,4212.82041,4169.230667,4215.897333,4244.615281,4238.461435,4259.999896,4193.846051,4199.487077,4195.384513,4168.717847
30,0,4213.33323,4196.922974,4188.205026,4196.410154,4222.051179,4164.615283,4215.384512,4235.897332,4240.512717,4248.205024,4197.435795,4196.410154,4193.846051,4168.717847
31,0,4218.461435,4204.615282,4195.897333,4205.640923,4233.84605,4186.666564,4223.07682,4241.025537,4246.666563,4252.307588,4199.487077,4203.07682,4199.487077,4177.435795
32,0,4210.256307,4198.461436,4190.769128,4199.999897,4221.538358,4195.897333,4225.128102,4243.58964,4241.538358,4248.205024,4194.358872,4197.435795,4189.743487,4169.230667
33,0,4212.307589,4197.435795,4189.230667,4201.025538,4229.743486,4197.435795,4230.256307,4243.58964,4234.871691,4243.076819,4198.461436,4195.897333,4182.05118,4163.589642
34,0,4221.025538,4204.102461,4198.461436,4205.128102,4242.051178,4204.102461,4233.33323,4251.281947,4235.384512,4248.717845,4204.615282,4205.640923,4189.743487,4172.30759
35,0,4215.897333,4197.435795,4195.384513,4201.025538,4214.358871,4194.358872,4222.051179,4248.717845,4232.820409,4249.230665,4196.410154,4200.512718,4188.205026,4170.256308
36,0,4217.435794,4194.871692,4193.846051,4200.512718,4201.025538,4183.076821,4223.58964,4244.615281,4235.384512,4245.128101,4193.333231,4195.384513,4184.102462,4166.153744
37,0,4233.84605,4209.743487,4211.281948,4208.205025,4223.07682,4190.769128,4235.384512,4249.743486,4256.410152,4255.897332,4203.589641,4209.743487,4197.435795,4180.512718
38,0,4234.871691,4214.358871,4213.33323,4214.358871,4223.07682,4182.05118,4225.640922,4249.230665,4264.10246,4263.076819,4203.07682,4212.82041,4203.589641,4186.666564
39,0,4219.487076,4201.025538,4192.82041,4205.128102,4209.743487,4168.205026,4209.230666,4236.410153,4236.410153,4246.666563,4194.871692,4196.922974,4187.179385,4170.769129
40,0,4216.410153,4198.461436,4189.230667,4195.897333,4216.922974,4178.974257,4213.846051,4225.640922,4221.538358,4237.948614,4198.974256,4193.846051,4184.102462,4164.615283
41,0,4223.58964,4204.615282,4196.410154,4201.025538,4221.538358,4177.948616,4219.487076,4223.07682,4238.974255,4248.205024,4201.538359,4202.051179,4193.846051,4172.30759
42,0,4222.051179,4201.025538,4193.846051,4201.538359,4217.948615,4172.30759,4214.358871,4232.307589,4253.84605,4249.743486,4193.846051,4201.025538,4194.358872,4169.743488
43,0,4228.205025,4201.025538,4201.025538,4201.025538,4221.025538,4202.564,4215.384512,4245.640922,4255.384511,4247.179383,4201.538359,4206.666564,4200.512718,4175.897334
44,0,4234.871691,4209.743487,4212.307589,4207.179384,4214.358871,4222.563999,4222.563999,4246.153742,4248.717845,4255.384511,4211.281948,4213.33323,4206.666564,4187.692205
45,0,4229.743486,4204.615282,4206.153743,4207.692205,4210.769128,4208.717846,4225.640922,4247.179383,4248.717845,4255.384511,4202.564,4209.743487,4196.410154,4177.948616
46,0,4217.948615,4190.256308,4199.999897,4198.974256,4215.897333,4195.897333,4221.025538,4249.743486,4249.230665,4239.999896,4196.922974,4205.128102,4188.717846,4165.640924
47,0,4218.461435,4185.640923,4205.640923,4192.30759,4207.179384,4185.128103,4216.410153,4237.948614,4240.512717,4231.281948,4203.589641,4208.717846,4191.281949,4169.743488
48,0,4222.563999,4188.205026,4203.589641,4191.794769,4198.461436,4180.512718,4214.871692,4233.33323,4237.435794,4231.281948,4199.999897,4206.666564,4188.205026,4169.230667
49,0,4227.179384,4192.82041,4194.871692,4194.871692,4203.07682,4195.384513,4215.897333,4244.615281,4248.205024,4231.794768,4192.30759,4202.564,4184.102462,4164.102462
50,0,4232.307589,4197.435795,4197.435795,4198.974256,4209.230666,4203.589641,4225.640922,4249.743486,4257.435793,4243.076819,4198.461436,4206.153743,4193.333231,4174.871693
51,0,4239.999896,4201.025538,4205.128102,4204.102461,4214.871692,4197.948615,4228.717845,4239.999896,4251.794768,4257.948614,4206.153743,4211.794769,4203.07682,4185.128103
52,0,4246.153742,4210.256307,4210.769128,4213.33323,4217.435794,4202.051179,4222.051179,4234.871691,4246.153742,4257.435793,4207.692205,4212.82041,4202.051179,4185.128103
53,0,4249.743486,4215.897333,4215.384512,4219.487076,4217.435794,4208.717846,4227.179384,4244.615281,4251.281947,4249.743486,4211.794769,4213.33323,4203.589641,4182.05118
54,0,4243.076819,4205.128102,4211.794769,4212.307589,4218.461435,4206.666564,4229.230666,4250.256306,4253.84605,4246.666563,4211.281948,4210.769128,4202.051179,4178.461436
55,0,4239.999896,4198.461436,4205.640923,4205.640923,4220.512717,4202.051179,4216.922974,4245.128101,4246.666563,4244.615281,4208.205025,4207.692205,4195.897333,4178.974257
56,0,4245.640922,4203.07682,4212.307589,4209.743487,4216.922974,4207.179384,4218.461435,4246.666563,4247.179383,4249.743486,4212.82041,4212.82041,4198.974256,4185.128103
57,0,4243.58964,4197.948615,4215.384512,4210.769128,4207.179384,4229.743486,4233.84605,4250.256306,4253.333229,4250.256306,4219.487076,4213.846051,4204.102461,4184.102462
58,0,4239.487076,4200.512718,4207.692205,4205.640923,4201.538359,4226.666563,4231.794768,4241.538358,4249.743486,4237.435794,4214.358871,4207.179384,4194.358872,4179.487077
59,0,4245.128101,4217.948615,4207.692205,4209.230666,4207.692205,4197.435795,4220.512717,4235.897332,4247.179383,4235.897332,4205.128102,4202.564,4184.102462,4182.564
60,0,4250.769127,4221.538358,4208.717846,4216.922974,4210.256307,4199.999897,4216.922974,4238.461435,4241.025537,4242.563999,4209.230666,4206.666564,4191.794769,4186.666564
61,0,4244.615281,4213.33323,4199.999897,4213.33323,4199.999897,4219.487076,4213.846051,4232.820409,4233.84605,4235.384512,4216.410153,4204.615282,4197.435795,4186.153744
62,0,4243.58964,4213.846051,4201.025538,4211.794769,4197.435795,4208.717846,4216.410153,4230.256307,4243.076819,4230.256307,4216.410153,4202.564,4190.769128,4186.153744
63,0,4246.666563,4218.974256,4209.743487,4218.974256,4212.307589,4189.743487,4224.102461,4242.051178,4257.435793,4233.33323,4211.794769,4205.128102,4187.692205,4184.102462
64,0,4244.10246,4214.871692,4204.615282,4215.384512,4220.512717,4209.230666,4217.948615,4245.640922,4259.487075,4233.33323,4212.82041,4206.153743,4193.846051,4184.102462
65,0,4245.128101,4212.82041,4203.07682,4211.281948,4211.281948,4241.538358,4216.410153,4247.179383,4259.999896,4241.025537,4220.512717,4208.205025,4202.051179,4192.82041
66,0,4259.999896,4226.666563,4218.461435,4225.640922,4205.640923,4253.84605,4234.358871,4263.076819,4266.153742,4253.84605,4231.794768,4222.051179,4214.358871,4206.153743
67,0,4264.10246,4236.922973,4219.487076,4233.33323,4215.897333,4239.487076,4234.358871,4258.974255,4264.61528,4250.256306,4235.897332,4227.179384,4216.922974,4209.743487
68,0,4252.820409,4224.102461,4210.769128,4218.461435,4218.461435,4215.384512,4214.358871,4234.358871,4254.871691,4247.179383,4229.743486,4215.384512,4205.128102,4201.538359
69,0,4247.179383,4214.358871,4219.999897,4215.897333,4206.666564,4211.281948,4213.33323,4228.717845,4248.717845,4250.769127,4225.128102,4210.256307,4201.025538,4198.461436
70,0,4250.256306,4217.435794,4224.102461,4225.640922,4196.410154,4213.33323,4215.897333,4236.410153,4243.58964,4239.487076,4223.07682,4211.794769,4202.564,4199.999897
71,0,4247.179383,4215.384512,4212.82041,4221.025538,4195.384513,4213.846051,4207.692205,4231.794768,4237.948614,4230.769127,4222.051179,4208.205025,4197.948615,4195.897333
72,0,4253.333229,4213.846051,4224.102461,4219.487076,4208.205025,4224.615281,4219.487076,4242.051178,4252.820409,4245.128101,4230.769127,4214.871692,4204.102461,4198.974256
73,0,4259.999896,4219.487076,4238.974255,4225.640922,4216.410153,4229.230666,4234.871691,4263.589639,4270.769126,4253.84605,4239.487076,4224.102461,4216.922974,4206.666564
74,0,4251.794768,4217.435794,4223.07682,4217.948615,4207.179384,4214.358871,4225.128102,4258.461434,4260.512716,4247.692204,4234.871691,4216.410153,4212.82041,4204.102461
75,0,4243.58964,4208.205025,4208.717846,4212.307589,4198.461436,4215.384512,4215.897333,4245.128101,4247.179383,4246.153742,4231.281948,4210.769128,4204.102461,4200.512718
76,0,4245.128101,4206.153743,4213.33323,4214.871692,4200.512718,4233.84605,4218.974256,4247.692204,4249.230665,4247.179383,4233.33323,4212.82041,4206.153743,4201.538359
77,0,4249.743486,4214.358871,4221.025538,4219.487076,4208.717846,4227.692204,4219.487076,4252.307588,4254.35887,4247.179383,4234.358871,4216.410153,4207.179384,4202.051179
78,0,4246.666563,4215.897333,4221.025538,4219.487076,4214.871692,4206.153743,4215.897333,4249.230665,4256.922973,4246.666563,4231.794768,4215.384512,4202.564,4201.025538
79,0,4239.487076,4202.564,4213.846051,4207.692205,4203.07682,4213.33323,4214.358871,4249.230665,4259.487075,4242.563999,4231.794768,4212.82041,4203.07682,4199.999897
80,0,4231.281948,4197.435795,4209.743487,4205.128102,4182.05118,4227.179384,4216.922974,4248.717845,4257.435793,4239.999896,4226.153743,4204.615282,4196.922974,4192.82041
81,0,4232.307589,4209.743487,4216.922974,4219.999897,4191.281949,4217.948615,4215.384512,4237.948614,4253.84605,4237.948614,4219.487076,4203.589641,4187.179385,4186.153744
82,0,4234.358871,4215.897333,4217.948615,4222.051179,4209.230666,4220.512717,4204.615282,4230.769127,4242.563999,4232.820409,4219.487076,4206.153743,4190.769128,4188.205026
83,0,4232.307589,4203.589641,4205.640923,4208.717846,4191.794769,4232.820409,4195.897333,4228.717845,4231.281948,4225.640922,4221.025538,4202.051179,4192.82041,4191.794769
84,0,4227.179384,4198.461436,4204.102461,4207.692205,4175.897334,4224.615281,4200.512718,4228.717845,4240.512717,4225.128102,4219.487076,4197.435795,4187.179385,4186.153744
85,0,4229.230666,4211.281948,4215.384512,4215.897333,4193.846051,4217.948615,4205.128102,4231.281948,4251.794768,4229.230666,4223.07682,4202.051179,4190.256308,4183.589641
86,0,4236.922973,4219.487076,4218.974256,4219.487076,4207.179384,4225.128102,4201.025538,4230.256307,4245.128101,4230.256307,4228.205025,4207.179384,4198.461436,4194.358872
87,0,4239.999896,4213.846051,4212.82041,4218.461435,4195.897333,4218.461435,4196.922974,4229.230666,4241.538358,4230.256307,4223.58964,4207.692205,4198.974256,4200.512718
88,0,4233.33323,4211.794769,4208.205025,4215.897333,4195.897333,4210.256307,4200.512718,4230.256307,4249.230665,4232.307589,4212.82041,4203.07682,4197.948615,4193.846051
89,0,4234.358871,4217.435794,4210.256307,4218.974256,4205.640923,4219.487076,4210.256307,4232.307589,4252.820409,4236.410153,4211.794769,4202.051179,4201.025538,4194.871692
90,0,4234.871691,4217.435794,4212.82041,4219.487076,4204.102461,4219.999897,4214.871692,4232.820409,4249.743486,4231.794768,4215.897333,4203.589641,4202.051179,4201.538359
91,0,4232.820409,4216.410153,4211.281948,4217.948615,4199.999897,4220.512717,4211.281948,4237.435794,4251.281947,4233.84605,4219.487076,4207.179384,4205.128102,4202.051179
92,0,4227.692204,4216.922974,4204.615282,4217.948615,4194.358872,4232.307589,4208.717846,4242.563999,4254.35887,4241.538358,4216.922974,4204.102461,4204.102461,4196.922974
93,0,4215.384512,4209.743487,4197.948615,4213.846051,4187.692205,4236.410153,4208.205025,4236.410153,4248.205024,4235.384512,4211.281948,4192.82041,4194.871692,4189.230667
94,0,4214.358871,4210.769128,4204.102461,4218.461435,4198.461436,4229.743486,4210.769128,4230.256307,4242.563999,4227.179384,4219.487076,4197.948615,4194.358872,4193.846051
95,0,4227.692204,4219.487076,4212.82041,4227.692204,4217.435794,4231.794768,4217.435794,4233.84605,4250.769127,4228.717845,4228.205025,4211.794769,4201.538359,4206.666564
96,0,4230.769127,4216.922974,4213.33323,4221.025538,4213.33323,4251.281947,4215.897333,4236.410153,4258.461434,4234.871691,4224.102461,4211.281948,4207.179384,4208.717846
97,0,4224.102461,4221.538358,4216.410153,4217.948615,4198.974256,4250.769127,4205.128102,4233.84605,4257.948614,4242.563999,4223.07682,4206.153743,4213.846051,4209.230666
98,0,4228.205025,4234.358871,4225.640922,4237.948614,4199.487077,4222.563999,4201.538359,4234.358871,4255.384511,4250.256306,4230.769127,4214.358871,4219.999897,4215.897333
99,0,4224.615281,4224.615281,4222.051179,4236.922973,4201.538359,4212.307589,4199.487077,4229.743486,4246.153742,4242.051178,4225.640922,4215.384512,4213.846051,4214.358871
100,0,4215.384512,4213.33323,4215.384512,4215.897333,4195.897333,4241.538358,4201.538359,4224.102461,4241.025537,4226.666563,4221.025538,4211.281948,4209.230666,4208.717846
101,0,4219.487076,4229.230666,4221.025538,4222.051179,4202.051179,4264.61528,4214.358871,4238.461435,4256.410152,4232.820409,4231.794768,4216.922974,4216.410153,4216.410153
102,0,4229.230666,4239.487076,4228.717845,4239.487076,4211.281948,4247.692204,4221.538358,4249.743486,4265.640921,4245.128101,4236.410153,4223.58964,4219.487076,4222.051179
103,0,4218.461435,4225.128102,4220.512717,4228.717845,4197.435795,4228.205025,4212.307589,4236.410153,4248.205024,4236.922973,4222.051179,4215.384512,4211.281948,4213.33323
104,0,4211.794769,4222.563999,4216.922974,4218.974256,4189.743487,4238.461435,4211.794769,4230.256307,4243.58964,4230.256307,4222.051179,4211.281948,4210.769128,4214.871692
105,0,4213.33323,4231.281948,4224.615281,4230.256307,4203.589641,4253.333229,4220.512717,4237.435794,4256.410152,4241.538358,4234.871691,4213.846051,4215.384512,4216.410153
106,0,4205.640923,4225.640922,4217.948615,4227.179384,4205.128102,4246.666563,4215.384512,4238.974255,4253.84605,4237.435794,4229.743486,4206.666564,4210.256307,4203.07682
107,0,4188.205026,4212.82041,4201.025538,4208.717846,4194.871692,4227.179384,4201.025538,4229.230666,4238.974255,4216.410153,4215.897333,4194.871692,4198.974256,4192.30759
108,0,4189.230667,4212.307589,4204.102461,4208.717846,4204.102461,4223.58964,4198.974256,4220.512717,4236.922973,4218.461435,4217.948615,4199.999897,4199.487077,4198.461436
109,0,4198.461436,4218.461435,4222.051179,4221.025538,4211.281948,4239.487076,4205.640923,4225.128102,4250.256306,4235.897332,4222.051179,4212.307589,4210.256307,4208.717846
110,0,4193.333231,4216.410153,4224.102461,4221.538358,4194.358872,4254.35887,4206.153743,4235.384512,4257.948614,4234.358871,4220.512717,4208.717846,4209.230666,4207.179384
111,0,4191.281949,4220.512717,4219.487076,4221.025538,4191.281949,4267.692203,4202.564,4235.897332,4253.84605,4230.769127,4225.640922,4209.230666,4205.640923,4208.205025
112,0,4201.025538,4228.717845,4224.615281,4229.230666,4201.025538,4262.563998,4201.538359,4227.692204,4248.717845,4233.84605,4228.205025,4216.922974,4212.82041,4215.897333
113,0,4203.07682,4225.640922,4230.256307,4236.410153,4203.07682,4227.179384,4202.051179,4228.205025,4247.692204,4231.794768,4223.58964,4217.435794,4218.974256,4216.410153
114,0,4194.358872,4216.410153,4225.128102,4229.230666,4198.461436,4212.307589,4201.025538,4233.84605,4244.615281,4229.230666,4222.563999,4213.33323,4214.871692,4211.281948
115,0,4193.846051,4214.871692,4216.922974,4218.461435,4193.846051,4242.051178,4199.487077,4232.307589,4244.615281,4231.281948,4226.666563,4217.948615,4212.82041,4212.82041
116,0,4199.999897,4225.640922,4219.999897,4224.615281,4194.358872,4264.61528,4209.230666,4235.384512,4257.435793,4233.84605,4226.666563,4222.051179,4217.435794,4219.487076
117,0,4200.512718,4230.256307,4223.58964,4230.256307,4197.435795,4255.384511,4214.871692,4236.922973,4266.153742,4232.820409,4222.563999,4218.974256,4216.410153,4215.897333
118,0,4196.922974,4227.179384,4223.07682,4223.07682,4194.358872,4250.769127,4211.281948,4230.769127,4261.025537,4231.281948,4219.487076,4215.897333,4212.82041,4212.82041
119,0,4209.743487,4230.769127,4233.84605,4232.820409,4191.281949,4254.871691,4217.435794,4234.871691,4253.84605,4236.922973,4228.717845,4225.128102,4220.512717,4225.128102
120,0,4218.974256,4237.948614,4246.666563,4245.128101,4202.564,4244.10246,4223.07682,4249.743486,4251.794768,4243.58964,4235.384512,4231.281948,4229.230666,4235.384512
121,0,4210.769128,4233.84605,4244.10246,4238.461435,4206.666564,4233.84605,4218.461435,4254.871691,4260.512716,4243.58964,4232.820409,4229.743486,4229.230666,4234.358871
122,0,4200.512718,4225.128102,4233.84605,4229.743486,4201.025538,4238.461435,4217.435794,4249.230665,4266.153742,4241.538358,4230.769127,4228.205025,4225.640922,4228.205025
123,0,4198.974256,4219.999897,4226.153743,4225.128102,4198.461436,4248.717845,4217.435794,4246.666563,4256.922973,4239.487076,4228.717845,4229.743486,4219.999897,4222.051179
124,0,4189.743487,4213.33323,4221.025538,4216.922974,4191.794769,4251.281947,4213.33323,4244.615281,4251.281947,4232.820409,4218.974256,4220.512717,4209.230666,4214.871692
125,0,4183.076821,4210.769128,4218.974256,4214.358871,4182.564,4246.153742,4209.230666,4238.974255,4256.922973,4228.717845,4212.82041,4207.692205,4202.051179,4205.640923
126,0,4185.640923,4213.33323,4218.974256,4220.512717,4185.640923,4246.666563,4204.102461,4233.84605,4252.307588,4227.692204,4214.358871,4206.666564,4200.512718,4201.538359
127,0,4194.871692,4221.025538,4225.128102,4230.256307,4198.974256,4258.974255,4207.179384,4231.281948,4242.051178,4224.102461,4216.410153,4218.461435,4205.128102,4210.256307
128,0,4198.974256,4226.666563,4232.307589,4235.384512,4201.538359,4261.538357,4212.82041,4231.281948,4247.179383,4218.974256,4218.974256,4221.538358,4212.82041,4221.538358
0,0,4192.30759,4221.025538,4226.153743,4227.692204,4197.435795,4249.743486,4204.102461,4229.230666,4253.333229,4217.948615,4217.435794,4213.33323,4211.794769,4213.846051
1,0,4188.717846,4215.897333,4217.435794,4223.07682,4203.07682,4254.871691,4203.07682,4230.769127,4245.640922,4222.051179,4213.846051,4210.769128,4207.692205,4208.717846
2,0,4192.82041,4217.435794,4220.512717,4226.666563,4197.948615,4264.10246,4208.717846,4232.307589,4242.051178,4223.07682,4216.922974,4211.281948,4211.281948,4213.33323
3,0,4195.384513,4219.999897,4226.666563,4227.692204,4189.230667,4255.897332,4203.589641,4227.179384,4248.205024,4218.974256,4220.512717,4210.769128,4214.358871,4211.281948
4,0,4193.333231,4219.999897,4229.230666,4225.640922,4207.692205,4239.999896,4204.615282,4235.897332,4250.769127,4218.461435,4216.410153,4210.256307,4209.230666,4208.205025
5,0,4189.743487,4215.384512,4223.58964,4223.58964,4223.07682,4238.461435,4211.794769,4251.794768,4249.743486,4222.051179,4216.410153,4210.769128,4207.179384,4207.179384
6,0,4179.487077,4209.743487,4211.281948,4215.897333,4206.153743,4251.794768,4210.256307,4241.538358,4248.205024,4219.487076,4219.487076,4206.666564,4207.692205,4201.025538
7,0,4178.974257,4211.794769,4213.33323,4218.974256,4188.205026,4258.974255,4210.256307,4219.487076,4243.58964,4210.256307,4214.358871,4206.153743,4203.589641,4198.461436
8,0,4189.743487,4218.974256,4226.666563,4230.256307,4194.358872,4257.948614,4215.897333,4228.717845,4244.615281,4208.205025,4211.794769,4210.256307,4207.179384,4208.717846
9,0,4200.512718,4216.922974,4228.205025,4222.563999,4207.692205,4264.61528,4217.435794,4252.307588,4252.307588,4213.33323,4221.538358,4216.922974,4216.922974,4217.948615
10,0,4202.051179,4219.487076,4227.692204,4218.461435,4217.948615,4264.61528,4217.435794,4248.205024,4251.281947,4219.999897,4231.794768,4223.07682,4219.999897,4219.487076
11,0,4198.974256,4224.102461,4226.666563,4227.692204,4218.461435,4249.230665,4215.897333,4235.897332,4249.230665,4213.846051,4226.153743,4219.487076,4212.307589,4215.384512
12,0,4193.846051,4218.461435,4215.897333,4224.102461,4209.230666,4246.153742,4214.358871,4238.461435,4247.692204,4204.615282,4213.33323,4209.230666,4202.564,4208.717846
13,0,4197.435795,4215.384512,4215.897333,4222.563999,4203.589641,4248.717845,4217.435794,4239.999896,4236.410153,4207.692205,4219.487076,4213.33323,4202.564,4209.230666
14,0,4198.461436,4216.410153,4219.999897,4229.230666,4202.564,4241.025537,4216.922974,4239.487076,4235.384512,4213.846051,4228.205025,4220.512717,4208.205025,4207.692205
15,0,4199.487077,4215.384512,4211.281948,4224.102461,4207.692205,4248.717845,4214.358871,4246.666563,4250.769127,4214.871692,4223.07682,4213.846051,4212.307589,4201.538359
16,0,4208.205025,4222.563999,4213.846051,4222.563999,4215.897333,4274.35887,4216.410153,4244.10246,4255.897332,4216.922974,4219.999897,4208.717846,4213.33323,4207.179384
17,0,4220.512717,4233.33323,4230.256307,4232.820409,4217.435794,4288.205023,4220.512717,4232.820409,4248.205024,4219.999897,4226.153743,4215.897333,4217.948615,4218.461435
18,0,4217.948615,4227.179384,4226.666563,4231.794768,4210.769128,4277.435793,4218.974256,4232.820409,4246.666563,4211.281948,4220.512717,4215.897333,4212.307589,4212.82041
19,0,4209.230666,4215.384512,4213.33323,4222.563999,4201.025538,4257.948614,4213.33323,4232.820409,4246.153742,4194.871692,4210.769128,4206.666564,4198.461436,4199.487077
20,0,4209.230666,4215.384512,4216.922974,4220.512717,4203.07682,4257.948614,4213.846051,4231.281948,4242.563999,4190.256308,4213.846051,4205.128102,4197.435795,4198.974256
21,0,4214.358871,4220.512717,4221.538358,4225.128102,4209.230666,4271.281947,4218.974256,4243.076819,4245.640922,4202.564,4220.512717,4207.692205,4207.692205,4207.692205
22,0,4221.025538,4225.128102,4223.07682,4233.33323,4206.153743,4267.692203,4218.974256,4249.230665,4251.281947,4216.410153,4228.205025,4216.922974,4216.410153,4213.846051
23,0,4226.666563,4227.692204,4230.769127,4234.358871,4205.128102,4250.256306,4216.410153,4244.10246,4251.794768,4219.487076,4234.358871,4225.640922,4221.538358,4218.461435
24,0,4229.230666,4229.230666,4238.461435,4231.794768,4212.82041,4239.487076,4220.512717,4248.717845,4254.35887,4217.435794,4236.410153,4227.692204,4223.07682,4220.512717
25,0,4222.051179,4222.051179,4230.769127,4230.256307,4214.871692,4241.025537,4218.974256,4248.717845,4255.897332,4215.384512,4232.307589,4219.487076,4216.922974,4217.948615
26,0,4220.512717,4216.922974,4219.487076,4226.666563,4219.999897,4256.410152,4213.33323,4235.384512,4250.256306,4211.794769,4229.743486,4217.948615,4214.871692,4217.948615
27,0,4226.153743,4226.153743,4224.102461,4227.692204,4225.128102,4278.461434,4225.640922,4237.435794,4246.666563,4213.846051,4234.358871,4225.640922,4224.615281,4223.58964
28,0,4226.666563,4227.692204,4228.205025,4231.281948,4221.025538,4279.999895,4235.897332,4252.307588,4249.743486,4221.025538,4237.435794,4226.153743,4227.692204,4225.128102
29,0,4212.307589,4213.33323,4215.384512,4221.025538,4215.897333,4256.410152,4221.025538,4249.230665,4247.692204,4214.871692,4227.692204,4211.281948,4214.871692,4213.33323
30,0,4211.281948,4212.307589,4213.33323,4216.922974,4212.307589,4245.640922,4210.256307,4232.307589,4244.10246,4202.564,4220.512717,4206.153743,4208.205025,4206.153743
31,0,4222.563999,4218.974256,4226.666563,4228.717845,4205.640923,4254.871691,4216.410153,4229.743486,4244.10246,4203.07682,4224.615281,4212.82041,4213.33323,4211.281948
32,0,4228.205025,4216.410153,4227.179384,4231.281948,4211.794769,4262.563998,4217.948615,4241.538358,4246.666563,4211.794769,4226.666563,4212.82041,4215.384512,4213.33323
33,0,4226.153743,4222.051179,4223.58964,4227.692204,4225.128102,4267.692203,4224.615281,4249.743486,4254.871691,4213.846051,4228.205025,4211.794769,4215.384512,4212.82041
34,0,4226.666563,4232.820409,4228.717845,4233.84605,4220.512717,4277.948613,4235.384512,4248.205024,4256.922973,4211.281948,4232.307589,4214.871692,4216.410153,4214.871692
35,0,4227.179384,4230.256307,4224.102461,4235.384512,4210.769128,4273.333229,4234.358871,4246.666563,4252.307588,4213.33323,4227.179384,4212.307589,4214.358871,4213.846051
36,0,4224.615281,4223.07682,4213.33323,4225.128102,4223.07682,4258.974255,4227.692204,4250.769127,4253.333229,4216.922974,4222.051179,4207.692205,4213.33323,4211.281948
37,0,4223.07682,4224.102461,4214.358871,4229.743486,4230.256307,4263.589639,4223.07682,4247.179383,4253.84605,4218.461435,4227.692204,4209.743487,4215.384512,4215.384512
38,0,4225.640922,4229.230666,4219.999897,4238.974255,4221.538358,4277.948613,4221.025538,4233.33323,4247.179383,4216.922974,4228.717845,4209.743487,4217.435794,4214.358871
39,0,4226.666563,4227.692204,4219.999897,4230.256307,4220.512717,4282.563998,4218.461435,4229.230666,4243.58964,4215.897333,4219.999897,4209.743487,4215.897333,4208.205025
40,0,4225.640922,4221.538358,4219.999897,4225.640922,4223.07682,4274.35887,4216.922974,4246.153742,4244.10246,4217.435794,4217.435794,4210.769128,4213.33323,4211.281948
41,0,4223.58964,4218.461435,4217.435794,4232.820409,4216.410153,4263.076819,4216.922974,4251.794768,4244.615281,4214.871692,4222.563999,4208.717846,4214.871692,4209.230666
42,0,4218.974256,4216.410153,4211.794769,4232.307589,4219.487076,4262.051178,4218.461435,4241.538358,4248.717845,4214.871692,4218.974256,4202.051179,4210.769128,4201.025538
43,0,4218.461435,4214.358871,4209.230666,4221.538358,4228.205025,4263.076819,4217.435794,4240.512717,4247.179383,4215.384512,4213.33323,4202.051179,4205.640923,4199.487077
44,0,4221.025538,4217.948615,4214.358871,4222.563999,4222.563999,4250.256306,4214.358871,4241.025537,4240.512717,4208.717846,4212.307589,4206.666564,4209.230666,4204.102461
45,0,4219.999897,4218.461435,4217.435794,4230.769127,4210.256307,4245.128101,4210.769128,4230.769127,4235.897332,4198.461436,4211.281948,4204.615282,4207.179384,4201.538359
46,0,4214.871692,4216.410153,4212.307589,4232.307589,4198.461436,4264.10246,4210.256307,4223.07682,4235.384512,4198.974256,4203.07682,4195.897333,4196.922974,4195.384513
47,0,4225.640922,4225.128102,4218.974256,4237.435794,4208.717846,4287.179382,4225.640922,4237.435794,4245.640922,4211.794769,4207.692205,4202.564,4206.153743,4201.538359
48,0,4228.717845,4228.205025,4223.58964,4233.84605,4233.84605,4285.640921,4232.307589,4249.743486,4248.205024,4211.281948,4216.922974,4208.717846,4216.922974,4208.205025
49,0,4214.358871,4213.33323,4208.717846,4221.025538,4228.717845,4271.281947,4218.461435,4236.922973,4235.897332,4199.999897,4208.717846,4198.974256,4204.102461,4198.974256
50,0,4205.640923,4209.230666,4200.512718,4219.999897,4208.205025,4267.692203,4213.33323,4225.640922,4229.743486,4198.974256,4199.487077,4191.281949,4194.871692,4191.794769
51,0,4211.281948,4217.435794,4209.230666,4225.640922,4214.358871,4256.410152,4219.999897,4236.410153,4234.358871,4201.025538,4207.179384,4194.871692,4199.999897,4199.999897
52,0,4212.82041,4218.461435,4212.307589,4226.153743,4224.615281,4239.487076,4214.871692,4238.461435,4237.435794,4203.07682,4209.743487,4196.922974,4201.025538,4204.102461
53,0,4215.384512,4216.410153,4211.281948,4224.615281,4215.897333,4257.948614,4213.846051,4233.84605,4246.666563,4212.307589,4206.666564,4201.538359,4202.051179,4200.512718
54,0,4208.717846,4211.281948,4203.589641,4218.461435,4207.692205,4268.205024,4219.999897,4241.538358,4248.205024,4206.153743,4204.615282,4199.487077,4199.999897,4194.871692
55,0,4199.487077,4207.179384,4195.384513,4216.922974,4212.307589,4244.615281,4216.410153,4241.025537,4233.84605,4194.871692,4202.051179,4193.846051,4194.871692,4192.30759
56,0,4209.230666,4217.948615,4207.692205,4231.281948,4219.999897,4250.256306,4215.897333,4241.025537,4238.974255,4210.769128,4209.230666,4205.128102,4201.538359,4203.589641
57,0,4219.487076,4221.538358,4218.974256,4231.794768,4217.948615,4265.640921,4218.974256,4244.615281,4249.230665,4218.461435,4218.461435,4213.846051,4205.128102,4210.256307
58,0,4216.410153,4216.410153,4217.948615,4224.102461,4213.33323,4256.410152,4215.897333,4234.871691,4237.948614,4199.487077,4216.410153,4210.256307,4203.589641,4203.589641
59,0,4220.512717,4225.640922,4226.153743,4239.487076,4210.256307,4261.538357,4216.922974,4224.102461,4233.84605,4195.384513,4214.358871,4213.33323,4211.281948,4205.128102
60,0,4230.769127,4233.33323,4235.897332,4250.256306,4201.025538,4276.922972,4221.025538,4231.281948,4248.717845,4210.769128,4219.487076,4223.07682,4216.922974,4214.358871
61,0,4223.58964,4218.974256,4225.128102,4232.820409,4190.769128,4259.999896,4216.922974,4242.051178,4246.666563,4211.794769,4218.461435,4222.051179,4212.307589,4209.743487
62,0,4216.410153,4212.82041,4217.948615,4221.538358,4197.435795,4245.128101,4214.358871,4244.10246,4234.358871,4203.589641,4215.384512,4221.025538,4214.871692,4205.128102
63,0,4214.871692,4216.922974,4218.461435,4225.128102,4211.281948,4259.999896,4217.435794,4245.128101,4241.538358,4202.051179,4209.230666,4217.435794,4215.897333,4209.230666
64,0,4205.640923,4203.07682,4207.179384,4218.461435,4203.07682,4262.051178,4215.384512,4245.640922,4249.230665,4202.051179,4197.948615,4209.230666,4202.564,4202.564
65,0,4202.564,4197.948615,4204.615282,4216.922974,4195.384513,4252.820409,4215.897333,4247.179383,4249.230665,4208.205025,4195.897333,4210.256307,4198.974256,4199.999897
66,0,4218.974256,4216.922974,4220.512717,4232.307589,4211.281948,4259.999896,4222.563999,4247.692204,4248.717845,4213.33323,4204.615282,4219.487076,4207.692205,4209.230666
67,0,4216.410153,4217.948615,4219.999897,4226.666563,4222.051179,4270.769126,4220.512717,4241.025537,4237.948614,4205.128102,4202.051179,4213.33323,4205.640923,4205.640923
68,0,4201.025538,4197.948615,4202.051179,4206.666564,4211.281948,4266.153742,4215.897333,4232.307589,4227.179384,4197.435795,4194.358872,4202.051179,4195.897333,4193.333231
69,0,4205.640923,4197.948615,4205.128102,4212.307589,4205.128102,4248.205024,4221.538358,4237.435794,4236.410153,4204.102461,4196.410154,4206.666564,4200.512718,4198.461436
70,0,4218.461435,4212.82041,4220.512717,4230.256307,4199.487077,4239.999896,4225.128102,4247.692204,4244.10246,4206.153743,4205.128102,4215.897333,4214.358871,4210.769128
71,0,4214.358871,4214.871692,4218.461435,4230.769127,4191.794769,4247.179383,4216.410153,4241.538358,4237.435794,4197.948615,4205.128102,4214.871692,4216.410153,4211.794769
72,0,4215.384512,4213.846051,4213.33323,4224.102461,4210.769128,4252.307588,4209.743487,4230.256307,4241.538358,4198.461436,4203.589641,4210.769128,4208.717846,4211.794769
73,0,4225.128102,4218.461435,4215.897333,4223.58964,4224.102461,4255.897332,4213.846051,4234.358871,4249.230665,4209.230666,4203.589641,4210.256307,4208.717846,4214.871692
74,0,4227.692204,4222.563999,4218.974256,4227.692204,4208.205025,4268.717844,4219.487076,4246.666563,4246.666563,4218.461435,4206.666564,4215.897333,4219.999897,4221.025538
75,0,4222.563999,4218.974256,4215.384512,4225.640922,4198.461436,4269.230665,4218.974256,4252.307588,4247.179383,4216.922974,4208.717846,4220.512717,4222.563999,4222.051179
76,0,4220.512717,4214.871692,4211.281948,4223.07682,4195.897333,4254.871691,4214.358871,4245.640922,4252.307588,4211.794769,4204.102461,4213.846051,4212.307589,4214.358871
77,0,4228.717845,4223.07682,4217.435794,4232.307589,4196.922974,4264.10246,4217.948615,4237.948614,4250.769127,4216.410153,4203.589641,4208.205025,4211.281948,4214.358871
78,0,4228.205025,4226.153743,4214.871692,4227.179384,4207.179384,4267.179383,4219.487076,4242.051178,4245.640922,4216.922974,4199.487077,4204.615282,4213.33323,4214.871692
79,0,4221.025538,4216.410153,4206.666564,4216.922974,4204.102461,4248.717845,4213.33323,4247.179383,4249.230665,4215.897333,4192.30759,4205.128102,4204.615282,4206.666564
80,0,4224.102461,4213.33323,4206.153743,4223.58964,4190.256308,4249.743486,4213.846051,4245.640922,4246.666563,4214.358871,4189.743487,4208.717846,4199.487077,4201.538359
81,0,4229.230666,4216.922974,4209.230666,4223.58964,4201.025538,4262.051178,4217.435794,4241.025537,4232.820409,4203.07682,4191.281949,4207.179384,4199.487077,4200.512718
82,0,4226.153743,4217.435794,4214.871692,4218.461435,4211.281948,4268.717844,4222.563999,4241.025537,4234.871691,4203.589641,4194.358872,4205.640923,4203.589641,4202.564
83,0,4234.358871,4226.153743,4228.205025,4235.384512,4199.999897,4272.820408,4231.794768,4251.281947,4254.35887,4224.615281,4203.589641,4219.487076,4216.410153,4216.410153
84,0,4234.358871,4225.640922,4228.205025,4239.487076,4205.128102,4263.589639,4229.743486,4246.153742,4248.205024,4223.07682,4202.564,4218.461435,4216.410153,4216.922974
85,0,4219.487076,4207.692205,4210.769128,4216.922974,4216.922974,4252.307588,4217.948615,4232.307589,4235.384512,4199.999897,4193.846051,4203.589641,4197.948615,4199.999897
86,0,4213.33323,4207.179384,4207.692205,4215.384512,4209.230666,4253.84605,4216.410153,4234.871691,4243.076819,4197.948615,4195.384513,4202.564,4196.410154,4196.922974
87,0,4218.974256,4214.358871,4215.897333,4226.153743,4194.358872,4252.820409,4216.922974,4239.487076,4241.025537,4207.692205,4199.999897,4208.717846,4205.640923,4203.589641
88,0,4215.384512,4206.153743,4213.846051,4216.922974,4192.82041,4243.58964,4210.256307,4241.025537,4232.307589,4208.717846,4197.435795,4206.666564,4202.051179,4199.999897
89,0,4217.948615,4204.102461,4213.33323,4212.307589,4204.615282,4253.84605,4212.82041,4247.179383,4242.051178,4213.33323,4200.512718,4208.717846,4202.564,4199.999897
90,0,4227.692204,4213.846051,4215.384512,4222.563999,4213.846051,4270.256306,4218.461435,4239.487076,4249.230665,4215.384512,4199.487077,4206.666564,4204.615282,4201.538359
91,0,4234.358871,4215.384512,4217.948615,4229.230666,4215.897333,4253.84605,4215.384512,4229.230666,4242.051178,4210.769128,4194.871692,4201.025538,4199.999897,4199.999897
92,0,4237.948614,4215.897333,4223.58964,4232.307589,4207.692205,4235.897332,4219.999897,4243.58964,4247.692204,4213.33323,4199.999897,4211.794769,4206.153743,4208.717846
93,0,4244.10246,4219.999897,4232.820409,4234.358871,4202.051179,4258.974255,4230.256307,4255.384511,4258.974255,4219.999897,4207.692205,4224.615281,4218.461435,4221.025538
94,0,4248.717845,4216.922974,4231.281948,4229.743486,4210.256307,4284.102459,4231.794768,4249.743486,4253.333229,4217.948615,4206.153743,4218.974256,4215.897333,4218.461435
95,0,4246.153742,4213.33323,4227.692204,4226.153743,4217.435794,4275.897331,4230.256307,4247.692204,4247.692204,4213.846051,4202.051179,4210.256307,4210.769128,4210.256307
96,0,4246.666563,4217.948615,4234.358871,4230.769127,4208.205025,4266.666562,4234.358871,4250.769127,4253.84605,4220.512717,4201.538359,4215.897333,4213.846051,4215.897333
97,0,4245.640922,4219.999897,4230.769127,4230.769127,4186.153744,4261.025537,4228.205025,4248.205024,4249.230665,4217.948615,4195.384513,4214.358871,4205.640923,4215.384512
98,0,4238.974255,4211.794769,4218.974256,4225.128102,4183.076821,4253.84605,4217.948615,4235.384512,4233.33323,4202.564,4188.205026,4204.102461,4193.846051,4201.025538
99,0,4236.922973,4211.281948,4219.487076,4223.58964,4206.666564,4261.025537,4226.153743,4231.794768,4238.461435,4204.102461,4190.256308,4205.640923,4198.461436,4201.025538
100,0,4245.128101,4216.410153,4226.666563,4223.58964,4215.384512,4267.179383,4231.281948,4242.563999,4255.897332,4225.128102,4195.384513,4212.307589,4206.666564,4209.230666
101,0,4242.563999,4211.281948,4219.487076,4221.538358,4188.205026,4254.871691,4217.948615,4242.051178,4252.307588,4222.051179,4194.358872,4203.07682,4201.538359,4202.051179
102,0,4238.461435,4209.743487,4212.307589,4223.07682,4179.999898,4245.128101,4212.307589,4230.256307,4238.974255,4200.512718,4192.30759,4198.974256,4196.922974,4196.410154
103,0,4245.128101,4216.922974,4216.922974,4228.205025,4213.33323,4247.692204,4216.922974,4230.256307,4238.974255,4201.025538,4191.281949,4206.153743,4197.948615,4204.102461
104,0,4250.769127,4218.974256,4222.563999,4231.281948,4221.025538,4258.461434,4217.948615,4237.948614,4244.10246,4214.358871,4191.281949,4210.256307,4199.487077,4206.666564
105,0,4246.666563,4217.435794,4224.615281,4231.281948,4197.435795,4273.846049,4222.563999,4244.615281,4247.692204,4217.435794,4195.897333,4210.256307,4207.692205,4206.153743
106,0,4250.769127,4220.512717,4226.666563,4231.281948,4206.153743,4277.435793,4234.358871,4251.281947,4251.281947,4219.999897,4209.230666,4218.461435,4220.512717,4216.410153
107,0,4256.410152,4220.512717,4230.769127,4230.769127,4226.153743,4263.076819,4233.84605,4250.256306,4251.281947,4223.07682,4214.358871,4225.128102,4224.615281,4226.153743
108,0,4251.794768,4214.358871,4232.307589,4227.692204,4208.205025,4258.974255,4219.999897,4246.666563,4245.128101,4218.461435,4204.615282,4217.948615,4215.897333,4217.435794
109,0,4253.333229,4214.871692,4235.897332,4232.307589,4190.769128,4266.666562,4216.410153,4250.256306,4248.717845,4222.051179,4204.102461,4217.435794,4214.358871,4214.871692
110,0,4268.717844,4227.692204,4244.615281,4245.128101,4202.051179,4266.666562,4225.640922,4251.794768,4261.025537,4238.461435,4215.897333,4228.205025,4226.153743,4228.717845
111,0,4268.205024,4229.743486,4242.563999,4241.025537,4204.102461,4258.974255,4224.615281,4245.128101,4254.871691,4233.33323,4211.281948,4223.07682,4222.051179,4227.179384
112,0,4252.307588,4215.384512,4227.179384,4227.692204,4199.999897,4260.512716,4218.974256,4241.025537,4239.487076,4217.435794,4199.487077,4207.692205,4204.615282,4211.281948
113,0,4250.769127,4212.82041,4224.615281,4231.794768,4211.281948,4266.666562,4223.58964,4247.692204,4245.128101,4218.461435,4204.615282,4211.281948,4201.538359,4212.82041
114,0,4253.84605,4218.974256,4229.230666,4234.871691,4215.384512,4261.538357,4221.025538,4243.58964,4250.769127,4219.999897,4202.564,4212.307589,4204.615282,4215.897333
115,0,4246.666563,4212.82041,4218.461435,4219.999897,4203.07682,4251.794768,4212.82041,4234.358871,4237.948614,4209.743487,4191.281949,4201.025538,4197.948615,4201.538359
116,0,4246.666563,4211.281948,4217.435794,4219.487076,4197.948615,4247.692204,4216.410153,4239.487076,4234.871691,4214.871692,4194.358872,4202.564,4200.512718,4199.999897
117,0,4251.794768,4215.897333,4221.025538,4223.58964,4203.07682,4236.922973,4211.281948,4239.999896,4238.461435,4218.461435,4198.461436,4207.692205,4205.128102,4205.640923
118,0,4245.640922,4210.769128,4209.743487,4211.794769,4192.30759,4220.512717,4195.897333,4229.230666,4230.256307,4201.025538,4188.205026,4196.410154,4194.871692,4195.897333
119,0,4252.820409,4212.307589,4221.025538,4223.58964,4182.564,4229.230666,4203.07682,4234.358871,4234.871691,4209.743487,4195.384513,4203.07682,4204.102461,4203.589641
120,0,4265.640921,4221.025538,4245.128101,4245.640922,4194.358872,4258.974255,4223.07682,4250.769127,4254.871691,4238.461435,4206.153743,4217.948615,4225.128102,4225.640922
121,0,4262.051178,4218.461435,4236.410153,4229.230666,4197.435795,4258.974255,4224.102461,4251.794768,4254.871691,4232.307589,4203.589641,4213.846051,4219.487076,4223.07682
122,0,4251.281947,4205.640923,4218.974256,4206.666564,4184.102462,4228.205025,4212.307589,4238.974255,4235.897332,4210.256307,4196.410154,4203.589641,4201.538359,4207.692205
123,0,4255.897332,4198.461436,4224.615281,4213.846051,4186.153744,4221.538358,4212.307589,4233.84605,4228.717845,4211.281948,4191.281949,4208.717846,4198.974256,4209.743487
124,0,4258.974255,4205.128102,4229.743486,4218.461435,4189.230667,4240.512717,4217.435794,4237.435794,4233.33323,4216.922974,4189.743487,4212.307589,4201.538359,4215.897333
125,0,4255.897332,4212.307589,4229.230666,4215.384512,4185.128103,4240.512717,4216.410153,4247.179383,4236.410153,4218.461435,4196.410154,4209.743487,4200.512718,4213.33323
126,0,4248.717845,4206.153743,4231.281948,4217.948615,4193.333231,4230.256307,4213.846051,4245.640922,4233.84605,4212.82041,4190.256308,4205.128102,4195.384513,4208.205025
127,0,4248.717845,4201.538359,4229.230666,4220.512717,4190.769128,4238.974255,4212.307589,4232.820409,4234.871691,4197.435795,4179.999898,4200.512718,4189.230667,4206.153743
128,0,4262.563998,4218.461435,4234.358871,4232.820409,4183.076821,4253.84605,4219.487076,4245.128101,4250.769127,4210.256307,4197.435795,4212.307589,4203.07682,4222.563999
0,0,4268.717844,4227.179384,4237.948614,4235.384512,4199.999897,4252.820409,4222.051179,4259.999896,4257.948614,4237.435794,4207.179384,4222.051179,4218.461435,4235.384512
1,0,4248.205024,4207.179384,4220.512717,4214.871692,4205.640923,4242.051178,4207.692205,4238.974255,4241.538358,4228.205025,4187.179385,4205.640923,4205.640923,4216.922974
2,0,4236.410153,4194.358872,4208.205025,4204.102461,4190.256308,4237.948614,4195.384513,4219.487076,4229.230666,4209.230666,4182.564,4192.30759,4193.333231,4205.640923
3,0,4250.769127,4206.666564,4219.999897,4218.974256,4193.333231,4246.153742,4200.512718,4232.820409,4234.871691,4216.922974,4196.922974,4204.102461,4206.153743,4217.948615
4,0,4256.410152,4218.974256,4227.692204,4226.666563,4206.666564,4246.666563,4207.692205,4238.461435,4234.871691,4219.487076,4197.948615,4207.692205,4212.307589,4222.051179
5,0,4251.281947,4217.948615,4223.07682,4223.07682,4202.051179,4248.205024,4212.82041,4232.820409,4234.871691,4214.358871,4195.384513,4202.564,4206.666564,4215.384512
6,0,4253.333229,4214.871692,4223.07682,4224.615281,4192.30759,4258.461434,4218.974256,4244.615281,4245.640922,4223.07682,4201.538359,4209.230666,4210.256307,4216.922974
7,0,4255.897332,4214.871692,4222.563999,4225.640922,4194.871692,4246.666563,4216.922974,4250.256306,4250.256306,4226.153743,4201.025538,4212.82041,4210.256307,4213.846051
8,0,4247.179383,4213.33323,4212.82041,4219.999897,4201.538359,4233.33323,4213.33323,4245.640922,4245.128101,4213.33323,4190.769128,4201.025538,4193.333231,4199.999897
9,0,4247.179383,4214.358871,4215.897333,4216.922974,4202.564,4254.871691,4218.974256,4246.153742,4242.563999,4204.102461,4188.717846,4199.487077,4189.230667,4200.512718
10,0,4255.384511,4219.487076,4224.615281,4217.948615,4205.640923,4278.461434,4218.974256,4242.563999,4241.025537,4201.538359,4188.205026,4201.538359,4199.487077,4209.230666
11,0,4251.794768,4215.384512,4213.33323,4219.487076,4211.281948,4256.922973,4213.33323,4238.461435,4241.025537,4200.512718,4186.153744,4194.871692,4194.871692,4199.999897
12,0,4235.897332,4201.538359,4196.410154,4214.871692,4207.179384,4220.512717,4213.33323,4248.205024,4247.179383,4201.538359,4179.487077,4188.717846,4181.025539,4182.564
13,0,4231.794768,4195.384513,4197.948615,4206.666564,4195.384513,4224.615281,4211.281948,4253.84605,4248.717845,4200.512718,4175.384513,4190.769128,4181.538359,4182.564
14,0,4231.281948,4194.871692,4198.974256,4199.999897,4188.205026,4247.692204,4202.051179,4229.743486,4232.307589,4190.769128,4170.256308,4184.615282,4180.512718,4183.589641
15,0,4228.717845,4193.846051,4195.384513,4205.128102,4191.794769,4251.281947,4202.051179,4214.358871,4217.435794,4184.102462,4165.128103,4179.487077,4175.384513,4179.999898
16,0,4233.84605,4201.538359,4205.640923,4216.410153,4204.102461,4249.743486,4214.871692,4236.922973,4228.717845,4193.846051,4178.974257,4195.384513,4191.281949,4193.846051
17,0,4238.974255,4202.564,4211.794769,4214.358871,4205.128102,4252.307588,4214.358871,4251.794768,4245.640922,4204.615282,4197.948615,4207.179384,4205.128102,4202.564
18,0,4232.307589,4192.30759,4206.153743,4205.128102,4198.974256,4235.897332,4201.025538,4239.487076,4246.666563,4202.564,4194.358872,4199.487077,4194.358872,4191.794769
19,0,4232.820409,4194.358872,4206.153743,4208.205025,4213.33323,4234.871691,4201.538359,4236.410153,4242.051178,4199.487077,4188.205026,4194.871692,4189.743487,4191.794769
20,0,4241.538358,4206.153743,4210.769128,4219.487076,4218.974256,4263.076819,4215.384512,4250.256306,4246.153742,4201.538359,4196.922974,4201.025538,4199.487077,4204.102461
21,0,4242.563999,4206.666564,4208.205025,4216.410153,4198.974256,4257.435793,4217.948615,4253.333229,4247.692204,4204.615282,4195.384513,4198.974256,4198.461436,4198.974256
22,0,4238.461435,4198.974256,4204.102461,4208.717846,4193.333231,4227.179384,4204.102461,4238.461435,4237.435794,4198.974256,4179.999898,4191.281949,4186.666564,4185.128103
23,0,4233.84605,4193.846051,4202.564,4209.230666,4203.07682,4230.256307,4196.410154,4225.640922,4227.692204,4190.256308,4177.435795,4186.666564,4186.153744,4186.153744
24,0,4231.794768,4194.358872,4199.999897,4207.179384,4199.487077,4256.922973,4205.128102,4230.256307,4231.281948,4191.794769,4189.230667,4187.692205,4192.82041,4193.846051
25,0,4235.897332,4201.025538,4204.102461,4209.230666,4199.999897,4264.10246,4218.974256,4245.640922,4244.615281,4202.564,4196.410154,4194.871692,4198.974256,4198.461436
26,0,4246.153742,4206.153743,4217.435794,4217.948615,4211.794769,4257.435793,4223.07682,4252.820409,4252.307588,4208.717846,4201.538359,4205.640923,4206.153743,4205.640923
27,0,4243.076819,4204.615282,4218.461435,4217.435794,4206.666564,4244.10246,4214.358871,4244.10246,4243.58964,4200.512718,4196.922974,4198.461436,4198.974256,4204.615282
28,0,4237.948614,4198.974256,4207.692205,4215.384512,4194.358872,4231.794768,4218.974256,4248.717845,4235.897332,4194.871692,4187.179385,4187.179385,4184.615282,4191.794769
29,0,4240.512717,4197.948615,4208.717846,4214.871692,4198.974256,4240.512717,4234.871691,4265.128101,4237.948614,4203.07682,4190.769128,4192.30759,4189.743487,4191.281949
30,0,4244.10246,4202.564,4215.897333,4207.692205,4211.794769,4265.128101,4227.179384,4254.871691,4236.922973,4209.743487,4201.025538,4200.512718,4204.615282,4207.179384
31,0,4232.820409,4200.512718,4203.589641,4202.564,4216.410153,4268.205024,4202.564,4228.205025,4231.794768,4196.410154,4189.743487,4189.230667,4195.897333,4201.538359
32,0,4234.358871,4199.487077,4192.30759,4211.281948,4217.948615,4237.948614,4198.974256,4225.640922,4233.33323,4183.589641,4178.974257,4183.076821,4182.564,4183.589641
33,0,4243.58964,4203.07682,4195.384513,4214.871692,4217.948615,4218.461435,4204.102461,4234.871691,4231.794768,4185.128103,4183.589641,4188.205026,4182.05118,4189.230667
34,0,4241.538358,4199.999897,4199.487077,4206.666564,4213.33323,4237.435794,4200.512718,4237.435794,4227.692204,4185.640923,4185.128103,4188.205026,4183.589641,4198.974256
35,0,4243.076819,4204.102461,4202.564,4206.666564,4213.846051,4262.051178,4208.717846,4243.58964,4228.717845,4189.743487,4187.692205,4189.743487,4192.82041,4199.487077
36,0,4255.897332,4216.922974,4207.179384,4217.435794,4219.999897,4262.051178,4221.538358,4248.717845,4236.410153,4205.128102,4197.948615,4196.922974,4204.102461,4206.153743
37,0,4253.84605,4215.897333,4208.205025,4220.512717,4211.281948,4249.230665,4219.487076,4246.153742,4248.205024,4211.794769,4199.487077,4199.999897,4202.051179,4211.281948
38,0,4248.205024,4210.769128,4209.743487,4216.922974,4203.07682,4249.230665,4215.897333,4247.692204,4254.871691,4211.794769,4203.07682,4204.615282,4205.128102,4213.846051
39,0,4256.410152,4217.948615,4213.33323,4219.999897,4206.153743,4251.794768,4217.948615,4248.717845,4249.743486,4212.82041,4212.307589,4212.82041,4216.410153,4218.974256
40,0,4255.897332,4217.435794,4211.281948,4222.051179,4203.589641,4241.025537,4215.384512,4242.563999,4241.538358,4203.589641,4208.205025,4211.794769,4211.281948,4216.922974
41,0,4248.205024,4209.743487,4208.205025,4218.461435,4208.205025,4237.435794,4217.435794,4244.615281,4244.10246,4202.564,4204.102461,4208.205025,4201.025538,4211.281948
42,0,4253.333229,4214.358871,4209.743487,4222.051179,4223.58964,4254.871691,4224.102461,4252.307588,4254.871691,4218.461435,4209.743487,4206.153743,4204.615282,4212.82041
43,0,4262.563998,4219.487076,4213.33323,4225.128102,4217.948615,4261.538357,4221.538358,4251.281947,4255.897332,4218.974256,4208.717846,4205.128102,4205.128102,4207.692205
44,0,4255.897332,4215.897333,4212.82041,4219.487076,4210.769128,4242.051178,4216.922974,4251.794768,4249.230665,4202.051179,4205.128102,4202.051179,4199.487077,4197.948615
45,0,4253.84605,4214.358871,4211.281948,4216.922974,4229.230666,4232.307589,4218.461435,4253.84605,4249.230665,4200.512718,4205.128102,4200.512718,4199.487077,4198.974256
46,0,4256.922973,4216.922974,4218.461435,4221.538358,4232.820409,4247.692204,4216.922974,4244.615281,4248.205024,4210.256307,4201.538359,4203.07682,4198.974256,4205.128102
47,0,4263.589639,4226.666563,4233.33323,4231.281948,4211.794769,4267.692203,4216.922974,4241.025537,4241.025537,4217.435794,4209.743487,4217.435794,4203.589641,4215.897333
48,0,4270.256306,4236.922973,4238.974255,4240.512717,4201.538359,4270.256306,4222.051179,4250.769127,4244.615281,4218.974256,4219.999897,4224.102461,4212.307589,4225.640922
49,0,4255.384511,4212.82041,4222.563999,4225.128102,4200.512718,4250.256306,4214.871692,4247.179383,4244.615281,4204.615282,4204.615282,4209.230666,4190.769128,4204.615282
50,0,4228.205025,4179.487077,4207.179384,4198.461436,4201.025538,4224.615281,4202.051179,4237.948614,4234.358871,4194.871692,4186.153744,4199.487077,4167.692206,4181.538359
51,0,4235.897332,4188.717846,4215.384512,4203.589641,4209.743487,4225.640922,4210.256307,4243.076819,4246.153742,4210.256307,4199.487077,4211.794769,4188.205026,4196.410154
52,0,4253.84605,4211.794769,4223.07682,4218.974256,4223.07682,4255.384511,4227.179384,4253.84605,4263.589639,4224.102461,4215.897333,4220.512717,4211.281948,4214.358871
53,0,4247.179383,4207.179384,4218.461435,4213.33323,4222.051179,4271.281947,4224.615281,4256.410152,4256.410152,4217.435794,4212.307589,4216.410153,4201.538359,4203.589641
54,0,4239.487076,4200.512718,4221.538358,4211.281948,4211.794769,4263.076819,4216.922974,4251.281947,4250.769127,4215.897333,4207.692205,4215.897333,4194.871692,4199.999897
55,0,4253.333229,4210.769128,4234.871691,4225.128102,4210.769128,4263.076819,4222.051179,4253.333229,4263.076819,4231.794768,4215.384512,4221.538358,4208.717846,4214.871692
56,0,4250.769127,4209.743487,4230.769127,4224.102461,4217.948615,4258.974255,4223.07682,4256.410152,4259.487075,4233.33323,4214.358871,4215.384512,4207.179384,4212.307589
57,0,4230.256307,4195.384513,4212.82041,4209.743487,4218.461435,4235.897332,4213.846051,4248.717845,4245.128101,4216.922974,4197.948615,4197.435795,4186.666564,4192.30759
58,0,4223.58964,4191.794769,4205.640923,4204.615282,4216.410153,4234.358871,4210.769128,4244.10246,4248.205024,4214.358871,4190.256308,4191.281949,4177.948616,4182.05118
