title:A                                                                               , recorded:02.07.20 13.06.00, sampling:128, subject:S                                                                               , labels:COUNTER INTERPOLATED AF3 F7 F3 FC5 T7 P7 O1 O2 P8 T8 FC6 F4 F8 AF4 ,, units:emotiv,,,,,,,,,
41,0,4288.205023,4417.435789,4243.58964,4247.692204,4248.717845,4229.230666,4215.384512,4239.999896,4256.922973,4184.102462,4230.769127,4174.871693,4246.666563,4253.84605
42,0,4288.717844,4414.358866,4252.307588,4249.230665,4215.384512,4237.948614,4215.384512,4246.153742,4259.999896,4174.358872,4226.666563,4173.846052,4241.538358,4250.256306
43,0,4284.61528,4403.076815,4254.35887,4245.128101,4205.640923,4223.58964,4218.974256,4233.33323,4225.128102,4163.076821,4226.153743,4170.769129,4236.922973,4244.615281
44,0,4273.846049,4383.076816,4235.384512,4233.84605,4226.153743,4193.333231,4216.922974,4217.435794,4210.256307,4152.307591,4224.615281,4162.564001,4235.384512,4236.410153
45,0,4268.717844,4378.974252,4229.230666,4234.871691,4235.897332,4196.922974,4216.922974,4228.205025,4252.820409,4151.28195,4218.461435,4156.410155,4232.307589,4234.358871
46,0,4258.461434,4371.794765,4233.33323,4234.871691,4221.025538,4172.820411,4214.871692,4230.256307,4263.076819,4143.589642,4202.051179,4142.051181,4212.82041,4220.512717
47,0,4254.871691,4364.102457,4235.384512,4234.871691,4213.33323,4178.461436,4213.33323,4227.179384,4243.58964,4147.179386,4208.717846,4145.640924,4214.871692,4221.025538
48,0,4271.281947,4376.92297,4250.769127,4248.205024,4216.410153,4259.999896,4237.435794,4249.230665,4265.128101,4178.974257,4239.487076,4177.435795,4251.794768,4251.794768
49,0,4275.384511,4375.897329,4260.512716,4251.794768,4220.512717,4250.769127,4255.384511,4257.948614,4266.666562,4188.717846,4238.461435,4179.999898,4254.35887,4257.948614
50,0,4261.025537,4352.307586,4246.666563,4239.487076,4230.256307,4173.333231,4227.179384,4231.794768,4224.615281,4159.999898,4215.384512,4153.846052,4218.461435,4231.281948
51,0,4253.84605,4349.230663,4233.33323,4232.820409,4234.871691,4174.358872,4197.435795,4212.307589,4219.999897,4147.179386,4214.358871,4148.205027,4212.82041,4224.102461
52,0,4262.563998,4358.461432,4241.538358,4238.974255,4224.102461,4201.025538,4212.307589,4215.384512,4242.563999,4152.307591,4224.102461,4162.05118,4228.717845,4238.461435
53,0,4261.538357,4348.717842,4245.128101,4241.025537,4224.615281,4205.128102,4231.281948,4225.128102,4247.692204,4150.256309,4214.871692,4162.05118,4223.58964,4234.871691
54,0,4255.897332,4336.41015,4238.461435,4234.871691,4238.974255,4229.743486,4220.512717,4234.871691,4247.692204,4161.025539,4208.717846,4162.05118,4216.922974,4228.205025
55,0,4253.333229,4336.41015,4237.948614,4229.743486,4225.128102,4231.794768,4208.717846,4229.743486,4244.10246,4165.640924,4216.410153,4163.589642,4220.512717,4236.410153
56,0,4252.820409,4328.717843,4238.461435,4230.769127,4197.948615,4208.205025,4214.358871,4214.871692,4243.58964,4150.769129,4216.922974,4156.410155,4217.435794,4236.922973
57,0,4243.076819,4314.871689,4235.897332,4235.384512,4197.948615,4212.307589,4215.384512,4212.82041,4252.820409,4158.974257,4207.692205,4154.871693,4214.871692,4225.128102
58,0,4239.487076,4308.205023,4232.820409,4233.84605,4211.281948,4179.487077,4202.564,4219.999897,4247.692204,4176.410154,4205.128102,4157.435796,4217.435794,4226.666563
59,0,4247.692204,4304.615279,4226.666563,4222.051179,4211.794769,4139.999899,4197.948615,4216.922974,4238.461435,4166.666565,4205.640923,4150.256309,4217.435794,4238.974255
60,0,4278.461434,4316.922971,4243.076819,4228.717845,4217.435794,4212.82041,4221.025538,4227.179384,4259.487075,4173.846052,4224.102461,4167.179385,4242.051178,4271.281947
61,0,4304.615279,4328.717843,4265.128101,4249.230665,4231.794768,4246.153742,4241.025537,4238.461435,4263.076819,4193.333231,4238.974255,4192.82041,4265.128101,4305.64092
62,0,4308.205023,4314.358869,4260.512716,4247.692204,4214.358871,4168.717847,4233.33323,4221.538358,4229.743486,4177.948616,4227.179384,4184.102462,4251.281947,4309.230664
63,0,4322.563997,4314.358869,4263.076819,4246.666563,4188.717846,4186.153744,4228.717845,4215.897333,4225.128102,4166.666565,4228.717845,4182.05118,4247.692204,4321.538356
64,0,4353.333227,4345.128099,4288.205023,4267.179383,4205.128102,4289.230664,4234.358871,4236.922973,4255.897332,4183.076821,4252.307588,4205.128102,4275.384511,4355.897329
65,0,4350.256304,4344.102458,4284.102459,4261.025537,4226.666563,4262.051178,4225.128102,4235.384512,4257.435793,4188.717846,4245.128101,4199.999897,4273.846049,4354.358868
66,0,4313.846048,4301.025536,4253.333229,4229.230666,4206.666564,4148.717847,4208.717846,4211.794769,4235.384512,4169.230667,4214.871692,4170.769129,4239.487076,4317.948612
67,0,4301.538356,4286.666562,4250.256306,4227.179384,4192.30759,4151.28195,4209.230666,4210.256307,4247.692204,4161.53836,4217.948615,4173.333231,4241.025537,4309.230664
68,0,4309.230664,4298.974254,4269.743485,4245.640922,4211.794769,4220.512717,4219.487076,4225.640922,4266.153742,4168.717847,4235.384512,4191.794769,4262.563998,4323.076817
69,0,4304.615279,4294.87169,4273.333229,4252.307588,4219.487076,4223.07682,4228.717845,4233.84605,4251.281947,4173.333231,4234.871691,4192.82041,4257.435793,4315.89733
70,0,4285.640921,4274.35887,4254.871691,4245.640922,4210.769128,4190.769128,4235.897332,4231.281948,4237.948614,4178.461436,4224.615281,4175.897334,4241.025537,4295.38451
71,0,4276.410152,4261.538357,4243.58964,4233.33323,4212.307589,4206.153743,4230.769127,4229.743486,4248.717845,4186.666564,4224.615281,4168.205026,4244.615281,4289.743485
72,0,4279.999895,4263.076819,4255.384511,4231.794768,4221.025538,4244.10246,4233.84605,4239.999896,4255.897332,4189.230667,4237.435794,4181.538359,4259.487075,4297.948613
73,0,4274.87169,4250.769127,4256.922973,4234.358871,4223.07682,4243.076819,4247.692204,4242.051178,4250.256306,4182.05118,4237.435794,4185.128103,4251.281947,4289.743485
74,0,4260.512716,4232.307589,4245.128101,4229.230666,4215.897333,4230.256307,4234.871691,4230.769127,4252.307588,4178.974257,4224.102461,4171.281949,4238.974255,4276.410152
75,0,4259.999896,4233.33323,4249.230665,4230.769127,4197.948615,4233.33323,4215.897333,4228.205025,4258.461434,4182.05118,4222.051179,4169.743488,4248.717845,4276.922972
76,0,4254.871691,4231.794768,4249.743486,4229.230666,4192.30759,4220.512717,4222.051179,4231.281948,4248.205024,4185.640923,4225.640922,4171.281949,4254.35887,4273.333229
77,0,4238.974255,4209.743487,4230.769127,4211.794769,4210.256307,4187.179385,4225.128102,4228.205025,4239.487076,4181.538359,4215.384512,4160.512719,4232.820409,4258.974255
78,0,4227.179384,4191.794769,4221.538358,4201.025538,4213.33323,4178.974257,4219.487076,4227.179384,4249.230665,4166.666565,4199.487077,4149.230668,4213.846051,4246.666563
79,0,4232.820409,4190.256308,4231.281948,4204.102461,4203.589641,4212.307589,4233.84605,4232.307589,4250.769127,4169.230667,4208.205025,4154.358873,4228.717845,4247.179383
80,0,4235.384512,4188.205026,4236.410153,4207.692205,4191.794769,4242.051178,4241.538358,4232.307589,4233.84605,4181.025539,4222.563999,4164.102462,4243.076819,4257.948614
81,0,4235.897332,4193.333231,4239.999896,4221.025538,4189.743487,4236.410153,4229.230666,4230.256307,4245.128101,4175.384513,4217.435794,4169.743488,4235.384512,4263.589639
82,0,4243.58964,4215.384512,4251.794768,4243.58964,4220.512717,4223.07682,4227.179384,4233.84605,4272.820408,4173.333231,4213.33323,4174.871693,4237.948614,4267.692203
83,0,4242.563999,4219.487076,4245.640922,4236.922973,4233.33323,4229.743486,4230.769127,4231.794768,4258.461434,4186.153744,4216.922974,4170.769129,4245.640922,4268.205024
84,0,4221.538358,4192.30759,4223.07682,4206.153743,4201.025538,4235.384512,4223.07682,4217.948615,4234.871691,4179.487077,4205.640923,4152.307591,4227.692204,4248.717845
85,0,4207.179384,4177.948616,4219.487076,4198.974256,4194.871692,4215.897333,4210.256307,4210.769128,4246.666563,4162.05118,4190.769128,4140.512719,4208.205025,4231.794768
86,0,4218.461435,4189.230667,4234.871691,4219.999897,4216.922974,4196.922974,4213.33323,4215.384512,4250.769127,4169.230667,4195.897333,4152.820411,4215.384512,4244.615281
87,0,4218.974256,4189.230667,4238.461435,4223.58964,4199.999897,4191.281949,4225.640922,4216.410153,4231.794768,4170.256308,4199.487077,4157.435796,4222.051179,4248.205024
88,0,4207.179384,4177.435795,4227.179384,4205.640923,4182.564,4193.333231,4212.82041,4210.769128,4227.692204,4150.256309,4194.358872,4144.615283,4213.33323,4230.256307
89,0,4211.281948,4182.564,4228.205025,4207.692205,4207.179384,4219.487076,4199.999897,4213.33323,4238.974255,4151.79477,4195.384513,4148.717847,4213.33323,4233.33323
90,0,4221.538358,4186.153744,4235.897332,4221.538358,4220.512717,4224.102461,4211.281948,4226.666563,4238.974255,4162.05118,4197.435795,4159.999898,4217.948615,4242.563999
91,0,4215.897333,4180.512718,4235.384512,4219.487076,4198.974256,4202.564,4222.563999,4229.230666,4229.230666,4153.333232,4192.82041,4153.333232,4211.281948,4236.410153
92,0,4214.871692,4176.410154,4230.769127,4213.33323,4181.538359,4211.794769,4224.615281,4222.563999,4225.640922,4156.410155,4197.948615,4153.333232,4215.384512,4241.538358
93,0,4218.974256,4172.820411,4231.281948,4210.769128,4189.230667,4216.410153,4222.051179,4223.07682,4234.871691,4168.205026,4204.615282,4165.128103,4225.128102,4249.743486
94,0,4232.820409,4181.538359,4244.615281,4220.512717,4205.640923,4209.743487,4214.871692,4233.84605,4258.461434,4170.769129,4204.102461,4172.820411,4226.153743,4248.717845
95,0,4234.871691,4187.179385,4244.10246,4226.153743,4204.102461,4216.922974,4213.33323,4238.461435,4269.230665,4173.333231,4203.589641,4167.692206,4224.102461,4250.256306
96,0,4221.025538,4175.384513,4230.769127,4213.33323,4194.871692,4212.82041,4218.974256,4228.205025,4255.897332,4171.281949,4206.666564,4158.461437,4225.128102,4246.666563
97,0,4214.358871,4173.333231,4235.897332,4213.846051,4202.051179,4204.102461,4216.410153,4223.58964,4249.743486,4169.230667,4205.128102,4154.871693,4220.512717,4235.384512
98,0,4221.538358,4186.666564,4243.076819,4230.256307,4214.871692,4223.58964,4213.846051,4230.769127,4248.205024,4175.897334,4202.564,4158.461437,4214.871692,4233.33323
99,0,4223.07682,4185.128103,4231.794768,4224.615281,4217.435794,4227.179384,4213.846051,4225.640922,4237.435794,4175.384513,4203.07682,4162.05118,4218.461435,4238.461435
100,0,4225.128102,4175.897334,4230.256307,4214.358871,4208.205025,4199.999897,4215.384512,4216.922974,4242.051178,4169.230667,4202.051179,4163.076821,4219.999897,4239.999896
101,0,4223.58964,4171.281949,4233.33323,4216.922974,4198.461436,4195.384513,4215.897333,4222.051179,4250.256306,4163.076821,4190.769128,4156.922975,4205.128102,4230.769127
102,0,4215.384512,4168.717847,4226.666563,4212.307589,4209.743487,4214.358871,4213.33323,4223.58964,4241.538358,4151.28195,4188.205026,4152.307591,4195.384513,4223.58964
103,0,4223.07682,4178.974257,4239.487076,4216.410153,4230.256307,4230.769127,4226.666563,4226.153743,4246.666563,4161.025539,4207.179384,4166.153744,4212.307589,4239.487076
104,0,4227.692204,4183.076821,4244.10246,4226.666563,4214.358871,4216.922974,4233.33323,4232.307589,4251.794768,4181.538359,4209.230666,4167.179385,4218.974256,4245.128101
105,0,4216.922974,4165.640924,4224.102461,4215.897333,4183.076821,4192.30759,4212.307589,4223.07682,4233.33323,4173.333231,4191.281949,4150.256309,4198.461436,4223.58964
106,0,4217.948615,4163.589642,4227.179384,4212.307589,4188.205026,4214.871692,4214.871692,4218.974256,4237.948614,4161.025539,4193.846051,4153.846052,4203.07682,4224.615281
107,0,4227.179384,4179.487077,4242.051178,4225.640922,4206.153743,4243.076819,4235.897332,4230.769127,4261.025537,4167.179385,4209.230666,4171.79477,4227.179384,4244.10246
108,0,4219.999897,4176.410154,4231.794768,4222.051179,4206.666564,4218.461435,4219.487076,4231.794768,4262.051178,4171.281949,4202.051179,4167.692206,4217.435794,4235.384512
109,0,4221.025538,4168.717847,4229.230666,4220.512717,4211.281948,4205.128102,4210.769128,4233.33323,4261.025537,4182.05118,4204.102461,4167.179385,4208.717846,4230.256307
110,0,4227.692204,4176.922975,4246.666563,4229.743486,4225.640922,4246.153742,4242.051178,4249.743486,4268.205024,4206.666564,4227.692204,4182.564,4233.84605,4254.871691
111,0,4217.435794,4169.743488,4241.025537,4217.435794,4214.871692,4244.10246,4245.128101,4248.205024,4259.487075,4204.615282,4228.717845,4179.487077,4240.512717,4254.35887
112,0,4193.846051,4146.666565,4216.922974,4206.666564,4197.435795,4175.384513,4224.615281,4227.179384,4242.051178,4173.846052,4207.179384,4153.333232,4217.435794,4223.07682
113,0,4188.205026,4138.461437,4214.871692,4215.897333,4207.692205,4177.948616,4229.743486,4227.179384,4241.025537,4170.769129,4199.999897,4147.179386,4214.358871,4213.846051
114,0,4189.743487,4139.487078,4225.640922,4210.256307,4221.538358,4229.743486,4238.974255,4243.58964,4253.84605,4188.717846,4194.358872,4154.871693,4217.435794,4219.999897
115,0,4188.717846,4135.384514,4226.153743,4195.384513,4213.33323,4219.999897,4228.717845,4241.538358,4253.333229,4179.487077,4183.076821,4153.846052,4202.051179,4216.410153
116,0,4193.846051,4145.128104,4227.692204,4208.205025,4210.769128,4208.205025,4219.487076,4229.743486,4241.538358,4168.717847,4190.256308,4158.974257,4203.589641,4223.58964
117,0,4200.512718,4154.871693,4231.281948,4221.025538,4221.538358,4233.84605,4222.051179,4231.794768,4250.769127,4181.025539,4201.538359,4166.666565,4217.948615,4236.410153
118,0,4197.435795,4147.179386,4225.128102,4211.794769,4216.410153,4246.153742,4231.281948,4241.025537,4275.384511,4186.666564,4201.025538,4164.102462,4220.512717,4237.435794
119,0,4204.102461,4147.692206,4229.230666,4213.33323,4209.743487,4254.871691,4242.563999,4253.84605,4284.61528,4196.410154,4210.769128,4168.205026,4234.358871,4245.128101
120,0,4216.410153,4162.05118,4243.076819,4222.563999,4219.999897,4257.948614,4245.640922,4264.10246,4275.897331,4214.358871,4221.538358,4179.999898,4252.820409,4258.461434
121,0,4209.230666,4156.410155,4233.33323,4220.512717,4220.512717,4224.102461,4238.461435,4252.820409,4259.487075,4207.179384,4211.794769,4171.79477,4236.410153,4250.256306
122,0,4195.384513,4137.435796,4216.410153,4214.358871,4208.205025,4218.461435,4243.076819,4246.666563,4259.999896,4193.333231,4202.564,4158.974257,4214.358871,4230.769127
123,0,4198.974256,4139.999899,4224.615281,4216.922974,4224.102461,4221.025538,4259.487075,4265.640921,4267.692203,4204.615282,4203.589641,4164.102462,4224.102461,4229.743486
124,0,4197.435795,4141.53836,4225.640922,4219.487076,4231.794768,4177.435795,4251.794768,4257.948614,4241.025537,4202.051179,4202.564,4162.05118,4227.179384,4232.307589
125,0,4184.615282,4132.307591,4212.307589,4214.358871,4206.153743,4196.922974,4224.615281,4224.615281,4223.58964,4181.538359,4198.974256,4148.717847,4215.897333,4226.153743
126,0,4193.333231,4144.615283,4216.922974,4215.384512,4213.33323,4259.487075,4223.58964,4230.256307,4265.128101,4181.538359,4199.487077,4148.205027,4217.948615,4222.563999
127,0,4196.410154,4150.256309,4219.487076,4219.999897,4228.717845,4254.871691,4231.794768,4249.230665,4293.333228,4183.076821,4190.256308,4145.128104,4214.871692,4214.871692
128,0,4181.538359,4128.205027,4205.640923,4214.358871,4199.999897,4236.410153,4225.640922,4234.871691,4258.974255,4172.820411,4179.487077,4135.384514,4200.512718,4204.615282
0,0,4181.025539,4125.640925,4209.230666,4211.281948,4197.435795,4254.871691,4233.33323,4228.717845,4235.384512,4185.128103,4190.256308,4142.051181,4207.692205,4212.307589
1,0,4199.999897,4146.666565,4228.205025,4221.025538,4234.871691,4253.333229,4249.230665,4248.717845,4248.717845,4208.717846,4216.922974,4161.53836,4224.102461,4228.717845
2,0,4195.897333,4136.922976,4225.640922,4220.512717,4232.307589,4219.999897,4239.487076,4249.230665,4246.666563,4197.948615,4215.384512,4161.025539,4215.384512,4224.102461
3,0,4185.640923,4121.02554,4217.435794,4211.794769,4214.358871,4221.538358,4225.128102,4243.076819,4246.666563,4183.076821,4199.487077,4155.384514,4211.281948,4214.871692
4,0,4195.384513,4136.922976,4228.717845,4221.025538,4218.974256,4249.743486,4243.58964,4255.897332,4274.87169,4204.102461,4207.692205,4167.179385,4227.692204,4228.205025
5,0,4199.487077,4135.384514,4234.871691,4229.743486,4214.871692,4227.692204,4259.487075,4255.384511,4281.538357,4213.33323,4213.846051,4174.358872,4227.179384,4235.897332
6,0,4183.076821,4113.333233,4222.051179,4219.487076,4212.82041,4179.487077,4238.461435,4241.025537,4262.563998,4191.794769,4196.922974,4159.999898,4209.743487,4219.999897
7,0,4182.05118,4113.846053,4219.999897,4207.692205,4215.384512,4222.051179,4228.205025,4250.256306,4271.281947,4188.717846,4196.922974,4154.871693,4210.769128,4216.922974
8,0,4199.487077,4129.230668,4234.358871,4214.358871,4205.640923,4304.615279,4250.769127,4268.717844,4283.589639,4211.794769,4213.846051,4171.79477,4221.538358,4235.897332
9,0,4202.051179,4130.76913,4235.897332,4226.666563,4204.102461,4293.333228,4255.897332,4257.435793,4262.051178,4216.922974,4212.307589,4175.384513,4222.051179,4238.974255
10,0,4186.666564,4122.564002,4221.025538,4223.58964,4214.358871,4223.58964,4227.179384,4234.871691,4244.10246,4192.82041,4205.128102,4157.948616,4214.871692,4223.58964
11,0,4177.948616,4110.25631,4214.871692,4211.794769,4218.461435,4185.640923,4212.307589,4228.717845,4240.512717,4169.743488,4205.128102,4147.179386,4202.564,4215.897333
12,0,4180.512718,4107.179387,4217.948615,4211.794769,4216.410153,4211.281948,4219.999897,4231.794768,4246.666563,4172.820411,4199.487077,4152.307591,4201.025538,4218.461435
13,0,4189.230667,4129.230668,4227.179384,4221.538358,4216.410153,4246.666563,4229.743486,4239.487076,4263.589639,4196.410154,4199.487077,4158.974257,4219.999897,4228.717845
14,0,4194.871692,4141.53836,4237.435794,4228.205025,4216.922974,4232.307589,4244.10246,4248.205024,4270.769126,4206.666564,4207.179384,4161.025539,4224.102461,4236.410153
15,0,4188.205026,4128.205027,4231.794768,4225.640922,4212.307589,4218.461435,4246.153742,4247.179383,4261.025537,4196.922974,4203.589641,4154.871693,4210.256307,4230.256307
16,0,4188.205026,4121.02554,4222.563999,4222.051179,4208.205025,4249.743486,4239.999896,4246.153742,4261.025537,4186.153744,4202.564,4153.333232,4212.82041,4222.051179
17,0,4185.640923,4124.102463,4221.538358,4221.025538,4212.82041,4265.128101,4239.999896,4246.666563,4265.640921,4184.102462,4205.128102,4152.820411,4217.435794,4219.999897
18,0,4179.999898,4122.564002,4219.999897,4217.435794,4222.563999,4246.153742,4239.487076,4237.435794,4252.820409,4189.743487,4199.487077,4149.230668,4207.692205,4217.948615
19,0,4182.05118,4122.564002,4219.487076,4219.999897,4214.871692,4233.84605,4233.33323,4230.769127,4246.153742,4192.30759,4194.871692,4149.743488,4202.564,4216.410153
20,0,4187.692205,4122.564002,4219.487076,4228.205025,4188.717846,4225.128102,4231.794768,4231.281948,4254.35887,4183.076821,4197.948615,4148.717847,4202.051179,4218.974256
21,0,4180.512718,4119.999899,4214.358871,4223.07682,4199.487077,4208.205025,4230.769127,4223.07682,4252.820409,4175.897334,4196.410154,4143.076822,4204.615282,4221.025538
22,0,4185.640923,4128.205027,4219.487076,4217.948615,4243.58964,4216.410153,4226.666563,4228.205025,4250.256306,4189.230667,4200.512718,4154.358873,4217.948615,4232.307589
23,0,4196.922974,4136.410155,4230.769127,4221.538358,4239.487076,4251.794768,4233.84605,4246.153742,4259.487075,4205.640923,4206.153743,4166.153744,4224.615281,4243.58964
24,0,4194.358872,4125.640925,4224.102461,4214.871692,4200.512718,4264.61528,4237.435794,4243.58964,4266.666562,4198.461436,4202.051179,4156.410155,4214.358871,4237.435794
25,0,4188.717846,4122.051181,4215.384512,4215.897333,4202.564,4241.025537,4231.794768,4234.871691,4259.487075,4184.615282,4202.564,4152.820411,4211.281948,4230.769127
26,0,4191.794769,4129.743489,4219.487076,4230.256307,4212.307589,4225.128102,4233.33323,4237.435794,4249.230665,4181.025539,4202.564,4156.410155,4213.846051,4230.256307
27,0,4184.102462,4125.640925,4214.358871,4221.538358,4199.487077,4232.307589,4230.769127,4233.33323,4246.666563,4179.999898,4190.769128,4142.051181,4203.07682,4216.922974
28,0,4177.435795,4124.615284,4210.256307,4210.256307,4208.205025,4231.794768,4229.230666,4235.897332,4253.333229,4186.666564,4188.717846,4137.435796,4202.051179,4213.33323
29,0,4185.128103,4131.794771,4222.051179,4222.051179,4222.563999,4213.846051,4233.33323,4246.153742,4253.333229,4199.999897,4199.487077,4150.769129,4215.384512,4228.717845
30,0,4192.30759,4132.820412,4232.307589,4233.33323,4213.33323,4222.051179,4234.871691,4246.153742,4251.281947,4202.051179,4206.153743,4158.974257,4219.487076,4236.410153
31,0,4191.281949,4136.922976,4235.897332,4232.820409,4223.07682,4244.615281,4236.922973,4241.025537,4271.794767,4194.871692,4208.205025,4162.05118,4216.922974,4234.871691
32,0,4182.05118,4139.487078,4232.307589,4228.717845,4234.358871,4229.743486,4242.051178,4240.512717,4282.563998,4188.205026,4202.051179,4158.461437,4213.33323,4230.769127
33,0,4181.025539,4133.333232,4231.281948,4229.743486,4209.230666,4234.358871,4248.717845,4246.666563,4267.692203,4191.281949,4195.384513,4156.922975,4214.358871,4230.256307
34,0,4189.743487,4136.410155,4237.948614,4234.358871,4193.846051,4266.666562,4251.281947,4249.230665,4262.563998,4203.589641,4203.07682,4165.128103,4223.07682,4240.512717
35,0,4188.717846,4141.02554,4238.974255,4231.281948,4214.871692,4241.025537,4242.051178,4230.769127,4251.281947,4207.179384,4212.307589,4170.769129,4221.538358,4242.563999
36,0,4181.025539,4137.948617,4237.435794,4232.820409,4225.128102,4215.897333,4230.256307,4219.487076,4219.999897,4199.487077,4213.33323,4172.820411,4219.487076,4241.025537
37,0,4192.82041,4142.564001,4243.58964,4243.076819,4217.948615,4239.999896,4231.794768,4233.84605,4232.307589,4192.82041,4213.846051,4177.948616,4229.743486,4247.692204
38,0,4193.846051,4144.102463,4238.461435,4238.974255,4215.384512,4231.281948,4231.281948,4238.461435,4279.999895,4181.538359,4205.640923,4168.205026,4225.640922,4239.487076
39,0,4178.974257,4129.743489,4228.205025,4226.666563,4208.205025,4219.999897,4226.153743,4231.794768,4286.666562,4183.076821,4198.974256,4156.410155,4213.846051,4228.205025
40,0,4171.79477,4120.51272,4228.205025,4227.179384,4199.487077,4252.820409,4233.33323,4233.84605,4261.538357,4194.358872,4203.589641,4160.512719,4215.897333,4231.281948
41,0,4175.384513,4128.717848,4224.102461,4230.769127,4205.128102,4245.640922,4236.922973,4232.820409,4255.384511,4189.230667,4207.692205,4159.999898,4216.410153,4226.666563
42,0,4173.846052,4139.999899,4217.948615,4229.743486,4210.256307,4218.461435,4233.84605,4229.230666,4264.10246,4187.179385,4207.179384,4152.820411,4216.922974,4222.051179
43,0,4181.025539,4140.512719,4226.153743,4229.743486,4227.179384,4232.820409,4233.33323,4233.84605,4259.487075,4199.999897,4212.307589,4161.025539,4228.205025,4236.922973
44,0,4186.666564,4137.435796,4234.358871,4232.820409,4237.948614,4245.128101,4228.205025,4235.897332,4249.743486,4207.692205,4214.358871,4167.179385,4229.230666,4243.58964
45,0,4181.538359,4138.461437,4229.230666,4236.410153,4197.435795,4231.281948,4232.307589,4232.820409,4252.307588,4202.051179,4205.640923,4158.461437,4215.897333,4228.205025
46,0,4178.461436,4142.564001,4227.179384,4236.922973,4165.640924,4201.025538,4239.999896,4231.794768,4253.84605,4193.333231,4196.922974,4151.79477,4210.256307,4220.512717
47,0,4182.05118,4137.948617,4227.692204,4231.281948,4191.794769,4172.820411,4219.999897,4230.769127,4248.205024,4192.82041,4203.589641,4156.410155,4220.512717,4227.692204
48,0,4187.692205,4136.922976,4228.205025,4228.205025,4211.281948,4196.410154,4217.435794,4233.33323,4257.435793,4201.538359,4216.922974,4167.179385,4233.84605,4238.461435
49,0,4191.794769,4146.153745,4235.384512,4231.794768,4198.461436,4247.692204,4248.205024,4241.025537,4272.820408,4213.846051,4218.461435,4173.333231,4235.384512,4244.615281
50,0,4188.717846,4146.153745,4233.33323,4232.820409,4197.435795,4244.615281,4247.692204,4242.051178,4268.205024,4208.717846,4208.205025,4167.692206,4226.153743,4239.487076
51,0,4181.538359,4138.974258,4227.179384,4231.794768,4203.589641,4206.153743,4223.07682,4234.358871,4254.35887,4191.794769,4196.922974,4153.846052,4216.922974,4227.179384
52,0,4182.564,4145.640924,4231.281948,4236.922973,4205.640923,4194.358872,4230.256307,4232.307589,4249.743486,4187.692205,4198.461436,4155.897334,4204.102461,4225.128102
53,0,4184.615282,4153.846052,4235.897332,4242.563999,4202.564,4206.666564,4242.051178,4237.948614,4255.384511,4199.487077,4209.230666,4167.179385,4189.743487,4232.820409
54,0,4186.666564,4151.79477,4231.794768,4245.640922,4196.410154,4214.358871,4233.33323,4240.512717,4258.974255,4208.205025,4214.871692,4168.717847,4184.615282,4236.410153
55,0,4187.179385,4153.846052,4228.717845,4247.692204,4210.769128,4176.922975,4228.717845,4234.358871,4246.666563,4196.410154,4209.743487,4161.53836,4182.05118,4231.281948
56,0,4188.205026,4153.846052,4229.230666,4243.58964,4216.922974,4151.28195,4232.820409,4230.769127,4236.410153,4183.589641,4209.743487,4161.53836,4178.974257,4228.205025
57,0,4195.384513,4156.410155,4232.307589,4244.10246,4199.487077,4204.102461,4234.358871,4239.487076,4253.333229,4192.82041,4216.922974,4170.256308,4187.692205,4242.051178
58,0,4202.564,4164.615283,4233.84605,4248.717845,4204.615282,4227.692204,4228.205025,4247.179383,4274.35887,4208.205025,4218.974256,4170.769129,4198.461436,4252.307588
59,0,4190.769128,4157.948616,4228.717845,4246.666563,4217.948615,4175.384513,4234.358871,4234.358871,4267.179383,4203.589641,4210.256307,4159.487078,4190.256308,4236.922973
60,0,4198.974256,4168.205026,4238.974255,4256.410152,4218.974256,4179.999898,4258.974255,4225.640922,4250.256306,4199.487077,4210.256307,4165.640924,4189.743487,4239.487076
61,0,4222.563999,4191.794769,4254.35887,4270.256306,4230.256307,4239.999896,4256.410152,4237.435794,4248.205024,4212.82041,4227.179384,4187.692205,4214.358871,4269.230665
62,0,4218.461435,4181.538359,4248.717845,4261.538357,4234.871691,4237.435794,4231.281948,4247.692204,4262.563998,4218.974256,4241.025537,4193.846051,4232.820409,4276.410152
63,0,4202.051179,4170.256308,4238.461435,4252.307588,4221.025538,4206.153743,4225.128102,4248.205024,4277.435793,4222.563999,4234.358871,4182.564,4230.769127,4262.563998
64,0,4205.128102,4179.999898,4235.897332,4259.999896,4221.025538,4208.717846,4233.33323,4242.051178,4266.666562,4224.615281,4223.58964,4176.922975,4221.538358,4257.435793
65,0,4212.82041,4174.871693,4238.461435,4264.10246,4226.153743,4204.615282,4233.84605,4239.999896,4248.717845,4220.512717,4232.820409,4185.128103,4229.743486,4268.205024
66,0,4214.871692,4170.256308,4241.025537,4265.640921,4217.948615,4173.333231,4230.769127,4239.999896,4251.794768,4216.410153,4241.538358,4188.205026,4243.58964,4278.974254
67,0,4211.794769,4179.999898,4237.435794,4264.10246,4215.384512,4165.128103,4234.871691,4230.256307,4253.84605,4211.794769,4228.717845,4176.410154,4232.820409,4267.692203
68,0,4209.743487,4175.897334,4237.948614,4262.051178,4225.640922,4193.333231,4251.794768,4232.307589,4247.692204,4219.487076,4229.743486,4176.922975,4228.205025,4262.051178
69,0,4222.563999,4181.025539,4254.871691,4275.384511,4241.538358,4205.640923,4251.281947,4248.717845,4252.307588,4232.820409,4250.769127,4196.922974,4250.256306,4284.102459
70,0,4230.769127,4201.538359,4262.051178,4284.61528,4257.948614,4198.461436,4232.820409,4249.743486,4260.512716,4235.897332,4247.179383,4199.487077,4257.435793,4292.820408
71,0,4223.58964,4198.461436,4250.769127,4279.487075,4251.794768,4221.025538,4247.692204,4246.666563,4274.35887,4233.84605,4229.230666,4190.769128,4243.076819,4275.897331
72,0,4223.07682,4193.333231,4251.794768,4281.025536,4228.717845,4248.205024,4269.230665,4264.61528,4293.333228,4245.640922,4235.897332,4196.410154,4249.230665,4276.922972
73,0,4235.897332,4203.589641,4263.589639,4288.717844,4234.358871,4239.487076,4255.384511,4274.35887,4289.743485,4264.61528,4260.512716,4212.82041,4271.281947,4295.38451
74,0,4238.461435,4206.153743,4263.589639,4289.743485,4262.051178,4239.999896,4249.230665,4264.10246,4276.410152,4265.128101,4264.61528,4216.922974,4268.717844,4295.38451
75,0,4238.461435,4206.666564,4255.897332,4290.769126,4261.025537,4253.84605,4262.051178,4263.589639,4277.435793,4251.281947,4254.35887,4210.256307,4253.84605,4284.61528
76,0,4229.230666,4198.461436,4244.10246,4283.076818,4238.461435,4216.410153,4255.384511,4259.999896,4273.333229,4243.076819,4243.58964,4194.871692,4250.256306,4272.820408
77,0,4220.512717,4184.615282,4234.871691,4271.281947,4244.10246,4182.05118,4241.538358,4248.205024,4265.128101,4249.230665,4245.128101,4191.281949,4256.922973,4266.153742
78,0,4220.512717,4188.205026,4231.794768,4273.846049,4262.051178,4205.640923,4243.58964,4245.640922,4262.563998,4247.179383,4246.666563,4198.461436,4250.769127,4265.128101
79,0,4218.974256,4195.384513,4226.153743,4272.307588,4244.10246,4226.153743,4249.230665,4245.640922,4257.435793,4228.205025,4239.487076,4192.82041,4233.33323,4256.922973
80,0,4216.922974,4193.846051,4225.640922,4274.35887,4229.230666,4207.692205,4247.179383,4245.640922,4257.435793,4234.358871,4238.461435,4185.128103,4232.820409,4252.307588
81,0,4229.230666,4209.230666,4236.922973,4291.794767,4256.922973,4198.461436,4243.58964,4250.256306,4260.512716,4259.487075,4246.153742,4192.82041,4242.563999,4257.435793
82,0,4236.922973,4220.512717,4246.153742,4295.38451,4270.769126,4223.58964,4258.974255,4254.871691,4265.128101,4260.512716,4254.871691,4207.692205,4252.307588,4267.692203
83,0,4229.230666,4202.564,4242.563999,4276.922972,4242.563999,4241.538358,4271.794767,4251.281947,4280.512716,4244.615281,4254.35887,4206.153743,4251.281947,4268.717844
84,0,4229.230666,4198.461436,4241.025537,4274.87169,4246.666563,4232.307589,4252.820409,4249.230665,4294.87169,4244.10246,4247.692204,4195.384513,4239.487076,4263.589639
85,0,4236.410153,4217.948615,4245.640922,4291.794767,4277.435793,4226.666563,4237.948614,4255.384511,4297.435792,4249.743486,4251.794768,4196.922974,4241.025537,4262.563998
86,0,4236.410153,4223.58964,4249.230665,4296.410151,4262.563998,4247.179383,4250.769127,4261.025537,4293.846049,4249.230665,4266.153742,4201.538359,4255.897332,4266.666562
87,0,4226.666563,4213.33323,4242.563999,4283.589639,4242.563999,4234.871691,4251.794768,4258.461434,4285.1281,4247.692204,4269.230665,4192.82041,4249.743486,4259.487075
88,0,4209.230666,4197.435795,4220.512717,4266.666562,4257.948614,4184.102462,4234.871691,4246.153742,4272.307588,4230.256307,4247.179383,4171.281949,4215.384512,4232.307589
89,0,4205.128102,4196.410154,4214.358871,4266.153742,4261.538357,4191.281949,4236.410153,4239.999896,4280.512716,4220.512717,4230.769127,4163.589642,4203.07682,4221.025538
90,0,4220.512717,4215.384512,4229.230666,4282.563998,4257.435793,4236.410153,4250.256306,4248.717845,4297.435792,4238.974255,4242.051178,4177.435795,4218.974256,4233.84605
91,0,4215.384512,4222.051179,4233.33323,4284.102459,4271.281947,4235.897332,4253.333229,4252.820409,4282.051177,4248.205024,4250.256306,4184.615282,4219.999897,4234.871691
92,0,4206.666564,4211.794769,4229.230666,4275.384511,4274.87169,4223.07682,4244.10246,4246.666563,4267.692203,4244.615281,4245.640922,4184.102462,4220.512717,4232.307589
93,0,4211.794769,4211.794769,4232.307589,4275.897331,4263.589639,4237.948614,4234.358871,4240.512717,4281.025536,4244.10246,4244.615281,4184.102462,4239.487076,4243.076819
94,0,4212.82041,4207.692205,4230.769127,4272.307588,4259.999896,4229.230666,4229.230666,4242.563999,4292.820408,4237.948614,4248.205024,4183.589641,4249.230665,4245.128101
95,0,4201.538359,4191.794769,4219.487076,4257.948614,4257.435793,4198.461436,4234.358871,4246.153742,4287.692203,4227.692204,4245.128101,4178.461436,4231.281948,4230.769127
96,0,4201.538359,4190.256308,4219.999897,4255.384511,4264.10246,4209.230666,4248.205024,4247.179383,4284.61528,4229.230666,4244.10246,4178.461436,4215.384512,4225.128102
97,0,4206.666564,4201.538359,4229.743486,4262.563998,4270.256306,4238.974255,4251.281947,4253.333229,4293.333228,4245.640922,4250.256306,4185.640923,4232.820409,4239.999896
98,0,4207.692205,4203.07682,4231.281948,4266.666562,4249.230665,4231.281948,4247.179383,4256.410152,4291.281946,4254.871691,4251.794768,4189.230667,4248.717845,4245.640922
99,0,4204.102461,4192.82041,4222.563999,4262.563998,4236.922973,4211.281948,4248.205024,4253.84605,4282.051177,4252.307588,4247.179383,4184.615282,4238.974255,4236.922973
100,0,4209.743487,4190.769128,4223.58964,4259.487075,4259.487075,4224.102461,4252.820409,4258.461434,4279.999895,4255.384511,4255.384511,4184.615282,4242.051178,4241.538358
101,0,4213.33323,4189.743487,4234.358871,4264.10246,4268.717844,4233.84605,4250.256306,4267.692203,4284.102459,4268.717844,4269.743485,4197.435795,4266.153742,4253.84605
102,0,4201.538359,4171.79477,4227.692204,4261.538357,4248.717845,4220.512717,4244.10246,4263.076819,4283.076818,4272.820408,4267.692203,4195.897333,4265.128101,4248.205024
103,0,4209.230666,4164.615283,4225.640922,4255.384511,4243.58964,4223.07682,4246.153742,4259.999896,4283.076818,4269.230665,4260.512716,4189.230667,4251.281947,4249.230665
104,0,4235.897332,4166.666565,4243.076819,4257.435793,4244.10246,4230.256307,4251.281947,4264.61528,4286.666562,4264.10246,4265.640921,4201.025538,4255.897332,4268.205024
105,0,4234.871691,4153.333232,4244.10246,4264.61528,4232.307589,4224.102461,4248.717845,4255.384511,4279.999895,4253.84605,4267.179383,4206.666564,4257.435793,4272.820408
106,0,4224.102461,4149.230668,4233.84605,4263.589639,4239.487076,4219.999897,4245.640922,4250.256306,4279.999895,4256.410152,4264.61528,4199.999897,4256.922973,4272.820408
107,0,4235.897332,4155.384514,4245.128101,4256.410152,4250.256306,4209.743487,4260.512716,4264.10246,4289.743485,4261.538357,4267.179383,4205.128102,4258.461434,4276.410152
108,0,4231.794768,4142.564001,4249.230665,4254.35887,4231.281948,4202.051179,4267.179383,4266.666562,4292.307587,4250.256306,4256.410152,4203.589641,4244.615281,4265.640921
109,0,4221.538358,4139.999899,4234.358871,4257.948614,4219.999897,4219.999897,4244.615281,4244.615281,4274.35887,4242.051178,4243.076819,4191.794769,4234.358871,4256.410152
110,0,4228.205025,4157.948616,4232.307589,4258.974255,4233.84605,4222.563999,4227.692204,4227.692204,4245.128101,4236.922973,4242.563999,4184.615282,4233.33323,4258.461434
111,0,4228.205025,4145.128104,4232.307589,4247.692204,4218.974256,4197.435795,4229.743486,4229.230666,4237.948614,4221.538358,4242.051178,4178.461436,4224.102461,4249.230665
112,0,4219.999897,4134.871694,4225.640922,4246.153742,4190.769128,4192.30759,4232.307589,4242.563999,4259.487075,4221.538358,4236.922973,4175.384513,4219.999897,4242.051178
113,0,4224.102461,4152.307591,4228.205025,4254.35887,4199.999897,4201.538359,4229.230666,4248.205024,4271.794767,4228.717845,4232.820409,4180.512718,4225.128102,4246.666563
114,0,4219.487076,4154.358873,4228.717845,4250.256306,4221.538358,4208.717846,4228.717845,4238.974255,4248.717845,4217.435794,4229.230666,4178.974257,4218.974256,4238.461435
115,0,4214.358871,4142.051181,4225.128102,4246.666563,4219.487076,4225.640922,4233.33323,4238.974255,4237.948614,4212.307589,4237.435794,4180.512718,4212.82041,4229.743486
116,0,4221.025538,4144.102463,4229.230666,4249.230665,4204.615282,4228.717845,4231.794768,4248.205024,4255.384511,4219.999897,4242.563999,4188.717846,4215.897333,4238.974255
117,0,4224.102461,4141.02554,4229.743486,4236.922973,4198.461436,4219.999897,4222.563999,4247.179383,4266.666562,4214.358871,4228.717845,4188.205026,4216.922974,4245.128101
118,0,4206.666564,4123.076822,4213.846051,4218.461435,4197.435795,4209.743487,4217.435794,4243.58964,4267.692203,4201.025538,4214.871692,4174.358872,4204.615282,4231.794768
119,0,4199.487077,4121.02554,4209.743487,4222.051179,4200.512718,4194.358872,4216.922974,4246.153742,4269.230665,4204.615282,4216.410153,4171.281949,4189.743487,4222.563999
120,0,4202.564,4123.076822,4218.974256,4226.666563,4195.897333,4192.82041,4218.461435,4238.974255,4252.307588,4214.871692,4218.974256,4179.487077,4190.769128,4222.563999
121,0,4196.410154,4108.717848,4210.769128,4215.384512,4192.30759,4195.897333,4221.025538,4226.153743,4232.820409,4215.384512,4211.794769,4175.384513,4195.897333,4214.871692
122,0,4192.82041,4104.615284,4200.512718,4213.33323,4209.743487,4187.692205,4219.999897,4228.717845,4258.974255,4210.769128,4208.205025,4165.640924,4192.82041,4211.794769
123,0,4195.384513,4115.384515,4210.256307,4216.922974,4212.307589,4197.435795,4218.974256,4241.025537,4286.153741,4213.846051,4213.33323,4172.820411,4193.846051,4220.512717
124,0,4195.897333,4116.410156,4220.512717,4219.487076,4197.435795,4238.461435,4229.743486,4248.717845,4270.256306,4227.179384,4222.563999,4186.666564,4203.589641,4226.666563
125,0,4192.30759,4109.743489,4213.846051,4214.871692,4194.871692,4235.384512,4235.897332,4244.615281,4257.435793,4225.640922,4217.948615,4178.461436,4198.974256,4219.487076
126,0,4187.179385,4105.128105,4202.564,4204.102461,4193.333231,4185.128103,4229.743486,4232.820409,4258.974255,4204.615282,4204.615282,4161.025539,4183.589641,4205.128102
127,0,4178.974257,4101.025541,4194.871692,4200.512718,4185.640923,4188.717846,4227.179384,4225.640922,4254.35887,4201.538359,4199.487077,4155.897334,4178.461436,4201.025538
128,0,4187.692205,4107.179387,4202.051179,4207.179384,4189.743487,4237.948614,4225.640922,4232.820409,4256.922973,4218.461435,4210.769128,4169.743488,4189.230667,4217.435794
0,0,4196.922974,4113.846053,4212.82041,4212.82041,4190.256308,4245.640922,4215.384512,4242.563999,4274.35887,4217.948615,4215.897333,4181.025539,4204.102461,4229.230666
1,0,4193.333231,4110.76913,4207.692205,4215.897333,4189.230667,4222.563999,4214.871692,4242.563999,4281.538357,4211.281948,4205.128102,4179.487077,4201.025538,4220.512717
2,0,4188.717846,4117.435797,4208.717846,4218.461435,4209.743487,4219.999897,4227.692204,4242.563999,4276.410152,4221.538358,4204.102461,4181.538359,4195.384513,4221.538358
3,0,4187.179385,4121.02554,4214.358871,4211.281948,4215.897333,4216.922974,4227.692204,4241.025537,4267.179383,4220.512717,4205.128102,4186.153744,4198.461436,4228.205025
4,0,4175.897334,4104.102464,4203.07682,4199.999897,4201.538359,4194.358872,4211.794769,4230.769127,4259.999896,4206.153743,4187.179385,4174.358872,4192.82041,4211.281948
5,0,4168.205026,4091.281951,4194.358872,4194.871692,4189.743487,4189.230667,4214.871692,4228.717845,4264.61528,4208.717846,4181.538359,4161.53836,4184.615282,4196.922974
6,0,4162.05118,4087.692208,4197.435795,4191.281949,4173.846052,4188.717846,4225.128102,4230.769127,4263.076819,4212.307589,4189.743487,4157.435796,4182.564,4198.974256
7,0,4162.05118,4089.74349,4196.410154,4195.384513,4181.025539,4194.358872,4219.999897,4230.769127,4266.666562,4214.871692,4189.230667,4158.974257,4183.076821,4201.025538
8,0,4171.79477,4104.102464,4199.487077,4206.153743,4211.281948,4229.230666,4219.487076,4242.051178,4285.1281,4227.179384,4193.333231,4170.769129,4195.897333,4208.205025
9,0,4176.410154,4113.333233,4201.538359,4204.102461,4206.666564,4248.717845,4224.615281,4247.179383,4279.999895,4224.615281,4203.589641,4173.846052,4206.153743,4215.384512
10,0,4165.128103,4101.538361,4188.717846,4189.230667,4179.999898,4209.230666,4218.974256,4233.84605,4261.538357,4201.538359,4191.281949,4157.948616,4190.769128,4202.051179
11,0,4159.487078,4097.948618,4184.102462,4188.717846,4188.717846,4175.384513,4209.743487,4227.692204,4263.589639,4192.82041,4170.769129,4149.230668,4178.974257,4194.358872
12,0,4167.692206,4109.743489,4199.999897,4195.897333,4207.692205,4210.769128,4213.846051,4232.820409,4274.87169,4200.512718,4168.205026,4157.435796,4190.256308,4204.615282
13,0,4170.769129,4108.717848,4209.230666,4192.82041,4193.333231,4248.717845,4228.717845,4231.281948,4271.794767,4197.435795,4168.717847,4163.589642,4192.30759,4205.128102
14,0,4172.820411,4106.666566,4200.512718,4192.82041,4183.589641,4227.179384,4236.922973,4225.640922,4260.512716,4196.922974,4167.179385,4168.205026,4186.666564,4204.615282
15,0,4174.358872,4116.410156,4192.82041,4198.461436,4184.102462,4207.692205,4228.717845,4237.435794,4269.230665,4203.589641,4173.333231,4168.717847,4191.281949,4214.871692
16,0,4175.384513,4123.076822,4197.948615,4197.948615,4182.05118,4232.307589,4218.461435,4254.871691,4295.38451,4201.538359,4180.512718,4167.692206,4199.999897,4217.435794
17,0,4180.512718,4128.205027,4206.666564,4199.999897,4195.384513,4237.948614,4217.948615,4243.58964,4293.333228,4198.974256,4176.922975,4172.30759,4209.230666,4214.871692
18,0,4188.717846,4136.410155,4207.692205,4204.102461,4201.025538,4215.384512,4217.435794,4216.922974,4263.589639,4203.589641,4176.922975,4178.974257,4204.102461,4218.461435
19,0,4181.538359,4138.974258,4199.999897,4198.974256,4186.666564,4214.358871,4215.384512,4218.974256,4256.410152,4203.07682,4180.512718,4173.846052,4183.076821,4213.846051
20,0,4173.846052,4137.435796,4197.948615,4195.897333,4198.974256,4221.025538,4214.358871,4239.487076,4272.820408,4199.487077,4180.512718,4169.743488,4185.128103,4202.051179
21,0,4178.974257,4143.076822,4203.589641,4202.564,4222.563999,4209.743487,4220.512717,4239.487076,4272.820408,4199.999897,4180.512718,4176.922975,4206.153743,4205.128102
22,0,4179.487077,4147.179386,4196.922974,4203.589641,4206.153743,4198.461436,4226.153743,4225.128102,4259.999896,4188.717846,4179.999898,4170.769129,4197.435795,4205.640923
23,0,4155.384514,4131.28195,4171.281949,4181.538359,4178.974257,4207.179384,4213.846051,4207.179384,4250.769127,4163.076821,4160.512719,4143.076822,4165.640924,4182.564
24,0,4150.256309,4127.179386,4170.256308,4173.333231,4183.589641,4222.563999,4205.640923,4210.256307,4256.922973,4159.487078,4156.922975,4144.615283,4162.05118,4179.487077
25,0,4172.820411,4147.179386,4196.410154,4197.948615,4198.974256,4228.717845,4217.948615,4238.461435,4276.410152,4186.666564,4182.05118,4172.820411,4178.461436,4203.589641
26,0,4183.076821,4152.307591,4201.538359,4201.538359,4202.051179,4222.051179,4218.974256,4245.128101,4282.563998,4204.102461,4184.615282,4173.846052,4192.30759,4207.179384
27,0,4168.205026,4137.435796,4187.692205,4177.435795,4195.897333,4214.871692,4208.205025,4228.205025,4279.999895,4202.051179,4171.79477,4161.025539,4197.948615,4194.358872
28,0,4169.230667,4143.076822,4194.871692,4182.564,4194.358872,4223.07682,4213.846051,4229.743486,4284.102459,4201.025538,4185.640923,4173.333231,4199.999897,4204.615282
29,0,4185.128103,4158.974257,4216.410153,4208.205025,4203.07682,4241.025537,4230.769127,4247.692204,4293.846049,4202.051179,4202.051179,4192.30759,4211.794769,4224.615281
30,0,4188.717846,4161.53836,4215.384512,4203.07682,4209.230666,4247.692204,4235.384512,4250.256306,4296.922972,4198.461436,4192.30759,4188.717846,4219.487076,4223.07682
31,0,4182.564,4162.564001,4198.461436,4188.205026,4218.461435,4231.281948,4225.128102,4239.487076,4270.256306,4205.640923,4184.102462,4172.820411,4209.743487,4208.205025
32,0,4178.974257,4161.53836,4190.256308,4190.769128,4220.512717,4205.640923,4214.358871,4227.179384,4228.717845,4209.230666,4190.769128,4166.666565,4196.410154,4199.999897
33,0,4175.384513,4150.769129,4191.281949,4188.205026,4204.102461,4193.846051,4212.307589,4214.871692,4233.84605,4181.025539,4186.666564,4168.205026,4182.564,4193.846051
34,0,4170.769129,4151.28195,4191.281949,4186.153744,4201.025538,4219.487076,4215.897333,4217.435794,4279.487075,4169.230667,4177.948616,4163.076821,4176.922975,4191.281949
35,0,4179.487077,4165.128103,4192.82041,4199.999897,4213.846051,4236.410153,4219.487076,4224.615281,4279.999895,4188.205026,4178.974257,4162.564001,4190.256308,4197.435795
36,0,4178.461436,4162.05118,4192.30759,4201.538359,4207.692205,4197.948615,4221.025538,4218.974256,4245.128101,4179.487077,4175.897334,4159.999898,4189.743487,4190.256308
37,0,4168.717847,4146.666565,4185.640923,4183.589641,4187.692205,4187.179385,4215.897333,4209.743487,4246.153742,4155.384514,4165.640924,4148.717847,4168.205026,4169.230667
38,0,4178.461436,4155.897334,4190.256308,4185.128103,4196.410154,4233.33323,4212.307589,4211.281948,4265.128101,4167.179385,4167.179385,4154.871693,4168.205026,4172.30759
39,0,4195.384513,4173.846052,4201.538359,4203.07682,4215.897333,4250.769127,4216.922974,4218.974256,4264.61528,4188.717846,4179.999898,4172.30759,4189.743487,4193.846051
40,0,4186.666564,4173.333231,4196.922974,4199.999897,4211.794769,4228.717845,4220.512717,4226.666563,4264.10246,4189.743487,4183.589641,4167.692206,4195.897333,4198.461436
41,0,4178.974257,4162.05118,4192.82041,4187.179385,4199.999897,4220.512717,4216.922974,4228.205025,4264.61528,4179.999898,4183.589641,4162.564001,4190.769128,4191.794769
42,0,4181.538359,4156.922975,4193.333231,4184.615282,4194.358872,4222.563999,4209.743487,4214.358871,4247.692204,4169.230667,4180.512718,4168.717847,4184.615282,4190.769128
43,0,4191.794769,4170.769129,4197.435795,4194.871692,4210.256307,4233.33323,4221.538358,4214.871692,4249.743486,4187.179385,4187.692205,4173.846052,4186.666564,4200.512718
44,0,4201.025538,4185.128103,4206.153743,4202.564,4222.051179,4230.769127,4237.435794,4231.281948,4265.640921,4202.051179,4194.358872,4175.897334,4193.333231,4206.666564
45,0,4204.615282,4182.564,4210.769128,4202.051179,4209.230666,4211.794769,4224.102461,4227.179384,4246.666563,4189.230667,4183.589641,4177.435795,4201.025538,4202.051179
46,0,4208.205025,4189.743487,4209.743487,4209.230666,4212.82041,4205.640923,4210.256307,4215.384512,4233.33323,4196.410154,4185.640923,4178.461436,4210.256307,4208.205025
47,0,4210.769128,4197.948615,4214.358871,4210.769128,4215.897333,4205.128102,4218.974256,4222.051179,4253.84605,4187.179385,4194.358872,4181.025539,4184.615282,4207.179384
48,0,4204.102461,4183.076821,4212.82041,4201.025538,4185.128103,4211.281948,4222.051179,4221.538358,4258.461434,4141.02554,4181.538359,4176.410154,4156.410155,4187.692205
49,0,4202.564,4183.589641,4196.410154,4203.589641,4188.717846,4236.922973,4209.743487,4211.281948,4244.615281,4162.564001,4175.384513,4162.564001,4182.564,4185.640923
50,0,4210.256307,4203.07682,4196.922974,4209.230666,4232.307589,4244.10246,4221.025538,4224.102461,4249.743486,4224.102461,4191.281949,4164.615283,4213.33323,4198.461436
51,0,4214.358871,4199.999897,4220.512717,4200.512718,4224.615281,4211.794769,4250.769127,4240.512717,4255.384511,4196.410154,4193.846051,4176.922975,4202.564,4199.487077
52,0,4219.999897,4192.30759,4229.230666,4202.051179,4201.025538,4201.025538,4255.384511,4246.153742,4260.512716,4154.358873,4182.564,4177.435795,4189.743487,4196.410154
53,0,4216.922974,4199.487077,4206.153743,4206.666564,4228.717845,4216.922974,4218.974256,4237.435794,4268.717844,4186.153744,4166.666565,4163.589642,4185.128103,4188.717846
54,0,4222.563999,4213.33323,4201.025538,4212.82041,4231.794768,4212.307589,4194.358872,4208.205025,4246.666563,4205.128102,4175.384513,4163.076821,4183.589641,4187.692205
55,0,4253.333229,4231.281948,4251.794768,4241.025537,4189.743487,4209.743487,4233.84605,4211.281948,4226.666563,4189.230667,4210.769128,4204.102461,4202.564,4221.538358
56,0,4264.10246,4237.948614,4267.692203,4244.10246,4199.487077,4224.615281,4256.922973,4243.076819,4245.640922,4190.769128,4190.769128,4235.384512,4207.692205,4237.435794
57,0,4231.794768,4229.230666,4205.640923,4205.640923,4257.435793,4227.179384,4217.948615,4235.897332,4262.051178,4207.692205,4146.153745,4196.922974,4201.538359,4202.564
58,0,4211.794769,4218.974256,4167.692206,4185.640923,4266.666562,4215.897333,4188.205026,4202.051179,4242.563999,4218.974256,4167.179385,4146.153745,4214.358871,4177.435795
59,0,4211.794769,4208.717846,4184.102462,4189.230667,4221.025538,4202.051179,4186.153744,4195.384513,4224.615281,4221.025538,4190.256308,4149.230668,4191.281949,4176.922975
60,0,4206.153743,4195.384513,4187.692205,4179.487077,4211.281948,4189.230667,4183.076821,4211.794769,4244.615281,4213.33323,4171.79477,4171.281949,4134.871694,4162.05118
61,0,4191.794769,4189.230667,4166.666565,4165.128103,4229.230666,4190.256308,4188.717846,4224.102461,4264.10246,4223.58964,4161.53836,4162.05118,4132.307591,4139.999899
62,0,4189.743487,4184.615282,4169.230667,4162.05118,4191.794769,4183.076821,4197.948615,4199.999897,4232.307589,4256.922973,4151.28195,4148.205027,4161.53836,4138.461437
63,0,4194.358872,4177.435795,4176.410154,4166.153744,4165.640924,4158.974257,4184.615282,4164.615283,4194.358872,4273.846049,4130.256309,4150.769129,4149.230668,4139.487078
64,0,4193.333231,4183.589641,4164.102462,4165.128103,4220.512717,4170.769129,4174.358872,4175.384513,4207.179384,4277.435793,4141.53836,4150.769129,4132.820412,4134.358873
65,0,4190.769128,4201.025538,4157.948616,4161.53836,4247.692204,4198.461436,4173.846052,4195.384513,4229.230666,4292.307587,4161.025539,4144.102463,4160.512719,4136.922976
66,0,4193.846051,4203.589641,4165.128103,4166.153744,4241.025537,4186.666564,4169.230667,4180.512718,4215.384512,4317.435792,4161.025539,4138.974258,4178.461436,4136.922976
67,0,4191.794769,4185.128103,4168.717847,4162.564001,4330.769125,4172.820411,4168.717847,4173.333231,4206.153743,4346.15374,4165.640924,4144.615283,4147.692206,4127.179386
68,0,4179.487077,4169.230667,4162.05118,4148.205027,4430.256302,4179.487077,4170.769129,4185.640923,4217.435794,4365.640919,4172.820411,4146.666565,4126.666566,4122.051181
69,0,4177.948616,4170.769129,4160.512719,4152.820411,4421.538353,4177.435795,4163.589642,4184.102462,4219.999897,4381.538354,4170.769129,4143.076822,4150.769129,4119.999899
70,0,4179.487077,4176.922975,4161.025539,4162.05118,4397.94861,4159.999898,4156.922975,4181.025539,4219.999897,4406.153738,4164.615283,4141.02554,4156.922975,4110.25631
71,0,4171.79477,4166.153744,4155.897334,4149.230668,4420.512712,4146.153745,4162.05118,4178.974257,4215.384512,4414.358866,4162.05118,4138.974258,4124.615284,4097.948618
72,0,4166.153744,4159.999898,4149.743488,4149.230668,4427.692199,4134.358873,4165.128103,4157.948616,4198.461436,4398.974251,4158.974257,4127.179386,4112.307592,4094.871695
73,0,4176.922975,4170.769129,4167.692206,4169.743488,4388.205021,4125.640925,4171.281949,4147.692206,4189.230667,4380.512713,4165.128103,4143.589642,4113.846053,4104.102464
74,0,4185.128103,4168.205026,4198.974256,4173.846052,4350.256304,4152.820411,4183.589641,4171.79477,4202.564,4384.615277,4173.846052,4186.153744,4110.76913,4117.948617
75,0,4187.692205,4170.769129,4188.717846,4169.230667,4394.871687,4203.589641,4182.05118,4192.30759,4219.487076,4443.076814,4183.589641,4175.897334,4145.640924,4127.179386
76,0,4181.538359,4187.179385,4153.846052,4160.512719,4458.461429,4215.384512,4175.897334,4188.205026,4218.974256,4478.974249,4190.256308,4128.717848,4170.769129,4122.564002
77,0,4176.922975,4178.974257,4154.358873,4148.717847,4424.615276,4195.384513,4179.999898,4187.692205,4211.281948,4442.563994,4194.358872,4131.794771,4141.02554,4113.333233
78,0,4194.871692,4186.666564,4186.153744,4172.820411,4409.743482,4199.487077,4195.384513,4202.051179,4214.358871,4459.48707,4212.307589,4166.153744,4159.487078,4131.28195
79,0,4216.410153,4216.410153,4202.564,4198.974256,4448.71784,4203.589641,4204.102461,4206.153743,4223.07682,4524.102453,4239.487076,4183.589641,4200.512718,4159.999898
80,0,4194.871692,4186.153744,4192.30759,4172.30759,4392.307585,4168.717847,4186.666564,4189.230667,4205.128102,4502.563992,4233.33323,4179.999898,4155.897334,4141.53836
81,0,4171.79477,4147.179386,4174.871693,4149.230668,4330.256304,4141.02554,4158.461437,4174.358872,4179.487077,4445.128096,4209.743487,4160.512719,4125.128104,4107.692207
82,0,4186.666564,4183.076821,4172.820411,4171.79477,4399.999892,4157.435796,4168.205026,4178.974257,4190.256308,4472.820403,4227.179384,4151.79477,4170.769129,4126.153745
83,0,4203.07682,4196.922974,4192.82041,4184.102462,4439.999891,4185.640923,4201.025538,4190.256308,4208.717846,4521.538351,4261.025537,4168.717847,4179.487077,4149.743488
84,0,4196.410154,4159.487078,4206.666564,4164.615283,4370.256303,4186.153744,4199.999897,4188.717846,4202.564,4511.281941,4245.128101,4178.974257,4143.076822,4133.333232
85,0,4208.717846,4189.743487,4200.512718,4167.179385,4375.384508,4188.205026,4174.358872,4185.640923,4197.435795,4505.640915,4234.358871,4174.871693,4150.769129,4136.922976
86,0,4243.076819,4249.230665,4216.410153,4200.512718,4431.281943,4205.128102,4188.205026,4198.974256,4212.82041,4536.922966,4287.692203,4193.846051,4187.692205,4180.512718
87,0,4257.948614,4238.461435,4247.179383,4204.615282,4402.563995,4205.640923,4223.07682,4208.205025,4212.307589,4563.589632,4321.025535,4216.922974,4204.102461,4196.410154
88,0,4237.948614,4208.205025,4216.922974,4173.333231,4391.794764,4197.435795,4194.871692,4184.615282,4186.153744,4553.333222,4279.487075,4191.794769,4182.05118,4162.564001
89,0,4216.410153,4210.256307,4169.743488,4173.333231,4408.20502,4185.128103,4143.076822,4157.948616,4172.30759,4537.948607,4264.10246,4167.692206,4135.384514,4137.435796
90,0,4215.384512,4193.846051,4182.05118,4186.153744,4250.769127,4158.461437,4147.692206,4159.487078,4171.79477,4535.384504,4302.563997,4194.871692,4106.153746,4132.307591
91,0,4209.230666,4167.692206,4194.358872,4157.948616,4006.666569,4147.692206,4167.692206,4161.53836,4160.512719,4537.948607,4300.512715,4208.205025,4116.922976,4126.153745
92,0,4216.922974,4191.281949,4186.666564,4157.435796,3975.897339,4163.589642,4172.820411,4167.179385,4166.666565,4571.79476,4283.589639,4203.589641,4159.487078,4142.051181
93,0,4225.128102,4213.33323,4197.435795,4181.025539,4053.333234,4166.666565,4186.666564,4185.128103,4193.846051,4597.948606,4297.948613,4217.435794,4173.846052,4156.922975
94,0,4210.769128,4193.846051,4192.30759,4165.128103,4027.692209,4165.128103,4189.230667,4184.102462,4195.384513,4589.230657,4319.487074,4220.512717,4149.743488,4135.897335
95,0,4196.922974,4178.974257,4170.769129,4153.333232,3999.999902,4173.333231,4173.333231,4168.717847,4177.948616,4590.256298,4331.281945,4207.692205,4136.922976,4116.410156
96,0,4204.102461,4185.128103,4178.461436,4165.128103,4029.743491,4164.615283,4163.589642,4166.153744,4163.076821,4615.384503,4335.384509,4223.58964,4154.358873,4126.153745
97,0,4203.589641,4185.640923,4186.666564,4166.153744,4024.615286,4151.28195,4166.666565,4164.615283,4150.769129,4613.846041,4337.948612,4246.153742,4153.333232,4130.256309
98,0,4210.256307,4185.128103,4187.179385,4171.79477,4018.974261,4169.743488,4185.640923,4174.358872,4166.153744,4598.974247,4354.871688,4267.692203,4137.435796,4135.384514
99,0,4216.922974,4190.256308,4187.179385,4170.769129,4050.769132,4187.692205,4192.30759,4186.666564,4190.256308,4615.384503,4353.333227,4274.35887,4146.153745,4142.051181
100,0,4207.179384,4187.179385,4183.076821,4154.358873,4057.948619,4173.846052,4178.461436,4185.128103,4188.717846,4627.179374,4335.89733,4258.461434,4166.666565,4135.897335
101,0,4207.692205,4189.743487,4191.794769,4169.743488,4055.897337,4158.461437,4183.076821,4183.076821,4183.076821,4616.922964,4357.435791,4268.717844,4176.922975,4147.179386
102,0,4211.281948,4191.281949,4204.102461,4181.538359,4056.410157,4154.358873,4192.82041,4184.615282,4186.153744,4599.999888,4375.897329,4294.358869,4170.256308,4158.974257
103,0,4188.717846,4173.846052,4188.717846,4147.692206,4029.230671,4154.358873,4175.384513,4177.435795,4185.128103,4573.846042,4347.692201,4294.358869,4149.743488,4141.02554
104,0,4189.743487,4180.512718,4185.128103,4153.846052,4033.846055,4169.230667,4170.769129,4181.025539,4195.384513,4569.230657,4338.974253,4305.64092,4151.79477,4137.435796
105,0,4217.948615,4210.256307,4207.179384,4194.358872,4073.333234,4182.564,4188.717846,4191.794769,4208.205025,4589.230657,4372.307585,4336.41015,4176.922975,4157.435796
106,0,4213.846051,4204.102461,4206.153743,4185.128103,4085.640926,4173.846052,4187.692205,4186.666564,4197.435795,4586.666555,4386.666559,4343.589637,4172.820411,4156.922975
107,0,4195.897333,4180.512718,4188.717846,4161.025539,4084.615285,4167.692206,4181.025539,4184.615282,4189.230667,4561.53835,4369.743483,4346.15374,4157.948616,4150.256309
108,0,4193.333231,4186.666564,4183.589641,4166.666565,4092.307592,4161.025539,4184.102462,4182.564,4183.076821,4553.846042,4351.794765,4347.692201,4173.846052,4149.743488
109,0,4201.025538,4199.999897,4193.846051,4173.333231,4092.820413,4150.769129,4187.692205,4176.410154,4166.666565,4555.897324,4358.974252,4342.051176,4183.076821,4151.28195
110,0,4206.153743,4201.538359,4206.153743,4177.948616,4098.461438,4169.743488,4192.30759,4189.743487,4174.871693,4538.461427,4373.846047,4358.461432,4168.717847,4162.564001
111,0,4203.07682,4196.410154,4199.487077,4181.025539,4090.25631,4186.153744,4185.640923,4197.435795,4198.974256,4511.794761,4361.025534,4373.846047,4163.589642,4158.461437
112,0,4193.846051,4187.692205,4190.256308,4172.30759,4067.179388,4168.717847,4175.897334,4181.538359,4191.794769,4503.589633,4335.89733,4353.333227,4176.922975,4142.051181
113,0,4202.051179,4195.897333,4194.871692,4178.461436,4079.9999,4166.666565,4181.025539,4178.461436,4181.538359,4509.743479,4329.743484,4339.487073,4188.717846,4149.230668
114,0,4205.128102,4205.128102,4197.435795,4187.692205,4099.487079,4184.102462,4182.05118,4187.179385,4196.922974,4502.563992,4340.512714,4338.461432,4177.948616,4164.615283
115,0,4198.974256,4201.538359,4195.897333,4186.153744,4088.205028,4183.076821,4172.820411,4186.153744,4192.30759,4472.820403,4342.563996,4328.717843,4165.128103,4165.640924
116,0,4205.640923,4207.179384,4204.615282,4192.82041,4086.153746,4188.717846,4184.102462,4192.30759,4176.410154,4437.948609,4319.487074,4319.487074,4171.79477,4167.692206
117,0,4217.435794,4213.33323,4207.179384,4196.410154,4105.128105,4194.358872,4200.512718,4195.897333,4189.743487,4412.820405,4309.743484,4306.666561,4172.820411,4171.79477
118,0,4206.153743,4198.461436,4190.256308,4193.846051,4101.025541,4152.820411,4184.102462,4172.30759,4186.666564,4395.897328,4307.692202,4277.435793,4162.564001,4166.153744
119,0,4199.487077,4193.333231,4186.666564,4192.82041,4089.74349,4134.358873,4171.79477,4165.128103,4159.999898,4383.076816,4296.410151,4261.538357,4167.179385,4163.076821
120,0,4209.743487,4209.230666,4196.410154,4188.717846,4109.230669,4184.102462,4192.82041,4193.333231,4169.743488,4382.563995,4303.076818,4265.640921,4179.999898,4173.333231
121,0,4218.461435,4223.07682,4205.128102,4193.333231,4138.974258,4218.461435,4209.230666,4208.205025,4203.589641,4374.871688,4321.538356,4273.333229,4186.153744,4187.179385
122,0,4211.281948,4216.922974,4204.102461,4201.025538,4132.820412,4185.128103,4192.30759,4187.179385,4199.999897,4338.461432,4303.076818,4265.128101,4179.487077,4179.487077
123,0,4195.384513,4197.435795,4191.794769,4185.640923,4099.9999,4157.435796,4176.922975,4171.281949,4178.461436,4307.179382,4269.230665,4241.025537,4164.102462,4161.53836
124,0,4194.871692,4197.948615,4187.692205,4182.564,4095.897336,4177.435795,4184.102462,4181.538359,4189.230667,4310.769125,4267.692203,4231.281948,4168.205026,4166.666565
125,0,4209.743487,4215.897333,4199.487077,4204.615282,4119.487079,4187.179385,4185.640923,4191.281949,4203.07682,4313.333228,4281.025536,4244.10246,4181.025539,4182.564
126,0,4221.025538,4219.999897,4210.769128,4210.256307,4126.666566,4176.410154,4182.05118,4187.692205,4195.897333,4301.538356,4288.717844,4252.820409,4179.487077,4190.256308
127,0,4210.769128,4214.871692,4201.025538,4204.615282,4123.589643,4174.358872,4182.564,4184.615282,4188.717846,4294.358869,4276.922972,4235.384512,4174.358872,4180.512718
128,0,4197.948615,4209.230666,4194.358872,4204.102461,4119.487079,4177.948616,4185.640923,4184.615282,4190.769128,4274.87169,4254.35887,4216.410153,4165.128103,4169.230667
0,0,4196.922974,4202.051179,4205.640923,4202.564,4107.692207,4171.79477,4183.076821,4187.179385,4189.230667,4246.153742,4249.743486,4219.487076,4156.922975,4176.922975
1,0,4199.999897,4199.487077,4208.205025,4197.948615,4108.717848,4185.128103,4182.05118,4188.205026,4174.871693,4244.615281,4258.974255,4224.102461,4167.179385,4184.102462
2,0,4197.435795,4205.128102,4203.07682,4199.487077,4120.51272,4207.692205,4195.897333,4187.692205,4171.281949,4245.128101,4253.84605,4215.897333,4182.564,4178.974257
3,0,4197.435795,4205.128102,4207.179384,4208.205025,4121.538361,4186.153744,4200.512718,4185.640923,4182.05118,4214.871692,4243.58964,4218.461435,4175.384513,4179.999898
4,0,4195.897333,4200.512718,4213.33323,4203.07682,4123.076822,4163.589642,4190.769128,4185.640923,4186.153744,4191.794769,4247.179383,4222.563999,4165.128103,4185.640923
5,0,4195.897333,4203.589641,4210.769128,4195.384513,4123.076822,4159.487078,4192.82041,4188.717846,4184.102462,4202.564,4248.717845,4217.435794,4179.999898,4190.769128
6,0,4188.205026,4202.564,4202.564,4199.487077,4108.205028,4136.410155,4195.897333,4183.076821,4188.717846,4205.128102,4231.281948,4212.82041,4182.564,4194.358872
7,0,4176.410154,4194.358872,4194.358872,4200.512718,4106.153746,4138.974258,4180.512718,4168.717847,4185.640923,4190.256308,4216.922974,4201.025538,4160.512719,4179.487077
8,0,4179.487077,4202.564,4200.512718,4203.07682,4128.205027,4202.051179,4179.999898,4177.435795,4180.512718,4183.076821,4228.205025,4196.410154,4171.281949,4176.410154
9,0,4197.435795,4222.563999,4219.487076,4211.281948,4143.076822,4244.10246,4199.999897,4206.666564,4198.461436,4185.640923,4245.640922,4216.410153,4201.538359,4202.051179
10,0,4192.30759,4214.871692,4221.025538,4210.256307,4143.589642,4226.153743,4203.07682,4209.230666,4204.102461,4194.358872,4236.922973,4217.948615,4188.205026,4196.410154
11,0,4181.538359,4204.102461,4215.384512,4207.692205,4134.358873,4198.461436,4194.871692,4194.358872,4178.974257,4194.871692,4217.435794,4201.025538,4181.538359,4181.538359
12,0,4190.256308,4216.922974,4219.999897,4218.974256,4140.512719,4171.281949,4189.743487,4197.435795,4168.717847,4172.30759,4221.538358,4208.205025,4212.82041,4206.666564
13,0,4190.256308,4212.82041,4219.999897,4216.922974,4150.769129,4163.589642,4189.230667,4197.435795,4179.487077,4147.692206,4232.820409,4218.461435,4223.07682,4223.58964
14,0,4180.512718,4192.30759,4215.897333,4206.666564,4141.53836,4195.897333,4202.051179,4190.769128,4194.871692,4157.948616,4231.794768,4215.897333,4218.461435,4218.974256
15,0,4180.512718,4192.30759,4217.948615,4203.589641,4144.102463,4191.281949,4218.461435,4202.051179,4209.230666,4180.512718,4233.84605,4213.846051,4238.461435,4234.871691
16,0,4176.922975,4184.102462,4212.82041,4199.487077,4140.512719,4145.640924,4210.769128,4204.615282,4199.487077,4153.846052,4229.743486,4205.640923,4231.794768,4237.435794
17,0,4171.281949,4170.769129,4213.33323,4207.179384,4116.922976,4164.102462,4197.948615,4193.846051,4178.461436,4120.51272,4220.512717,4206.153743,4210.769128,4226.666563
18,0,4191.281949,4198.974256,4234.358871,4220.512717,4130.76913,4234.358871,4209.743487,4208.205025,4186.666564,4149.230668,4241.025537,4230.769127,4241.538358,4246.153742
19,0,4201.538359,4222.563999,4236.922973,4218.974256,4165.640924,4242.563999,4224.615281,4226.666563,4204.102461,4180.512718,4255.384511,4234.358871,4270.256306,4254.871691
20,0,4186.666564,4203.589641,4221.025538,4211.281948,4160.512719,4210.769128,4216.922974,4218.461435,4209.743487,4157.948616,4235.897332,4213.33323,4256.922973,4234.871691
21,0,4176.410154,4192.30759,4218.974256,4212.82041,4142.564001,4208.205025,4203.589641,4212.82041,4218.974256,4136.410155,4224.102461,4210.769128,4238.974255,4229.230666
22,0,4178.461436,4199.999897,4225.128102,4215.384512,4141.53836,4197.948615,4204.102461,4213.846051,4217.948615,4145.128104,4232.820409,4219.487076,4234.358871,4233.84605
23,0,4178.974257,4202.564,4225.128102,4214.871692,4142.564001,4172.30759,4204.102461,4206.666564,4198.461436,4140.512719,4227.692204,4217.435794,4238.974255,4230.769127
24,0,4183.589641,4202.564,4229.230666,4219.487076,4156.922975,4182.05118,4202.051179,4211.281948,4193.333231,4123.589643,4223.58964,4216.922974,4252.820409,4233.33323
25,0,4172.30759,4190.769128,4223.58964,4213.33323,4153.333232,4193.333231,4208.205025,4216.922974,4192.30759,4106.666566,4225.640922,4210.256307,4244.10246,4227.179384
26,0,4149.230668,4166.666565,4199.999897,4192.30759,4116.922976,4174.871693,4216.410153,4200.512718,4179.487077,4088.205028,4214.871692,4190.256308,4214.358871,4206.153743
27,0,4151.28195,4168.717847,4197.948615,4182.564,4117.435797,4195.897333,4217.435794,4204.102461,4192.82041,4085.640926,4209.743487,4187.692205,4217.435794,4206.666564
28,0,4171.281949,4191.281949,4212.82041,4195.897333,4154.871693,4241.538358,4214.358871,4227.179384,4217.948615,4098.461438,4221.025538,4198.461436,4237.948614,4221.025538
29,0,4167.179385,4191.281949,4209.743487,4207.692205,4155.384514,4220.512717,4213.33323,4216.410153,4201.538359,4094.358874,4223.58964,4197.948615,4233.33323,4220.512717
30,0,4162.05118,4184.615282,4211.794769,4215.384512,4129.230668,4186.153744,4218.461435,4195.384513,4177.435795,4072.307593,4216.922974,4198.974256,4228.205025,4221.025538
31,0,4177.948616,4199.999897,4227.692204,4221.538358,4137.948617,4208.205025,4220.512717,4206.153743,4190.256308,4076.410157,4217.435794,4206.666564,4238.974255,4229.743486
32,0,4182.564,4209.230666,4222.563999,4215.897333,4163.589642,4225.640922,4212.82041,4220.512717,4210.256307,4101.538361,4223.58964,4202.564,4244.615281,4228.205025
33,0,4176.922975,4202.564,4215.384512,4216.410153,4166.153744,4201.538359,4213.846051,4222.563999,4212.82041,4105.640925,4232.820409,4198.974256,4244.615281,4230.769127
34,0,4179.999898,4201.538359,4225.128102,4225.640922,4149.743488,4199.999897,4220.512717,4224.102461,4209.743487,4089.74349,4225.640922,4199.999897,4243.076819,4239.487076
35,0,4185.128103,4203.07682,4226.666563,4223.58964,4146.666565,4223.07682,4209.743487,4222.563999,4208.205025,4078.974259,4211.281948,4198.461436,4239.999896,4233.84605
36,0,4179.487077,4203.589641,4216.922974,4214.358871,4170.256308,4206.666564,4202.051179,4217.948615,4205.128102,4077.435798,4218.974256,4198.461436,4245.640922,4229.743486
37,0,4176.922975,4201.538359,4217.948615,4213.846051,4159.487078,4174.358872,4215.384512,4215.384512,4190.256308,4075.384516,4231.281948,4199.999897,4243.076819,4228.717845
38,0,4172.30759,4191.794769,4221.025538,4212.82041,4119.487079,4184.615282,4221.025538,4215.897333,4181.025539,4069.74349,4219.999897,4195.384513,4229.230666,4214.871692
39,0,4178.974257,4192.30759,4222.563999,4214.871692,4141.02554,4224.102461,4216.922974,4226.153743,4207.692205,4070.769131,4212.307589,4199.487077,4237.948614,4221.025538
40,0,4187.692205,4199.999897,4226.666563,4217.948615,4177.948616,4232.307589,4218.461435,4235.384512,4225.640922,4079.48708,4220.512717,4199.487077,4252.820409,4243.076819
41,0,4179.487077,4190.256308,4218.974256,4207.179384,4144.615283,4216.922974,4215.384512,4230.769127,4208.205025,4070.769131,4223.07682,4187.179385,4237.435794,4235.897332
42,0,4167.692206,4179.487077,4209.743487,4199.999897,4125.640925,4218.461435,4215.897333,4228.205025,4196.410154,4046.666568,4217.435794,4186.153744,4226.153743,4226.153743
43,0,4175.384513,4186.666564,4212.307589,4208.205025,4156.922975,4225.640922,4223.07682,4230.769127,4201.025538,4043.076824,4217.435794,4192.82041,4235.897332,4234.871691
44,0,4184.102462,4197.435795,4219.999897,4218.461435,4151.28195,4210.769128,4225.640922,4233.33323,4209.743487,4062.051183,4218.974256,4194.871692,4245.640922,4237.435794
45,0,4181.538359,4195.384513,4216.922974,4217.948615,4138.461437,4175.384513,4230.769127,4231.281948,4205.128102,4067.692208,4214.871692,4193.333231,4247.692204,4234.358871
46,0,4171.79477,4185.128103,4208.717846,4212.82041,4168.717847,4168.717847,4234.871691,4224.615281,4189.743487,4051.794773,4214.358871,4192.30759,4238.461435,4230.769127
47,0,4178.974257,4189.743487,4217.435794,4213.846051,4202.051179,4199.999897,4219.999897,4227.692204,4190.256308,4049.23067,4227.179384,4199.487077,4229.230666,4227.692204
48,0,4194.871692,4202.564,4233.33323,4221.538358,4208.717846,4219.487076,4212.307589,4236.922973,4203.589641,4064.615285,4236.410153,4210.256307,4242.563999,4239.487076
49,0,4190.769128,4202.564,4233.84605,4225.640922,4213.846051,4230.256307,4225.640922,4234.871691,4210.769128,4063.589644,4223.58964,4204.102461,4260.512716,4247.692204
50,0,4185.128103,4206.153743,4230.256307,4230.256307,4300.512715,4253.333229,4230.769127,4234.871691,4220.512717,4055.897337,4217.435794,4199.999897,4263.076819,4249.230665
51,0,4190.769128,4212.307589,4235.384512,4234.358871,4452.307583,4249.743486,4222.051179,4237.435794,4224.615281,4051.794773,4224.102461,4207.692205,4255.384511,4255.897332
52,0,4177.948616,4195.384513,4225.128102,4217.948615,4535.897325,4213.846051,4212.82041,4223.58964,4205.128102,4032.307594,4211.281948,4193.846051,4233.84605,4237.435794
53,0,4162.564001,4188.205026,4208.717846,4203.589641,4539.487068,4214.871692,4213.33323,4217.948615,4195.384513,4019.487081,4198.974256,4176.922975,4228.717845,4213.846051
54,0,4178.974257,4202.051179,4218.461435,4213.33323,4539.999889,4238.974255,4219.487076,4230.769127,4199.999897,4031.281953,4215.384512,4187.692205,4251.281947,4232.820409
55,0,4187.179385,4196.922974,4229.230666,4219.999897,4535.897325,4227.692204,4215.384512,4229.743486,4198.974256,4037.435799,4218.974256,4190.256308,4255.384511,4251.794768
56,0,4182.564,4185.128103,4224.102461,4215.384512,4521.02553,4225.128102,4214.871692,4225.128102,4201.538359,4035.384517,4210.769128,4186.153744,4244.615281,4244.615281
57,0,4185.128103,4188.717846,4225.128102,4216.922974,4522.563992,4238.461435,4227.692204,4232.820409,4200.512718,4032.307594,4218.974256,4193.333231,4251.794768,4246.153742
58,0,4181.025539,4178.461436,4219.999897,4212.82041,4513.846043,4185.640923,4221.025538,4227.692204,4188.717846,4009.743492,4212.307589,4183.589641,4239.487076,4237.435794
59,0,4164.615283,4161.025539,4198.974256,4196.410154,4500.51271,4126.153745,4199.999897,4214.871692,4182.05118,3994.871697,4183.076821,4159.487078,4206.153743,4210.769128
60,0,4172.30759,4175.897334,4195.897333,4196.410154,4506.153736,4178.974257,4210.256307,4226.666563,4203.589641,4014.358876,4183.076821,4163.589642,4212.307589,4209.743487
61,0,4192.30759,4201.025538,4217.948615,4212.82041,4507.179377,4253.333229,4231.281948,4246.666563,4229.743486,4035.897337,4212.82041,4185.128103,4238.974255,4231.794768
62,0,4203.589641,4202.564,4236.410153,4231.281948,4499.487069,4245.128101,4230.769127,4250.256306,4228.205025,4041.025542,4225.640922,4197.948615,4243.58964,4247.179383
63,0,4202.564,4203.07682,4234.871691,4237.948614,4498.974249,4234.358871,4228.205025,4245.128101,4217.435794,4042.051183,4211.281948,4189.743487,4244.10246,4252.307588
64,0,4198.974256,4210.769128,4224.615281,4222.051179,4509.230659,4247.692204,4226.153743,4237.435794,4213.33323,4037.435799,4201.025538,4173.333231,4249.743486,4244.10246
65,0,4195.897333,4206.666564,4217.435794,4204.615282,4508.717838,4237.435794,4219.487076,4230.769127,4208.205025,4030.256312,4203.589641,4172.30759,4251.281947,4235.897332
66,0,4196.922974,4197.948615,4218.974256,4210.769128,4487.179377,4235.384512,4227.692204,4234.871691,4203.589641,4033.333235,4208.717846,4182.05118,4246.153742,4236.922973
67,0,4201.025538,4199.999897,4224.615281,4222.051179,4476.410147,4246.153742,4240.512717,4248.717845,4208.205025,4040.512722,4210.256307,4186.153744,4243.076819,4239.487076
68,0,4195.384513,4197.435795,4224.102461,4212.307589,4474.358865,4222.051179,4231.281948,4248.205024,4204.615282,4039.487081,4207.692205,4179.999898,4231.281948,4232.820409
69,0,4178.974257,4176.410154,4212.307589,4196.922974,4449.743481,4186.153744,4221.025538,4232.820409,4194.871692,4023.589645,4197.948615,4170.256308,4212.307589,4217.948615
70,0,4174.871693,4165.640924,4205.640923,4195.384513,4433.846045,4181.025539,4227.692204,4235.384512,4208.717846,4023.076825,4197.948615,4175.897334,4220.512717,4217.435794
71,0,4194.358872,4183.589641,4219.999897,4205.640923,4452.820404,4196.922974,4235.897332,4252.307588,4229.743486,4051.281952,4219.487076,4195.897333,4250.256306,4241.538358
72,0,4201.538359,4192.82041,4228.205025,4209.230666,4466.153737,4217.948615,4233.33323,4250.769127,4226.153743,4061.025542,4227.179384,4194.871692,4254.871691,4251.281947
73,0,4194.871692,4177.435795,4222.563999,4205.128102,4455.384506,4255.897332,4232.307589,4246.153742,4223.07682,4057.435798,4217.435794,4187.692205,4245.640922,4235.897332
74,0,4204.615282,4188.717846,4229.743486,4214.358871,4448.205019,4275.384511,4231.794768,4255.384511,4231.794768,4069.23067,4217.948615,4192.82041,4251.794768,4236.922973
75,0,4221.538358,4227.179384,4234.871691,4235.384512,4446.153737,4250.769127,4223.07682,4255.384511,4224.102461,4060.512721,4223.58964,4189.230667,4247.179383,4243.076819
76,0,4210.256307,4237.435794,4219.487076,4233.33323,4438.46143,4224.615281,4216.922974,4244.10246,4209.230666,4033.333235,4205.128102,4169.230667,4219.487076,4222.563999
77,0,4198.974256,4233.33323,4213.33323,4218.974256,4448.205019,4221.538358,4213.33323,4237.948614,4218.974256,4045.128106,4189.230667,4163.076821,4205.640923,4207.692205
78,0,4204.102461,4244.10246,4217.948615,4220.512717,4467.179378,4214.871692,4209.743487,4233.84605,4218.974256,4058.97426,4198.974256,4168.205026,4208.205025,4212.82041
79,0,4202.051179,4233.84605,4209.230666,4222.563999,4437.435789,4202.051179,4212.82041,4230.256307,4193.333231,4025.640927,4199.487077,4161.53836,4204.615282,4208.205025
80,0,4190.256308,4214.358871,4202.564,4220.512717,4386.666559,4208.205025,4214.871692,4232.820409,4195.897333,4005.640928,4181.538359,4152.820411,4194.871692,4196.922974
81,0,4195.384513,4223.07682,4212.82041,4223.07682,4389.743482,4224.102461,4212.82041,4234.871691,4221.025538,4022.564004,4178.461436,4158.461437,4188.205026,4196.922974
82,0,4201.538359,4236.410153,4217.435794,4229.230666,4417.94861,4238.461435,4215.384512,4241.025537,4223.58964,4042.051183,4186.666564,4168.717847,4193.846051,4203.07682
83,0,4205.640923,4241.025537,4218.974256,4230.769127,4423.589635,4246.153742,4222.563999,4248.205024,4210.769128,4059.48708,4193.846051,4173.846052,4217.435794,4215.897333
84,0,4203.07682,4235.384512,4215.384512,4221.025538,4412.820405,4215.384512,4216.410153,4233.84605,4198.974256,4057.948619,4192.30759,4171.79477,4226.153743,4216.410153
85,0,4196.922974,4224.615281,4208.205025,4216.922974,4400.512713,4184.102462,4212.307589,4222.563999,4197.948615,4041.538363,4189.230667,4170.769129,4214.358871,4208.205025
86,0,4206.153743,4233.84605,4221.538358,4233.84605,4417.435789,4210.769128,4228.205025,4240.512717,4214.871692,4051.794773,4203.589641,4188.205026,4225.128102,4226.666563
87,0,4213.33323,4245.128101,4232.307589,4240.512717,4432.307584,4248.205024,4234.358871,4245.640922,4217.435794,4071.281952,4211.794769,4197.948615,4236.922973,4237.948614
88,0,4206.153743,4229.230666,4218.461435,4218.974256,4400.512713,4242.051178,4225.640922,4229.230666,4204.102461,4063.076824,4196.410154,4184.615282,4215.897333,4216.410153
89,0,4207.179384,4225.128102,4217.435794,4217.435794,4376.92297,4234.871691,4226.153743,4238.974255,4214.358871,4052.820414,4193.333231,4184.102462,4214.358871,4216.410153
90,0,4221.025538,4242.051178,4237.948614,4238.461435,4394.871687,4241.538358,4234.358871,4257.435793,4227.692204,4065.128106,4211.281948,4199.487077,4239.999896,4235.897332
91,0,4215.897333,4239.487076,4234.871691,4240.512717,4402.563995,4226.153743,4227.179384,4249.743486,4214.358871,4073.333234,4207.692205,4190.769128,4232.820409,4225.640922
92,0,4209.230666,4227.179384,4222.051179,4230.769127,4383.589636,4219.487076,4218.461435,4244.615281,4214.871692,4064.102465,4194.358872,4178.461436,4211.794769,4210.256307
93,0,4210.256307,4226.153743,4226.666563,4230.769127,4382.563995,4212.307589,4219.487076,4246.666563,4228.717845,4052.307593,4191.281949,4183.076821,4212.307589,4216.410153
94,0,4214.871692,4231.281948,4228.717845,4231.281948,4393.333226,4193.846051,4216.410153,4235.384512,4212.82041,4046.153747,4195.897333,4184.102462,4213.33323,4218.974256
95,0,4216.410153,4237.948614,4224.102461,4231.281948,4389.743482,4213.846051,4217.435794,4231.281948,4193.846051,4052.307593,4199.999897,4179.487077,4213.33323,4217.435794
96,0,4222.051179,4245.128101,4228.717845,4239.999896,4377.43579,4241.538358,4223.07682,4243.58964,4210.256307,4079.9999,4199.487077,4186.666564,4230.769127,4228.717845
97,0,4230.256307,4248.717845,4241.538358,4248.205024,4376.410149,4225.640922,4231.281948,4250.256306,4235.897332,4098.974259,4203.07682,4197.435795,4247.692204,4243.076819
98,0,4226.666563,4239.999896,4237.948614,4244.10246,4372.820406,4213.33323,4234.871691,4238.461435,4227.179384,4073.846054,4207.692205,4189.743487,4236.410153,4238.974255
99,0,4213.846051,4233.84605,4225.128102,4234.358871,4362.563996,4229.743486,4231.281948,4233.84605,4211.281948,4057.948619,4203.07682,4179.999898,4225.640922,4226.153743
100,0,4213.846051,4234.871691,4225.640922,4224.615281,4367.17938,4232.820409,4229.743486,4247.179383,4228.717845,4077.948618,4203.589641,4187.179385,4231.281948,4227.179384
101,0,4215.384512,4232.820409,4230.256307,4222.051179,4370.256303,4232.820409,4228.717845,4253.333229,4234.358871,4088.205028,4212.82041,4198.974256,4233.33323,4237.435794
102,0,4215.897333,4235.384512,4229.230666,4231.794768,4364.102457,4247.179383,4224.615281,4248.717845,4216.922974,4086.153746,4216.410153,4204.615282,4237.948614,4244.615281
103,0,4218.461435,4238.974255,4224.102461,4233.84605,4357.435791,4243.076819,4219.999897,4246.666563,4218.974256,4088.205028,4211.794769,4202.051179,4248.205024,4246.666563
104,0,4221.538358,4236.410153,4228.717845,4230.769127,4356.41015,4233.33323,4227.179384,4250.256306,4231.794768,4089.230669,4215.897333,4197.435795,4244.615281,4242.563999
105,0,4223.07682,4231.281948,4239.999896,4239.487076,4357.435791,4223.58964,4234.871691,4250.256306,4216.410153,4089.74349,4219.999897,4199.487077,4237.948614,4239.487076
106,0,4213.33323,4223.07682,4227.692204,4236.410153,4344.615278,4200.512718,4224.102461,4236.922973,4194.871692,4080.512721,4205.640923,4188.205026,4228.205025,4229.230666
107,0,4204.102461,4220.512717,4204.102461,4218.461435,4342.563996,4199.487077,4218.461435,4229.230666,4206.666564,4063.076824,4189.743487,4174.358872,4216.922974,4216.922974
108,0,4213.846051,4230.256307,4209.743487,4223.58964,4355.897329,4228.205025,4226.153743,4239.999896,4229.230666,4068.717849,4194.871692,4178.974257,4228.717845,4223.07682
109,0,4226.153743,4233.33323,4223.07682,4236.922973,4348.205022,4229.743486,4227.179384,4242.051178,4226.666563,4076.922977,4210.256307,4189.743487,4235.384512,4233.84605
110,0,4225.640922,4236.922973,4223.07682,4230.769127,4332.820407,4214.358871,4226.153743,4239.487076,4213.33323,4075.897336,4214.871692,4193.846051,4226.666563,4235.897332
111,0,4233.84605,4249.230665,4233.33323,4232.820409,4339.487073,4227.692204,4225.640922,4247.692204,4217.948615,4086.666567,4215.897333,4201.025538,4238.461435,4238.974255
112,0,4231.281948,4236.922973,4232.820409,4234.871691,4336.922971,4238.461435,4215.384512,4236.922973,4218.974256,4087.692208,4210.256307,4192.30759,4241.538358,4233.84605
113,0,4220.512717,4219.487076,4217.948615,4221.538358,4321.025535,4231.281948,4218.974256,4229.230666,4212.307589,4081.025541,4210.769128,4185.640923,4225.128102,4230.256307
114,0,4222.563999,4231.281948,4221.025538,4224.615281,4327.179381,4229.743486,4235.384512,4248.717845,4219.999897,4089.74349,4216.922974,4197.948615,4230.769127,4234.358871
115,0,4227.692204,4234.871691,4227.179384,4234.358871,4329.743484,4234.871691,4228.205025,4249.743486,4225.640922,4097.435797,4214.358871,4197.948615,4242.051178,4231.281948
116,0,4216.922974,4218.461435,4216.410153,4222.051179,4316.922971,4238.974255,4216.922974,4231.794768,4219.487076,4090.25631,4210.256307,4183.589641,4229.743486,4221.538358
117,0,4214.871692,4215.897333,4210.769128,4211.281948,4321.538356,4237.948614,4230.256307,4242.051178,4214.871692,4091.794772,4214.358871,4188.717846,4228.717845,4223.58964
118,0,4221.025538,4223.58964,4211.281948,4216.922974,4325.64092,4218.461435,4235.897332,4249.743486,4221.538358,4094.871695,4207.692205,4193.333231,4237.948614,4225.640922
119,0,4229.230666,4229.230666,4215.384512,4227.692204,4315.38451,4207.179384,4228.205025,4236.410153,4230.769127,4093.333233,4203.07682,4189.230667,4241.025537,4227.692204
120,0,4235.384512,4243.076819,4228.205025,4241.538358,4310.256305,4233.33323,4231.794768,4236.410153,4222.051179,4111.794771,4217.435794,4198.461436,4247.179383,4240.512717
121,0,4236.922973,4250.769127,4229.230666,4242.051178,4311.281946,4253.333229,4238.974255,4247.179383,4208.717846,4113.333233,4217.435794,4205.640923,4250.769127,4247.179383
122,0,4235.384512,4246.153742,4223.58964,4230.769127,4325.64092,4219.999897,4232.307589,4247.692204,4213.846051,4085.128105,4204.615282,4199.487077,4247.179383,4238.461435
123,0,4237.435794,4246.666563,4226.153743,4235.897332,4349.230663,4191.281949,4226.153743,4244.10246,4230.769127,4083.076823,4205.640923,4197.435795,4245.640922,4232.820409
124,0,4237.948614,4248.205024,4227.692204,4246.153742,4343.589637,4229.230666,4234.358871,4247.692204,4233.33323,4111.281951,4208.717846,4202.564,4243.58964,4236.410153
125,0,4231.281948,4239.487076,4218.461435,4236.922973,4308.205023,4271.794767,4233.33323,4250.256306,4222.563999,4112.820412,4204.102461,4194.871692,4233.33323,4233.33323
126,0,4226.666563,4231.794768,4208.717846,4223.07682,4288.717844,4260.512716,4223.58964,4241.025537,4216.410153,4091.794772,4200.512718,4182.564,4224.615281,4221.538358
127,0,4221.025538,4228.717845,4204.102461,4216.922974,4285.1281,4232.820409,4226.153743,4230.769127,4213.33323,4087.179387,4193.846051,4175.897334,4222.563999,4213.846051
128,0,4219.487076,4224.615281,4207.692205,4221.025538,4293.333228,4240.512717,4232.307589,4229.230666,4207.692205,4095.384515,4191.281949,4178.974257,4222.563999,4214.358871
0,0,4227.692204,4238.461435,4224.615281,4238.461435,4306.666561,4254.871691,4235.384512,4240.512717,4216.922974,4110.25631,4202.564,4191.281949,4236.922973,4228.205025
1,0,4235.897332,4252.307588,4229.230666,4246.153742,4302.563997,4229.743486,4230.769127,4249.230665,4238.461435,4115.384515,4209.743487,4197.948615,4250.256306,4238.461435
2,0,4227.692204,4237.948614,4214.358871,4230.769127,4297.948613,4211.794769,4222.051179,4243.076819,4232.820409,4098.461438,4198.461436,4189.743487,4233.84605,4228.205025
3,0,4219.999897,4225.640922,4214.358871,4223.58964,4303.076818,4226.153743,4224.615281,4236.410153,4213.33323,4097.948618,4198.974256,4189.743487,4220.512717,4224.102461
4,0,4226.666563,4242.051178,4230.769127,4234.871691,4301.538356,4237.435794,4232.307589,4239.487076,4222.563999,4124.102463,4213.846051,4198.974256,4241.025537,4239.999896
5,0,4234.358871,4250.256306,4229.743486,4236.410153,4295.38451,4243.076819,4232.307589,4242.563999,4234.358871,4120.51272,4214.871692,4198.461436,4255.384511,4242.563999
6,0,4232.820409,4243.076819,4222.563999,4230.769127,4292.307587,4246.666563,4230.256307,4233.84605,4222.563999,4093.846054,4206.153743,4195.384513,4244.615281,4229.743486
7,0,4234.358871,4246.666563,4231.794768,4237.948614,4299.487074,4235.384512,4231.794768,4232.820409,4213.846051,4107.179387,4212.307589,4202.051179,4244.10246,4234.358871
8,0,4230.769127,4246.666563,4230.769127,4239.999896,4300.512715,4234.358871,4234.358871,4241.538358,4215.897333,4128.717848,4214.358871,4199.487077,4249.230665,4238.461435
9,0,4214.358871,4227.179384,4212.82041,4228.717845,4274.87169,4245.640922,4235.897332,4237.948614,4212.307589,4108.717848,4197.948615,4185.640923,4235.384512,4219.999897
10,0,4207.692205,4224.102461,4207.179384,4225.640922,4273.333229,4235.897332,4233.33323,4231.794768,4218.461435,4097.948618,4195.897333,4184.102462,4228.205025,4210.256307
11,0,4221.025538,4243.076819,4216.922974,4233.84605,4302.051177,4238.974255,4227.179384,4239.487076,4237.435794,4120.51272,4208.205025,4188.205026,4239.999896,4219.999897
12,0,4219.999897,4241.025537,4217.948615,4234.871691,4282.563998,4246.666563,4219.487076,4238.974255,4229.230666,4123.076822,4203.589641,4182.564,4237.948614,4218.974256
13,0,4209.230666,4227.692204,4212.307589,4232.307589,4258.974255,4220.512717,4212.307589,4226.666563,4205.640923,4105.640925,4197.948615,4178.461436,4227.179384,4213.846051
14,0,4214.358871,4232.307589,4212.82041,4233.33323,4288.205023,4210.769128,4215.897333,4230.256307,4214.871692,4107.179387,4204.102461,4188.205026,4232.820409,4217.435794
15,0,4221.025538,4238.461435,4215.384512,4232.820409,4297.948613,4241.025537,4226.666563,4245.128101,4234.871691,4123.589643,4200.512718,4193.333231,4237.948614,4220.512717
16,0,4213.33323,4231.794768,4212.307589,4229.230666,4265.640921,4252.307588,4230.769127,4241.538358,4226.666563,4127.692207,4188.205026,4183.076821,4229.743486,4215.384512
17,0,4198.974256,4223.07682,4206.666564,4227.179384,4253.333229,4206.666564,4223.58964,4227.692204,4205.640923,4113.333233,4188.717846,4173.846052,4227.692204,4208.717846
18,0,4202.051179,4227.692204,4211.281948,4230.769127,4266.666562,4175.384513,4215.384512,4228.205025,4200.512718,4110.76913,4201.538359,4187.179385,4235.384512,4214.871692
19,0,4208.205025,4236.922973,4217.435794,4231.794768,4265.640921,4216.410153,4219.487076,4230.769127,4206.666564,4119.999899,4199.487077,4196.410154,4230.769127,4221.538358
20,0,4214.871692,4243.58964,4226.153743,4235.897332,4263.076819,4276.922972,4227.692204,4233.33323,4219.999897,4124.615284,4198.974256,4193.333231,4232.307589,4224.102461
21,0,4223.07682,4249.743486,4242.563999,4251.794768,4276.922972,4277.948613,4231.794768,4247.692204,4234.871691,4129.743489,4213.846051,4206.153743,4254.35887,4239.999896
22,0,4226.666563,4250.256306,4248.205024,4259.487075,4281.538357,4249.230665,4235.384512,4258.461434,4235.897332,4138.461437,4223.07682,4223.07682,4260.512716,4252.820409
23,0,4218.461435,4238.461435,4235.384512,4245.128101,4267.692203,4253.84605,4235.897332,4249.743486,4222.563999,4142.564001,4210.769128,4210.256307,4245.128101,4241.538358
24,0,4215.897333,4231.281948,4225.128102,4230.769127,4262.051178,4252.307588,4234.358871,4245.640922,4212.307589,4137.948617,4202.051179,4196.922974,4246.153742,4230.256307
25,0,4215.897333,4233.84605,4230.256307,4235.897332,4259.487075,4222.051179,4231.281948,4248.205024,4217.435794,4128.205027,4206.666564,4201.025538,4247.692204,4232.307589
26,0,4216.410153,4234.871691,4237.948614,4244.10246,4248.205024,4217.435794,4230.256307,4240.512717,4228.717845,4120.51272,4209.230666,4202.564,4236.410153,4233.84605
27,0,4215.897333,4233.33323,4236.922973,4239.999896,4255.897332,4239.999896,4241.538358,4236.922973,4230.256307,4129.743489,4206.666564,4201.025538,4239.999896,4232.307589
28,0,4208.717846,4227.179384,4227.179384,4227.179384,4268.717844,4245.128101,4249.743486,4244.615281,4222.051179,4143.076822,4203.589641,4200.512718,4249.230665,4225.640922
29,0,4205.640923,4229.743486,4226.666563,4227.179384,4265.128101,4242.051178,4231.281948,4248.717845,4219.487076,4141.53836,4203.589641,4199.999897,4245.640922,4223.07682
30,0,4213.846051,4247.692204,4235.384512,4234.871691,4261.025537,4242.051178,4212.307589,4242.563999,4218.974256,4136.410155,4207.179384,4199.999897,4236.922973,4226.153743
31,0,4216.410153,4253.84605,4237.435794,4237.435794,4251.281947,4237.435794,4221.538358,4237.435794,4216.410153,4140.512719,4211.281948,4201.025538,4237.948614,4224.102461
32,0,4221.025538,4252.307588,4241.538358,4244.615281,4248.205024,4247.692204,4238.974255,4248.717845,4225.128102,4156.410155,4215.384512,4208.717846,4251.281947,4230.256307
33,0,4223.58964,4248.205024,4242.051178,4240.512717,4248.205024,4252.820409,4233.33323,4252.820409,4230.256307,4157.435796,4209.743487,4210.769128,4248.717845,4235.384512
34,0,4211.281948,4240.512717,4233.33323,4234.871691,4233.33323,4224.615281,4214.871692,4235.384512,4217.435794,4139.487078,4199.999897,4194.871692,4231.281948,4219.999897
35,0,4209.743487,4238.974255,4231.794768,4245.640922,4229.230666,4189.230667,4212.82041,4224.102461,4204.615282,4124.615284,4198.461436,4186.153744,4227.692204,4212.82041
36,0,4215.897333,4238.974255,4231.281948,4242.051178,4248.205024,4194.871692,4228.205025,4237.435794,4210.256307,4134.358873,4199.999897,4193.846051,4232.820409,4218.461435
37,0,4216.922974,4238.974255,4231.281948,4226.666563,4245.128101,4249.230665,4243.58964,4251.794768,4230.256307,4165.640924,4207.692205,4201.025538,4242.051178,4221.025538
38,0,4214.871692,4241.025537,4236.922973,4225.640922,4212.307589,4284.61528,4245.640922,4250.769127,4236.410153,4176.410154,4217.948615,4205.640923,4250.769127,4224.615281
39,0,4216.410153,4239.999896,4238.974255,4232.820409,4184.102462,4261.538357,4234.871691,4245.640922,4221.025538,4147.692206,4217.948615,4210.769128,4242.051178,4225.128102
40,0,4215.384512,4237.948614,4236.410153,4237.948614,4180.512718,4241.025537,4228.205025,4245.128101,4213.846051,4136.410155,4213.33323,4208.205025,4237.948614,4222.563999
41,0,4215.384512,4239.999896,4237.435794,4242.051178,4194.358872,4251.281947,4231.794768,4245.128101,4219.487076,4159.999898,4212.307589,4204.102461,4249.230665,4222.563999
42,0,4204.615282,4233.84605,4233.33323,4234.358871,4194.358872,4239.999896,4232.820409,4245.640922,4217.948615,4164.102462,4206.153743,4201.025538,4240.512717,4213.846051
43,0,4196.410154,4227.179384,4226.666563,4226.153743,4178.974257,4227.179384,4231.794768,4244.10246,4215.897333,4145.640924,4199.487077,4196.922974,4223.07682,4202.051179
44,0,4196.922974,4229.230666,4223.58964,4226.666563,4183.589641,4236.922973,4233.84605,4234.871691,4216.922974,4133.333232,4192.30759,4188.717846,4221.538358,4199.999897
45,0,4205.128102,4236.922973,4226.153743,4233.84605,4210.769128,4238.461435,4232.307589,4236.410153,4221.025538,4144.615283,4190.256308,4188.205026,4232.307589,4207.692205
46,0,4214.871692,4251.794768,4236.922973,4249.743486,4222.563999,4236.410153,4232.820409,4251.281947,4227.692204,4166.153744,4204.102461,4202.564,4247.692204,4219.487076
47,0,4212.307589,4247.179383,4229.743486,4245.640922,4197.435795,4239.487076,4229.743486,4245.128101,4223.07682,4153.333232,4211.281948,4198.461436,4238.974255,4213.846051
48,0,4207.179384,4236.410153,4221.025538,4230.769127,4182.05118,4248.717845,4224.615281,4234.871691,4217.948615,4136.922976,4204.615282,4184.615282,4225.640922,4204.615282
49,0,4217.435794,4247.692204,4233.84605,4237.435794,4207.692205,4245.128101,4230.769127,4242.051178,4219.487076,4158.974257,4199.999897,4193.333231,4239.487076,4216.922974
50,0,4213.33323,4244.10246,4229.230666,4241.538358,4219.487076,4224.615281,4233.84605,4239.487076,4209.743487,4167.179385,4197.948615,4196.410154,4236.922973,4212.307589
51,0,4201.025538,4226.153743,4216.922974,4233.84605,4201.538359,4234.358871,4235.897332,4236.922973,4210.256307,4148.205027,4198.461436,4187.179385,4221.025538,4197.435795
52,0,4208.717846,4229.743486,4228.717845,4234.358871,4189.743487,4263.076819,4248.717845,4255.897332,4237.435794,4155.897334,4204.102461,4197.948615,4231.794768,4212.307589
53,0,4211.794769,4236.410153,4229.743486,4230.769127,4190.256308,4252.820409,4247.179383,4261.538357,4246.153742,4178.461436,4201.538359,4203.589641,4241.025537,4218.461435
54,0,4202.564,4229.743486,4215.384512,4218.461435,4190.769128,4242.563999,4228.717845,4247.692204,4231.794768,4181.025539,4203.07682,4195.897333,4231.281948,4201.025538
55,0,4199.999897,4227.692204,4219.487076,4217.948615,4190.256308,4266.666562,4228.205025,4245.640922,4232.307589,4173.333231,4213.33323,4199.999897,4235.897332,4204.615282
56,0,4204.615282,4230.769127,4228.205025,4225.640922,4191.281949,4256.410152,4239.999896,4248.717845,4233.33323,4169.743488,4209.743487,4204.615282,4240.512717,4216.922974
57,0,4201.025538,4228.717845,4224.615281,4229.230666,4201.538359,4212.82041,4234.358871,4249.743486,4221.025538,4167.692206,4194.871692,4194.871692,4232.307589,4210.769128
58,0,4194.358872,4219.487076,4217.435794,4228.205025,4193.846051,4202.051179,4216.922974,4244.10246,4214.358871,4157.948616,4191.281949,4185.640923,4230.769127,4201.025538
59,0,4188.205026,4214.871692,4215.384512,4234.358871,4162.05118,4221.538358,4221.025538,4229.743486,4216.922974,4152.307591,4195.897333,4181.025539,4226.153743,4196.410154
60,0,4202.051179,4235.384512,4230.769127,4251.281947,4175.897334,4250.256306,4248.717845,4235.384512,4224.102461,4165.128103,4209.230666,4196.922974,4229.230666,4208.205025
61,0,4214.871692,4249.230665,4239.999896,4250.769127,4227.179384,4265.640921,4256.410152,4253.333229,4232.307589,4176.410154,4214.871692,4210.769128,4244.615281,4224.102461
62,0,4205.128102,4230.256307,4225.128102,4230.256307,4219.487076,4260.512716,4235.897332,4251.281947,4237.435794,4171.79477,4203.07682,4195.897333,4239.999896,4214.871692
63,0,4188.717846,4216.922974,4213.33323,4221.538358,4172.820411,4245.128101,4226.666563,4243.076819,4227.692204,4168.205026,4191.794769,4183.076821,4217.435794,4193.333231
64,0,4194.358872,4228.205025,4222.051179,4229.230666,4171.79477,4232.820409,4233.33323,4247.692204,4218.974256,4177.948616,4201.025538,4194.871692,4223.07682,4197.948615
65,0,4206.666564,4234.871691,4234.871691,4232.820409,4202.564,4235.384512,4234.871691,4251.794768,4229.230666,4186.666564,4210.256307,4205.128102,4241.025537,4215.897333
66,0,4201.025538,4229.743486,4229.743486,4229.230666,4207.179384,4257.435793,4229.743486,4247.179383,4234.358871,4183.076821,4201.025538,4196.922974,4233.33323,4211.281948
67,0,4196.410154,4231.281948,4223.07682,4230.769127,4197.435795,4267.179383,4232.307589,4245.640922,4231.281948,4185.128103,4196.410154,4197.948615,4236.410153,4209.743487
68,0,4204.102461,4229.743486,4225.128102,4233.33323,4187.692205,4232.820409,4229.230666,4243.58964,4231.794768,4188.205026,4202.564,4202.051179,4255.384511,4224.102461
69,0,4206.153743,4222.051179,4225.128102,4230.769127,4176.410154,4207.179384,4214.358871,4229.743486,4218.461435,4172.820411,4199.487077,4193.846051,4242.051178,4224.102461
70,0,4208.717846,4230.769127,4231.794768,4233.84605,4188.205026,4235.897332,4221.538358,4222.051179,4201.538359,4167.692206,4198.974256,4195.384513,4224.615281,4218.974256
71,0,4217.435794,4239.487076,4242.051178,4235.897332,4202.051179,4263.076819,4236.410153,4230.256307,4216.922974,4176.410154,4211.281948,4207.692205,4242.563999,4229.230666
72,0,4212.307589,4229.743486,4233.33323,4229.743486,4190.256308,4245.128101,4228.205025,4234.358871,4233.33323,4170.256308,4209.230666,4202.051179,4248.205024,4229.743486
73,0,4214.871692,4236.922973,4229.743486,4242.563999,4188.205026,4241.025537,4230.769127,4242.051178,4229.230666,4178.974257,4201.025538,4198.461436,4242.563999,4227.692204
74,0,4230.256307,4260.512716,4247.692204,4262.563998,4197.435795,4264.10246,4249.743486,4252.820409,4227.692204,4206.666564,4209.743487,4209.743487,4259.487075,4243.076819
75,0,4225.128102,4250.769127,4242.563999,4250.256306,4193.333231,4257.435793,4239.999896,4246.666563,4226.153743,4194.358872,4212.82041,4204.615282,4258.974255,4235.384512
76,0,4201.025538,4227.692204,4213.846051,4225.640922,4186.666564,4243.58964,4222.051179,4234.358871,4225.640922,4161.53836,4191.281949,4182.05118,4222.563999,4205.640923
77,0,4201.538359,4228.717845,4212.82041,4228.205025,4189.743487,4257.948614,4235.897332,4236.922973,4228.717845,4168.205026,4183.589641,4181.538359,4212.82041,4203.07682
78,0,4214.358871,4235.384512,4226.153743,4242.563999,4197.948615,4255.384511,4249.230665,4242.051178,4224.102461,4196.410154,4193.846051,4194.358872,4237.435794,4215.897333
79,0,4214.871692,4233.84605,4224.102461,4239.487076,4197.948615,4226.153743,4230.256307,4243.58964,4226.666563,4201.538359,4201.538359,4200.512718,4246.153742,4218.974256
80,0,4206.666564,4232.307589,4219.487076,4227.179384,4186.153744,4219.999897,4212.307589,4245.640922,4235.384512,4186.666564,4202.564,4198.461436,4234.358871,4215.384512
81,0,4210.256307,4234.358871,4223.07682,4230.256307,4188.717846,4251.794768,4224.615281,4245.128101,4229.230666,4184.615282,4203.589641,4200.512718,4232.307589,4219.487076
82,0,4213.33323,4235.897332,4221.025538,4239.487076,4195.384513,4277.435793,4235.897332,4243.58964,4220.512717,4187.692205,4201.538359,4201.538359,4242.051178,4224.615281
83,0,4213.33323,4241.025537,4222.051179,4237.435794,4193.333231,4272.820408,4229.230666,4247.692204,4230.256307,4185.640923,4207.692205,4202.564,4246.666563,4227.179384
84,0,4219.487076,4248.717845,4234.358871,4242.563999,4207.179384,4252.307588,4231.794768,4252.820409,4244.615281,4198.461436,4214.358871,4207.179384,4246.153742,4231.281948
85,0,4218.461435,4247.179383,4232.307589,4248.205024,4207.692205,4244.615281,4236.922973,4250.256306,4243.58964,4211.281948,4202.051179,4195.897333,4247.179383,4228.205025
86,0,4210.256307,4239.487076,4218.974256,4238.974255,4183.076821,4248.205024,4229.230666,4241.025537,4231.794768,4204.615282,4194.871692,4187.692205,4252.820409,4224.102461
87,0,4210.769128,4235.897332,4215.384512,4228.717845,4182.05118,4244.615281,4227.179384,4242.563999,4226.666563,4200.512718,4202.564,4193.846051,4251.794768,4224.615281
88,0,4208.717846,4231.794768,4213.33323,4221.538358,4196.410154,4251.281947,4234.358871,4244.10246,4222.563999,4196.922974,4198.974256,4192.30759,4237.435794,4218.461435
89,0,4198.974256,4226.153743,4216.922974,4219.487076,4189.743487,4249.743486,4231.794768,4234.871691,4212.82041,4184.102462,4196.922974,4190.769128,4238.461435,4213.33323
90,0,4202.564,4228.717845,4229.230666,4230.769127,4182.564,4215.384512,4226.666563,4231.794768,4217.948615,4185.640923,4208.717846,4201.538359,4249.230665,4219.487076
91,0,4213.33323,4234.871691,4239.999896,4247.179383,4188.205026,4219.487076,4236.922973,4240.512717,4238.974255,4198.461436,4207.692205,4205.128102,4244.615281,4227.179384
92,0,4220.512717,4233.84605,4247.692204,4252.307588,4199.487077,4268.717844,4245.640922,4250.256306,4247.692204,4209.743487,4197.435795,4209.230666,4244.10246,4229.743486
93,0,4218.461435,4233.84605,4246.153742,4244.615281,4211.281948,4261.025537,4236.922973,4250.256306,4238.461435,4208.717846,4197.435795,4219.999897,4253.84605,4234.871691
94,0,4210.256307,4228.717845,4234.358871,4228.717845,4204.615282,4226.666563,4227.179384,4247.179383,4225.640922,4189.230667,4199.999897,4216.922974,4243.076819,4232.307589
95,0,4204.615282,4221.025538,4228.205025,4218.974256,4189.230667,4244.615281,4227.692204,4246.153742,4224.615281,4185.128103,4191.281949,4205.640923,4230.769127,4226.153743
96,0,4208.205025,4217.948615,4229.743486,4223.07682,4191.794769,4248.205024,4232.307589,4242.051178,4228.205025,4199.999897,4183.076821,4203.589641,4237.435794,4227.179384
97,0,4207.179384,4218.461435,4227.179384,4228.717845,4195.384513,4211.281948,4235.384512,4239.487076,4228.717845,4196.410154,4190.256308,4202.051179,4242.051178,4228.205025
98,0,4211.281948,4226.666563,4225.640922,4232.307589,4189.743487,4226.153743,4233.33323,4245.128101,4241.025537,4197.948615,4197.948615,4205.128102,4246.666563,4232.307589
99,0,4213.846051,4233.33323,4223.58964,4232.307589,4191.794769,4271.281947,4227.179384,4250.769127,4247.692204,4215.897333,4189.230667,4208.205025,4250.769127,4233.84605
100,0,4217.435794,4234.871691,4227.179384,4234.358871,4198.974256,4262.563998,4237.948614,4251.281947,4238.461435,4213.846051,4185.128103,4204.102461,4247.179383,4232.307589
101,0,4219.487076,4236.410153,4232.820409,4237.435794,4199.487077,4235.384512,4245.128101,4251.281947,4233.84605,4203.07682,4193.333231,4198.974256,4248.717845,4229.743486
102,0,4211.794769,4235.384512,4224.615281,4234.871691,4209.230666,4233.33323,4234.871691,4247.179383,4233.33323,4196.410154,4193.333231,4199.487077,4245.640922,4221.025538
103,0,4207.179384,4230.256307,4219.999897,4229.743486,4215.897333,4245.128101,4240.512717,4242.051178,4231.794768,4192.30759,4187.692205,4203.589641,4233.84605,4216.922974
104,0,4218.461435,4229.230666,4229.743486,4229.743486,4204.102461,4259.999896,4248.717845,4248.717845,4244.10246,4202.564,4189.743487,4203.589641,4238.461435,4227.692204
105,0,4223.07682,4232.307589,4234.358871,4233.33323,4194.358872,4256.922973,4234.871691,4250.256306,4245.640922,4212.307589,4197.435795,4203.589641,4251.281947,4235.384512
106,0,4214.871692,4227.179384,4230.256307,4232.820409,4186.153744,4229.743486,4223.07682,4232.820409,4225.640922,4202.564,4197.948615,4207.179384,4240.512717,4227.692204
107,0,4218.974256,4225.640922,4231.281948,4231.794768,4184.102462,4225.640922,4234.871691,4230.256307,4225.128102,4193.333231,4191.281949,4208.717846,4230.769127,4226.666563
108,0,4231.281948,4240.512717,4240.512717,4241.025537,4205.128102,4257.948614,4248.717845,4253.84605,4235.897332,4205.128102,4196.410154,4214.871692,4246.153742,4242.563999
109,0,4238.461435,4252.820409,4251.281947,4249.743486,4214.358871,4269.743485,4248.205024,4267.692203,4237.435794,4218.461435,4212.82041,4226.153743,4259.999896,4253.333229
110,0,4235.384512,4242.563999,4255.384511,4246.666563,4195.897333,4252.820409,4245.640922,4259.999896,4244.10246,4216.922974,4217.948615,4228.717845,4254.871691,4250.769127
111,0,4237.435794,4235.897332,4255.384511,4248.205024,4198.974256,4239.487076,4247.179383,4251.794768,4244.615281,4212.307589,4211.281948,4229.743486,4251.794768,4249.743486
112,0,4241.025537,4247.179383,4251.794768,4246.666563,4219.487076,4228.717845,4246.153742,4247.179383,4228.205025,4214.871692,4206.666564,4225.640922,4253.333229,4251.794768
113,0,4232.307589,4232.820409,4240.512717,4233.33323,4216.922974,4226.666563,4239.487076,4247.179383,4229.743486,4217.435794,4210.256307,4219.999897,4246.153742,4242.563999
114,0,4218.974256,4212.307589,4233.33323,4229.743486,4203.589641,4237.948614,4242.051178,4249.743486,4244.10246,4210.769128,4209.230666,4216.410153,4239.487076,4232.307589
115,0,4224.102461,4231.281948,4237.435794,4239.999896,4194.871692,4259.487075,4249.230665,4246.666563,4236.922973,4208.205025,4200.512718,4212.307589,4236.410153,4231.281948
116,0,4221.025538,4252.307588,4231.794768,4239.999896,4202.564,4266.153742,4243.58964,4241.538358,4225.128102,4199.487077,4193.333231,4200.512718,4220.512717,4217.435794
117,0,4207.692205,4253.333229,4218.461435,4232.820409,4214.871692,4245.128101,4233.84605,4237.948614,4229.743486,4187.179385,4189.743487,4191.281949,4211.281948,4196.922974
118,0,4204.102461,4259.999896,4213.33323,4229.230666,4171.281949,4228.717845,4229.230666,4233.33323,4234.871691,4189.230667,4176.410154,4185.128103,4213.846051,4189.743487
119,0,4212.82041,4271.794767,4217.435794,4241.538358,4102.564002,4237.948614,4227.692204,4231.281948,4230.256307,4197.435795,4172.30759,4181.538359,4209.230666,4188.717846
120,0,4221.025538,4276.922972,4226.666563,4261.025537,4097.948618,4247.692204,4229.230666,4235.384512,4229.743486,4197.948615,4187.179385,4189.230667,4201.025538,4192.30759
121,0,4226.153743,4279.487075,4229.743486,4254.35887,4098.461438,4253.333229,4229.743486,4238.461435,4229.230666,4198.461436,4194.358872,4195.384513,4209.743487,4205.128102
122,0,4232.820409,4285.640921,4233.84605,4243.58964,4063.589644,4251.281947,4230.256307,4246.666563,4229.230666,4207.179384,4191.281949,4199.999897,4230.769127,4220.512717
123,0,4235.384512,4282.051177,4235.897332,4248.717845,4056.410157,4207.692205,4230.256307,4251.794768,4232.820409,4203.589641,4187.692205,4201.538359,4230.256307,4218.974256
124,0,4218.974256,4256.410152,4218.974256,4236.410153,4053.333234,4180.512718,4238.461435,4236.922973,4224.615281,4183.589641,4183.076821,4188.205026,4202.564,4195.384513
125,0,4204.615282,4240.512717,4203.589641,4220.512717,4032.820414,4229.743486,4245.128101,4225.640922,4213.33323,4184.615282,4181.025539,4179.999898,4194.871692,4182.564
126,0,4219.999897,4259.487075,4215.897333,4237.435794,4046.153747,4285.640921,4241.538358,4238.461435,4224.615281,4210.769128,4189.230667,4194.358872,4221.538358,4202.564
127,0,4231.794768,4271.794767,4229.743486,4251.794768,4069.23067,4269.743485,4244.10246,4253.84605,4244.615281,4223.58964,4195.897333,4207.692205,4232.307589,4218.461435
128,0,4225.128102,4260.512716,4225.128102,4243.076819,4069.23067,4230.769127,4251.281947,4251.794768,4241.538358,4206.666564,4188.717846,4202.051179,4212.82041,4204.615282
0,0,4218.461435,4257.435793,4219.487076,4239.487076,4075.384516,4239.999896,4248.205024,4243.076819,4226.666563,4194.358872,4181.025539,4189.743487,4207.179384,4194.358872
1,0,4224.102461,4264.61528,4221.538358,4238.974255,4075.384516,4271.794767,4244.615281,4249.743486,4228.205025,4207.692205,4188.717846,4194.871692,4216.410153,4202.051179
2,0,4227.179384,4266.666562,4224.102461,4241.538358,4074.871695,4246.666563,4251.281947,4261.025537,4233.84605,4215.897333,4192.30759,4204.102461,4218.974256,4206.153743
3,0,4229.743486,4265.640921,4224.102461,4251.281947,4105.640925,4209.230666,4250.769127,4254.35887,4229.743486,4203.589641,4185.128103,4202.564,4215.384512,4202.564
4,0,4227.179384,4267.179383,4224.102461,4249.743486,4116.410156,4243.076819,4245.128101,4242.563999,4232.820409,4202.051179,4184.102462,4196.922974,4211.794769,4201.538359
5,0,4233.84605,4276.922972,4232.307589,4247.692204,4086.666567,4283.589639,4249.230665,4249.743486,4246.666563,4219.487076,4191.794769,4203.07682,4222.563999,4213.846051
6,0,4242.563999,4278.974254,4235.897332,4258.461434,4068.717849,4262.051178,4255.384511,4257.948614,4247.179383,4223.58964,4193.333231,4207.692205,4231.281948,4218.461435
7,0,4239.999896,4265.640921,4221.538358,4251.281947,4078.461439,4229.230666,4244.10246,4243.58964,4227.692204,4210.769128,4189.230667,4196.410154,4220.512717,4202.051179
8,0,4229.230666,4255.897332,4209.230666,4230.256307,4087.179387,4224.615281,4230.256307,4228.717845,4215.384512,4202.051179,4182.564,4186.666564,4206.153743,4189.230667
9,0,4228.205025,4261.025537,4214.358871,4231.281948,4086.666567,4235.897332,4236.922973,4232.820409,4222.563999,4198.974256,4183.076821,4191.281949,4209.743487,4196.410154
10,0,4233.33323,4266.666562,4220.512717,4239.999896,4084.615285,4251.281947,4247.179383,4244.10246,4231.794768,4199.487077,4188.717846,4199.487077,4221.025538,4208.205025
11,0,4243.076819,4274.35887,4226.666563,4242.051178,4090.769131,4255.897332,4248.717845,4250.256306,4233.84605,4213.33323,4190.256308,4204.615282,4222.051179,4212.82041
12,0,4251.794768,4284.102459,4234.871691,4248.717845,4098.461438,4253.333229,4249.230665,4248.205024,4231.794768,4228.205025,4193.333231,4207.692205,4220.512717,4218.974256
13,0,4256.922973,4286.153741,4227.692204,4252.307588,4087.179387,4251.794768,4237.435794,4238.974255,4232.307589,4221.025538,4191.794769,4203.589641,4217.435794,4228.717845
14,0,4275.897331,4302.563997,4221.538358,4255.384511,4095.384515,4242.051178,4222.563999,4230.769127,4228.717845,4213.846051,4183.589641,4207.692205,4225.640922,4251.281947
15,0,4308.717843,4334.358868,4238.974255,4265.640921,4122.564002,4232.820409,4232.820409,4237.948614,4218.461435,4219.999897,4195.897333,4220.512717,4243.076819,4286.666562
16,0,4348.205022,4358.974252,4258.974255,4280.512716,4111.281951,4229.743486,4252.820409,4250.769127,4216.922974,4215.897333,4223.58964,4235.897332,4261.025537,4331.794766
17,0,4391.281944,4374.358867,4270.769126,4289.230664,4069.23067,4223.58964,4248.717845,4246.153742,4225.128102,4213.33323,4219.487076,4252.820409,4271.794767,4381.025534
18,0,4437.435789,4386.153739,4287.692203,4288.205023,4057.435798,4213.846051,4232.307589,4231.281948,4229.743486,4225.640922,4207.179384,4262.051178,4279.999895,4422.563994
19,0,4480.512711,4407.179379,4307.692202,4296.410151,4088.717849,4223.07682,4240.512717,4238.461435,4233.84605,4237.948614,4233.84605,4271.794767,4309.230664,4468.205019
20,0,4510.2563,4431.281943,4308.205023,4314.358869,4127.179386,4245.128101,4255.897332,4255.384511,4240.512717,4243.076819,4257.435793,4286.666562,4337.435791,4501.538351
21,0,4508.717838,4434.358866,4292.307587,4317.435792,4137.435796,4241.025537,4239.999896,4246.666563,4230.769127,4241.025537,4236.410153,4279.487075,4325.64092,4498.461428
22,0,4491.794762,4402.051174,4284.102459,4296.410151,4092.820413,4213.846051,4223.58964,4217.435794,4208.205025,4211.794769,4220.512717,4259.999896,4278.974254,4475.897326
23,0,4490.2563,4393.846046,4291.281946,4286.666562,4068.205029,4212.307589,4232.307589,4212.307589,4201.025538,4193.333231,4230.256307,4263.076819,4267.179383,4478.461429
24,0,4506.153736,4422.563994,4304.615279,4310.256305,4107.692207,4240.512717,4237.435794,4236.922973,4217.435794,4229.230666,4242.563999,4277.435793,4310.769125,4506.153736
25,0,4503.589633,4422.563994,4307.692202,4325.128099,4130.256309,4246.666563,4235.897332,4250.256306,4241.025537,4256.410152,4247.692204,4279.487075,4331.794766,4511.281941
26,0,4486.153736,4397.43579,4305.64092,4309.743484,4116.410156,4246.153742,4244.615281,4248.205024,4245.128101,4239.999896,4246.666563,4284.102459,4308.205023,4492.307582
27,0,4463.076814,4377.948611,4295.38451,4290.769126,4099.9999,4239.999896,4241.025537,4244.615281,4224.615281,4228.717845,4235.384512,4279.999895,4290.769126,4463.076814
28,0,4430.256302,4345.128099,4276.410152,4278.974254,4092.820413,4197.948615,4227.692204,4238.461435,4207.692205,4233.33323,4227.179384,4264.10246,4291.281946,4430.769122
29,0,4398.461431,4312.307587,4267.179383,4271.281947,4110.76913,4171.281949,4227.692204,4232.820409,4225.640922,4229.743486,4228.205025,4259.999896,4284.102459,4403.589636
30,0,4389.230662,4318.461433,4274.87169,4277.948613,4143.589642,4221.025538,4236.922973,4243.58964,4247.692204,4235.897332,4234.871691,4269.230665,4288.205023,4393.846046
31,0,4376.410149,4317.435792,4276.922972,4283.076818,4130.76913,4272.820408,4248.717845,4252.820409,4242.051178,4255.897332,4244.615281,4273.846049,4302.051177,4385.640918
32,0,4346.15374,4281.538357,4264.61528,4264.61528,4101.025541,4261.025537,4249.230665,4247.179383,4233.33323,4250.256306,4244.615281,4264.61528,4293.846049,4356.41015
33,0,4323.076817,4257.948614,4254.35887,4247.179383,4110.25631,4252.307588,4236.410153,4249.743486,4242.563999,4233.84605,4228.717845,4251.794768,4274.87169,4326.15374
34,0,4301.025536,4245.128101,4242.563999,4233.84605,4113.846053,4250.256306,4232.820409,4247.692204,4238.974255,4229.230666,4212.307589,4234.358871,4259.999896,4301.538356
35,0,4276.410152,4224.615281,4227.692204,4219.487076,4101.538361,4219.999897,4238.974255,4235.384512,4220.512717,4229.230666,4212.307589,4221.538358,4250.769127,4275.384511
36,0,4263.589639,4213.33323,4225.640922,4222.563999,4111.281951,4217.435794,4236.922973,4237.435794,4222.051179,4234.358871,4221.025538,4224.102461,4252.307588,4261.538357
37,0,4263.076819,4215.897333,4233.84605,4236.922973,4120.51272,4241.538358,4228.205025,4249.743486,4237.948614,4237.435794,4218.974256,4231.794768,4256.410152,4264.10246
38,0,4254.35887,4214.871692,4230.256307,4235.897332,4118.461438,4222.563999,4236.410153,4248.205024,4237.435794,4229.230666,4207.179384,4228.717845,4248.717845,4258.974255
39,0,4244.10246,4205.128102,4218.461435,4219.999897,4121.02554,4202.564,4245.640922,4239.999896,4222.051179,4228.717845,4205.640923,4223.07682,4244.615281,4243.076819
40,0,4241.538358,4200.512718,4222.051179,4218.461435,4123.589643,4244.10246,4238.461435,4248.205024,4221.538358,4245.128101,4215.384512,4227.692204,4253.84605,4243.076819
41,0,4244.615281,4199.999897,4233.84605,4225.128102,4125.128104,4284.102459,4240.512717,4257.435793,4243.58964,4251.281947,4221.025538,4236.410153,4257.435793,4253.84605
42,0,4240.512717,4198.974256,4227.692204,4217.948615,4133.846053,4267.692203,4250.769127,4251.281947,4249.743486,4243.58964,4212.307589,4235.384512,4252.307588,4247.692204
43,0,4234.358871,4196.410154,4215.384512,4210.769128,4130.256309,4245.640922,4243.076819,4245.128101,4238.461435,4246.153742,4208.205025,4230.256307,4255.384511,4235.384512
44,0,4224.615281,4190.769128,4215.384512,4214.871692,4121.02554,4245.640922,4228.205025,4248.205024,4233.33323,4250.769127,4213.846051,4228.205025,4256.410152,4230.256307
45,0,4226.666563,4194.871692,4225.128102,4226.153743,4147.179386,4225.128102,4232.307589,4250.769127,4229.230666,4248.205024,4217.948615,4232.820409,4251.794768,4230.256307
46,0,4230.769127,4200.512718,4231.794768,4234.358871,4159.999898,4196.410154,4242.563999,4246.666563,4224.102461,4243.076819,4210.256307,4230.256307,4248.205024,4223.07682
47,0,4224.615281,4189.230667,4224.615281,4230.769127,4133.846053,4217.435794,4244.10246,4248.205024,4230.769127,4239.999896,4202.564,4220.512717,4242.563999,4212.307589
48,0,4217.435794,4181.025539,4214.871692,4217.948615,4128.717848,4258.974255,4247.179383,4255.384511,4232.820409,4241.538358,4205.128102,4218.461435,4238.461435,4208.717846
49,0,4219.999897,4189.230667,4218.461435,4213.846051,4144.615283,4257.948614,4247.179383,4259.487075,4230.769127,4249.743486,4205.640923,4221.538358,4244.615281,4210.769128
50,0,4222.051179,4190.769128,4219.999897,4216.922974,4141.02554,4254.871691,4245.640922,4261.538357,4245.640922,4251.794768,4201.538359,4220.512717,4248.205024,4213.846051
51,0,4216.410153,4181.025539,4214.871692,4218.974256,4139.487078,4274.87169,4253.333229,4258.974255,4250.769127,4242.051178,4199.999897,4217.435794,4241.025537,4210.769128
52,0,4214.871692,4184.615282,4219.487076,4223.58964,4155.384514,4267.179383,4258.461434,4258.461434,4235.897332,4239.999896,4202.564,4222.051179,4241.538358,4205.640923
53,0,4210.256307,4186.153744,4217.435794,4218.461435,4153.846052,4242.563999,4248.205024,4257.948614,4231.281948,4240.512717,4199.487077,4219.999897,4240.512717,4199.487077
54,0,4203.07682,4174.358872,4203.589641,4206.153743,4137.948617,4253.84605,4241.538358,4253.333229,4237.948614,4235.897332,4193.333231,4209.230666,4225.128102,4191.281949
55,0,4197.435795,4167.692206,4199.999897,4206.666564,4146.666565,4252.820409,4250.256306,4248.205024,4232.820409,4234.871691,4189.743487,4203.589641,4219.487076,4185.128103
56,0,4200.512718,4172.30759,4206.153743,4213.33323,4167.179385,4215.384512,4247.692204,4246.153742,4219.487076,4233.33323,4193.333231,4210.256307,4224.102461,4185.640923
57,0,4201.538359,4173.333231,4203.589641,4206.666564,4154.871693,4226.666563,4241.025537,4245.640922,4216.922974,4223.07682,4192.82041,4209.230666,4217.435794,4185.128103
58,0,4199.999897,4169.230667,4197.948615,4199.487077,4133.846053,4278.974254,4244.615281,4244.615281,4228.717845,4226.153743,4186.666564,4204.615282,4212.82041,4182.564
59,0,4195.384513,4169.230667,4192.30759,4202.051179,4144.102463,4268.717844,4238.974255,4246.666563,4236.410153,4243.58964,4184.102462,4205.128102,4223.07682,4184.102462
60,0,4191.281949,4167.179385,4185.640923,4201.025538,4147.179386,4239.999896,4229.743486,4247.692204,4224.102461,4239.487076,4183.589641,4202.564,4223.58964,4179.487077
61,0,4189.230667,4167.692206,4190.769128,4198.461436,4138.461437,4258.461434,4232.820409,4248.717845,4218.974256,4234.358871,4183.589641,4198.974256,4221.538358,4177.435795
62,0,4192.82041,4171.281949,4196.410154,4200.512718,4154.871693,4257.435793,4234.871691,4250.256306,4232.307589,4244.615281,4189.230667,4199.999897,4228.205025,4179.999898
63,0,4192.30759,4170.769129,4187.692205,4200.512718,4159.999898,4237.948614,4233.84605,4248.205024,4235.897332,4245.128101,4186.153744,4197.948615,4223.07682,4176.922975
64,0,4188.717846,4165.640924,4182.564,4198.974256,4133.333232,4252.307588,4233.33323,4247.692204,4231.281948,4239.999896,4179.999898,4193.846051,4212.307589,4170.769129
65,0,4192.82041,4168.717847,4191.794769,4203.589641,4142.564001,4256.922973,4232.307589,4246.153742,4232.820409,4244.10246,4187.692205,4198.461436,4220.512717,4174.871693
66,0,4205.640923,4182.05118,4201.538359,4215.384512,4171.79477,4249.230665,4242.563999,4245.128101,4235.897332,4249.743486,4200.512718,4210.769128,4236.922973,4189.230667
67,0,4208.717846,4186.666564,4204.102461,4217.948615,4159.999898,4250.256306,4250.769127,4245.128101,4233.84605,4253.84605,4198.461436,4215.384512,4234.871691,4196.922974
68,0,4205.640923,4185.128103,4204.615282,4212.82041,4155.384514,4232.820409,4236.922973,4243.58964,4231.281948,4255.384511,4199.487077,4209.743487,4232.820409,4195.897333
69,0,4214.358871,4190.256308,4207.692205,4217.435794,4174.871693,4230.256307,4226.666563,4243.58964,4227.179384,4248.717845,4213.33323,4214.358871,4247.179383,4201.025538
70,0,4217.948615,4190.769128,4206.153743,4216.922974,4165.128103,4253.84605,4235.384512,4247.692204,4230.256307,4245.640922,4211.794769,4217.948615,4250.769127,4204.615282
71,0,4204.615282,4183.076821,4192.30759,4204.102461,4145.128104,4242.051178,4236.922973,4246.666563,4234.358871,4247.692204,4194.358872,4204.615282,4232.820409,4192.30759
72,0,4197.435795,4183.076821,4190.256308,4198.461436,4156.922975,4241.538358,4231.794768,4243.076819,4225.640922,4248.205024,4191.281949,4195.384513,4218.974256,4182.564
73,0,4205.128102,4187.692205,4201.538359,4207.692205,4159.999898,4277.435793,4233.33323,4248.717845,4225.640922,4252.820409,4199.999897,4202.564,4222.563999,4187.692205
74,0,4201.538359,4184.102462,4201.538359,4211.281948,4149.743488,4263.589639,4232.307589,4246.666563,4231.281948,4250.256306,4195.384513,4201.538359,4224.615281,4187.692205
75,0,4197.948615,4182.564,4195.897333,4204.615282,4164.615283,4238.461435,4225.640922,4232.820409,4221.538358,4236.410153,4189.230667,4196.922974,4222.051179,4183.589641
76,0,4202.564,4187.179385,4200.512718,4206.153743,4170.769129,4267.692203,4228.717845,4236.922973,4211.281948,4232.820409,4192.30759,4200.512718,4219.999897,4185.640923
77,0,4206.666564,4187.179385,4204.615282,4211.281948,4150.769129,4270.769126,4245.128101,4247.179383,4216.410153,4233.84605,4193.333231,4200.512718,4216.410153,4184.102462
78,0,4202.564,4182.564,4199.999897,4208.205025,4151.28195,4239.487076,4247.692204,4244.10246,4227.692204,4233.84605,4191.281949,4197.435795,4216.922974,4179.487077
79,0,4206.666564,4183.589641,4201.538359,4204.615282,4172.30759,4246.153742,4232.820409,4244.10246,4232.820409,4242.051178,4198.974256,4201.025538,4224.615281,4185.640923
80,0,4202.564,4184.615282,4200.512718,4201.538359,4176.410154,4238.974255,4226.153743,4240.512717,4221.538358,4239.487076,4196.922974,4194.871692,4219.999897,4187.179385
81,0,4195.384513,4182.05118,4196.922974,4197.948615,4173.333231,4214.871692,4231.281948,4230.256307,4212.82041,4227.692204,4181.538359,4185.128103,4206.666564,4178.974257
82,0,4204.102461,4190.256308,4201.025538,4208.205025,4179.487077,4242.051178,4231.794768,4236.922973,4227.179384,4234.871691,4183.589641,4194.358872,4214.358871,4185.128103
83,0,4214.358871,4202.051179,4205.640923,4217.435794,4179.487077,4288.717844,4232.307589,4250.256306,4233.84605,4253.333229,4197.948615,4205.640923,4227.179384,4198.974256
84,0,4211.794769,4199.487077,4210.769128,4209.743487,4171.79477,4290.256305,4239.999896,4249.230665,4227.179384,4257.435793,4197.435795,4205.640923,4228.205025,4199.999897
85,0,4215.384512,4194.871692,4214.358871,4210.256307,4167.179385,4256.410152,4243.076819,4247.692204,4232.307589,4254.871691,4188.717846,4204.102461,4227.692204,4196.922974
86,0,4216.922974,4196.922974,4210.256307,4217.435794,4175.897334,4227.692204,4242.051178,4244.10246,4232.820409,4254.871691,4187.692205,4201.025538,4217.948615,4193.333231
87,0,4216.410153,4201.538359,4213.846051,4223.58964,4193.333231,4242.563999,4244.615281,4242.563999,4227.179384,4261.538357,4199.999897,4209.743487,4221.538358,4197.435795
88,0,4219.999897,4206.153743,4225.128102,4230.769127,4182.05118,4277.948613,4248.717845,4255.384511,4234.871691,4268.717844,4209.230666,4225.128102,4236.922973,4205.128102
89,0,4205.128102,4194.871692,4210.769128,4218.461435,4158.974257,4267.179383,4248.205024,4252.820409,4229.230666,4257.435793,4192.30759,4207.692205,4222.563999,4187.692205
90,0,4196.410154,4182.05118,4197.435795,4201.025538,4173.846052,4249.230665,4249.230665,4249.230665,4231.794768,4259.999896,4189.230667,4201.538359,4211.794769,4181.025539
91,0,4208.717846,4185.128103,4209.743487,4199.999897,4191.281949,4246.666563,4244.615281,4267.692203,4261.025537,4283.589639,4212.82041,4226.153743,4240.512717,4207.692205
92,0,4205.640923,4185.640923,4205.128102,4203.589641,4176.922975,4222.563999,4229.230666,4261.025537,4249.743486,4279.487075,4211.281948,4221.538358,4246.153742,4205.640923
93,0,4192.30759,4187.179385,4190.769128,4203.589641,4175.384513,4226.153743,4227.692204,4230.256307,4208.717846,4253.84605,4191.794769,4193.846051,4222.563999,4179.999898
