title:A                                                                               , recorded:02.07.20 13.33.23, sampling:128, subject:S                                                                               , labels:COUNTER INTERPOLATED AF3 F7 F3 FC5 T7 P7 O1 O2 P8 T8 FC6 F4 F8 AF4,, units:emotiv,,,,,,,,,
53,0,4293.846049,4209.743487,4243.076819,4246.666563,4201.538359,4213.846051,4206.153743,4208.717846,4203.07682,4197.435795,4214.358871,4245.128101,4228.717845,4322.051176
54,0,4317.435792,4231.281948,4238.974255,4259.999896,4213.846051,4219.999897,4217.435794,4210.256307,4206.666564,4199.999897,4225.640922,4250.256306,4225.640922,4338.974253
55,0,4324.102458,4235.897332,4228.717845,4252.307588,4217.948615,4222.563999,4214.358871,4215.384512,4207.692205,4208.205025,4239.487076,4228.717845,4242.051178,4356.92297
56,0,4321.538356,4220.512717,4244.10246,4242.051178,4211.794769,4219.999897,4205.640923,4213.846051,4203.589641,4205.128102,4245.128101,4239.999896,4238.974255,4373.846047
57,0,4325.128099,4235.384512,4250.769127,4242.051178,4210.769128,4216.922974,4207.692205,4212.82041,4202.564,4198.461436,4233.33323,4256.922973,4215.897333,4366.153739
58,0,4331.281945,4255.384511,4240.512717,4243.076819,4207.692205,4215.897333,4208.717846,4214.871692,4202.564,4196.922974,4219.487076,4237.948614,4219.999897,4357.948611
59,0,4331.281945,4231.281948,4241.025537,4237.948614,4203.589641,4216.410153,4200.512718,4211.281948,4202.051179,4197.435795,4224.102461,4227.692204,4233.33323,4353.333227
60,0,4317.435792,4210.256307,4241.538358,4238.461435,4208.717846,4221.025538,4196.410154,4204.615282,4203.07682,4194.358872,4228.717845,4241.538358,4226.153743,4340.512714
61,0,4315.89733,4229.743486,4231.281948,4257.435793,4217.948615,4223.07682,4206.666564,4211.281948,4204.102461,4201.025538,4226.666563,4245.640922,4228.717845,4347.179381
62,0,4324.102458,4230.256307,4232.307589,4266.666562,4215.384512,4220.512717,4214.871692,4219.487076,4207.692205,4212.82041,4232.307589,4239.999896,4242.563999,4351.281945
63,0,4304.615279,4202.051179,4238.461435,4237.948614,4208.717846,4217.435794,4208.205025,4215.384512,4209.743487,4217.948615,4241.025537,4234.358871,4237.435794,4329.230663
64,0,4284.61528,4206.666564,4219.487076,4225.640922,4203.07682,4219.999897,4202.564,4211.281948,4203.07682,4204.102461,4231.281948,4228.205025,4222.563999,4304.102459
65,0,4289.743485,4221.538358,4205.640923,4241.538358,4202.051179,4216.922974,4207.692205,4216.410153,4200.512718,4196.922974,4219.487076,4223.07682,4227.692204,4291.281946
66,0,4313.846048,4191.794769,4243.58964,4223.07682,4202.051179,4215.897333,4214.871692,4222.051179,4209.743487,4209.230666,4224.615281,4232.820409,4234.871691,4288.205023
67,0,4302.563997,4182.564,4249.743486,4208.717846,4208.717846,4222.563999,4216.922974,4218.461435,4213.33323,4219.999897,4231.794768,4239.999896,4232.307589,4284.61528
68,0,4295.897331,4215.384512,4222.051179,4252.307588,4210.769128,4222.563999,4214.871692,4213.33323,4207.179384,4212.307589,4228.717845,4233.33323,4229.743486,4271.281947
69,0,4300.512715,4222.051179,4229.230666,4260.512716,4209.230666,4213.846051,4210.256307,4210.769128,4205.128102,4210.256307,4226.153743,4223.58964,4233.84605,4260.512716
70,0,4283.589639,4206.666564,4228.205025,4228.717845,4209.230666,4215.897333,4205.640923,4210.769128,4205.128102,4213.846051,4229.743486,4222.051179,4232.820409,4250.769127
71,0,4275.384511,4206.153743,4212.82041,4245.128101,4209.743487,4218.461435,4204.102461,4210.769128,4203.07682,4204.615282,4226.153743,4222.051179,4225.128102,4236.922973
72,0,4285.640921,4208.205025,4219.999897,4261.025537,4203.07682,4214.871692,4203.589641,4209.743487,4205.640923,4203.07682,4222.563999,4218.974256,4226.666563,4228.205025
73,0,4279.487075,4226.153743,4225.128102,4248.717845,4203.07682,4215.897333,4208.717846,4213.846051,4211.281948,4218.974256,4226.666563,4228.205025,4235.897332,4233.84605
74,0,4291.794767,4243.076819,4230.769127,4263.589639,4210.769128,4217.435794,4210.256307,4217.948615,4209.743487,4219.999897,4226.153743,4243.58964,4230.256307,4246.153742
75,0,4291.281946,4230.256307,4242.051178,4268.205024,4212.82041,4215.384512,4208.717846,4214.871692,4203.589641,4207.179384,4221.538358,4234.358871,4221.538358,4233.84605
76,0,4259.487075,4227.179384,4224.102461,4244.615281,4208.205025,4218.974256,4210.769128,4212.307589,4204.615282,4210.769128,4222.563999,4221.025538,4221.538358,4213.33323
77,0,4261.025537,4250.256306,4205.128102,4253.333229,4205.128102,4218.461435,4213.33323,4213.846051,4209.230666,4219.999897,4223.58964,4224.102461,4221.025538,4201.538359
78,0,4281.025536,4252.307588,4215.384512,4262.563998,4210.769128,4212.307589,4212.82041,4216.410153,4211.281948,4219.999897,4217.948615,4216.410153,4221.538358,4188.717846
79,0,4268.717844,4225.128102,4218.461435,4237.435794,4207.692205,4213.33323,4215.384512,4216.922974,4208.205025,4207.179384,4213.846051,4203.07682,4224.615281,4182.564
80,0,4262.051178,4216.410153,4209.743487,4226.153743,4204.102461,4216.410153,4217.948615,4215.384512,4205.640923,4201.025538,4219.487076,4205.640923,4227.179384,4194.358872
81,0,4273.846049,4230.256307,4214.358871,4241.025537,4210.256307,4217.435794,4216.922974,4215.384512,4206.153743,4209.743487,4221.025538,4208.205025,4221.025538,4189.230667
82,0,4271.281947,4241.538358,4216.922974,4245.640922,4221.025538,4215.897333,4221.025538,4218.974256,4209.743487,4219.487076,4216.410153,4207.179384,4220.512717,4178.461436
83,0,4272.307588,4235.384512,4216.922974,4241.025537,4217.435794,4217.435794,4227.692204,4223.58964,4213.33323,4213.33323,4214.358871,4216.410153,4224.102461,4187.179385
84,0,4267.179383,4227.179384,4217.435794,4239.999896,4209.230666,4215.897333,4223.58964,4218.974256,4209.743487,4209.743487,4211.794769,4221.025538,4217.948615,4182.564
85,0,4259.999896,4224.102461,4214.358871,4232.307589,4205.640923,4212.307589,4212.82041,4210.256307,4204.102461,4208.205025,4206.153743,4212.82041,4205.640923,4171.281949
86,0,4256.922973,4219.487076,4209.743487,4224.615281,4208.717846,4211.794769,4210.769128,4208.717846,4206.153743,4209.230666,4206.153743,4208.205025,4205.640923,4181.025539
87,0,4261.025537,4223.58964,4216.410153,4228.205025,4209.230666,4215.384512,4215.384512,4217.435794,4210.256307,4211.794769,4210.769128,4207.179384,4213.846051,4177.435795
88,0,4255.897332,4242.563999,4218.461435,4234.871691,4208.717846,4217.435794,4217.435794,4216.922974,4208.717846,4211.794769,4216.922974,4207.179384,4217.948615,4171.79477
89,0,4250.769127,4254.871691,4209.743487,4239.487076,4213.33323,4218.461435,4215.384512,4209.230666,4206.153743,4211.281948,4220.512717,4215.384512,4214.358871,4183.076821
90,0,4243.58964,4247.179383,4207.179384,4237.435794,4213.846051,4217.435794,4211.281948,4210.256307,4206.153743,4217.435794,4213.33323,4217.948615,4208.717846,4178.974257
91,0,4246.666563,4234.358871,4213.33323,4219.487076,4205.128102,4212.307589,4207.179384,4209.230666,4201.538359,4214.871692,4207.179384,4210.256307,4208.717846,4165.128103
92,0,4246.666563,4242.051178,4215.384512,4211.794769,4212.307589,4213.846051,4209.230666,4205.640923,4199.487077,4207.179384,4212.82041,4218.974256,4215.897333,4175.897334
93,0,4240.512717,4247.179383,4212.82041,4216.410153,4223.07682,4217.435794,4214.358871,4209.230666,4203.589641,4209.743487,4214.871692,4228.205025,4213.33323,4191.794769
94,0,4234.871691,4236.922973,4210.769128,4215.384512,4213.33323,4210.769128,4214.358871,4213.33323,4205.640923,4211.794769,4205.640923,4212.82041,4201.538359,4183.076821
95,0,4238.974255,4239.487076,4209.230666,4219.999897,4207.692205,4209.230666,4212.307589,4213.33323,4206.153743,4212.307589,4199.999897,4199.999897,4205.128102,4172.820411
96,0,4241.025537,4251.794768,4207.179384,4230.769127,4217.435794,4218.974256,4216.922974,4218.974256,4208.205025,4213.33323,4208.205025,4210.769128,4216.922974,4176.922975
97,0,4235.897332,4248.717845,4203.589641,4228.717845,4218.974256,4221.025538,4224.102461,4224.102461,4208.717846,4216.410153,4215.897333,4216.410153,4220.512717,4181.025539
98,0,4229.230666,4242.563999,4205.640923,4220.512717,4211.281948,4216.410153,4224.615281,4218.461435,4207.692205,4221.025538,4214.871692,4212.82041,4224.615281,4179.999898
99,0,4224.615281,4249.230665,4212.82041,4225.128102,4212.82041,4215.384512,4218.461435,4213.33323,4211.794769,4232.820409,4216.410153,4220.512717,4232.820409,4182.564
100,0,4226.153743,4249.743486,4210.769128,4225.640922,4213.33323,4217.948615,4215.384512,4215.897333,4211.794769,4235.384512,4216.922974,4225.640922,4226.153743,4177.435795
101,0,4217.435794,4243.58964,4195.384513,4219.487076,4219.487076,4218.461435,4217.435794,4215.384512,4206.666564,4228.205025,4209.743487,4209.743487,4215.897333,4171.79477
102,0,4208.717846,4234.871691,4200.512718,4210.769128,4225.128102,4218.974256,4219.487076,4211.794769,4205.128102,4218.461435,4205.640923,4197.948615,4215.384512,4171.79477
103,0,4201.538359,4242.051178,4206.666564,4196.410154,4222.051179,4215.897333,4218.974256,4214.871692,4206.153743,4216.410153,4205.640923,4202.051179,4209.743487,4161.025539
104,0,4208.717846,4255.384511,4193.333231,4199.999897,4216.410153,4213.846051,4214.358871,4220.512717,4206.666564,4217.435794,4199.487077,4199.487077,4197.435795,4142.564001
105,0,4213.33323,4241.025537,4202.051179,4222.563999,4213.846051,4210.256307,4217.948615,4217.435794,4206.153743,4212.307589,4194.358872,4191.794769,4195.897333,4149.230668
106,0,4215.384512,4233.33323,4222.051179,4227.179384,4212.307589,4209.743487,4224.615281,4218.461435,4205.640923,4207.179384,4199.487077,4202.051179,4206.666564,4172.30759
107,0,4205.640923,4263.589639,4205.640923,4211.794769,4215.897333,4211.281948,4222.563999,4222.563999,4206.666564,4214.871692,4203.589641,4212.307589,4211.794769,4183.076821
108,0,4204.615282,4274.35887,4203.589641,4199.487077,4217.435794,4208.717846,4219.487076,4217.435794,4206.153743,4217.435794,4204.615282,4213.33323,4206.153743,4181.538359
109,0,4210.769128,4255.897332,4233.84605,4204.102461,4212.82041,4208.205025,4224.615281,4212.307589,4205.640923,4213.33323,4207.692205,4223.07682,4205.128102,4183.589641
110,0,4210.769128,4257.948614,4233.33323,4210.256307,4213.33323,4210.769128,4224.102461,4216.922974,4207.692205,4211.794769,4212.307589,4229.743486,4209.743487,4189.230667
111,0,4197.948615,4269.230665,4206.666564,4214.358871,4218.974256,4212.307589,4217.948615,4216.922974,4210.256307,4216.410153,4206.666564,4215.897333,4210.256307,4184.102462
112,0,4196.410154,4258.974255,4204.615282,4214.358871,4220.512717,4210.769128,4221.025538,4212.82041,4207.179384,4216.922974,4196.410154,4207.179384,4203.589641,4171.79477
113,0,4204.102461,4251.794768,4217.948615,4214.358871,4216.410153,4210.769128,4228.205025,4218.461435,4205.640923,4203.589641,4200.512718,4218.974256,4199.487077,4170.769129
114,0,4201.538359,4248.717845,4218.461435,4214.358871,4211.794769,4211.281948,4228.205025,4224.615281,4209.230666,4194.358872,4207.692205,4221.025538,4195.897333,4175.897334
115,0,4186.153744,4242.563999,4210.769128,4206.153743,4209.230666,4212.82041,4223.58964,4220.512717,4210.256307,4204.102461,4198.461436,4208.717846,4189.230667,4167.692206
116,0,4185.640923,4249.230665,4209.743487,4208.205025,4212.82041,4218.974256,4223.58964,4216.922974,4209.743487,4213.846051,4192.30759,4206.666564,4189.230667,4166.153744
117,0,4188.205026,4254.35887,4209.230666,4206.666564,4219.487076,4222.563999,4225.640922,4221.538358,4210.256307,4205.640923,4196.410154,4212.82041,4186.153744,4168.205026
118,0,4180.512718,4249.743486,4212.82041,4190.769128,4219.487076,4216.410153,4223.58964,4224.615281,4210.256307,4201.025538,4194.871692,4211.794769,4179.487077,4166.666565
119,0,4189.230667,4251.281947,4227.179384,4195.897333,4212.82041,4215.897333,4222.563999,4221.538358,4207.692205,4200.512718,4194.871692,4215.384512,4185.640923,4173.333231
120,0,4197.948615,4259.487075,4227.692204,4218.974256,4219.999897,4217.948615,4224.102461,4218.974256,4209.230666,4212.307589,4203.589641,4221.538358,4203.07682,4187.692205
121,0,4189.230667,4259.999896,4216.410153,4216.922974,4227.179384,4210.769128,4224.102461,4221.025538,4214.871692,4227.179384,4209.230666,4220.512717,4208.717846,4189.743487
122,0,4175.384513,4268.205024,4216.410153,4200.512718,4226.153743,4204.102461,4221.538358,4220.512717,4212.307589,4217.948615,4210.256307,4219.999897,4205.640923,4184.102462
123,0,4196.922974,4268.717844,4234.871691,4208.205025,4217.435794,4209.230666,4218.461435,4219.999897,4208.205025,4199.999897,4212.82041,4227.179384,4202.051179,4191.281949
124,0,4204.615282,4252.307588,4243.076819,4215.384512,4214.358871,4209.230666,4219.999897,4221.025538,4210.769128,4215.384512,4213.846051,4230.256307,4199.999897,4194.871692
125,0,4179.999898,4253.84605,4222.051179,4204.102461,4224.615281,4212.82041,4231.281948,4224.102461,4215.897333,4235.897332,4210.769128,4221.538358,4203.07682,4182.564
126,0,4164.102462,4265.128101,4202.051179,4203.589641,4238.974255,4218.974256,4236.410153,4226.153743,4217.435794,4229.230666,4207.692205,4209.230666,4208.205025,4175.384513
127,0,4180.512718,4253.84605,4209.230666,4204.102461,4232.307589,4215.384512,4230.256307,4225.128102,4213.846051,4218.974256,4206.666564,4211.794769,4205.128102,4183.076821
128,0,4185.128103,4246.666563,4218.461435,4205.640923,4221.025538,4211.281948,4230.256307,4225.128102,4213.33323,4226.666563,4208.205025,4223.07682,4201.538359,4187.692205
0,0,4178.974257,4254.871691,4219.487076,4205.128102,4227.692204,4214.358871,4232.820409,4226.153743,4216.410153,4228.205025,4210.256307,4222.051179,4201.025538,4188.717846
1,0,4176.922975,4250.256306,4228.205025,4195.897333,4229.743486,4213.33323,4227.179384,4224.102461,4214.871692,4219.487076,4207.692205,4218.974256,4201.025538,4193.333231
2,0,4185.128103,4244.10246,4230.256307,4196.922974,4218.461435,4208.717846,4220.512717,4222.563999,4209.743487,4224.102461,4207.692205,4224.102461,4202.051179,4186.153744
3,0,4197.435795,4250.769127,4224.102461,4210.256307,4216.410153,4209.743487,4221.025538,4220.512717,4211.281948,4228.717845,4211.281948,4225.128102,4204.615282,4177.435795
4,0,4190.256308,4252.820409,4217.435794,4208.205025,4224.102461,4211.281948,4222.563999,4215.897333,4215.897333,4224.102461,4210.256307,4218.461435,4205.128102,4189.743487
5,0,4167.179385,4241.025537,4214.358871,4193.333231,4221.025538,4212.82041,4223.58964,4217.948615,4213.33323,4220.512717,4206.666564,4214.871692,4202.564,4197.948615
6,0,4171.79477,4234.871691,4222.051179,4189.743487,4223.07682,4215.897333,4227.692204,4225.128102,4210.256307,4227.179384,4208.717846,4217.435794,4208.205025,4197.435795
7,0,4186.666564,4244.10246,4223.58964,4193.846051,4233.84605,4219.999897,4230.256307,4227.179384,4214.871692,4231.794768,4212.307589,4222.563999,4216.410153,4206.153743
8,0,4176.410154,4250.256306,4211.281948,4193.333231,4234.871691,4215.384512,4229.743486,4223.07682,4218.974256,4231.281948,4214.871692,4226.153743,4215.897333,4211.794769
9,0,4168.205026,4242.563999,4215.384512,4184.615282,4225.640922,4211.281948,4227.179384,4221.538358,4217.948615,4224.615281,4214.871692,4227.179384,4209.743487,4201.538359
10,0,4169.743488,4240.512717,4230.769127,4186.153744,4226.666563,4210.256307,4228.717845,4219.999897,4217.435794,4223.58964,4210.769128,4225.640922,4211.281948,4197.948615
11,0,4180.512718,4244.615281,4232.307589,4206.666564,4226.153743,4210.769128,4227.179384,4218.461435,4215.384512,4225.640922,4210.256307,4225.128102,4212.82041,4199.487077
12,0,4180.512718,4249.230665,4222.051179,4213.846051,4223.58964,4208.205025,4222.563999,4218.974256,4215.897333,4230.769127,4214.358871,4226.666563,4215.384512,4197.435795
13,0,4170.256308,4250.769127,4219.999897,4197.948615,4220.512717,4207.179384,4219.487076,4219.999897,4216.410153,4229.743486,4211.794769,4232.307589,4217.948615,4196.410154
14,0,4165.128103,4248.205024,4228.717845,4195.384513,4218.974256,4204.615282,4221.025538,4216.410153,4209.743487,4223.07682,4210.256307,4235.384512,4213.33323,4199.487077
15,0,4178.974257,4242.563999,4236.410153,4206.153743,4219.999897,4203.589641,4223.58964,4215.384512,4208.717846,4219.999897,4213.33323,4234.871691,4209.230666,4204.102461
16,0,4178.974257,4241.025537,4230.256307,4206.666564,4225.640922,4206.666564,4224.102461,4220.512717,4216.922974,4225.640922,4214.358871,4234.871691,4215.384512,4210.769128
17,0,4174.871693,4237.948614,4222.051179,4191.281949,4227.179384,4209.230666,4224.615281,4223.58964,4218.461435,4229.743486,4212.82041,4233.33323,4214.871692,4211.794769
18,0,4173.333231,4232.307589,4224.615281,4178.461436,4225.640922,4207.179384,4224.102461,4217.948615,4213.846051,4228.717845,4210.769128,4226.666563,4204.102461,4203.07682
19,0,4172.820411,4231.794768,4230.256307,4179.487077,4225.640922,4206.153743,4219.999897,4213.33323,4212.307589,4229.230666,4209.230666,4224.615281,4203.589641,4198.974256
20,0,4171.281949,4244.10246,4228.717845,4185.128103,4226.666563,4209.230666,4222.051179,4217.948615,4212.82041,4228.205025,4210.256307,4225.640922,4211.794769,4202.051179
21,0,4178.974257,4258.461434,4227.179384,4196.410154,4231.794768,4214.358871,4229.230666,4222.563999,4213.846051,4231.281948,4213.846051,4226.666563,4216.410153,4202.564
22,0,4182.05118,4251.794768,4231.281948,4211.794769,4232.307589,4214.871692,4228.205025,4223.07682,4217.435794,4235.897332,4212.307589,4232.820409,4218.461435,4195.384513
23,0,4180.512718,4243.58964,4233.33323,4208.717846,4229.743486,4210.256307,4225.640922,4224.615281,4218.974256,4237.435794,4213.33323,4237.948614,4221.538358,4196.922974
24,0,4182.564,4260.512716,4231.794768,4196.410154,4228.717845,4209.230666,4225.640922,4223.58964,4218.974256,4231.281948,4218.461435,4237.435794,4221.025538,4204.615282
25,0,4182.05118,4273.333229,4228.205025,4194.871692,4230.256307,4207.179384,4218.974256,4217.435794,4216.922974,4226.666563,4215.897333,4234.871691,4217.435794,4209.230666
26,0,4186.666564,4249.743486,4237.948614,4193.333231,4225.128102,4205.640923,4217.435794,4221.538358,4215.897333,4228.205025,4211.281948,4235.384512,4214.871692,4212.82041
27,0,4192.30759,4233.84605,4244.10246,4191.281949,4223.07682,4205.640923,4224.102461,4228.717845,4217.435794,4234.358871,4213.33323,4234.358871,4216.922974,4218.461435
28,0,4188.205026,4248.205024,4231.794768,4198.974256,4225.640922,4209.743487,4229.743486,4226.666563,4216.410153,4230.769127,4210.769128,4234.358871,4214.358871,4218.461435
29,0,4177.435795,4252.820409,4235.384512,4191.281949,4229.743486,4210.769128,4231.281948,4222.563999,4216.410153,4223.07682,4205.640923,4235.897332,4209.230666,4217.435794
30,0,4192.82041,4238.974255,4258.461434,4169.743488,4221.025538,4207.179384,4230.256307,4224.615281,4215.897333,4220.512717,4209.743487,4236.922973,4209.230666,4216.922974
31,0,4197.948615,4244.615281,4247.692204,4180.512718,4215.384512,4203.589641,4223.07682,4223.58964,4215.897333,4227.179384,4211.794769,4235.384512,4206.666564,4207.179384
32,0,4183.589641,4255.897332,4218.974256,4203.589641,4217.435794,4202.564,4216.922974,4215.384512,4214.358871,4226.153743,4206.153743,4233.33323,4200.512718,4203.589641
33,0,4178.974257,4249.743486,4224.615281,4192.30759,4216.410153,4199.999897,4215.384512,4208.205025,4211.281948,4217.948615,4203.589641,4230.256307,4204.615282,4210.769128
34,0,4196.922974,4253.84605,4241.538358,4187.692205,4214.871692,4204.102461,4215.384512,4212.82041,4212.307589,4219.487076,4209.743487,4231.794768,4212.82041,4222.051179
35,0,4206.153743,4271.281947,4242.051178,4217.435794,4223.58964,4211.281948,4220.512717,4222.051179,4218.461435,4231.281948,4221.538358,4243.076819,4221.538358,4244.10246
36,0,4212.82041,4265.640921,4255.384511,4216.410153,4229.230666,4211.281948,4224.102461,4222.563999,4220.512717,4238.461435,4224.615281,4247.179383,4232.307589,4259.487075
37,0,4218.974256,4262.051178,4261.025537,4194.871692,4228.717845,4208.205025,4222.563999,4219.487076,4216.410153,4238.461435,4214.358871,4239.487076,4236.922973,4263.076819
38,0,4222.563999,4284.61528,4243.58964,4205.128102,4231.281948,4208.717846,4223.58964,4219.487076,4216.922974,4231.794768,4213.846051,4238.974255,4235.897332,4279.999895
39,0,4225.640922,4282.051177,4242.051178,4208.717846,4223.07682,4209.230666,4224.102461,4215.897333,4214.871692,4217.435794,4221.025538,4248.717845,4236.922973,4300.512715
40,0,4230.769127,4258.461434,4255.897332,4195.384513,4214.871692,4209.230666,4218.974256,4215.897333,4210.256307,4213.846051,4220.512717,4253.333229,4236.922973,4305.64092
41,0,4231.794768,4268.717844,4251.794768,4206.666564,4220.512717,4210.256307,4216.410153,4217.435794,4212.307589,4226.153743,4216.410153,4253.333229,4235.897332,4315.38451
42,0,4233.33323,4282.563998,4245.640922,4216.410153,4217.948615,4203.589641,4218.461435,4214.358871,4216.410153,4232.820409,4223.07682,4256.410152,4244.10246,4337.948612
43,0,4235.897332,4265.640921,4253.84605,4191.794769,4208.205025,4199.487077,4218.461435,4211.281948,4213.846051,4221.538358,4224.615281,4256.922973,4246.666563,4343.076817
44,0,4235.897332,4256.922973,4248.717845,4185.128103,4214.871692,4202.564,4217.435794,4212.82041,4209.230666,4216.410153,4214.871692,4250.256306,4241.025537,4335.89733
45,0,4246.666563,4264.10246,4248.717845,4209.743487,4222.051179,4208.205025,4217.435794,4214.871692,4210.769128,4223.07682,4212.82041,4251.281947,4244.615281,4346.15374
46,0,4256.922973,4271.281947,4264.61528,4212.307589,4221.538358,4206.666564,4215.384512,4214.358871,4217.948615,4227.179384,4222.563999,4261.538357,4256.410152,4369.743483
47,0,4255.384511,4278.461434,4265.640921,4198.461436,4222.051179,4203.07682,4215.384512,4217.435794,4217.948615,4224.102461,4222.051179,4264.61528,4253.333229,4366.66656
48,0,4245.128101,4281.025536,4251.281947,4207.692205,4226.666563,4205.640923,4218.974256,4219.487076,4210.256307,4222.051179,4212.307589,4258.461434,4246.153742,4349.743483
49,0,4247.692204,4275.384511,4248.717845,4216.922974,4227.692204,4208.717846,4221.538358,4218.974256,4208.205025,4217.435794,4213.846051,4258.461434,4247.692204,4356.92297
50,0,4250.769127,4276.410152,4254.35887,4209.743487,4228.717845,4203.07682,4227.179384,4220.512717,4216.410153,4226.153743,4224.615281,4262.563998,4254.871691,4368.205021
51,0,4249.230665,4272.820408,4253.333229,4211.281948,4223.07682,4200.512718,4228.205025,4223.07682,4218.461435,4234.871691,4221.025538,4263.076819,4252.820409,4353.333227
52,0,4248.717845,4255.897332,4261.538357,4215.897333,4213.846051,4199.487077,4221.538358,4217.435794,4208.717846,4218.461435,4212.82041,4262.051178,4245.128101,4343.076817
53,0,4259.487075,4250.256306,4276.922972,4205.640923,4214.358871,4199.487077,4217.948615,4210.769128,4206.153743,4209.743487,4218.461435,4266.153742,4251.281947,4353.333227
54,0,4244.10246,4264.61528,4263.076819,4202.564,4225.128102,4203.07682,4223.07682,4215.384512,4217.948615,4231.281948,4225.128102,4267.179383,4261.025537,4353.333227
55,0,4222.563999,4272.307588,4239.487076,4210.769128,4228.717845,4205.640923,4225.128102,4222.563999,4221.538358,4236.922973,4220.512717,4263.076819,4258.461434,4339.487073
56,0,4224.102461,4261.538357,4245.128101,4200.512718,4221.025538,4204.615282,4221.025538,4220.512717,4215.897333,4221.538358,4210.769128,4258.461434,4247.179383,4331.281945
57,0,4236.410153,4252.307588,4260.512716,4190.769128,4218.974256,4207.692205,4223.07682,4216.922974,4216.410153,4224.615281,4210.769128,4261.025537,4239.487076,4329.743484
58,0,4231.794768,4253.84605,4256.922973,4206.666564,4222.051179,4205.640923,4230.256307,4218.974256,4218.461435,4229.230666,4217.435794,4264.61528,4236.922973,4323.589638
59,0,4227.692204,4253.333229,4249.230665,4212.307589,4219.487076,4198.461436,4232.820409,4219.487076,4213.33323,4218.461435,4214.871692,4257.435793,4237.435794,4311.281946
60,0,4227.179384,4244.615281,4243.58964,4195.384513,4214.871692,4199.487077,4226.666563,4219.487076,4210.769128,4213.846051,4204.615282,4249.230665,4233.33323,4297.948613
61,0,4224.615281,4245.128101,4243.076819,4191.281949,4221.025538,4201.538359,4221.538358,4219.999897,4211.794769,4223.07682,4208.205025,4255.897332,4230.256307,4301.538356
62,0,4233.84605,4253.84605,4260.512716,4206.153743,4228.205025,4202.564,4227.692204,4222.051179,4215.897333,4229.230666,4220.512717,4265.128101,4236.922973,4312.307587
63,0,4239.999896,4256.410152,4270.769126,4212.82041,4230.256307,4201.025538,4232.307589,4225.128102,4218.974256,4233.84605,4223.58964,4264.10246,4246.153742,4311.281946
64,0,4231.281948,4250.256306,4256.410152,4208.717846,4225.128102,4195.897333,4225.128102,4223.58964,4217.435794,4230.256307,4221.025538,4264.10246,4246.666563,4302.563997
65,0,4215.384512,4258.461434,4243.076819,4212.82041,4230.256307,4190.769128,4216.410153,4216.410153,4215.897333,4223.58964,4216.410153,4263.589639,4237.948614,4299.999895
66,0,4218.974256,4265.640921,4257.435793,4210.769128,4235.384512,4195.384513,4215.384512,4214.358871,4214.358871,4225.128102,4215.384512,4264.10246,4231.281948,4298.461433
67,0,4222.563999,4245.640922,4267.179383,4203.589641,4231.281948,4196.922974,4218.974256,4218.461435,4215.897333,4225.640922,4222.563999,4268.205024,4235.897332,4291.794767
68,0,4212.307589,4233.33323,4244.10246,4207.179384,4229.230666,4194.871692,4222.563999,4222.563999,4221.025538,4217.435794,4218.461435,4257.435793,4228.717845,4271.281947
69,0,4198.974256,4243.076819,4226.153743,4204.102461,4231.281948,4191.794769,4223.07682,4223.58964,4223.07682,4222.051179,4206.153743,4239.487076,4215.897333,4249.230665
70,0,4203.589641,4241.025537,4237.948614,4183.076821,4222.051179,4189.230667,4221.538358,4223.07682,4220.512717,4230.769127,4206.153743,4243.58964,4218.461435,4244.615281
71,0,4199.999897,4233.84605,4243.58964,4188.205026,4220.512717,4191.281949,4223.07682,4222.051179,4221.025538,4231.794768,4212.82041,4251.794768,4222.051179,4249.230665
72,0,4196.922974,4233.84605,4234.871691,4210.256307,4226.153743,4193.846051,4219.999897,4221.538358,4217.948615,4225.128102,4210.769128,4244.10246,4212.82041,4240.512717
73,0,4193.846051,4230.256307,4235.897332,4193.333231,4216.922974,4186.666564,4213.33323,4218.461435,4210.769128,4215.384512,4204.102461,4238.974255,4210.769128,4221.538358
74,0,4197.435795,4231.794768,4248.205024,4183.589641,4217.435794,4186.666564,4219.999897,4218.461435,4217.948615,4219.487076,4204.102461,4250.256306,4221.025538,4229.743486
75,0,4199.999897,4245.640922,4252.820409,4211.794769,4235.897332,4199.487077,4233.33323,4224.102461,4229.230666,4236.922973,4208.205025,4258.461434,4224.615281,4250.256306
76,0,4197.435795,4249.230665,4239.999896,4217.948615,4236.922973,4199.487077,4233.33323,4226.153743,4223.07682,4234.358871,4210.256307,4249.743486,4217.435794,4242.051178
77,0,4189.230667,4228.205025,4229.230666,4198.461436,4218.461435,4188.717846,4224.102461,4220.512717,4213.33323,4215.384512,4205.128102,4235.897332,4205.128102,4211.794769
78,0,4182.564,4206.153743,4234.871691,4191.281949,4214.871692,4189.230667,4223.07682,4217.948615,4213.846051,4213.846051,4199.999897,4228.205025,4201.025538,4198.461436
79,0,4182.05118,4209.743487,4232.307589,4191.794769,4218.461435,4197.948615,4232.307589,4224.102461,4218.461435,4216.922974,4197.435795,4227.179384,4203.589641,4201.538359
80,0,4183.076821,4224.102461,4214.871692,4187.179385,4218.461435,4191.794769,4234.871691,4228.717845,4217.948615,4217.435794,4199.487077,4225.128102,4204.102461,4199.487077
81,0,4181.538359,4211.794769,4219.999897,4178.974257,4213.846051,4185.640923,4226.666563,4226.153743,4213.33323,4213.846051,4199.487077,4221.538358,4198.461436,4186.153744
82,0,4167.179385,4209.743487,4225.128102,4171.79477,4220.512717,4195.384513,4224.615281,4225.128102,4216.410153,4213.846051,4195.897333,4219.999897,4199.487077,4179.487077
83,0,4164.615283,4229.743486,4214.871692,4188.717846,4232.307589,4204.102461,4225.640922,4226.153743,4221.538358,4220.512717,4199.487077,4221.538358,4204.615282,4185.128103
84,0,4181.538359,4231.281948,4222.563999,4215.384512,4230.256307,4195.384513,4224.102461,4222.563999,4216.410153,4222.563999,4207.179384,4223.58964,4205.640923,4183.589641
85,0,4183.076821,4216.922974,4234.871691,4194.358872,4216.410153,4190.256308,4223.07682,4218.974256,4207.692205,4208.717846,4204.615282,4225.640922,4200.512718,4171.281949
86,0,4162.564001,4224.615281,4221.025538,4159.999898,4218.974256,4194.871692,4223.07682,4214.871692,4210.769128,4206.153743,4196.410154,4225.640922,4200.512718,4169.743488
87,0,4174.358872,4229.743486,4221.538358,4177.948616,4226.153743,4193.333231,4219.487076,4215.384512,4214.358871,4216.410153,4194.358872,4223.58964,4202.564,4171.79477
88,0,4189.743487,4217.948615,4232.820409,4212.82041,4223.58964,4190.769128,4223.07682,4221.538358,4211.794769,4222.563999,4198.461436,4222.563999,4201.538359,4162.05118
89,0,4174.358872,4219.487076,4208.717846,4195.384513,4218.461435,4193.846051,4227.179384,4224.102461,4210.769128,4219.487076,4197.948615,4217.435794,4198.461436,4155.897334
90,0,4155.897334,4231.281948,4195.897333,4170.256308,4215.384512,4188.717846,4223.58964,4222.563999,4211.281948,4215.384512,4195.384513,4211.794769,4198.974256,4164.615283
91,0,4171.281949,4221.538358,4219.487076,4186.666564,4209.743487,4185.128103,4223.58964,4224.615281,4211.794769,4207.179384,4194.871692,4212.82041,4195.384513,4169.230667
92,0,4172.820411,4207.692205,4218.461435,4195.384513,4212.82041,4189.230667,4225.128102,4225.640922,4210.256307,4202.051179,4195.384513,4213.846051,4189.230667,4159.999898
93,0,4164.102462,4218.974256,4199.487077,4182.564,4224.615281,4187.692205,4224.615281,4224.102461,4210.256307,4210.769128,4198.974256,4212.82041,4192.82041,4156.922975
94,0,4172.820411,4235.897332,4207.692205,4184.102462,4225.640922,4186.666564,4224.615281,4221.025538,4210.769128,4222.563999,4204.102461,4216.922974,4201.025538,4162.05118
95,0,4179.999898,4229.230666,4219.487076,4189.230667,4216.922974,4192.30759,4224.102461,4216.922974,4210.256307,4223.58964,4206.666564,4219.999897,4203.07682,4164.102462
96,0,4169.230667,4226.666563,4212.307589,4186.666564,4221.025538,4195.897333,4221.538358,4216.922974,4211.794769,4220.512717,4204.615282,4219.999897,4203.589641,4163.589642
97,0,4168.717847,4233.84605,4211.794769,4191.794769,4229.743486,4192.82041,4216.922974,4215.384512,4208.717846,4222.051179,4198.974256,4220.512717,4201.538359,4166.153744
98,0,4178.974257,4229.743486,4217.948615,4191.794769,4222.051179,4190.256308,4213.33323,4211.281948,4200.512718,4217.435794,4194.358872,4222.563999,4191.794769,4168.205026
99,0,4179.999898,4241.538358,4212.82041,4192.30759,4220.512717,4190.256308,4218.461435,4216.410153,4203.589641,4222.051179,4201.538359,4222.563999,4197.948615,4175.897334
100,0,4188.717846,4266.153742,4218.974256,4206.153743,4226.666563,4194.871692,4228.717845,4224.615281,4212.307589,4229.743486,4208.717846,4225.128102,4212.82041,4181.025539
101,0,4199.999897,4262.051178,4235.897332,4195.897333,4222.563999,4190.256308,4230.256307,4228.205025,4213.33323,4230.256307,4207.692205,4232.307589,4215.384512,4182.564
102,0,4196.410154,4247.692204,4229.230666,4178.974257,4219.999897,4189.230667,4230.769127,4234.358871,4216.922974,4237.435794,4213.33323,4239.999896,4216.410153,4184.615282
103,0,4190.769128,4260.512716,4209.230666,4200.512718,4231.794768,4195.897333,4236.410153,4235.897332,4223.07682,4247.692204,4219.999897,4239.999896,4222.051179,4186.666564
104,0,4207.692205,4261.538357,4226.666563,4211.281948,4229.743486,4198.461436,4236.922973,4227.692204,4215.384512,4230.256307,4213.33323,4238.974255,4219.487076,4185.640923
105,0,4200.512718,4242.051178,4238.461435,4198.974256,4221.025538,4193.846051,4225.640922,4221.538358,4208.205025,4218.461435,4208.205025,4235.897332,4214.358871,4185.128103
106,0,4184.102462,4242.051178,4213.33323,4205.128102,4223.07682,4194.358872,4219.999897,4223.07682,4209.743487,4227.692204,4211.281948,4229.230666,4207.692205,4183.076821
107,0,4189.743487,4255.384511,4208.205025,4197.948615,4229.743486,4196.410154,4222.051179,4221.025538,4209.230666,4232.820409,4211.281948,4226.153743,4207.179384,4183.076821
108,0,4201.538359,4257.948614,4221.025538,4177.948616,4231.281948,4191.794769,4216.922974,4214.871692,4204.615282,4227.179384,4207.692205,4228.205025,4210.256307,4184.615282
109,0,4193.846051,4259.999896,4210.769128,4193.333231,4232.820409,4189.743487,4212.82041,4211.281948,4202.564,4226.153743,4208.205025,4228.205025,4207.179384,4187.179385
110,0,4205.128102,4257.435793,4219.999897,4210.769128,4233.84605,4197.948615,4221.538358,4218.974256,4209.230666,4232.307589,4217.435794,4233.84605,4213.846051,4199.999897
111,0,4217.948615,4249.743486,4243.58964,4210.769128,4235.897332,4199.999897,4229.230666,4228.717845,4219.487076,4242.563999,4227.179384,4241.538358,4234.871691,4202.564
112,0,4201.025538,4249.230665,4220.512717,4209.230666,4238.974255,4192.82041,4227.692204,4231.281948,4219.487076,4247.179383,4220.512717,4238.974255,4234.358871,4190.769128
113,0,4190.769128,4255.897332,4205.128102,4205.128102,4237.948614,4195.384513,4229.743486,4231.794768,4217.435794,4238.974255,4216.410153,4234.358871,4221.538358,4190.769128
114,0,4203.589641,4250.256306,4230.256307,4197.435795,4231.794768,4199.487077,4229.743486,4228.717845,4218.974256,4231.281948,4222.051179,4230.256307,4221.025538,4191.281949
115,0,4197.435795,4238.974255,4220.512717,4198.461436,4221.025538,4192.82041,4219.487076,4221.025538,4214.358871,4227.179384,4213.33323,4219.999897,4216.410153,4174.358872
116,0,4183.076821,4248.717845,4193.333231,4196.922974,4222.051179,4189.743487,4214.358871,4220.512717,4212.307589,4230.256307,4204.615282,4218.974256,4214.871692,4173.846052
117,0,4197.435795,4248.717845,4215.384512,4188.717846,4227.692204,4192.82041,4216.410153,4218.974256,4210.769128,4227.692204,4208.717846,4231.281948,4217.948615,4183.589641
118,0,4209.230666,4232.307589,4230.769127,4192.30759,4226.153743,4190.256308,4213.846051,4213.846051,4205.640923,4218.461435,4211.281948,4233.33323,4215.897333,4184.102462
119,0,4195.897333,4233.84605,4204.615282,4200.512718,4218.974256,4187.692205,4209.743487,4215.384512,4207.179384,4216.922974,4209.230666,4224.615281,4216.922974,4188.205026
120,0,4183.589641,4248.205024,4195.384513,4203.589641,4218.974256,4183.589641,4209.743487,4215.384512,4207.179384,4220.512717,4210.256307,4224.615281,4221.025538,4194.871692
121,0,4190.256308,4243.076819,4212.82041,4201.025538,4221.025538,4184.102462,4212.307589,4215.384512,4204.102461,4218.461435,4209.743487,4234.358871,4216.410153,4187.179385
122,0,4190.769128,4238.974255,4207.692205,4202.564,4223.58964,4188.717846,4213.33323,4221.538358,4214.358871,4224.102461,4211.281948,4235.384512,4219.487076,4184.615282
123,0,4194.358872,4246.153742,4199.999897,4205.640923,4221.025538,4193.333231,4209.743487,4223.07682,4218.461435,4225.640922,4217.435794,4228.717845,4228.717845,4196.922974
124,0,4198.974256,4246.153742,4214.358871,4206.666564,4213.846051,4190.256308,4208.205025,4215.897333,4207.179384,4224.102461,4214.358871,4225.128102,4220.512717,4198.974256
125,0,4201.025538,4231.794768,4223.07682,4210.769128,4210.256307,4188.717846,4211.794769,4215.384512,4206.153743,4224.102461,4204.102461,4223.07682,4206.666564,4183.076821
126,0,4193.333231,4226.666563,4213.846051,4208.205025,4217.948615,4190.769128,4215.897333,4219.487076,4214.871692,4225.640922,4207.692205,4229.743486,4215.897333,4185.128103
127,0,4188.717846,4248.717845,4202.051179,4205.128102,4224.615281,4195.384513,4217.948615,4223.07682,4215.384512,4232.307589,4222.563999,4239.999896,4233.84605,4203.07682
128,0,4180.512718,4267.179383,4198.974256,4211.281948,4224.615281,4197.435795,4221.538358,4226.153743,4214.871692,4240.512717,4226.153743,4239.999896,4237.948614,4200.512718
0,0,4185.640923,4256.922973,4212.307589,4208.205025,4223.58964,4196.410154,4222.051179,4224.615281,4213.846051,4235.384512,4222.563999,4239.487076,4238.461435,4197.435795
1,0,4197.948615,4257.435793,4221.025538,4210.769128,4230.769127,4196.922974,4219.999897,4221.538358,4208.717846,4230.769127,4227.692204,4249.743486,4242.563999,4212.82041
2,0,4199.487077,4263.076819,4209.743487,4223.07682,4232.820409,4195.384513,4218.974256,4220.512717,4207.692205,4236.922973,4229.230666,4250.769127,4234.871691,4212.82041
3,0,4182.05118,4236.922973,4200.512718,4203.589641,4216.922974,4190.769128,4213.33323,4216.410153,4208.205025,4226.153743,4220.512717,4234.871691,4222.051179,4195.384513
4,0,4177.435795,4227.692204,4202.051179,4189.743487,4208.717846,4191.281949,4210.256307,4212.307589,4207.692205,4211.794769,4219.999897,4227.179384,4224.615281,4197.435795
5,0,4188.205026,4242.563999,4196.922974,4217.948615,4212.82041,4195.384513,4216.410153,4216.922974,4209.230666,4215.384512,4218.461435,4224.615281,4222.051179,4197.435795
6,0,4183.589641,4235.897332,4190.769128,4226.666563,4217.435794,4199.487077,4219.999897,4222.563999,4211.281948,4224.615281,4211.794769,4219.487076,4208.205025,4185.128103
7,0,4169.743488,4231.281948,4193.846051,4202.051179,4217.948615,4199.999897,4217.948615,4223.58964,4211.281948,4224.102461,4214.871692,4225.128102,4213.846051,4189.230667
8,0,4166.153744,4245.640922,4195.384513,4203.07682,4216.922974,4196.410154,4214.871692,4228.205025,4216.922974,4225.640922,4223.07682,4236.922973,4230.769127,4204.102461
9,0,4181.025539,4241.538358,4196.922974,4223.07682,4216.922974,4195.384513,4216.922974,4235.897332,4217.948615,4229.230666,4224.102461,4239.999896,4227.692204,4204.615282
10,0,4184.615282,4226.666563,4206.666564,4215.384512,4225.640922,4198.974256,4218.974256,4232.820409,4209.230666,4229.230666,4221.025538,4235.897332,4224.102461,4204.615282
11,0,4177.435795,4225.128102,4210.769128,4194.358872,4219.999897,4199.487077,4215.897333,4224.102461,4208.205025,4224.615281,4218.461435,4238.461435,4228.717845,4205.128102
12,0,4173.333231,4232.820409,4193.333231,4206.153743,4206.153743,4187.692205,4212.307589,4221.025538,4214.358871,4219.487076,4220.512717,4238.974255,4229.230666,4198.461436
13,0,4178.461436,4231.281948,4187.179385,4227.692204,4209.230666,4184.102462,4212.82041,4222.563999,4211.794769,4211.281948,4222.563999,4231.794768,4226.153743,4199.487077
14,0,4174.358872,4229.743486,4201.025538,4219.487076,4221.025538,4191.794769,4214.358871,4219.487076,4206.153743,4213.33323,4219.487076,4229.230666,4220.512717,4205.640923
15,0,4179.999898,4236.922973,4202.051179,4206.153743,4216.922974,4200.512718,4214.871692,4218.974256,4208.205025,4221.025538,4221.538358,4236.922973,4217.948615,4196.410154
16,0,4182.05118,4237.948614,4189.230667,4209.743487,4212.307589,4199.487077,4217.435794,4223.07682,4209.230666,4217.435794,4225.640922,4235.897332,4225.640922,4186.666564
17,0,4166.666565,4226.153743,4180.512718,4205.640923,4209.230666,4196.410154,4214.358871,4224.102461,4208.717846,4211.281948,4213.33323,4222.051179,4223.07682,4183.589641
18,0,4155.897334,4222.563999,4184.102462,4204.615282,4210.256307,4198.461436,4213.846051,4226.666563,4215.897333,4216.922974,4207.179384,4217.435794,4217.435794,4187.179385
19,0,4175.384513,4225.640922,4199.999897,4211.794769,4216.922974,4203.07682,4221.538358,4231.794768,4219.487076,4222.051179,4222.051179,4230.256307,4228.717845,4202.051179
20,0,4183.076821,4226.666563,4206.153743,4205.640923,4218.461435,4205.128102,4224.615281,4230.256307,4217.435794,4223.07682,4228.205025,4239.487076,4234.358871,4207.179384
21,0,4175.897334,4238.974255,4190.769128,4214.871692,4219.487076,4203.589641,4221.025538,4225.128102,4216.410153,4225.640922,4222.051179,4228.717845,4229.743486,4197.948615
22,0,4176.410154,4241.538358,4189.743487,4237.948614,4224.102461,4201.538359,4214.871692,4224.102461,4215.384512,4225.640922,4221.538358,4221.025538,4232.307589,4205.640923
23,0,4181.538359,4221.538358,4205.128102,4225.640922,4223.07682,4199.487077,4211.794769,4224.102461,4211.281948,4222.051179,4223.07682,4231.794768,4231.281948,4220.512717
24,0,4174.358872,4216.410153,4201.538359,4204.102461,4222.051179,4204.102461,4216.922974,4224.102461,4214.358871,4219.999897,4222.563999,4242.563999,4225.128102,4205.128102
25,0,4164.615283,4233.33323,4183.589641,4216.922974,4229.230666,4208.205025,4221.538358,4225.128102,4217.435794,4225.640922,4227.179384,4236.922973,4232.307589,4189.743487
26,0,4171.281949,4233.33323,4188.205026,4232.820409,4222.563999,4203.589641,4214.871692,4221.025538,4213.846051,4224.102461,4227.179384,4232.307589,4231.794768,4203.07682
27,0,4177.435795,4219.999897,4203.07682,4227.179384,4212.307589,4197.435795,4212.307589,4218.461435,4215.897333,4225.128102,4224.615281,4239.999896,4218.974256,4213.846051
28,0,4176.410154,4221.025538,4200.512718,4214.871692,4213.33323,4197.948615,4216.922974,4221.538358,4217.948615,4231.281948,4223.58964,4239.487076,4220.512717,4200.512718
29,0,4174.871693,4225.640922,4194.358872,4214.871692,4212.82041,4196.410154,4211.794769,4222.051179,4211.281948,4230.256307,4218.461435,4227.179384,4229.743486,4195.384513
30,0,4177.435795,4225.640922,4195.384513,4214.871692,4209.743487,4197.948615,4206.153743,4221.538358,4206.666564,4217.948615,4208.205025,4218.974256,4223.58964,4195.897333
31,0,4161.025539,4234.871691,4188.205026,4207.692205,4222.051179,4201.025538,4211.794769,4223.07682,4212.307589,4219.487076,4210.769128,4222.051179,4222.051179,4194.358872
32,0,4152.820411,4227.692204,4190.769128,4210.769128,4223.58964,4197.948615,4213.33323,4223.07682,4210.769128,4219.487076,4221.025538,4230.256307,4225.128102,4198.974256
33,0,4160.512719,4211.281948,4196.410154,4228.205025,4211.281948,4195.384513,4204.102461,4216.922974,4205.128102,4207.692205,4221.025538,4230.769127,4218.461435,4195.897333
34,0,4163.076821,4211.794769,4186.153744,4222.051179,4208.205025,4198.461436,4196.410154,4210.769128,4206.153743,4205.128102,4213.846051,4217.435794,4210.769128,4180.512718
35,0,4147.692206,4221.538358,4174.358872,4209.230666,4210.769128,4199.487077,4201.025538,4211.281948,4205.128102,4208.205025,4209.743487,4208.205025,4211.281948,4178.461436
36,0,4154.871693,4217.435794,4190.769128,4212.82041,4206.153743,4198.974256,4208.205025,4214.358871,4205.640923,4207.692205,4215.384512,4223.07682,4217.948615,4192.30759
37,0,4165.128103,4216.410153,4206.666564,4208.205025,4208.205025,4197.435795,4209.743487,4214.871692,4214.871692,4219.487076,4223.58964,4234.871691,4229.230666,4193.846051
38,0,4158.974257,4217.948615,4193.333231,4214.871692,4212.307589,4195.897333,4203.07682,4214.871692,4215.384512,4230.769127,4224.102461,4231.794768,4232.820409,4192.82041
39,0,4153.846052,4215.897333,4178.974257,4232.820409,4214.358871,4196.410154,4202.051179,4214.358871,4206.666564,4227.692204,4222.563999,4231.794768,4228.717845,4198.461436
40,0,4160.512719,4215.384512,4186.153744,4217.435794,4214.358871,4187.179385,4207.692205,4214.871692,4206.666564,4219.999897,4223.07682,4229.230666,4226.153743,4195.384513
41,0,4158.974257,4217.435794,4194.358872,4203.07682,4208.205025,4174.871693,4209.743487,4221.025538,4211.281948,4216.410153,4219.487076,4222.563999,4218.461435,4181.538359
42,0,4149.230668,4215.897333,4184.615282,4216.410153,4207.692205,4174.358872,4210.769128,4225.640922,4210.769128,4219.999897,4216.922974,4223.07682,4214.871692,4183.589641
43,0,4148.205027,4214.358871,4176.922975,4218.461435,4211.281948,4179.999898,4215.897333,4223.58964,4211.281948,4221.025538,4217.435794,4221.538358,4223.07682,4189.743487
44,0,4152.820411,4212.82041,4190.256308,4208.717846,4211.281948,4179.999898,4218.461435,4224.102461,4213.33323,4220.512717,4218.974256,4218.461435,4228.717845,4181.538359
45,0,4154.871693,4205.128102,4206.666564,4206.153743,4206.153743,4177.948616,4216.922974,4224.102461,4211.281948,4219.487076,4221.025538,4230.256307,4226.666563,4179.999898
46,0,4149.230668,4202.051179,4197.435795,4212.307589,4209.743487,4169.743488,4207.179384,4213.846051,4208.205025,4222.051179,4218.461435,4234.358871,4223.07682,4197.435795
47,0,4150.769129,4217.948615,4181.538359,4227.179384,4211.794769,4166.153744,4199.999897,4208.205025,4208.717846,4221.538358,4212.307589,4224.615281,4221.538358,4202.564
48,0,4159.487078,4241.025537,4187.692205,4232.307589,4214.358871,4172.30759,4204.615282,4212.82041,4211.281948,4228.717845,4218.461435,4226.666563,4225.640922,4199.487077
49,0,4172.30759,4246.153742,4202.051179,4225.128102,4219.487076,4181.025539,4215.384512,4219.487076,4213.846051,4234.871691,4226.666563,4234.358871,4229.743486,4203.589641
50,0,4169.230667,4243.076819,4203.589641,4228.717845,4223.58964,4179.999898,4218.461435,4223.58964,4219.999897,4233.84605,4223.58964,4231.281948,4227.692204,4208.717846
51,0,4166.153744,4228.717845,4204.102461,4228.205025,4214.358871,4176.922975,4213.846051,4225.128102,4219.487076,4229.230666,4219.487076,4229.230666,4223.58964,4201.538359
52,0,4163.076821,4207.179384,4201.538359,4218.974256,4202.564,4175.897334,4206.153743,4217.948615,4208.717846,4221.538358,4214.358871,4223.58964,4216.410153,4181.538359
53,0,4160.512719,4207.692205,4198.461436,4207.179384,4206.153743,4174.358872,4201.538359,4211.794769,4203.07682,4204.615282,4206.666564,4217.435794,4204.615282,4172.820411
54,0,4148.205027,4219.487076,4199.999897,4202.564,4214.358871,4174.358872,4206.666564,4215.897333,4207.179384,4200.512718,4206.666564,4220.512717,4206.666564,4179.999898
55,0,4152.820411,4217.948615,4202.564,4221.538358,4208.205025,4177.435795,4208.205025,4222.563999,4208.717846,4212.82041,4215.897333,4229.743486,4223.07682,4189.230667
56,0,4163.589642,4225.640922,4204.102461,4235.897332,4204.615282,4177.948616,4206.153743,4221.025538,4207.692205,4218.461435,4217.948615,4235.384512,4230.256307,4196.410154
57,0,4164.102462,4234.871691,4202.564,4227.692204,4212.307589,4177.435795,4210.769128,4218.461435,4210.256307,4215.897333,4211.794769,4228.205025,4219.999897,4191.281949
58,0,4153.333232,4226.666563,4200.512718,4227.692204,4213.33323,4181.025539,4215.897333,4221.538358,4211.281948,4217.948615,4207.692205,4216.410153,4215.897333,4182.05118
59,0,4147.179386,4228.717845,4202.564,4229.230666,4210.256307,4182.564,4214.871692,4222.563999,4211.794769,4222.563999,4209.230666,4213.33323,4222.563999,4183.076821
60,0,4147.179386,4241.025537,4199.999897,4217.948615,4210.769128,4175.897334,4214.358871,4219.487076,4210.769128,4222.051179,4210.769128,4214.871692,4217.435794,4176.922975
61,0,4149.743488,4228.717845,4196.410154,4219.999897,4213.33323,4173.333231,4214.358871,4218.974256,4207.692205,4220.512717,4211.281948,4215.384512,4210.769128,4169.743488
62,0,4147.692206,4209.230666,4198.461436,4227.692204,4211.281948,4179.999898,4214.358871,4222.051179,4206.153743,4210.769128,4209.230666,4218.974256,4212.82041,4179.999898
63,0,4139.487078,4219.999897,4197.435795,4219.487076,4216.410153,4185.640923,4222.563999,4222.563999,4207.692205,4210.769128,4205.640923,4217.435794,4222.563999,4186.153744
64,0,4142.051181,4244.10246,4193.333231,4228.717845,4226.153743,4187.692205,4228.205025,4224.615281,4213.33323,4227.692204,4207.692205,4217.435794,4234.358871,4183.589641
65,0,4152.307591,4248.717845,4201.025538,4247.179383,4229.230666,4185.640923,4219.999897,4229.230666,4221.538358,4239.999896,4215.897333,4226.153743,4241.538358,4196.922974
66,0,4156.410155,4227.179384,4207.179384,4232.820409,4220.512717,4186.153744,4215.384512,4224.615281,4217.435794,4233.33323,4216.410153,4223.07682,4232.820409,4195.897333
67,0,4149.743488,4225.640922,4204.102461,4219.487076,4223.07682,4189.230667,4217.435794,4215.897333,4208.205025,4225.640922,4214.358871,4219.487076,4225.128102,4186.666564
68,0,4153.333232,4231.794768,4208.205025,4230.769127,4226.666563,4192.30759,4217.948615,4216.410153,4209.230666,4222.051179,4219.999897,4232.307589,4231.281948,4199.487077
69,0,4154.358873,4224.615281,4207.179384,4238.461435,4218.974256,4186.666564,4215.897333,4221.538358,4213.33323,4223.07682,4223.07682,4235.897332,4236.922973,4211.281948
70,0,4153.846052,4224.102461,4204.615282,4228.717845,4213.33323,4184.615282,4216.410153,4221.025538,4209.230666,4218.974256,4217.435794,4227.692204,4230.769127,4196.922974
71,0,4141.02554,4217.948615,4205.640923,4209.230666,4218.461435,4184.102462,4216.922974,4213.33323,4204.615282,4206.666564,4209.230666,4219.999897,4219.487076,4176.410154
72,0,4133.846053,4206.666564,4196.410154,4203.589641,4217.948615,4184.615282,4215.384512,4215.384512,4205.640923,4201.025538,4204.102461,4211.281948,4212.307589,4172.30759
73,0,4137.435796,4222.563999,4189.230667,4229.230666,4213.33323,4184.102462,4221.538358,4224.615281,4209.230666,4210.256307,4206.153743,4210.769128,4211.794769,4173.333231
74,0,4150.256309,4235.384512,4198.461436,4244.615281,4210.256307,4182.564,4225.640922,4226.153743,4213.33323,4219.487076,4215.384512,4223.07682,4219.999897,4173.333231
75,0,4147.692206,4221.025538,4204.615282,4228.717845,4210.769128,4186.666564,4222.563999,4220.512717,4212.82041,4220.512717,4219.999897,4227.179384,4230.769127,4182.564
76,0,4145.640924,4216.410153,4202.564,4223.07682,4215.384512,4191.794769,4219.487076,4221.538358,4209.743487,4220.512717,4215.384512,4221.538358,4220.512717,4196.410154
77,0,4150.769129,4228.205025,4203.589641,4232.820409,4221.538358,4190.256308,4218.461435,4225.128102,4212.82041,4218.461435,4211.281948,4220.512717,4203.07682,4192.82041
78,0,4151.28195,4232.307589,4197.948615,4226.666563,4224.102461,4190.256308,4220.512717,4223.58964,4215.897333,4219.999897,4216.410153,4219.999897,4217.435794,4192.30759
79,0,4149.743488,4227.179384,4200.512718,4223.07682,4216.410153,4193.333231,4221.025538,4218.974256,4211.794769,4218.974256,4219.487076,4220.512717,4234.358871,4201.538359
80,0,4158.461437,4221.538358,4215.897333,4226.153743,4215.897333,4188.205026,4217.435794,4214.871692,4207.179384,4212.82041,4217.948615,4225.640922,4223.58964,4197.948615
81,0,4164.615283,4229.230666,4214.358871,4224.102461,4221.025538,4188.205026,4212.82041,4216.922974,4209.743487,4214.358871,4221.025538,4233.33323,4220.512717,4191.794769
82,0,4162.05118,4239.999896,4204.615282,4238.461435,4221.025538,4192.30759,4218.974256,4219.487076,4211.281948,4227.692204,4226.153743,4233.84605,4232.820409,4201.025538
83,0,4169.230667,4230.256307,4210.256307,4256.410152,4219.999897,4189.743487,4223.07682,4221.025538,4213.33323,4226.153743,4224.615281,4234.871691,4224.615281,4208.717846
84,0,4167.692206,4223.07682,4212.82041,4248.205024,4229.230666,4189.230667,4219.487076,4223.07682,4216.410153,4212.82041,4226.153743,4239.999896,4212.82041,4204.102461
85,0,4163.589642,4230.256307,4207.692205,4233.84605,4231.281948,4195.897333,4221.538358,4223.58964,4214.358871,4209.743487,4223.07682,4236.922973,4218.461435,4199.487077
86,0,4164.102462,4244.10246,4203.07682,4243.076819,4232.820409,4197.435795,4228.717845,4224.615281,4217.435794,4224.615281,4216.410153,4231.281948,4230.769127,4207.179384
87,0,4170.769129,4247.179383,4207.179384,4252.307588,4232.820409,4192.30759,4226.666563,4226.153743,4218.974256,4226.666563,4217.435794,4235.384512,4234.871691,4210.256307
88,0,4177.948616,4237.435794,4219.999897,4250.256306,4223.07682,4186.666564,4217.948615,4221.538358,4209.743487,4221.538358,4219.999897,4238.974255,4231.281948,4211.794769
89,0,4189.230667,4233.84605,4223.07682,4255.897332,4224.615281,4195.384513,4221.538358,4222.563999,4209.743487,4230.256307,4223.07682,4238.461435,4231.794768,4228.205025
90,0,4183.076821,4244.10246,4210.769128,4252.820409,4238.974255,4208.205025,4229.743486,4227.692204,4222.051179,4239.999896,4228.205025,4238.974255,4232.307589,4236.410153
91,0,4180.512718,4241.538358,4211.794769,4234.358871,4230.256307,4210.769128,4224.615281,4226.153743,4219.999897,4227.692204,4222.563999,4235.897332,4223.07682,4211.281948
92,0,4183.076821,4235.384512,4214.871692,4246.666563,4217.948615,4206.666564,4221.538358,4221.538358,4214.358871,4219.487076,4216.410153,4231.794768,4220.512717,4198.974256
93,0,4182.564,4238.461435,4206.153743,4251.794768,4225.640922,4207.179384,4225.640922,4220.512717,4217.948615,4227.692204,4224.102461,4230.256307,4225.128102,4212.82041
94,0,4175.384513,4233.33323,4200.512718,4222.051179,4231.281948,4210.256307,4222.563999,4221.025538,4215.897333,4224.102461,4227.692204,4224.102461,4219.999897,4209.743487
95,0,4181.025539,4219.487076,4207.179384,4227.179384,4224.615281,4214.358871,4218.974256,4221.538358,4209.743487,4214.358871,4222.051179,4220.512717,4214.358871,4198.461436
96,0,4192.30759,4218.461435,4213.846051,4263.589639,4220.512717,4215.897333,4222.051179,4221.538358,4211.281948,4214.358871,4222.051179,4223.07682,4212.307589,4196.922974
97,0,4189.743487,4231.281948,4208.717846,4246.153742,4225.640922,4212.82041,4218.461435,4223.07682,4213.846051,4214.871692,4223.07682,4224.102461,4206.153743,4197.435795
98,0,4177.948616,4237.435794,4201.025538,4218.974256,4225.128102,4209.743487,4212.307589,4223.58964,4213.33323,4208.205025,4220.512717,4221.538358,4199.487077,4194.871692
99,0,4182.05118,4238.974255,4207.692205,4245.128101,4226.153743,4213.846051,4218.461435,4220.512717,4215.897333,4216.410153,4225.640922,4223.58964,4207.179384,4202.051179
100,0,4196.922974,4249.743486,4214.871692,4264.61528,4234.871691,4218.461435,4228.205025,4222.051179,4219.999897,4232.307589,4232.307589,4230.256307,4217.948615,4215.384512
101,0,4191.794769,4256.410152,4206.153743,4254.871691,4236.410153,4213.33323,4222.051179,4226.153743,4219.487076,4237.948614,4237.435794,4229.743486,4219.999897,4217.435794
102,0,4188.205026,4235.384512,4208.717846,4233.84605,4221.025538,4212.307589,4214.871692,4223.07682,4215.897333,4234.358871,4241.538358,4224.615281,4219.487076,4209.743487
103,0,4193.846051,4215.384512,4220.512717,4219.487076,4219.487076,4215.897333,4218.974256,4216.410153,4215.384512,4227.692204,4236.922973,4224.102461,4216.922974,4213.33323
104,0,4197.435795,4224.102461,4213.33323,4237.948614,4230.256307,4218.461435,4222.051179,4221.025538,4217.435794,4216.410153,4227.179384,4224.615281,4210.769128,4210.769128
105,0,4187.692205,4230.256307,4201.025538,4252.307588,4227.692204,4215.384512,4220.512717,4226.153743,4218.974256,4216.922974,4226.153743,4218.461435,4210.256307,4186.153744
106,0,4186.153744,4215.897333,4207.692205,4229.230666,4219.487076,4210.769128,4219.999897,4222.051179,4214.871692,4223.58964,4227.692204,4215.897333,4210.769128,4174.871693
107,0,4190.769128,4217.948615,4212.82041,4225.640922,4226.666563,4208.717846,4219.999897,4220.512717,4216.410153,4230.256307,4227.692204,4222.563999,4211.281948,4189.743487
108,0,4203.07682,4237.435794,4209.230666,4253.333229,4231.794768,4218.461435,4223.07682,4226.666563,4223.58964,4234.871691,4232.820409,4233.33323,4218.461435,4204.102461
109,0,4205.640923,4238.974255,4213.846051,4252.820409,4227.179384,4219.999897,4224.102461,4226.666563,4221.025538,4232.307589,4234.358871,4235.384512,4219.999897,4209.743487
110,0,4201.538359,4217.948615,4216.410153,4231.281948,4217.948615,4210.256307,4214.358871,4221.538358,4211.281948,4219.487076,4222.051179,4222.051179,4206.153743,4199.487077
111,0,4192.82041,4214.358871,4203.589641,4233.84605,4221.538358,4213.846051,4212.307589,4221.025538,4210.256307,4212.307589,4218.974256,4215.897333,4206.666564,4186.666564
112,0,4192.30759,4233.33323,4201.538359,4243.076819,4233.84605,4221.025538,4222.563999,4223.58964,4216.410153,4213.33323,4224.102461,4224.102461,4217.948615,4195.897333
113,0,4189.230667,4240.512717,4212.307589,4224.615281,4229.230666,4214.871692,4222.563999,4224.615281,4213.846051,4218.461435,4217.435794,4221.538358,4215.384512,4199.487077
114,0,4188.205026,4223.07682,4210.256307,4208.205025,4218.461435,4212.82041,4216.922974,4224.615281,4209.230666,4225.640922,4210.769128,4212.307589,4206.666564,4187.692205
115,0,4194.871692,4216.410153,4207.692205,4227.179384,4219.487076,4217.435794,4220.512717,4222.563999,4211.281948,4224.615281,4218.974256,4217.948615,4206.153743,4192.30759
116,0,4196.922974,4231.794768,4210.256307,4248.205024,4221.538358,4216.410153,4221.538358,4222.563999,4213.846051,4221.538358,4223.58964,4220.512717,4217.435794,4205.128102
117,0,4195.897333,4235.384512,4206.666564,4242.563999,4218.461435,4216.922974,4216.922974,4224.102461,4212.307589,4219.999897,4211.281948,4211.281948,4216.922974,4196.922974
118,0,4205.640923,4235.384512,4208.717846,4245.640922,4228.717845,4218.461435,4215.384512,4223.07682,4210.769128,4224.615281,4212.307589,4217.948615,4204.615282,4195.384513
119,0,4207.692205,4242.051178,4214.358871,4249.230665,4236.410153,4216.922974,4218.461435,4224.615281,4212.82041,4227.179384,4223.07682,4226.153743,4208.205025,4202.564
120,0,4193.333231,4238.461435,4208.205025,4229.230666,4231.794768,4216.410153,4219.999897,4226.666563,4216.410153,4228.205025,4219.999897,4217.435794,4224.615281,4197.435795
121,0,4197.435795,4229.743486,4203.589641,4231.281948,4226.153743,4221.025538,4216.922974,4222.051179,4215.897333,4224.102461,4210.256307,4216.410153,4221.025538,4195.384513
122,0,4209.230666,4228.717845,4213.33323,4242.563999,4223.58964,4217.948615,4217.948615,4217.435794,4211.281948,4221.025538,4209.743487,4222.563999,4209.743487,4199.999897
123,0,4208.717846,4219.487076,4222.563999,4227.179384,4223.07682,4214.871692,4222.563999,4221.538358,4208.717846,4221.538358,4211.794769,4219.999897,4216.410153,4200.512718
124,0,4204.102461,4217.948615,4216.922974,4231.794768,4232.307589,4221.025538,4224.615281,4226.666563,4216.410153,4229.230666,4212.82041,4223.07682,4224.615281,4204.615282
125,0,4218.974256,4230.769127,4213.33323,4263.076819,4233.33323,4224.615281,4223.58964,4225.640922,4224.102461,4233.33323,4214.358871,4236.410153,4222.051179,4213.846051
126,0,4219.487076,4229.743486,4217.435794,4256.410152,4226.153743,4217.948615,4222.563999,4224.615281,4218.461435,4227.179384,4212.307589,4236.410153,4221.025538,4209.230666
127,0,4218.461435,4217.948615,4218.461435,4233.84605,4226.153743,4213.846051,4218.974256,4227.179384,4210.256307,4219.999897,4210.256307,4232.307589,4220.512717,4199.999897
128,0,4224.615281,4230.256307,4215.384512,4245.128101,4233.84605,4217.435794,4222.051179,4227.179384,4213.33323,4229.743486,4215.897333,4240.512717,4227.179384,4215.384512
0,0,4229.743486,4239.487076,4223.58964,4246.153742,4234.358871,4222.051179,4224.615281,4225.640922,4217.435794,4243.076819,4218.974256,4241.538358,4234.358871,4230.769127
1,0,4225.640922,4229.743486,4230.256307,4235.897332,4231.281948,4225.128102,4221.538358,4225.640922,4216.410153,4241.538358,4212.307589,4231.281948,4233.84605,4220.512717
2,0,4227.692204,4236.410153,4220.512717,4252.307588,4229.230666,4225.128102,4224.102461,4228.205025,4215.897333,4235.384512,4209.743487,4227.692204,4234.358871,4215.384512
3,0,4228.205025,4244.10246,4213.33323,4270.769126,4231.281948,4224.102461,4228.717845,4227.179384,4214.358871,4235.384512,4211.281948,4229.743486,4233.33323,4221.538358
4,0,4224.615281,4227.179384,4213.846051,4257.948614,4238.461435,4223.07682,4225.128102,4225.128102,4211.281948,4234.871691,4207.692205,4227.179384,4222.051179,4210.769128
5,0,4225.640922,4222.563999,4212.82041,4243.58964,4238.974255,4225.640922,4226.666563,4225.640922,4214.358871,4232.820409,4205.128102,4222.563999,4218.461435,4195.897333
6,0,4226.153743,4237.435794,4209.743487,4251.794768,4232.307589,4226.153743,4228.717845,4227.692204,4216.922974,4235.384512,4207.179384,4216.922974,4228.205025,4201.538359
7,0,4224.615281,4230.256307,4212.82041,4255.384511,4228.717845,4224.102461,4223.58964,4227.692204,4213.846051,4233.84605,4208.205025,4219.487076,4230.769127,4207.692205
8,0,4227.179384,4216.922974,4217.435794,4249.230665,4238.461435,4224.615281,4225.640922,4229.230666,4215.897333,4242.051178,4213.846051,4232.820409,4236.410153,4212.307589
9,0,4231.281948,4227.179384,4212.82041,4252.307588,4246.153742,4230.256307,4232.307589,4234.358871,4221.025538,4249.743486,4217.435794,4237.948614,4249.743486,4218.974256
10,0,4233.33323,4242.563999,4217.435794,4253.84605,4247.179383,4230.256307,4228.717845,4234.358871,4220.512717,4250.256306,4216.410153,4234.358871,4256.922973,4228.717845
11,0,4237.435794,4237.948614,4234.871691,4243.076819,4242.051178,4227.179384,4224.102461,4232.307589,4217.435794,4244.615281,4216.922974,4238.461435,4253.84605,4238.974255
12,0,4229.230666,4227.692204,4227.692204,4247.692204,4241.025537,4223.58964,4225.128102,4230.256307,4217.948615,4239.999896,4212.82041,4238.974255,4246.666563,4231.281948
13,0,4226.153743,4217.435794,4211.794769,4262.563998,4241.538358,4224.102461,4226.153743,4225.128102,4217.435794,4234.358871,4204.615282,4233.84605,4236.410153,4212.307589
14,0,4227.692204,4214.358871,4218.461435,4251.281947,4246.153742,4228.205025,4227.179384,4224.615281,4215.897333,4231.281948,4204.615282,4234.871691,4235.897332,4218.461435
15,0,4230.769127,4223.58964,4223.07682,4235.897332,4242.563999,4229.743486,4228.205025,4228.717845,4215.897333,4233.84605,4207.179384,4236.922973,4237.435794,4230.769127
16,0,4229.230666,4233.33323,4216.922974,4254.871691,4232.307589,4223.58964,4225.640922,4228.205025,4217.435794,4241.025537,4208.205025,4237.435794,4239.487076,4225.640922
17,0,4242.563999,4233.33323,4222.051179,4271.794767,4235.897332,4224.615281,4228.717845,4231.281948,4222.051179,4246.666563,4216.410153,4246.153742,4248.205024,4229.230666
18,0,4239.999896,4232.820409,4223.07682,4259.999896,4247.179383,4227.692204,4235.897332,4233.33323,4223.07682,4243.076819,4216.922974,4247.692204,4251.281947,4236.922973
19,0,4230.769127,4225.640922,4223.07682,4255.384511,4236.410153,4224.102461,4228.205025,4226.666563,4216.922974,4232.307589,4207.692205,4237.435794,4239.487076,4226.153743
20,0,4230.769127,4222.563999,4227.179384,4254.35887,4226.153743,4221.025538,4217.435794,4224.102461,4215.384512,4234.871691,4202.051179,4236.410153,4235.897332,4220.512717
21,0,4236.410153,4237.948614,4226.153743,4242.563999,4239.487076,4225.640922,4223.07682,4231.281948,4221.538358,4244.10246,4210.256307,4245.128101,4247.692204,4235.384512
22,0,4233.84605,4246.666563,4224.102461,4250.256306,4249.230665,4231.794768,4233.84605,4230.769127,4220.512717,4239.999896,4215.897333,4245.128101,4251.281947,4240.512717
23,0,4228.205025,4235.384512,4224.615281,4269.743485,4238.461435,4228.717845,4231.281948,4230.256307,4214.871692,4232.307589,4209.743487,4239.487076,4242.563999,4224.615281
24,0,4222.051179,4223.58964,4222.563999,4258.974255,4228.205025,4225.640922,4225.128102,4233.33323,4215.897333,4234.871691,4208.205025,4237.948614,4233.84605,4210.769128
25,0,4218.974256,4224.102461,4215.384512,4245.128101,4230.769127,4226.153743,4224.102461,4230.769127,4218.461435,4238.974255,4210.769128,4235.384512,4229.743486,4214.358871
26,0,4220.512717,4227.179384,4212.82041,4253.333229,4231.281948,4225.640922,4224.102461,4228.717845,4216.410153,4232.820409,4209.230666,4235.384512,4230.769127,4224.615281
27,0,4222.563999,4225.640922,4216.410153,4253.333229,4227.179384,4223.58964,4218.974256,4226.153743,4216.922974,4231.281948,4212.307589,4238.974255,4238.974255,4227.692204
28,0,4226.153743,4209.743487,4222.051179,4237.435794,4217.435794,4226.153743,4214.358871,4223.07682,4219.487076,4234.358871,4216.922974,4241.538358,4241.025537,4230.256307
29,0,4222.051179,4202.564,4218.974256,4236.922973,4220.512717,4227.692204,4218.974256,4227.179384,4223.07682,4244.10246,4216.410153,4246.666563,4242.563999,4242.051178
30,0,4222.051179,4222.051179,4217.948615,4256.922973,4231.794768,4226.666563,4227.692204,4234.358871,4224.615281,4248.717845,4213.846051,4250.769127,4246.153742,4246.153742
31,0,4225.640922,4237.948614,4219.487076,4267.692203,4234.358871,4226.153743,4229.230666,4233.84605,4223.58964,4245.640922,4214.358871,4246.666563,4247.692204,4241.538358
32,0,4230.256307,4226.153743,4218.974256,4253.84605,4229.230666,4232.307589,4225.640922,4233.84605,4221.538358,4242.563999,4217.948615,4245.128101,4244.615281,4241.538358
33,0,4221.538358,4216.410153,4214.358871,4248.717845,4233.84605,4233.33323,4226.666563,4238.461435,4221.538358,4247.179383,4222.563999,4248.717845,4245.128101,4252.820409
34,0,4222.051179,4217.435794,4217.435794,4257.948614,4235.897332,4227.692204,4228.717845,4237.435794,4220.512717,4243.58964,4218.974256,4246.666563,4246.666563,4257.948614
35,0,4233.84605,4217.948615,4228.205025,4264.61528,4230.256307,4223.58964,4224.615281,4229.230666,4217.435794,4235.384512,4215.384512,4245.128101,4239.999896,4259.999896
36,0,4249.230665,4226.153743,4231.281948,4269.743485,4234.871691,4231.794768,4225.640922,4229.743486,4221.025538,4237.948614,4219.999897,4254.871691,4243.076819,4285.640921
37,0,4249.743486,4236.922973,4232.820409,4257.435793,4244.615281,4236.922973,4232.820409,4237.435794,4225.640922,4249.230665,4227.692204,4266.666562,4263.076819,4333.333227
38,0,4265.640921,4241.025537,4248.205024,4246.666563,4238.461435,4231.794768,4234.871691,4241.538358,4225.128102,4255.897332,4236.410153,4274.87169,4276.410152,4370.256303
39,0,4289.230664,4253.84605,4249.743486,4270.769126,4229.743486,4229.230666,4232.307589,4239.999896,4222.051179,4248.205024,4239.999896,4274.35887,4271.281947,4385.640918
40,0,4291.794767,4268.717844,4232.307589,4288.205023,4234.358871,4229.230666,4225.640922,4235.384512,4223.07682,4239.487076,4237.948614,4269.743485,4267.179383,4399.487072
41,0,4281.538357,4259.487075,4228.717845,4261.538357,4232.307589,4225.128102,4213.846051,4229.230666,4224.102461,4244.615281,4236.922973,4276.410152,4273.333229,4408.717841
42,0,4290.769126,4241.538358,4243.076819,4251.794768,4221.538358,4221.538358,4210.769128,4227.179384,4220.512717,4248.717845,4240.512717,4282.563998,4276.922972,4408.20502
43,0,4295.897331,4241.025537,4246.153742,4276.922972,4221.538358,4224.102461,4217.948615,4229.743486,4218.461435,4239.487076,4238.974255,4276.922972,4269.230665,4392.307585
44,0,4278.974254,4258.461434,4235.897332,4276.410152,4231.794768,4222.563999,4217.948615,4228.717845,4219.999897,4236.410153,4236.410153,4271.281947,4262.051178,4373.333226
45,0,4269.230665,4263.589639,4236.410153,4255.384511,4231.794768,4225.128102,4217.435794,4227.692204,4222.563999,4242.051178,4237.948614,4270.769126,4264.10246,4368.717842
46,0,4271.281947,4237.948614,4247.692204,4255.897332,4225.128102,4226.666563,4218.461435,4228.205025,4220.512717,4241.538358,4236.922973,4260.512716,4265.128101,4363.589637
47,0,4270.256306,4229.743486,4244.615281,4264.61528,4221.538358,4222.051179,4213.846051,4225.640922,4215.897333,4234.871691,4233.84605,4252.820409,4258.461434,4341.025535
48,0,4257.948614,4253.84605,4229.230666,4266.666562,4233.84605,4222.051179,4219.999897,4225.640922,4217.948615,4244.10246,4237.948614,4263.589639,4260.512716,4335.384509
49,0,4255.384511,4243.58964,4236.922973,4257.948614,4235.384512,4227.179384,4229.230666,4232.307589,4221.025538,4249.230665,4242.051178,4273.333229,4263.076819,4335.384509
50,0,4253.333229,4217.435794,4244.615281,4247.692204,4224.102461,4224.615281,4220.512717,4230.256307,4217.948615,4236.410153,4234.358871,4261.025537,4252.820409,4308.717843
51,0,4248.717845,4232.307589,4231.281948,4253.84605,4226.666563,4228.717845,4216.922974,4228.205025,4217.435794,4229.230666,4229.743486,4250.769127,4244.10246,4289.230664
52,0,4239.999896,4249.743486,4223.07682,4266.153742,4239.487076,4233.84605,4233.33323,4235.384512,4222.051179,4241.538358,4233.84605,4255.897332,4249.743486,4297.948613
53,0,4241.025537,4227.179384,4227.692204,4257.435793,4232.820409,4228.205025,4230.256307,4233.84605,4217.948615,4235.897332,4232.820409,4256.922973,4247.179383,4294.358869
54,0,4237.948614,4218.461435,4227.692204,4244.10246,4225.128102,4223.07682,4216.922974,4225.128102,4213.846051,4226.153743,4229.230666,4254.35887,4243.58964,4282.051177
55,0,4239.999896,4223.58964,4233.84605,4240.512717,4228.717845,4226.153743,4221.025538,4229.743486,4219.999897,4239.487076,4229.743486,4255.897332,4250.769127,4279.487075
56,0,4240.512717,4210.256307,4239.999896,4238.461435,4227.692204,4225.640922,4223.07682,4235.384512,4222.563999,4239.999896,4224.615281,4249.230665,4251.794768,4271.794767
57,0,4240.512717,4204.102461,4232.307589,4247.692204,4222.563999,4224.102461,4220.512717,4232.307589,4215.897333,4226.153743,4221.025538,4243.58964,4242.563999,4261.538357
58,0,4237.435794,4216.922974,4228.205025,4266.153742,4226.153743,4226.153743,4230.769127,4236.410153,4214.871692,4233.33323,4228.717845,4251.281947,4244.615281,4256.410152
59,0,4245.640922,4216.922974,4234.871691,4268.717844,4230.256307,4226.153743,4235.897332,4238.974255,4217.948615,4241.538358,4232.820409,4255.384511,4247.692204,4251.794768
60,0,4246.666563,4207.692205,4236.922973,4256.410152,4227.179384,4226.666563,4226.666563,4231.281948,4216.410153,4233.33323,4225.640922,4249.743486,4236.410153,4255.384511
61,0,4232.820409,4210.256307,4230.256307,4240.512717,4224.102461,4227.692204,4225.640922,4227.179384,4213.846051,4228.717845,4221.538358,4243.076819,4231.794768,4249.743486
62,0,4227.692204,4212.82041,4230.256307,4239.999896,4222.051179,4229.743486,4232.820409,4233.33323,4217.435794,4229.743486,4223.58964,4242.051178,4236.410153,4229.743486
63,0,4233.33323,4208.205025,4230.769127,4251.794768,4220.512717,4228.205025,4232.820409,4236.410153,4219.999897,4226.666563,4224.615281,4242.051178,4236.410153,4229.743486
64,0,4232.307589,4197.948615,4225.128102,4245.128101,4218.461435,4223.58964,4226.666563,4230.256307,4213.846051,4218.461435,4222.563999,4237.948614,4229.743486,4236.922973
65,0,4223.07682,4196.922974,4224.615281,4228.205025,4222.051179,4223.07682,4223.58964,4228.205025,4215.384512,4220.512717,4221.538358,4232.820409,4229.743486,4225.128102
66,0,4224.102461,4208.717846,4230.256307,4231.281948,4226.666563,4229.743486,4230.769127,4234.871691,4222.563999,4228.717845,4220.512717,4236.410153,4231.281948,4214.358871
67,0,4220.512717,4212.307589,4221.538358,4245.640922,4226.153743,4230.769127,4235.897332,4235.897332,4221.538358,4228.717845,4218.974256,4233.33323,4225.640922,4219.487076
68,0,4220.512717,4192.82041,4211.794769,4236.922973,4218.974256,4226.666563,4230.769127,4234.358871,4218.974256,4222.051179,4219.999897,4222.051179,4216.922974,4214.871692
69,0,4226.153743,4188.205026,4221.025538,4222.563999,4223.58964,4225.640922,4235.384512,4238.974255,4225.128102,4229.230666,4221.538358,4224.102461,4220.512717,4209.743487
70,0,4225.128102,4207.692205,4221.538358,4230.256307,4230.256307,4231.281948,4239.999896,4239.487076,4223.07682,4231.281948,4215.384512,4230.256307,4226.666563,4211.281948
71,0,4208.717846,4211.281948,4212.82041,4246.153742,4226.666563,4231.281948,4230.256307,4231.794768,4218.461435,4227.179384,4215.384512,4229.743486,4227.692204,4209.230666
72,0,4207.179384,4201.025538,4222.563999,4244.615281,4222.563999,4229.230666,4222.563999,4230.256307,4224.102461,4229.743486,4224.615281,4233.84605,4229.230666,4207.692205
73,0,4211.281948,4208.205025,4224.615281,4238.974255,4227.692204,4228.205025,4226.666563,4231.794768,4227.179384,4232.307589,4226.666563,4234.358871,4231.281948,4208.205025
74,0,4213.846051,4218.974256,4212.307589,4237.948614,4229.230666,4232.820409,4230.256307,4231.281948,4222.563999,4225.640922,4217.435794,4229.230666,4227.692204,4203.589641
75,0,4210.769128,4207.692205,4217.948615,4233.84605,4225.640922,4231.281948,4231.281948,4229.743486,4220.512717,4219.487076,4212.82041,4228.717845,4222.051179,4200.512718
76,0,4207.692205,4193.846051,4228.717845,4234.358871,4225.640922,4229.230666,4232.820409,4230.769127,4222.051179,4222.563999,4215.897333,4226.153743,4221.538358,4207.692205
77,0,4202.564,4207.179384,4219.999897,4241.538358,4230.256307,4232.820409,4232.820409,4233.84605,4224.102461,4235.384512,4218.461435,4229.230666,4229.743486,4214.358871
78,0,4209.230666,4221.538358,4217.948615,4242.563999,4236.922973,4229.743486,4232.820409,4235.384512,4226.153743,4243.58964,4226.153743,4239.999896,4237.435794,4219.999897
79,0,4212.307589,4218.461435,4230.769127,4244.615281,4233.33323,4223.07682,4230.769127,4233.84605,4224.102461,4237.948614,4229.230666,4239.487076,4235.897332,4225.128102
80,0,4204.615282,4214.358871,4232.820409,4238.461435,4223.07682,4224.102461,4227.692204,4232.307589,4222.563999,4238.461435,4226.666563,4234.871691,4236.922973,4228.205025
81,0,4206.153743,4213.33323,4227.692204,4228.717845,4225.640922,4230.769127,4226.666563,4233.84605,4227.179384,4243.076819,4232.820409,4249.230665,4245.640922,4233.84605
82,0,4213.33323,4219.487076,4228.205025,4241.538358,4238.974255,4230.256307,4225.128102,4232.307589,4227.692204,4242.563999,4242.563999,4259.487075,4243.58964,4239.487076
83,0,4213.846051,4228.205025,4232.820409,4253.84605,4241.025537,4230.769127,4229.230666,4232.307589,4227.692204,4245.640922,4240.512717,4253.84605,4236.922973,4230.256307
84,0,4205.640923,4229.743486,4230.256307,4242.051178,4238.461435,4233.33323,4234.358871,4235.384512,4233.84605,4255.384511,4234.871691,4248.717845,4246.666563,4229.230666
85,0,4210.256307,4218.461435,4233.33323,4237.948614,4234.358871,4230.769127,4231.794768,4236.410153,4230.769127,4239.999896,4232.307589,4246.153742,4246.153742,4234.358871
86,0,4209.230666,4222.051179,4238.974255,4244.615281,4234.871691,4227.179384,4232.820409,4236.410153,4221.025538,4226.666563,4226.666563,4236.922973,4233.84605,4223.58964
87,0,4201.025538,4232.307589,4233.84605,4236.922973,4238.461435,4231.281948,4238.461435,4237.435794,4223.07682,4237.948614,4224.102461,4233.33323,4234.358871,4213.33323
88,0,4194.358872,4233.33323,4226.666563,4234.358871,4237.435794,4231.281948,4235.384512,4233.33323,4226.666563,4245.640922,4230.769127,4241.025537,4245.640922,4219.487076
89,0,4206.153743,4233.33323,4236.410153,4250.256306,4227.179384,4225.640922,4225.640922,4224.615281,4222.051179,4233.33323,4233.84605,4246.153742,4246.153742,4225.640922
90,0,4210.769128,4236.922973,4241.538358,4254.871691,4229.230666,4224.102461,4224.615281,4224.102461,4221.025538,4233.84605,4233.33323,4244.10246,4244.10246,4232.820409
91,0,4205.128102,4229.743486,4233.33323,4237.435794,4239.999896,4230.769127,4225.128102,4230.769127,4226.666563,4243.58964,4238.461435,4247.179383,4248.205024,4242.563999
92,0,4193.333231,4221.538358,4232.307589,4229.230666,4244.615281,4232.820409,4222.051179,4235.897332,4229.743486,4246.153742,4243.58964,4251.281947,4251.794768,4242.051178
93,0,4196.410154,4223.58964,4236.410153,4236.922973,4241.538358,4231.794768,4225.128102,4238.461435,4228.717845,4244.615281,4240.512717,4248.717845,4246.666563,4239.487076
94,0,4196.922974,4218.461435,4234.871691,4244.10246,4231.794768,4228.205025,4232.820409,4234.871691,4225.128102,4238.461435,4234.871691,4245.640922,4235.897332,4236.922973
95,0,4184.102462,4208.205025,4228.205025,4240.512717,4228.205025,4223.58964,4233.84605,4228.717845,4225.128102,4234.358871,4232.307589,4244.10246,4236.410153,4224.615281
96,0,4172.820411,4211.281948,4218.974256,4224.102461,4235.897332,4225.640922,4229.230666,4229.230666,4225.640922,4233.84605,4229.743486,4242.051178,4241.538358,4211.794769
97,0,4179.487077,4215.384512,4221.538358,4205.640923,4230.769127,4224.102461,4224.615281,4227.179384,4221.025538,4228.717845,4227.179384,4238.974255,4234.871691,4210.769128
98,0,4184.615282,4214.358871,4230.256307,4217.948615,4216.410153,4221.025538,4219.999897,4222.051179,4219.999897,4223.58964,4228.717845,4236.922973,4232.307589,4215.384512
99,0,4177.435795,4215.897333,4221.538358,4237.948614,4223.58964,4220.512717,4217.435794,4222.051179,4223.58964,4230.256307,4232.820409,4235.897332,4239.487076,4214.871692
100,0,4175.384513,4214.358871,4213.33323,4230.769127,4234.358871,4222.051179,4216.410153,4224.102461,4224.102461,4236.922973,4232.307589,4237.948614,4241.538358,4209.743487
101,0,4184.102462,4212.82041,4225.128102,4224.615281,4231.794768,4220.512717,4214.358871,4221.025538,4222.563999,4234.358871,4230.256307,4237.435794,4239.999896,4217.435794
102,0,4192.30759,4223.07682,4233.33323,4232.820409,4227.692204,4222.563999,4215.384512,4223.07682,4221.025538,4229.743486,4231.794768,4241.025537,4244.615281,4236.410153
103,0,4191.794769,4230.769127,4232.820409,4242.563999,4231.794768,4223.58964,4216.922974,4225.128102,4222.563999,4233.33323,4236.922973,4250.256306,4253.84605,4246.666563
104,0,4193.333231,4225.128102,4241.025537,4244.10246,4231.281948,4227.179384,4219.487076,4222.051179,4224.102461,4238.974255,4236.922973,4254.35887,4254.35887,4237.948614
105,0,4189.743487,4225.128102,4238.461435,4241.025537,4233.84605,4227.692204,4223.07682,4220.512717,4223.58964,4241.025537,4236.922973,4253.333229,4251.281947,4233.33323
106,0,4193.333231,4225.640922,4235.897332,4234.358871,4232.820409,4222.563999,4224.102461,4224.102461,4223.07682,4235.897332,4239.999896,4252.820409,4249.743486,4236.922973
107,0,4193.846051,4221.025538,4241.025537,4225.128102,4224.615281,4219.999897,4226.666563,4225.640922,4222.051179,4229.743486,4235.897332,4244.615281,4245.640922,4231.794768
108,0,4190.769128,4219.487076,4236.922973,4222.051179,4222.563999,4225.128102,4226.666563,4226.153743,4221.025538,4225.128102,4231.794768,4238.461435,4238.974255,4221.538358
109,0,4184.615282,4229.743486,4227.692204,4232.307589,4233.84605,4221.538358,4223.58964,4228.717845,4226.666563,4230.256307,4237.435794,4247.179383,4244.615281,4230.256307
110,0,4193.846051,4232.820409,4232.307589,4245.128101,4237.948614,4217.435794,4221.538358,4229.743486,4228.205025,4235.897332,4238.974255,4255.384511,4250.769127,4237.948614
111,0,4191.281949,4228.717845,4231.794768,4243.076819,4233.33323,4221.025538,4222.563999,4227.692204,4222.563999,4235.897332,4230.256307,4250.769127,4241.538358,4224.102461
112,0,4187.179385,4230.256307,4227.179384,4234.871691,4231.281948,4225.640922,4222.563999,4227.179384,4224.102461,4235.384512,4230.256307,4244.615281,4236.922973,4224.102461
113,0,4190.256308,4232.820409,4232.820409,4236.410153,4238.461435,4226.153743,4221.025538,4223.58964,4227.692204,4233.84605,4233.84605,4242.051178,4239.487076,4236.922973
114,0,4192.30759,4230.769127,4232.820409,4238.974255,4241.538358,4229.230666,4221.025538,4218.974256,4224.615281,4238.461435,4232.307589,4243.076819,4237.435794,4237.948614
115,0,4187.692205,4229.743486,4227.692204,4239.999896,4234.871691,4229.230666,4222.563999,4223.07682,4228.205025,4248.717845,4233.84605,4246.153742,4239.999896,4235.384512
116,0,4194.871692,4238.461435,4232.307589,4233.33323,4233.84605,4217.435794,4223.58964,4229.230666,4234.871691,4248.205024,4236.922973,4244.10246,4246.153742,4233.84605
117,0,4202.051179,4236.922973,4234.871691,4226.666563,4237.948614,4203.07682,4222.051179,4226.153743,4229.743486,4230.769127,4235.897332,4238.974255,4243.076819,4226.153743
118,0,4189.230667,4218.461435,4223.58964,4224.615281,4231.794768,4196.410154,4223.07682,4222.563999,4223.07682,4225.128102,4235.897332,4236.922973,4234.871691,4217.435794
119,0,4176.922975,4205.640923,4214.871692,4220.512717,4218.974256,4195.897333,4229.743486,4226.666563,4228.205025,4231.794768,4231.794768,4235.384512,4229.743486,4211.794769
120,0,4180.512718,4215.384512,4221.025538,4225.640922,4225.640922,4194.871692,4233.33323,4233.84605,4235.384512,4243.076819,4235.384512,4240.512717,4237.948614,4223.58964
121,0,4194.358872,4228.717845,4229.230666,4237.435794,4236.410153,4199.999897,4230.769127,4238.461435,4233.84605,4245.128101,4248.205024,4252.307588,4246.666563,4235.897332
122,0,4197.948615,4237.948614,4226.153743,4240.512717,4239.487076,4204.615282,4228.205025,4233.84605,4227.179384,4239.999896,4248.205024,4250.769127,4245.128101,4233.84605
123,0,4198.461436,4241.025537,4227.179384,4237.948614,4240.512717,4205.640923,4229.230666,4229.743486,4225.128102,4237.948614,4239.487076,4243.58964,4240.512717,4232.307589
124,0,4202.564,4237.435794,4236.410153,4236.922973,4238.974255,4208.717846,4224.615281,4229.230666,4226.153743,4238.461435,4238.974255,4242.051178,4243.076819,4233.84605
125,0,4210.256307,4237.435794,4233.33323,4232.307589,4227.692204,4216.922974,4216.922974,4225.128102,4226.666563,4232.307589,4240.512717,4243.58964,4237.948614,4225.128102
126,0,4203.07682,4244.10246,4215.384512,4227.692204,4227.692204,4218.461435,4214.871692,4223.07682,4230.769127,4235.384512,4238.974255,4242.563999,4232.307589,4220.512717
127,0,4205.128102,4234.358871,4219.999897,4219.487076,4235.384512,4220.512717,4222.051179,4226.666563,4232.307589,4242.051178,4237.435794,4241.025537,4236.922973,4227.179384
128,0,4208.205025,4223.58964,4234.871691,4214.358871,4227.179384,4225.640922,4229.743486,4230.769127,4230.769127,4238.974255,4236.410153,4239.999896,4239.487076,4231.281948
0,0,4203.589641,4229.743486,4225.640922,4219.487076,4215.384512,4223.58964,4230.256307,4235.897332,4231.281948,4232.820409,4231.794768,4239.999896,4233.33323,4227.179384
1,0,4198.974256,4235.897332,4214.358871,4223.58964,4222.563999,4222.051179,4232.820409,4235.384512,4230.256307,4231.281948,4231.794768,4242.051178,4231.281948,4215.384512
2,0,4208.205025,4229.743486,4222.051179,4223.58964,4227.692204,4226.666563,4236.922973,4230.256307,4224.615281,4225.128102,4231.794768,4243.076819,4230.256307,4215.384512
3,0,4212.307589,4222.051179,4230.769127,4226.153743,4222.563999,4224.615281,4232.820409,4228.717845,4220.512717,4217.948615,4231.281948,4240.512717,4223.07682,4218.461435
4,0,4213.33323,4219.999897,4230.256307,4224.615281,4222.563999,4219.487076,4226.666563,4230.256307,4222.051179,4222.051179,4234.358871,4235.897332,4222.563999,4210.256307
5,0,4215.384512,4220.512717,4224.615281,4223.58964,4224.615281,4224.615281,4225.128102,4228.717845,4228.717845,4233.84605,4236.922973,4233.84605,4231.794768,4219.999897
6,0,4219.999897,4224.102461,4222.051179,4231.281948,4222.563999,4227.179384,4217.948615,4229.230666,4233.33323,4237.948614,4237.435794,4235.897332,4235.384512,4239.487076
7,0,4218.461435,4219.999897,4225.128102,4219.999897,4220.512717,4225.640922,4216.410153,4231.281948,4231.281948,4236.410153,4236.922973,4237.435794,4230.769127,4223.58964
8,0,4216.410153,4215.897333,4227.179384,4208.205025,4222.051179,4224.102461,4219.487076,4227.179384,4226.666563,4236.410153,4233.33323,4237.435794,4229.230666,4207.179384
9,0,4225.640922,4226.153743,4222.563999,4221.538358,4222.563999,4221.538358,4216.922974,4219.999897,4220.512717,4226.153743,4225.128102,4233.33323,4223.07682,4214.358871
10,0,4232.307589,4233.33323,4224.615281,4228.717845,4228.205025,4222.051179,4219.999897,4217.948615,4217.435794,4219.487076,4222.563999,4228.717845,4215.384512,4214.358871
11,0,4229.743486,4223.58964,4233.33323,4221.025538,4228.717845,4225.128102,4228.205025,4224.615281,4223.07682,4226.153743,4232.820409,4234.358871,4219.999897,4208.717846
12,0,4223.07682,4217.435794,4227.179384,4207.692205,4224.102461,4219.487076,4227.179384,4231.281948,4232.820409,4233.33323,4239.487076,4242.563999,4231.281948,4217.435794
13,0,4229.230666,4217.435794,4219.999897,4206.666564,4216.922974,4218.974256,4228.717845,4234.871691,4231.794768,4231.281948,4233.84605,4243.076819,4228.205025,4217.435794
14,0,4232.307589,4207.692205,4227.179384,4229.230666,4218.461435,4223.58964,4233.84605,4234.871691,4225.128102,4227.692204,4228.717845,4241.538358,4226.666563,4215.897333
15,0,4237.435794,4201.538359,4234.358871,4233.84605,4222.563999,4225.128102,4228.717845,4232.820409,4222.563999,4224.615281,4234.358871,4245.128101,4235.384512,4230.256307
16,0,4233.33323,4213.33323,4224.615281,4211.281948,4217.435794,4221.025538,4221.538358,4227.692204,4224.102461,4221.538358,4234.358871,4236.410153,4233.33323,4227.692204
17,0,4228.717845,4215.897333,4212.82041,4204.615282,4208.205025,4218.461435,4214.871692,4222.051179,4218.974256,4209.743487,4219.999897,4218.974256,4216.922974,4202.564
18,0,4220.512717,4206.153743,4209.743487,4213.846051,4213.33323,4216.922974,4208.205025,4218.974256,4217.948615,4205.128102,4217.435794,4222.051179,4211.281948,4197.948615
19,0,4219.999897,4202.564,4215.897333,4202.051179,4221.538358,4219.487076,4209.230666,4219.487076,4223.58964,4215.384512,4227.692204,4233.33323,4216.922974,4210.256307
20,0,4226.153743,4209.743487,4224.102461,4203.589641,4222.051179,4221.538358,4217.435794,4221.025538,4224.102461,4221.025538,4226.666563,4230.256307,4222.563999,4203.589641
21,0,4230.256307,4203.589641,4220.512717,4226.153743,4214.871692,4219.999897,4215.897333,4220.512717,4221.538358,4215.384512,4219.487076,4221.538358,4217.948615,4190.769128
22,0,4218.974256,4190.769128,4214.871692,4218.974256,4210.256307,4221.538358,4211.794769,4219.487076,4222.563999,4213.33323,4222.051179,4223.07682,4212.307589,4204.102461
23,0,4211.281948,4198.974256,4212.82041,4199.999897,4214.871692,4224.102461,4220.512717,4227.692204,4226.153743,4224.615281,4228.205025,4226.666563,4219.999897,4219.999897
24,0,4218.461435,4209.743487,4212.82041,4204.102461,4214.871692,4221.025538,4230.256307,4237.435794,4224.102461,4226.666563,4226.153743,4222.051179,4224.615281,4209.230666
25,0,4227.179384,4204.102461,4217.948615,4218.974256,4203.589641,4214.871692,4228.717845,4235.384512,4223.07682,4218.461435,4226.666563,4219.999897,4218.461435,4196.410154
26,0,4221.025538,4197.948615,4216.922974,4207.692205,4203.07682,4219.999897,4228.717845,4234.871691,4227.179384,4214.358871,4229.743486,4225.128102,4214.358871,4200.512718
27,0,4209.230666,4201.538359,4206.153743,4188.205026,4217.948615,4228.205025,4234.358871,4238.461435,4225.640922,4222.051179,4227.179384,4222.563999,4217.948615,4205.640923
28,0,4210.769128,4198.974256,4210.256307,4201.025538,4219.999897,4225.128102,4229.743486,4232.820409,4218.461435,4219.999897,4220.512717,4216.410153,4216.922974,4195.897333
29,0,4211.794769,4201.538359,4218.461435,4221.025538,4214.871692,4218.974256,4218.974256,4225.640922,4217.948615,4213.33323,4223.07682,4221.025538,4212.82041,4197.948615
30,0,4212.307589,4213.33323,4214.871692,4218.974256,4214.871692,4218.461435,4216.410153,4224.615281,4222.563999,4214.358871,4228.205025,4227.179384,4219.487076,4209.230666
31,0,4211.281948,4213.846051,4222.051179,4207.692205,4215.897333,4217.435794,4216.410153,4216.922974,4221.538358,4219.487076,4225.128102,4219.487076,4228.205025,4206.153743
32,0,4209.230666,4205.640923,4233.33323,4206.666564,4210.769128,4215.897333,4212.307589,4212.82041,4216.922974,4217.435794,4221.025538,4216.410153,4222.051179,4200.512718
33,0,4203.589641,4211.281948,4224.615281,4212.307589,4211.281948,4214.871692,4213.33323,4221.025538,4218.461435,4221.025538,4226.666563,4228.205025,4219.487076,4215.897333
34,0,4210.769128,4222.051179,4222.051179,4212.307589,4218.461435,4218.461435,4223.58964,4228.205025,4225.128102,4230.256307,4233.84605,4237.435794,4231.281948,4228.205025
35,0,4204.615282,4220.512717,4229.743486,4208.717846,4221.025538,4218.974256,4226.666563,4227.179384,4226.666563,4229.230666,4229.230666,4229.230666,4230.256307,4214.358871
36,0,4192.30759,4213.33323,4228.717845,4204.102461,4213.33323,4217.435794,4219.999897,4226.666563,4221.025538,4216.922974,4222.051179,4225.640922,4216.410153,4199.487077
37,0,4192.82041,4211.281948,4223.58964,4213.33323,4211.794769,4216.922974,4220.512717,4224.615281,4220.512717,4214.871692,4219.999897,4227.179384,4220.512717,4195.897333
38,0,4201.538359,4210.256307,4220.512717,4221.538358,4214.358871,4219.487076,4221.538358,4220.512717,4217.435794,4218.461435,4219.487076,4221.538358,4224.102461,4195.897333
39,0,4187.692205,4211.281948,4211.794769,4203.07682,4212.307589,4222.051179,4219.487076,4220.512717,4213.846051,4219.487076,4221.025538,4223.58964,4218.461435,4209.230666
40,0,4180.512718,4212.307589,4208.717846,4186.666564,4212.307589,4224.102461,4220.512717,4222.051179,4221.538358,4221.025538,4226.153743,4233.33323,4223.07682,4222.563999
41,0,4185.640923,4216.922974,4211.794769,4204.102461,4216.410153,4223.07682,4222.051179,4222.051179,4225.640922,4222.051179,4226.153743,4228.717845,4231.281948,4217.948615
42,0,4188.717846,4221.025538,4225.128102,4227.179384,4217.435794,4218.461435,4221.538358,4223.58964,4222.051179,4227.692204,4225.640922,4225.128102,4234.871691,4225.640922
43,0,4182.564,4217.948615,4232.820409,4220.512717,4217.435794,4219.487076,4224.615281,4225.640922,4226.666563,4236.922973,4229.743486,4237.948614,4234.358871,4235.897332
44,0,4167.692206,4207.692205,4209.230666,4204.102461,4219.999897,4219.487076,4221.538358,4226.153743,4231.281948,4234.871691,4229.230666,4234.871691,4229.743486,4219.487076
45,0,4157.948616,4201.538359,4194.358872,4204.102461,4215.897333,4218.974256,4215.384512,4225.640922,4226.666563,4225.128102,4223.58964,4220.512717,4227.179384,4205.640923
46,0,4165.640924,4213.846051,4212.82041,4214.358871,4216.410153,4221.025538,4223.07682,4228.717845,4226.666563,4231.281948,4224.615281,4224.615281,4235.897332,4217.435794
47,0,4172.820411,4222.563999,4225.128102,4212.82041,4221.538358,4225.128102,4231.794768,4232.307589,4229.743486,4233.84605,4226.666563,4235.897332,4235.384512,4222.051179
48,0,4158.974257,4216.922974,4212.82041,4194.358872,4225.640922,4223.07682,4227.692204,4231.281948,4229.230666,4227.179384,4225.128102,4233.33323,4230.256307,4219.999897
49,0,4157.435796,4209.230666,4212.307589,4192.30759,4219.999897,4220.512717,4223.07682,4224.615281,4228.717845,4224.102461,4222.563999,4224.102461,4231.794768,4214.358871
50,0,4161.53836,4209.743487,4218.461435,4209.230666,4214.358871,4219.999897,4217.948615,4217.435794,4222.563999,4222.563999,4217.435794,4216.410153,4227.692204,4197.948615
51,0,4156.410155,4202.051179,4213.846051,4208.717846,4213.846051,4222.563999,4214.871692,4217.435794,4213.846051,4205.640923,4210.256307,4213.846051,4213.846051,4190.256308
52,0,4148.205027,4196.410154,4209.230666,4207.692205,4218.461435,4219.999897,4215.897333,4217.435794,4215.897333,4203.589641,4212.307589,4218.974256,4214.871692,4196.410154
53,0,4154.358873,4208.717846,4213.846051,4216.922974,4216.922974,4218.461435,4216.410153,4218.461435,4223.07682,4218.974256,4218.461435,4225.128102,4225.640922,4200.512718
54,0,4149.230668,4221.538358,4219.487076,4209.230666,4213.846051,4220.512717,4216.410153,4219.999897,4223.58964,4225.128102,4221.025538,4226.153743,4230.769127,4208.717846
55,0,4146.153745,4215.897333,4216.410153,4202.564,4214.871692,4222.563999,4217.435794,4222.563999,4221.538358,4222.563999,4224.102461,4229.743486,4231.794768,4215.897333
56,0,4156.410155,4210.256307,4218.974256,4214.358871,4222.563999,4218.974256,4221.025538,4225.640922,4225.640922,4230.256307,4228.205025,4238.974255,4236.922973,4220.512717
57,0,4169.230667,4216.410153,4236.922973,4208.717846,4226.153743,4218.974256,4226.666563,4232.307589,4228.717845,4236.410153,4231.281948,4248.205024,4242.563999,4236.410153
58,0,4155.384514,4217.435794,4236.922973,4198.974256,4217.435794,4221.538358,4227.179384,4234.358871,4223.07682,4225.640922,4230.256307,4245.640922,4234.358871,4237.435794
59,0,4147.692206,4213.33323,4215.384512,4208.717846,4212.307589,4221.025538,4220.512717,4226.666563,4219.487076,4216.922974,4223.58964,4230.769127,4220.512717,4215.897333
60,0,4157.435796,4219.999897,4211.281948,4215.897333,4219.487076,4218.974256,4222.563999,4223.07682,4223.58964,4223.58964,4218.974256,4224.615281,4226.666563,4215.384512
61,0,4160.512719,4226.666563,4225.128102,4213.33323,4224.615281,4218.974256,4225.640922,4225.128102,4226.666563,4229.230666,4219.487076,4229.743486,4238.461435,4229.230666
62,0,4161.025539,4231.281948,4229.743486,4226.666563,4223.07682,4218.974256,4220.512717,4224.615281,4226.153743,4225.128102,4220.512717,4233.84605,4237.948614,4223.58964
63,0,4166.153744,4238.461435,4230.256307,4229.743486,4224.615281,4219.487076,4222.051179,4223.07682,4228.717845,4225.128102,4223.07682,4233.33323,4236.922973,4227.179384
64,0,4157.948616,4230.769127,4231.281948,4195.897333,4224.102461,4218.461435,4225.640922,4224.615281,4228.717845,4227.692204,4224.615281,4232.307589,4238.974255,4235.384512
65,0,4140.512719,4224.102461,4219.999897,4189.230667,4226.666563,4215.897333,4225.128102,4224.102461,4225.640922,4230.256307,4225.128102,4231.794768,4235.897332,4225.640922
66,0,4148.205027,4228.717845,4214.871692,4219.999897,4223.58964,4216.410153,4222.563999,4218.974256,4222.563999,4225.640922,4224.615281,4228.205025,4228.717845,4215.897333
67,0,4159.999898,4231.794768,4223.07682,4229.230666,4211.794769,4213.33323,4218.461435,4215.384512,4220.512717,4223.07682,4219.487076,4225.640922,4228.717845,4217.948615
68,0,4158.461437,4231.794768,4222.563999,4215.384512,4209.743487,4212.82041,4219.487076,4219.999897,4223.07682,4228.205025,4217.948615,4230.769127,4234.871691,4220.512717
69,0,4152.307591,4233.33323,4216.922974,4217.948615,4221.538358,4215.897333,4225.128102,4229.743486,4225.640922,4235.384512,4228.717845,4237.948614,4241.538358,4224.615281
70,0,4160.512719,4229.743486,4224.102461,4218.461435,4223.07682,4219.999897,4229.743486,4235.897332,4224.615281,4239.487076,4234.358871,4237.435794,4244.615281,4224.615281
71,0,4164.102462,4236.922973,4222.563999,4213.33323,4225.640922,4221.538358,4233.33323,4233.33323,4228.205025,4249.230665,4231.794768,4232.820409,4251.794768,4230.256307
72,0,4158.974257,4233.84605,4214.358871,4209.743487,4223.58964,4220.512717,4230.769127,4228.205025,4226.666563,4241.025537,4226.666563,4228.205025,4244.10246,4232.820409
73,0,4145.640924,4205.128102,4220.512717,4198.461436,4211.281948,4212.82041,4221.538358,4221.538358,4217.435794,4216.922974,4217.435794,4215.897333,4223.58964,4217.435794
74,0,4147.179386,4205.640923,4221.538358,4202.564,4210.769128,4212.307589,4217.435794,4217.948615,4215.897333,4213.33323,4215.384512,4212.82041,4216.410153,4210.256307
75,0,4151.79477,4236.922973,4208.205025,4221.025538,4224.615281,4221.025538,4222.563999,4221.025538,4224.102461,4226.666563,4224.102461,4228.205025,4226.666563,4222.051179
76,0,4155.897334,4232.307589,4214.871692,4229.743486,4222.051179,4224.102461,4227.179384,4228.205025,4226.666563,4230.769127,4229.743486,4239.999896,4236.922973,4225.640922
77,0,4158.461437,4211.281948,4230.769127,4224.615281,4215.384512,4220.512717,4230.769127,4229.743486,4226.666563,4234.871691,4226.666563,4238.974255,4238.974255,4219.999897
78,0,4165.640924,4218.461435,4225.128102,4212.307589,4221.538358,4217.948615,4227.179384,4224.102461,4228.205025,4240.512717,4227.692204,4236.410153,4239.487076,4228.205025
79,0,4166.153744,4222.051179,4214.871692,4210.256307,4219.487076,4215.897333,4219.487076,4222.051179,4223.07682,4230.256307,4226.666563,4234.871691,4235.384512,4232.307589
80,0,4165.128103,4219.487076,4221.538358,4216.922974,4218.974256,4216.410153,4224.615281,4224.102461,4215.384512,4221.025538,4221.025538,4236.410153,4228.205025,4224.615281
81,0,4169.230667,4228.717845,4231.281948,4217.435794,4226.153743,4219.487076,4228.205025,4224.102461,4217.948615,4223.07682,4214.871692,4235.897332,4224.102461,4212.307589
82,0,4168.717847,4223.58964,4222.563999,4204.102461,4224.615281,4216.922974,4218.461435,4220.512717,4223.07682,4222.051179,4215.384512,4227.179384,4224.615281,4215.897333
83,0,4164.102462,4215.897333,4210.769128,4207.692205,4218.974256,4216.410153,4214.358871,4221.025538,4219.999897,4210.256307,4223.58964,4228.717845,4224.615281,4228.717845
84,0,4164.615283,4221.538358,4212.82041,4224.615281,4224.102461,4217.435794,4219.487076,4223.07682,4216.922974,4209.230666,4228.717845,4235.384512,4226.153743,4218.974256
85,0,4172.30759,4224.102461,4219.999897,4228.717845,4221.538358,4218.461435,4223.07682,4222.051179,4219.487076,4222.051179,4227.692204,4233.33323,4228.717845,4204.615282
86,0,4167.692206,4222.563999,4216.922974,4221.025538,4220.512717,4214.871692,4220.512717,4218.461435,4219.487076,4235.897332,4224.615281,4232.307589,4227.692204,4216.922974
87,0,4162.564001,4214.871692,4216.410153,4211.794769,4221.538358,4213.33323,4214.871692,4214.871692,4217.435794,4228.717845,4221.025538,4233.84605,4219.487076,4225.128102
88,0,4164.102462,4204.102461,4219.999897,4209.230666,4210.769128,4210.769128,4208.205025,4212.307589,4218.974256,4215.897333,4219.999897,4228.717845,4214.871692,4210.256307
89,0,4170.769129,4198.461436,4215.384512,4211.794769,4202.564,4210.256307,4211.281948,4215.897333,4218.974256,4212.82041,4221.538358,4225.640922,4217.435794,4204.615282
90,0,4171.281949,4209.230666,4212.82041,4211.794769,4212.82041,4209.230666,4218.974256,4222.563999,4219.487076,4216.922974,4220.512717,4226.666563,4219.487076,4218.974256
91,0,4185.128103,4224.615281,4224.615281,4200.512718,4217.435794,4213.846051,4220.512717,4225.640922,4222.563999,4220.512717,4222.563999,4231.281948,4214.358871,4231.281948
92,0,4191.794769,4227.692204,4225.640922,4215.897333,4218.974256,4224.102461,4226.153743,4226.153743,4226.153743,4231.281948,4228.205025,4239.487076,4222.051179,4234.871691
93,0,4187.179385,4219.999897,4212.307589,4246.153742,4226.153743,4223.58964,4232.307589,4226.153743,4224.615281,4228.205025,4225.640922,4239.487076,4230.769127,4229.230666
94,0,4186.666564,4226.666563,4214.358871,4242.563999,4231.794768,4218.974256,4231.281948,4225.640922,4221.538358,4218.461435,4226.153743,4235.897332,4228.717845,4231.281948
95,0,4197.948615,4235.897332,4224.102461,4224.615281,4230.769127,4223.58964,4225.640922,4226.153743,4223.58964,4227.692204,4233.33323,4238.974255,4227.692204,4233.84605
96,0,4194.358872,4221.025538,4221.538358,4226.153743,4226.666563,4222.051179,4221.538358,4223.07682,4225.128102,4234.358871,4232.307589,4238.461435,4228.205025,4221.025538
97,0,4193.333231,4215.897333,4216.410153,4234.871691,4227.692204,4211.281948,4222.563999,4217.435794,4223.58964,4230.256307,4234.871691,4236.410153,4233.84605,4223.07682
98,0,4205.128102,4233.33323,4221.025538,4236.922973,4234.358871,4217.435794,4225.640922,4221.538358,4228.717845,4240.512717,4244.10246,4242.563999,4245.128101,4245.640922
99,0,4213.33323,4234.871691,4228.717845,4236.922973,4235.384512,4228.205025,4228.717845,4227.692204,4233.84605,4257.948614,4243.58964,4249.230665,4246.666563,4257.948614
100,0,4210.256307,4219.487076,4230.769127,4230.769127,4228.717845,4223.07682,4232.820409,4224.102461,4230.769127,4253.333229,4234.358871,4249.230665,4234.871691,4246.153742
101,0,4206.153743,4216.922974,4218.974256,4228.205025,4231.794768,4218.974256,4234.358871,4225.128102,4229.743486,4246.666563,4236.922973,4247.179383,4232.820409,4239.999896
102,0,4207.692205,4221.538358,4207.692205,4235.384512,4231.281948,4222.051179,4233.33323,4234.871691,4231.281948,4247.179383,4240.512717,4242.051178,4235.897332,4242.563999
103,0,4207.692205,4217.435794,4212.82041,4239.487076,4227.692204,4215.384512,4229.230666,4233.33323,4225.640922,4240.512717,4234.871691,4234.871691,4232.307589,4238.461435
104,0,4214.871692,4209.743487,4224.615281,4237.948614,4226.666563,4212.82041,4224.615281,4229.230666,4222.051179,4230.256307,4236.922973,4239.999896,4233.84605,4234.871691
105,0,4218.974256,4222.051179,4223.07682,4238.461435,4231.281948,4215.384512,4225.128102,4233.33323,4230.256307,4235.897332,4243.58964,4248.717845,4243.076819,4237.948614
106,0,4213.33323,4230.769127,4211.794769,4236.410153,4229.743486,4216.410153,4224.615281,4230.769127,4231.794768,4243.58964,4240.512717,4244.615281,4241.538358,4233.33323
107,0,4205.640923,4222.563999,4211.794769,4238.974255,4228.717845,4217.948615,4221.538358,4219.999897,4225.640922,4236.410153,4230.256307,4234.358871,4231.794768,4226.666563
108,0,4221.538358,4216.922974,4223.07682,4243.076819,4233.33323,4224.102461,4221.025538,4219.487076,4222.051179,4226.666563,4227.179384,4237.948614,4226.666563,4232.820409
109,0,4226.666563,4228.205025,4220.512717,4230.769127,4234.871691,4225.640922,4224.615281,4224.615281,4224.102461,4238.974255,4234.358871,4244.615281,4234.358871,4242.051178
110,0,4224.615281,4233.33323,4213.846051,4227.179384,4229.230666,4224.615281,4226.666563,4225.128102,4226.666563,4245.640922,4235.897332,4239.999896,4239.999896,4242.051178
111,0,4225.640922,4230.256307,4217.435794,4245.640922,4229.230666,4218.974256,4222.051179,4224.102461,4226.666563,4235.897332,4231.794768,4233.33323,4236.410153,4243.58964
112,0,4228.205025,4235.384512,4216.410153,4248.205024,4233.33323,4216.922974,4222.563999,4225.128102,4227.179384,4239.487076,4234.358871,4234.871691,4237.435794,4238.461435
113,0,4220.512717,4233.84605,4206.153743,4236.922973,4233.84605,4223.58964,4231.794768,4227.692204,4231.281948,4252.820409,4236.922973,4235.897332,4242.563999,4220.512717
114,0,4219.999897,4216.410153,4214.358871,4237.948614,4230.769127,4224.102461,4233.84605,4227.692204,4230.256307,4240.512717,4231.794768,4229.743486,4231.281948,4212.307589
115,0,4219.999897,4211.281948,4221.025538,4236.922973,4224.102461,4216.410153,4226.666563,4224.615281,4221.538358,4219.487076,4228.717845,4225.128102,4216.922974,4220.512717
116,0,4215.897333,4224.615281,4201.025538,4233.84605,4221.538358,4215.384512,4222.563999,4224.615281,4219.999897,4225.128102,4229.743486,4223.58964,4225.128102,4227.692204
117,0,4216.410153,4222.563999,4195.384513,4232.820409,4225.640922,4218.974256,4221.538358,4226.666563,4222.563999,4227.692204,4227.179384,4227.179384,4231.281948,4225.640922
118,0,4227.179384,4215.384512,4213.33323,4225.128102,4230.769127,4219.487076,4221.538358,4225.128102,4223.07682,4223.07682,4232.307589,4237.435794,4227.692204,4234.871691
119,0,4230.769127,4223.07682,4212.307589,4232.307589,4231.794768,4220.512717,4224.615281,4224.102461,4224.615281,4232.307589,4234.871691,4238.974255,4228.717845,4239.487076
120,0,4224.102461,4228.205025,4196.410154,4245.640922,4230.769127,4221.538358,4218.974256,4224.102461,4224.615281,4242.563999,4227.179384,4229.230666,4231.794768,4233.33323
121,0,4226.153743,4221.025538,4199.999897,4236.410153,4223.07682,4218.974256,4213.846051,4224.102461,4223.58964,4235.897332,4224.102461,4227.692204,4229.743486,4229.743486
122,0,4225.128102,4219.487076,4203.07682,4230.769127,4224.102461,4217.435794,4223.07682,4227.179384,4226.666563,4234.871691,4230.256307,4233.84605,4231.794768,4224.615281
123,0,4221.025538,4214.871692,4202.051179,4233.84605,4221.538358,4218.974256,4226.666563,4226.666563,4226.153743,4231.794768,4231.794768,4233.84605,4232.820409,4213.33323
124,0,4220.512717,4194.358872,4208.717846,4222.563999,4208.205025,4215.897333,4216.922974,4220.512717,4220.512717,4218.461435,4225.640922,4227.179384,4227.179384,4214.871692
125,0,4226.666563,4190.769128,4212.307589,4223.58964,4206.666564,4215.384512,4219.999897,4224.102461,4221.025538,4214.358871,4226.666563,4232.307589,4223.07682,4229.230666
126,0,4222.563999,4214.871692,4203.07682,4242.563999,4220.512717,4216.922974,4230.256307,4231.281948,4224.615281,4227.692204,4233.33323,4240.512717,4226.153743,4233.33323
127,0,4227.179384,4220.512717,4197.948615,4242.051178,4225.640922,4219.487076,4230.769127,4230.769127,4222.051179,4236.922973,4230.769127,4236.410153,4233.33323,4228.205025
128,0,4232.820409,4210.769128,4204.102461,4233.33323,4227.692204,4222.563999,4231.794768,4227.692204,4222.563999,4236.922973,4226.666563,4233.33323,4237.435794,4230.769127
0,0,4238.974255,4215.897333,4206.666564,4241.025537,4227.692204,4224.615281,4232.307589,4227.692204,4225.128102,4233.84605,4229.743486,4238.461435,4226.153743,4231.794768
1,0,4242.051178,4223.58964,4202.564,4248.717845,4220.512717,4219.999897,4223.58964,4223.58964,4221.538358,4231.794768,4228.717845,4233.84605,4219.999897,4227.692204
2,0,4244.10246,4216.410153,4203.589641,4233.33323,4217.948615,4217.948615,4217.435794,4218.461435,4218.461435,4228.717845,4227.692204,4227.179384,4231.794768,4232.307589
3,0,4237.435794,4209.743487,4206.153743,4225.640922,4219.999897,4222.563999,4221.538358,4222.051179,4224.102461,4234.871691,4235.384512,4236.410153,4241.538358,4243.076819
4,0,4234.871691,4209.743487,4202.564,4243.58964,4221.025538,4225.640922,4225.640922,4229.743486,4230.769127,4249.743486,4237.435794,4241.025537,4233.33323,4243.076819
5,0,4230.769127,4210.256307,4197.435795,4252.820409,4224.615281,4223.58964,4228.205025,4231.281948,4231.281948,4246.666563,4229.743486,4234.358871,4224.615281,4233.84605
6,0,4228.717845,4209.743487,4201.538359,4240.512717,4227.692204,4217.948615,4229.743486,4228.717845,4228.205025,4235.384512,4231.281948,4235.897332,4233.33323,4233.33323
7,0,4232.307589,4213.33323,4206.666564,4236.410153,4221.538358,4215.897333,4228.205025,4228.205025,4224.615281,4235.384512,4230.256307,4238.974255,4233.84605,4230.256307
8,0,4236.410153,4217.435794,4207.179384,4243.58964,4214.871692,4216.410153,4226.666563,4226.153743,4222.563999,4230.256307,4218.461435,4228.717845,4219.487076,4216.410153
9,0,4239.999896,4219.999897,4209.230666,4247.692204,4217.948615,4219.487076,4229.743486,4223.07682,4222.563999,4219.999897,4219.487076,4226.153743,4217.948615,4212.82041
10,0,4240.512717,4224.102461,4211.794769,4246.153742,4228.205025,4219.999897,4232.307589,4225.640922,4223.07682,4232.820409,4233.33323,4236.922973,4231.281948,4226.666563
11,0,4243.076819,4219.487076,4212.82041,4239.487076,4225.128102,4217.948615,4231.281948,4228.205025,4222.563999,4243.076819,4230.256307,4236.410153,4232.307589,4233.84605
12,0,4245.128101,4225.128102,4213.846051,4251.281947,4225.640922,4217.435794,4230.256307,4225.640922,4225.128102,4239.487076,4226.666563,4233.84605,4234.871691,4242.563999
13,0,4251.794768,4244.615281,4218.461435,4267.692203,4236.410153,4224.615281,4231.794768,4226.666563,4229.743486,4244.10246,4242.563999,4252.307588,4244.10246,4256.922973
14,0,4251.281947,4249.743486,4220.512717,4257.435793,4237.948614,4225.128102,4229.743486,4227.179384,4233.33323,4255.384511,4247.179383,4262.051178,4243.076819,4256.922973
15,0,4255.897332,4237.948614,4223.58964,4248.205024,4228.717845,4222.563999,4230.769127,4228.205025,4233.84605,4246.153742,4238.461435,4249.743486,4239.999896,4241.025537
16,0,4256.410152,4234.358871,4229.743486,4257.435793,4230.769127,4223.58964,4235.384512,4233.84605,4235.897332,4236.922973,4238.974255,4243.58964,4245.128101,4235.897332
17,0,4253.333229,4227.692204,4229.743486,4254.35887,4228.205025,4223.58964,4228.205025,4230.769127,4231.281948,4240.512717,4240.512717,4249.743486,4241.538358,4245.640922
18,0,4249.230665,4232.307589,4219.487076,4252.820409,4226.153743,4222.563999,4226.153743,4223.58964,4224.102461,4245.128101,4236.410153,4248.205024,4237.435794,4252.820409
19,0,4254.871691,4246.666563,4217.948615,4254.871691,4230.256307,4225.640922,4236.410153,4229.743486,4226.153743,4242.563999,4236.922973,4244.615281,4243.076819,4251.281947
20,0,4253.84605,4238.974255,4217.948615,4244.615281,4230.256307,4221.538358,4241.025537,4233.84605,4232.307589,4241.538358,4234.358871,4244.615281,4245.128101,4246.666563
21,0,4252.820409,4233.33323,4205.640923,4244.615281,4227.692204,4216.922974,4234.871691,4230.769127,4229.230666,4243.076819,4233.33323,4241.025537,4243.076819,4248.717845
22,0,4248.717845,4241.538358,4198.461436,4253.84605,4232.307589,4220.512717,4235.384512,4231.794768,4229.743486,4243.58964,4239.999896,4237.435794,4247.692204,4246.666563
23,0,4248.205024,4233.84605,4206.666564,4251.794768,4234.871691,4224.102461,4237.948614,4233.33323,4235.897332,4250.256306,4245.128101,4244.10246,4251.281947,4242.051178
24,0,4248.205024,4217.948615,4216.922974,4246.153742,4231.281948,4221.025538,4233.84605,4225.640922,4230.769127,4253.84605,4239.487076,4248.205024,4246.666563,4239.487076
25,0,4251.794768,4226.666563,4219.487076,4250.256306,4234.358871,4223.58964,4231.794768,4225.640922,4225.128102,4245.128101,4237.948614,4241.538358,4251.281947,4247.179383
26,0,4254.871691,4234.871691,4215.897333,4258.461434,4233.33323,4225.640922,4226.153743,4228.717845,4227.179384,4239.487076,4238.461435,4236.922973,4252.307588,4251.794768
27,0,4252.307588,4222.563999,4212.82041,4253.84605,4223.58964,4217.948615,4214.358871,4221.538358,4226.666563,4241.025537,4232.820409,4237.435794,4239.999896,4238.461435
28,0,4251.281947,4210.769128,4212.82041,4241.025537,4219.487076,4217.948615,4212.82041,4216.922974,4223.07682,4234.871691,4227.692204,4237.948614,4234.358871,4224.615281
29,0,4252.307588,4215.897333,4209.230666,4240.512717,4230.256307,4222.563999,4222.051179,4221.538358,4223.07682,4229.230666,4226.153743,4234.358871,4237.435794,4225.640922
30,0,4255.384511,4218.974256,4208.205025,4252.307588,4235.897332,4222.051179,4228.205025,4223.58964,4222.563999,4234.358871,4226.153743,4234.358871,4233.33323,4234.358871
31,0,4248.717845,4219.999897,4210.256307,4256.410152,4230.769127,4217.948615,4229.230666,4223.58964,4224.102461,4242.051178,4227.179384,4239.487076,4236.922973,4242.563999
32,0,4250.256306,4228.717845,4212.82041,4246.666563,4225.640922,4221.538358,4230.769127,4232.820409,4227.179384,4240.512717,4232.820409,4245.128101,4246.153742,4241.025537
33,0,4258.974255,4232.307589,4220.512717,4251.281947,4225.128102,4223.58964,4229.230666,4236.922973,4226.666563,4241.538358,4239.487076,4250.769127,4241.025537,4245.128101
34,0,4264.61528,4217.948615,4230.256307,4261.025537,4220.512717,4222.563999,4226.666563,4232.307589,4226.153743,4241.538358,4236.922973,4254.35887,4232.820409,4252.820409
35,0,4256.410152,4215.384512,4223.58964,4248.717845,4223.07682,4221.538358,4231.281948,4229.230666,4229.230666,4236.410153,4231.794768,4250.769127,4239.999896,4249.743486
36,0,4254.35887,4225.640922,4213.33323,4236.922973,4228.717845,4223.58964,4229.230666,4226.153743,4225.640922,4229.743486,4229.230666,4242.563999,4242.051178,4241.538358
37,0,4251.281947,4223.07682,4215.897333,4247.692204,4231.794768,4224.102461,4218.974256,4219.999897,4218.974256,4233.84605,4230.256307,4236.922973,4235.897332,4241.538358
38,0,4248.205024,4208.205025,4214.871692,4250.256306,4225.128102,4223.07682,4217.948615,4216.410153,4221.025538,4238.974255,4228.717845,4236.410153,4232.820409,4243.076819
39,0,4245.640922,4215.384512,4211.794769,4237.948614,4225.640922,4225.640922,4227.692204,4221.538358,4230.256307,4239.487076,4229.230666,4241.538358,4236.922973,4250.769127
40,0,4255.384511,4234.358871,4225.640922,4248.205024,4232.307589,4226.666563,4233.33323,4229.743486,4231.281948,4241.538358,4232.307589,4249.230665,4237.948614,4258.974255
41,0,4263.589639,4234.871691,4232.820409,4267.692203,4228.717845,4225.640922,4232.820409,4234.358871,4230.769127,4246.153742,4231.794768,4254.871691,4237.435794,4256.922973
42,0,4269.743485,4228.717845,4223.07682,4254.35887,4225.640922,4227.692204,4232.820409,4235.897332,4233.33323,4253.333229,4235.897332,4256.410152,4246.666563,4269.743485
43,0,4276.410152,4234.358871,4226.153743,4238.461435,4231.281948,4229.230666,4232.820409,4237.435794,4233.84605,4251.281947,4241.538358,4258.974255,4252.307588,4296.410151
44,0,4287.692203,4239.487076,4236.922973,4253.84605,4237.435794,4231.281948,4234.871691,4236.922973,4231.281948,4243.58964,4242.051178,4268.205024,4252.820409,4320.512715
45,0,4292.820408,4229.743486,4232.820409,4266.666562,4231.281948,4227.692204,4232.820409,4231.281948,4228.205025,4235.384512,4233.84605,4270.256306,4247.179383,4332.307586
46,0,4291.794767,4216.922974,4229.743486,4250.256306,4215.384512,4203.589641,4221.025538,4223.07682,4219.487076,4225.128102,4225.128102,4256.922973,4236.410153,4337.435791
47,0,4298.974254,4223.58964,4236.922973,4240.512717,4205.128102,4188.205026,4214.871692,4217.435794,4213.33323,4211.794769,4224.615281,4258.974255,4233.84605,4349.743483
48,0,4305.1281,4241.025537,4244.10246,4260.512716,4216.922974,4194.871692,4216.922974,4215.897333,4217.435794,4214.358871,4229.230666,4275.384511,4244.615281,4370.769124
49,0,4304.102459,4239.487076,4246.666563,4267.692203,4224.102461,4197.435795,4214.358871,4215.384512,4216.922974,4222.563999,4226.153743,4267.692203,4244.10246,4367.17938
50,0,4291.794767,4229.230666,4231.281948,4245.640922,4215.384512,4188.717846,4209.743487,4215.384512,4214.871692,4223.07682,4221.025538,4249.743486,4238.461435,4342.051176
51,0,4286.153741,4229.743486,4217.435794,4230.256307,4212.82041,4193.333231,4208.717846,4217.435794,4217.948615,4221.538358,4221.538358,4251.794768,4241.538358,4328.205022
52,0,4284.61528,4235.384512,4225.128102,4248.717845,4226.153743,4201.538359,4210.769128,4221.025538,4221.538358,4226.153743,4223.58964,4256.410152,4239.487076,4323.076817
53,0,4285.640921,4233.84605,4236.922973,4261.538357,4227.692204,4205.128102,4214.358871,4225.128102,4223.07682,4225.128102,4221.025538,4252.820409,4229.230666,4309.230664
54,0,4273.846049,4231.281948,4228.205025,4243.076819,4215.384512,4209.743487,4218.974256,4225.128102,4224.615281,4223.58964,4216.410153,4251.794768,4224.615281,4294.87169
55,0,4269.743485,4233.33323,4222.563999,4232.307589,4210.769128,4218.974256,4222.051179,4227.179384,4226.666563,4229.743486,4218.974256,4256.922973,4223.58964,4292.307587
56,0,4265.128101,4228.717845,4228.717845,4240.512717,4215.897333,4221.025538,4224.615281,4229.743486,4224.615281,4230.256307,4221.025538,4257.948614,4226.153743,4285.1281
57,0,4261.538357,4216.410153,4230.769127,4241.025537,4215.384512,4218.461435,4227.179384,4228.717845,4220.512717,4214.358871,4213.33323,4252.820409,4227.179384,4262.051178
58,0,4261.538357,4216.410153,4228.205025,4239.487076,4213.846051,4222.563999,4227.692204,4226.666563,4223.07682,4211.281948,4206.666564,4247.179383,4219.999897,4243.58964
59,0,4262.563998,4216.410153,4228.717845,4243.58964,4212.82041,4224.615281,4224.102461,4226.153743,4229.743486,4223.07682,4211.794769,4244.615281,4217.435794,4244.10246
60,0,4251.281947,4201.538359,4228.717845,4233.84605,4212.307589,4221.025538,4217.435794,4223.58964,4223.58964,4219.487076,4212.82041,4243.076819,4220.512717,4248.205024
61,0,4247.179383,4202.051179,4224.102461,4218.974256,4212.82041,4219.487076,4213.33323,4219.487076,4219.487076,4212.307589,4208.717846,4242.051178,4221.025538,4241.025537
62,0,4253.333229,4220.512717,4225.128102,4230.769127,4213.33323,4222.051179,4215.384512,4219.999897,4224.615281,4217.948615,4210.256307,4241.538358,4223.58964,4234.871691
63,0,4256.410152,4223.58964,4229.743486,4249.743486,4216.922974,4224.102461,4221.538358,4224.615281,4223.58964,4224.102461,4210.256307,4241.025537,4225.128102,4235.897332
64,0,4250.256306,4216.922974,4222.563999,4240.512717,4215.897333,4225.640922,4227.692204,4228.717845,4222.051179,4221.025538,4205.128102,4239.487076,4219.487076,4222.051179
65,0,4246.666563,4228.205025,4216.922974,4235.897332,4221.025538,4224.615281,4229.743486,4233.33323,4226.666563,4229.230666,4208.205025,4237.948614,4227.692204,4215.897333
66,0,4259.999896,4241.538358,4228.205025,4248.717845,4232.820409,4226.153743,4234.871691,4237.435794,4232.307589,4239.487076,4216.410153,4240.512717,4245.640922,4229.743486
67,0,4258.974255,4236.922973,4233.84605,4235.897332,4234.358871,4226.666563,4235.897332,4235.897332,4235.384512,4233.84605,4216.410153,4245.640922,4243.58964,4230.769127
68,0,4243.58964,4222.563999,4219.999897,4211.281948,4217.435794,4224.102461,4226.666563,4232.820409,4236.410153,4223.58964,4209.743487,4239.487076,4229.743486,4213.33323
69,0,4236.922973,4218.461435,4212.307589,4224.615281,4212.307589,4226.666563,4224.102461,4233.84605,4234.358871,4234.358871,4207.692205,4230.256307,4227.179384,4207.179384
70,0,4247.179383,4219.999897,4221.025538,4251.281947,4218.974256,4233.33323,4232.307589,4234.871691,4230.769127,4237.948614,4205.640923,4229.230666,4224.102461,4207.179384
71,0,4249.230665,4226.666563,4226.666563,4241.538358,4227.179384,4231.281948,4232.820409,4232.307589,4230.256307,4227.692204,4202.564,4228.205025,4223.07682,4206.666564
72,0,4253.84605,4230.769127,4227.692204,4221.538358,4231.281948,4230.256307,4229.743486,4235.384512,4230.769127,4229.230666,4207.692205,4232.307589,4232.307589,4206.666564
73,0,4252.307588,4223.58964,4227.179384,4236.410153,4230.769127,4231.794768,4232.820409,4237.435794,4229.230666,4234.871691,4211.794769,4235.897332,4235.384512,4201.538359
74,0,4243.076819,4208.205025,4218.974256,4240.512717,4228.205025,4233.84605,4234.871691,4231.794768,4227.179384,4223.58964,4204.102461,4225.128102,4225.640922,4196.922974
75,0,4236.410153,4208.205025,4209.743487,4210.769128,4229.743486,4230.769127,4232.820409,4226.666563,4229.230666,4221.025538,4201.025538,4219.487076,4226.153743,4193.333231
76,0,4247.692204,4223.07682,4215.384512,4206.666564,4229.743486,4225.640922,4232.820409,4228.717845,4229.743486,4231.794768,4211.281948,4229.743486,4236.410153,4191.794769
77,0,4252.820409,4222.051179,4224.102461,4239.487076,4230.256307,4224.615281,4230.769127,4228.205025,4227.692204,4234.358871,4210.769128,4228.205025,4236.410153,4196.922974
78,0,4253.333229,4210.256307,4224.102461,4244.615281,4229.230666,4229.230666,4227.692204,4228.205025,4230.769127,4236.922973,4205.128102,4224.615281,4234.871691,4207.692205
79,0,4253.84605,4214.358871,4222.563999,4224.102461,4224.615281,4231.281948,4232.307589,4231.281948,4230.769127,4243.076819,4210.256307,4235.384512,4239.999896,4211.281948
80,0,4257.435793,4220.512717,4228.717845,4218.974256,4227.179384,4228.717845,4234.871691,4232.307589,4228.205025,4239.999896,4215.384512,4238.461435,4247.179383,4208.205025
81,0,4252.307588,4213.846051,4231.281948,4228.205025,4230.769127,4230.769127,4231.794768,4231.794768,4226.666563,4232.307589,4211.281948,4234.358871,4246.666563,4205.128102
82,0,4247.179383,4214.358871,4221.538358,4228.205025,4227.179384,4230.256307,4230.256307,4230.769127,4226.153743,4232.820409,4211.281948,4236.922973,4238.461435,4206.153743
83,0,4247.692204,4214.871692,4216.410153,4208.717846,4221.025538,4225.128102,4228.205025,4229.743486,4223.58964,4226.153743,4211.281948,4235.897332,4230.256307,4202.564
84,0,4249.230665,4209.230666,4222.051179,4206.666564,4224.615281,4225.128102,4227.692204,4228.205025,4222.051179,4221.025538,4207.692205,4227.179384,4233.33323,4199.999897
85,0,4252.820409,4213.33323,4229.230666,4234.871691,4224.615281,4232.820409,4230.256307,4225.640922,4226.153743,4224.102461,4203.07682,4226.666563,4232.307589,4197.435795
86,0,4248.205024,4228.717845,4226.666563,4244.10246,4226.666563,4234.358871,4232.307589,4228.205025,4233.33323,4233.33323,4207.179384,4241.025537,4227.179384,4203.07682
87,0,4247.692204,4230.256307,4228.717845,4219.487076,4234.871691,4233.33323,4233.33323,4237.948614,4236.922973,4238.974255,4218.461435,4248.717845,4237.948614,4212.307589
88,0,4251.794768,4226.666563,4233.33323,4218.974256,4238.461435,4231.281948,4233.84605,4234.358871,4234.871691,4238.461435,4218.461435,4234.358871,4245.128101,4210.769128
89,0,4258.461434,4225.640922,4231.794768,4237.948614,4230.256307,4229.743486,4231.794768,4227.179384,4231.281948,4232.820409,4207.692205,4221.538358,4233.33323,4198.461436
90,0,4248.205024,4224.615281,4222.563999,4229.230666,4229.230666,4227.692204,4231.281948,4226.153743,4226.153743,4228.205025,4206.153743,4225.128102,4226.153743,4196.922974
91,0,4249.230665,4229.230666,4225.128102,4225.128102,4234.358871,4230.769127,4234.358871,4228.205025,4226.153743,4225.640922,4213.33323,4231.794768,4229.743486,4203.07682
92,0,4255.384511,4230.256307,4235.897332,4238.461435,4234.358871,4231.281948,4232.820409,4229.230666,4229.230666,4232.820409,4213.33323,4230.256307,4231.281948,4198.461436
93,0,4254.35887,4221.025538,4232.307589,4226.153743,4229.743486,4229.743486,4228.717845,4226.666563,4226.666563,4231.281948,4208.205025,4225.640922,4228.717845,4191.281949
94,0,4246.153742,4228.205025,4225.640922,4209.230666,4231.794768,4232.307589,4230.256307,4226.153743,4225.128102,4223.07682,4210.256307,4227.179384,4233.33323,4198.974256
95,0,4250.256306,4238.974255,4232.307589,4218.974256,4232.307589,4237.435794,4231.281948,4230.256307,4229.230666,4230.256307,4212.82041,4233.33323,4236.922973,4212.82041
96,0,4256.410152,4238.974255,4233.84605,4231.794768,4227.692204,4236.410153,4231.794768,4230.769127,4233.33323,4243.076819,4214.871692,4234.871691,4231.794768,4213.846051
97,0,4264.10246,4239.487076,4228.717845,4229.743486,4227.179384,4232.820409,4235.384512,4232.820409,4233.33323,4244.615281,4219.999897,4237.435794,4230.256307,4207.692205
98,0,4259.487075,4234.358871,4227.179384,4226.666563,4226.153743,4233.84605,4236.922973,4237.948614,4231.281948,4243.076819,4219.487076,4239.487076,4235.384512,4206.666564
99,0,4245.128101,4219.999897,4227.692204,4228.717845,4220.512717,4232.307589,4233.84605,4236.410153,4228.205025,4236.410153,4209.230666,4229.743486,4236.410153,4204.615282
100,0,4241.538358,4219.999897,4227.179384,4224.102461,4214.358871,4226.666563,4231.281948,4231.281948,4226.666563,4221.025538,4209.230666,4225.128102,4233.33323,4199.487077
101,0,4247.179383,4224.615281,4224.615281,4214.358871,4215.384512,4224.102461,4229.743486,4229.743486,4228.717845,4229.743486,4218.461435,4231.794768,4235.897332,4201.025538
102,0,4246.153742,4218.461435,4227.692204,4219.999897,4222.563999,4229.230666,4230.256307,4227.692204,4231.281948,4241.538358,4219.487076,4240.512717,4241.025537,4207.692205
103,0,4247.179383,4231.281948,4237.435794,4237.948614,4228.205025,4233.33323,4232.820409,4228.205025,4232.820409,4234.871691,4220.512717,4247.179383,4246.666563,4217.948615
104,0,4259.487075,4242.563999,4239.487076,4229.743486,4225.128102,4232.307589,4231.794768,4229.743486,4229.743486,4235.384512,4221.025538,4245.640922,4247.692204,4221.025538
