title:A                                                                               , recorded:02.07.20 13.28.07, sampling:128, subject:S                                                                               , labels:COUNTER INTERPOLATED AF3 F7 F3 FC5 T7 P7 O1 O2 P8 T8 FC6 F4 F8 AF4,, units:emotiv,,,,,,,,,
39,0,4224.102461,4215.384512,4252.307588,4225.640922,4227.179384,4262.563998,4232.307589,4362.563996,3806.153753,4199.999897,4210.769128,4252.820409,4217.948615,4232.820409
40,0,4214.358871,4212.307589,4244.10246,4223.58964,4225.640922,4256.410152,4226.153743,4354.871688,3771.281959,4199.487077,4208.717846,4253.333229,4217.948615,4225.640922
41,0,4208.717846,4185.640923,4236.922973,4225.640922,4203.07682,4218.461435,4214.871692,4348.717842,3733.333242,4185.128103,4202.564,4246.666563,4210.769128,4217.948615
42,0,4202.051179,4167.179385,4225.128102,4218.974256,4182.564,4187.692205,4202.051179,4334.871689,3638.461449,4159.487078,4190.256308,4237.435794,4189.230667,4198.461436
43,0,4196.410154,4173.846052,4221.538358,4211.281948,4186.153744,4188.717846,4201.538359,4326.15374,3552.820426,4153.846052,4184.615282,4231.281948,4178.974257,4184.102462
44,0,4206.153743,4181.538359,4232.307589,4222.051179,4194.358872,4201.538359,4211.794769,4334.358868,3517.948632,4164.615283,4190.256308,4234.871691,4193.333231,4195.897333
45,0,4213.846051,4182.564,4232.307589,4230.769127,4194.358872,4206.153743,4218.461435,4337.948612,3452.307608,4168.205026,4193.846051,4241.538358,4199.999897,4216.410153
46,0,4204.615282,4173.333231,4221.538358,4215.897333,4189.230667,4203.589641,4215.384512,4328.205022,3409.230686,4163.589642,4189.743487,4240.512717,4188.717846,4208.205025
47,0,4195.384513,4157.948616,4222.563999,4210.769128,4189.230667,4191.281949,4209.230666,4324.102458,3506.15376,4166.666565,4190.769128,4238.461435,4187.692205,4188.205026
48,0,4201.538359,4143.589642,4230.256307,4223.07682,4186.666564,4178.461436,4204.102461,4321.025535,3593.333245,4159.487078,4190.769128,4241.025537,4192.30759,4193.846051
49,0,4199.999897,4144.102463,4222.051179,4221.538358,4183.076821,4175.384513,4206.153743,4312.307587,3554.358887,4151.79477,4184.615282,4239.487076,4188.205026,4208.205025
50,0,4197.435795,4153.846052,4212.82041,4215.384512,4181.538359,4177.948616,4207.692205,4310.256305,3570.769143,4159.999898,4179.999898,4237.948614,4185.128103,4200.512718
51,0,4190.769128,4154.358873,4216.410153,4221.025538,4178.461436,4178.974257,4203.589641,4312.820407,3673.333244,4162.05118,4180.512718,4238.461435,4186.153744,4192.30759
52,0,4182.564,4147.179386,4223.58964,4219.999897,4172.820411,4176.410154,4201.025538,4309.743484,3690.769141,4150.256309,4179.999898,4238.461435,4179.999898,4197.948615
53,0,4176.410154,4149.743488,4224.102461,4213.846051,4172.820411,4176.410154,4207.179384,4303.076818,3634.358885,4145.640924,4177.435795,4238.974255,4177.435795,4195.897333
54,0,4185.640923,4159.487078,4226.666563,4214.358871,4175.897334,4178.461436,4211.281948,4299.487074,3619.487091,4146.666565,4177.948616,4241.025537,4178.461436,4186.666564
55,0,4189.230667,4158.974257,4228.205025,4212.82041,4176.922975,4176.922975,4204.615282,4297.948613,3628.71786,4147.179386,4176.922975,4238.461435,4179.487077,4186.666564
56,0,4185.640923,4158.461437,4225.128102,4208.205025,4171.79477,4174.358872,4194.871692,4294.358869,3618.97427,4150.769129,4176.410154,4237.435794,4178.461436,4191.794769
57,0,4185.640923,4169.230667,4223.58964,4210.256307,4167.692206,4172.30759,4195.384513,4291.794767,3617.435809,4153.333232,4177.948616,4239.999896,4176.410154,4194.358872
58,0,4192.30759,4182.05118,4229.743486,4221.025538,4180.512718,4180.512718,4204.615282,4292.820408,3618.46145,4156.410155,4180.512718,4239.487076,4182.564,4194.358872
59,0,4191.794769,4191.281949,4236.922973,4227.179384,4193.846051,4191.794769,4213.33323,4295.38451,3623.076834,4164.615283,4185.128103,4237.948614,4189.230667,4192.82041
60,0,4188.717846,4197.948615,4232.820409,4226.153743,4191.281949,4193.333231,4215.897333,4295.897331,3623.076834,4169.743488,4190.256308,4239.999896,4187.179385,4195.897333
61,0,4192.30759,4192.30759,4230.256307,4224.615281,4186.666564,4188.205026,4213.33323,4292.307587,3621.538373,4165.640924,4190.256308,4239.999896,4184.102462,4198.974256
62,0,4191.794769,4182.05118,4230.769127,4226.666563,4188.717846,4181.025539,4205.640923,4283.076818,3622.564014,4162.564001,4189.743487,4234.358871,4189.743487,4198.974256
63,0,4191.281949,4183.589641,4228.205025,4223.58964,4183.589641,4177.435795,4198.461436,4275.384511,3637.435808,4163.589642,4187.179385,4226.666563,4189.230667,4195.384513
64,0,4193.333231,4193.846051,4224.615281,4223.07682,4185.640923,4181.538359,4199.999897,4276.922972,3637.948629,4166.153744,4181.538359,4223.07682,4178.974257,4192.82041
65,0,4196.410154,4196.922974,4231.281948,4229.230666,4196.410154,4192.30759,4207.692205,4280.512716,3632.307603,4162.05118,4183.076821,4230.256307,4181.025539,4202.564
66,0,4195.384513,4198.461436,4241.538358,4233.84605,4197.948615,4195.897333,4214.871692,4281.538357,3636.922988,4169.743488,4192.30759,4240.512717,4197.435795,4211.794769
67,0,4196.410154,4200.512718,4235.897332,4228.717845,4188.717846,4193.333231,4213.33323,4277.948613,3631.281962,4176.922975,4191.281949,4234.871691,4198.461436,4196.410154
68,0,4194.358872,4197.435795,4228.205025,4225.640922,4189.743487,4191.794769,4213.846051,4276.410152,3614.358886,4171.281949,4187.179385,4226.666563,4187.692205,4190.769128
69,0,4199.487077,4192.30759,4235.897332,4231.794768,4199.999897,4200.512718,4224.615281,4283.589639,3615.897347,4177.948616,4194.358872,4235.384512,4196.922974,4212.82041
70,0,4202.051179,4202.564,4239.999896,4236.410153,4207.179384,4211.794769,4232.307589,4288.205023,3621.025552,4194.358872,4199.999897,4241.538358,4211.794769,4217.435794
71,0,4203.07682,4214.358871,4230.256307,4230.769127,4204.615282,4210.769128,4228.717845,4282.051177,3621.538373,4191.281949,4194.358872,4235.897332,4204.102461,4204.102461
72,0,4200.512718,4206.666564,4226.153743,4228.205025,4203.07682,4202.051179,4224.102461,4276.922972,3621.538373,4179.999898,4196.410154,4235.384512,4198.461436,4209.743487
73,0,4198.974256,4189.743487,4234.871691,4228.717845,4202.051179,4201.025538,4226.153743,4279.999895,3619.487091,4184.102462,4204.102461,4241.025537,4206.666564,4219.999897
74,0,4194.358872,4183.589641,4236.410153,4223.58964,4193.846051,4198.461436,4225.128102,4277.435793,3616.410168,4185.640923,4199.487077,4236.922973,4205.640923,4213.33323
75,0,4201.025538,4186.153744,4238.461435,4226.666563,4195.384513,4196.410154,4223.07682,4273.846049,3607.692219,4184.615282,4195.384513,4234.871691,4203.07682,4214.358871
76,0,4209.743487,4190.769128,4245.640922,4239.999896,4209.743487,4205.128102,4226.666563,4273.846049,3597.435809,4192.82041,4202.564,4241.025537,4210.256307,4218.974256
77,0,4207.179384,4188.205026,4248.717845,4234.871691,4208.717846,4208.717846,4229.230666,4271.281947,3588.20504,4187.692205,4203.07682,4244.10246,4211.794769,4213.846051
78,0,4201.538359,4178.974257,4249.743486,4223.07682,4195.897333,4199.999897,4223.07682,4266.666562,3585.128117,4177.435795,4198.461436,4244.10246,4207.179384,4214.871692
79,0,4210.769128,4182.05118,4248.205024,4229.230666,4199.999897,4198.461436,4221.538358,4267.692203,3584.615297,4188.205026,4204.102461,4245.128101,4210.256307,4226.153743
80,0,4224.102461,4189.743487,4247.179383,4237.948614,4208.717846,4206.153743,4227.179384,4271.281947,3592.820425,4204.615282,4211.281948,4246.666563,4218.974256,4228.717845
81,0,4219.487076,4182.564,4249.230665,4235.384512,4206.666564,4205.128102,4228.205025,4271.281947,3599.487091,4208.717846,4212.307589,4244.10246,4224.102461,4222.563999
82,0,4207.179384,4169.743488,4247.692204,4228.205025,4200.512718,4199.999897,4223.07682,4267.179383,3596.410168,4199.487077,4207.179384,4238.461435,4217.948615,4219.487076
83,0,4198.974256,4169.230667,4236.922973,4224.102461,4198.461436,4201.025538,4221.025538,4259.999896,3588.20504,4191.794769,4202.564,4230.256307,4206.666564,4213.846051
84,0,4205.640923,4173.333231,4236.410153,4226.153743,4196.922974,4204.615282,4217.435794,4255.384511,3582.564015,4189.743487,4205.128102,4227.179384,4204.615282,4206.153743
85,0,4211.281948,4171.79477,4244.615281,4226.153743,4200.512718,4200.512718,4209.230666,4252.307588,3582.051194,4191.794769,4203.589641,4225.128102,4208.717846,4207.179384
86,0,4208.205025,4169.230667,4243.076819,4221.025538,4198.974256,4195.384513,4205.640923,4245.128101,3582.051194,4182.564,4198.974256,4218.974256,4206.153743,4211.281948
87,0,4205.640923,4177.435795,4239.487076,4229.230666,4200.512718,4199.487077,4210.769128,4244.10246,3584.102476,4180.512718,4204.615282,4221.538358,4209.230666,4220.512717
88,0,4216.922974,4181.025539,4244.10246,4235.384512,4208.717846,4207.692205,4213.33323,4248.717845,3588.20504,4190.256308,4211.281948,4230.256307,4213.846051,4228.205025
89,0,4212.82041,4177.948616,4244.615281,4228.717845,4211.794769,4207.179384,4210.769128,4244.615281,3585.128117,4191.794769,4207.692205,4226.666563,4212.82041,4222.051179
90,0,4205.128102,4185.128103,4237.948614,4226.153743,4209.743487,4207.692205,4211.281948,4239.487076,3582.051194,4193.333231,4206.153743,4222.563999,4214.358871,4217.948615
91,0,4207.692205,4190.256308,4234.871691,4230.256307,4208.717846,4209.743487,4213.846051,4246.666563,3585.128117,4199.999897,4208.717846,4228.717845,4216.922974,4225.640922
92,0,4211.281948,4177.435795,4237.948614,4227.692204,4204.615282,4205.128102,4213.33323,4245.128101,3587.179399,4197.435795,4208.205025,4227.692204,4214.871692,4221.538358
93,0,4205.128102,4169.743488,4233.84605,4220.512717,4197.435795,4204.615282,4211.794769,4233.84605,3583.076835,4186.153744,4205.128102,4215.384512,4206.666564,4207.179384
94,0,4199.999897,4168.717847,4225.128102,4214.358871,4194.358872,4205.128102,4207.179384,4231.794768,3577.94863,4176.410154,4204.102461,4211.281948,4202.051179,4210.256307
95,0,4193.333231,4157.948616,4228.717845,4209.743487,4190.256308,4202.051179,4204.615282,4232.820409,3577.94863,4167.692206,4200.512718,4213.33323,4197.948615,4206.666564
96,0,4195.384513,4161.53836,4237.435794,4215.384512,4192.30759,4202.564,4206.153743,4229.230666,3578.461451,4172.820411,4200.512718,4211.794769,4195.897333,4195.897333
97,0,4204.615282,4177.435795,4241.025537,4222.563999,4198.974256,4207.179384,4210.769128,4232.307589,3577.94863,4185.128103,4202.051179,4213.33323,4196.922974,4201.025538
98,0,4209.743487,4173.333231,4238.461435,4216.410153,4199.487077,4206.666564,4209.230666,4233.84605,3584.102476,4184.615282,4199.487077,4211.281948,4198.461436,4212.307589
99,0,4201.025538,4159.487078,4227.179384,4197.948615,4188.205026,4205.128102,4197.948615,4226.153743,3584.615297,4174.871693,4192.30759,4201.025538,4191.794769,4199.999897
100,0,4187.179385,4146.153745,4215.384512,4183.076821,4174.871693,4204.102461,4187.179385,4215.897333,3570.256323,4166.153744,4186.153744,4189.230667,4181.538359,4177.948616
101,0,4181.538359,4121.538361,4210.256307,4167.179385,4164.102462,4196.922974,4177.948616,4204.615282,3559.487092,4148.717847,4178.461436,4179.999898,4171.79477,4166.666565
102,0,4171.79477,4112.307592,4196.922974,4148.717847,4156.410155,4192.30759,4171.281949,4199.999897,3562.051195,4139.999899,4171.79477,4173.333231,4165.128103,4162.564001
103,0,4157.435796,4116.922976,4179.999898,4135.384514,4144.615283,4192.30759,4164.102462,4198.461436,3561.025554,4132.307591,4166.153744,4163.589642,4155.897334,4147.692206
104,0,4150.256309,4106.153746,4179.999898,4129.743489,4137.948617,4185.640923,4155.897334,4192.30759,3556.410169,4118.461438,4159.999898,4152.820411,4146.153745,4131.28195
105,0,4159.487078,4097.948618,4191.794769,4135.384514,4138.461437,4185.640923,4154.358873,4187.179385,3560.512733,4119.487079,4162.05118,4163.589642,4150.769129,4134.358873
106,0,4161.53836,4114.358874,4192.82041,4143.076822,4143.076822,4195.384513,4160.512719,4189.230667,3569.743502,4138.974258,4169.743488,4179.999898,4165.128103,4149.743488
107,0,4162.05118,4112.307592,4193.333231,4138.974258,4137.948617,4192.30759,4156.410155,4187.692205,3568.717861,4138.461437,4167.692206,4169.743488,4161.025539,4150.769129
108,0,4161.025539,4089.230669,4196.922974,4130.256309,4127.692207,4181.025539,4144.615283,4177.435795,3561.025554,4121.538361,4157.435796,4153.333232,4147.692206,4139.999899
109,0,4158.461437,4093.846054,4188.717846,4122.564002,4128.205027,4184.615282,4142.564001,4172.820411,3553.333246,4115.384515,4153.846052,4155.897334,4146.153745,4133.846053
110,0,4154.871693,4117.948617,4174.358872,4118.461438,4137.948617,4193.846051,4149.743488,4177.948616,3550.769144,4119.999899,4157.948616,4158.461437,4148.717847,4137.948617
111,0,4156.922975,4117.948617,4177.435795,4118.461438,4139.999899,4192.82041,4150.769129,4182.05118,3553.333246,4125.128104,4159.487078,4157.435796,4149.743488,4142.564001
112,0,4154.871693,4107.692207,4182.564,4121.02554,4136.922976,4190.769128,4147.692206,4178.974257,3555.384528,4129.743489,4160.512719,4161.025539,4155.384514,4139.487078
113,0,4154.871693,4115.384515,4176.410154,4126.153745,4137.948617,4192.82041,4149.230668,4179.487077,3554.358887,4136.410155,4162.564001,4161.025539,4161.53836,4135.384514
114,0,4156.922975,4117.435797,4178.974257,4133.846053,4137.948617,4193.846051,4151.79477,4179.999898,3550.256323,4136.922976,4158.974257,4155.384514,4161.025539,4134.871694
115,0,4155.384514,4107.692207,4185.640923,4134.871694,4137.948617,4191.281949,4151.28195,4172.30759,3550.769144,4129.230668,4154.358873,4149.230668,4156.922975,4142.051181
116,0,4153.846052,4110.25631,4185.640923,4130.76913,4137.948617,4189.743487,4145.128104,4166.666565,3553.846067,4121.02554,4153.333232,4151.28195,4152.307591,4144.615283
117,0,4155.897334,4119.999899,4181.538359,4131.28195,4138.974258,4189.743487,4139.999899,4167.692206,3550.769144,4118.461438,4153.333232,4154.358873,4149.743488,4131.28195
118,0,4151.28195,4113.333233,4177.948616,4128.205027,4139.487078,4192.82041,4141.53836,4168.717847,3548.717862,4114.358874,4151.28195,4151.28195,4145.640924,4124.102463
119,0,4143.076822,4100.51272,4176.410154,4121.02554,4140.512719,4192.82041,4146.153745,4170.256308,3557.948631,4116.410156,4150.256309,4147.179386,4146.666565,4138.461437
120,0,4146.153745,4095.897336,4179.487077,4115.897335,4136.922976,4190.769128,4149.230668,4170.769129,3565.128118,4120.51272,4146.153745,4146.153745,4148.717847,4143.589642
121,0,4152.307591,4101.538361,4182.564,4126.153745,4137.435796,4193.333231,4153.846052,4169.743488,3567.1794,4125.128104,4146.153745,4146.153745,4149.743488,4135.384514
122,0,4155.897334,4109.230669,4182.564,4143.076822,4145.640924,4200.512718,4158.974257,4170.769129,3577.94863,4133.846053,4149.743488,4147.179386,4154.871693,4135.384514
123,0,4155.384514,4116.410156,4177.435795,4147.179386,4154.871693,4199.999897,4159.999898,4171.281949,3585.128117,4142.564001,4155.897334,4150.769129,4163.589642,4138.974258
124,0,4163.589642,4120.51272,4176.410154,4142.051181,4152.820411,4195.897333,4159.487078,4169.230667,3582.051194,4143.076822,4163.076821,4152.307591,4163.589642,4139.487078
125,0,4162.564001,4119.487079,4180.512718,4141.53836,4150.769129,4195.897333,4159.487078,4167.692206,3586.666579,4146.153745,4164.102462,4151.28195,4164.102462,4144.102463
126,0,4155.384514,4113.846053,4181.538359,4143.589642,4150.769129,4197.948615,4158.461437,4164.102462,3594.358886,4143.589642,4162.05118,4151.28195,4163.076821,4144.102463
127,0,4150.256309,4107.179387,4180.512718,4144.615283,4147.179386,4195.897333,4158.461437,4159.999898,3595.384527,4129.743489,4158.974257,4151.28195,4154.871693,4141.53836
128,0,4153.846052,4101.538361,4185.128103,4147.692206,4143.589642,4197.435795,4159.999898,4162.564001,3597.94863,4126.666566,4154.871693,4152.820411,4155.384514,4143.076822
0,0,4151.79477,4101.538361,4179.999898,4147.179386,4146.666565,4203.07682,4159.999898,4163.589642,3598.974271,4131.794771,4151.79477,4158.974257,4159.487078,4134.358873
1,0,4150.769129,4108.717848,4171.79477,4145.640924,4150.256309,4203.589641,4159.487078,4161.025539,3597.435809,4129.743489,4153.846052,4172.30759,4154.358873,4130.76913
2,0,4153.846052,4124.615284,4177.948616,4153.333232,4156.410155,4206.666564,4164.615283,4164.102462,3605.640937,4134.358873,4162.05118,4189.230667,4159.487078,4158.461437
3,0,4161.025539,4147.179386,4192.82041,4167.179385,4171.281949,4218.974256,4176.410154,4172.30759,3621.025552,4154.871693,4175.384513,4207.179384,4179.999898,4187.179385
4,0,4168.717847,4159.487078,4195.384513,4176.410154,4174.871693,4224.102461,4180.512718,4171.281949,3626.666578,4164.102462,4183.076821,4216.410153,4186.666564,4182.05118
5,0,4170.769129,4156.410155,4189.230667,4177.948616,4166.666565,4218.461435,4175.384513,4165.128103,3628.205039,4157.948616,4179.487077,4213.33323,4177.435795,4171.79477
6,0,4169.230667,4157.435796,4187.179385,4176.922975,4163.589642,4219.487076,4173.846052,4163.076821,3629.743501,4155.897334,4175.897334,4212.82041,4174.358872,4177.948616
7,0,4168.717847,4166.666565,4188.717846,4177.948616,4172.30759,4223.58964,4175.897334,4164.615283,3630.256321,4158.974257,4175.897334,4214.871692,4178.461436,4177.948616
8,0,4171.79477,4166.666565,4194.358872,4184.615282,4178.461436,4223.07682,4178.461436,4166.153744,3633.333244,4155.384514,4175.384513,4217.435794,4180.512718,4171.79477
9,0,4169.743488,4161.53836,4196.410154,4189.743487,4180.512718,4223.07682,4187.692205,4169.743488,3642.051193,4159.487078,4182.05118,4225.128102,4183.589641,4183.076821
10,0,4166.153744,4166.153744,4196.410154,4191.281949,4185.128103,4230.769127,4199.999897,4178.461436,3651.281962,4177.948616,4189.743487,4236.922973,4189.743487,4194.871692
11,0,4167.692206,4178.461436,4203.589641,4199.999897,4192.82041,4236.410153,4205.128102,4185.128103,3655.897346,4190.256308,4190.769128,4243.076819,4194.871692,4193.846051
12,0,4171.79477,4174.871693,4215.897333,4207.692205,4191.281949,4232.820409,4200.512718,4178.461436,3650.256321,4175.384513,4185.128103,4241.025537,4188.205026,4190.769128
13,0,4164.102462,4168.717847,4207.179384,4204.615282,4188.205026,4224.102461,4193.846051,4168.717847,3645.640936,4163.589642,4180.512718,4238.974255,4183.076821,4192.82041
14,0,4169.230667,4177.435795,4197.435795,4204.615282,4193.333231,4223.58964,4191.281949,4172.30759,3654.358885,4175.384513,4185.128103,4242.051178,4188.717846,4190.769128
15,0,4179.999898,4188.205026,4206.153743,4219.487076,4202.564,4228.205025,4197.435795,4178.461436,3665.128116,4189.743487,4194.871692,4243.076819,4199.999897,4196.410154
16,0,4179.487077,4187.692205,4206.666564,4225.128102,4200.512718,4230.769127,4205.128102,4176.410154,3669.23068,4191.281949,4201.538359,4245.128101,4208.205025,4206.153743
17,0,4170.256308,4192.30759,4196.922974,4220.512717,4200.512718,4235.384512,4206.666564,4175.384513,3675.897346,4199.999897,4204.102461,4253.333229,4212.82041,4211.281948
18,0,4178.974257,4194.871692,4204.102461,4224.615281,4206.666564,4241.025537,4205.640923,4178.974257,3680.512731,4209.230666,4206.666564,4259.999896,4217.435794,4218.461435
19,0,4186.153744,4186.153744,4214.358871,4230.256307,4207.692205,4242.563999,4212.82041,4179.999898,3682.051192,4202.564,4207.179384,4257.435793,4220.512717,4226.153743
20,0,4178.974257,4190.256308,4208.717846,4226.153743,4206.153743,4241.538358,4221.538358,4178.461436,3688.205038,4201.538359,4207.179384,4259.487075,4223.58964,4231.281948
21,0,4168.205026,4209.230666,4209.230666,4227.179384,4210.256307,4239.487076,4222.563999,4181.538359,3694.871705,4211.281948,4208.205025,4267.692203,4223.58964,4232.307589
22,0,4172.30759,4214.358871,4217.435794,4241.025537,4213.846051,4238.974255,4226.153743,4186.153744,3699.99991,4213.846051,4215.384512,4270.256306,4221.025538,4229.743486
23,0,4183.076821,4209.230666,4214.358871,4248.717845,4212.307589,4241.025537,4229.230666,4186.666564,3700.51273,4210.256307,4220.512717,4268.205024,4219.487076,4228.205025
24,0,4187.179385,4216.922974,4212.307589,4250.769127,4215.384512,4242.563999,4226.153743,4185.640923,3701.538371,4217.948615,4221.025538,4272.307588,4226.153743,4241.025537
25,0,4190.256308,4224.615281,4221.538358,4259.487075,4216.922974,4237.948614,4228.205025,4185.128103,3708.717858,4226.153743,4223.07682,4279.999895,4230.769127,4247.692204
26,0,4194.358872,4222.051179,4224.615281,4266.153742,4221.538358,4236.922973,4235.384512,4185.640923,3720.51273,4227.179384,4226.153743,4281.538357,4228.717845,4239.999896
27,0,4197.948615,4229.743486,4223.07682,4268.717844,4233.84605,4248.717845,4242.051178,4191.281949,3727.179396,4233.33323,4225.640922,4283.589639,4233.33323,4249.230665
28,0,4202.051179,4245.128101,4228.205025,4277.948613,4242.563999,4259.999896,4251.794768,4201.538359,3732.820422,4249.743486,4231.794768,4287.692203,4245.640922,4267.179383
29,0,4206.153743,4237.948614,4234.871691,4284.61528,4235.384512,4258.974255,4256.922973,4202.051179,3735.897345,4252.820409,4239.487076,4288.205023,4245.640922,4263.589639
30,0,4202.051179,4225.640922,4233.33323,4281.025536,4226.666563,4251.281947,4247.692204,4193.846051,3742.564011,4246.666563,4238.461435,4284.61528,4240.512717,4260.512716
31,0,4200.512718,4229.230666,4228.717845,4277.948613,4225.640922,4249.743486,4241.025537,4191.794769,3735.384524,4244.10246,4233.84605,4278.974254,4241.025537,4269.230665
32,0,4198.974256,4229.230666,4231.281948,4282.563998,4228.205025,4252.307588,4249.230665,4193.846051,3696.922987,4245.128101,4235.897332,4277.948613,4246.153742,4264.61528
33,0,4204.102461,4221.538358,4234.871691,4283.076818,4228.717845,4255.384511,4255.897332,4194.871692,3662.051193,4241.025537,4238.974255,4282.563998,4247.692204,4252.820409
34,0,4205.128102,4231.794768,4232.307589,4283.589639,4234.871691,4251.794768,4254.35887,4197.435795,3664.102475,4240.512717,4238.974255,4279.999895,4249.743486,4257.435793
35,0,4208.717846,4251.794768,4235.897332,4295.897331,4245.128101,4249.743486,4257.435793,4202.564,3676.410167,4248.717845,4241.538358,4277.948613,4256.410152,4268.717844
36,0,4214.871692,4251.794768,4245.128101,4306.666561,4245.640922,4256.410152,4263.589639,4202.051179,3675.384526,4246.153742,4243.58964,4284.61528,4259.999896,4276.410152
37,0,4218.974256,4245.128101,4242.051178,4301.538356,4241.025537,4258.974255,4262.563998,4201.025538,3675.384526,4233.33323,4242.563999,4284.61528,4252.820409,4276.922972
38,0,4216.410153,4254.35887,4238.974255,4302.563997,4250.769127,4255.897332,4263.076819,4203.589641,3685.128115,4241.025537,4246.153742,4282.563998,4255.384511,4275.384511
39,0,4225.128102,4261.025537,4255.384511,4315.89733,4263.076819,4258.974255,4272.307588,4209.743487,3691.794782,4256.922973,4254.871691,4294.87169,4269.743485,4287.692203
40,0,4230.769127,4253.84605,4257.948614,4317.948612,4259.487075,4263.589639,4275.897331,4211.281948,3692.307602,4251.794768,4256.410152,4301.025536,4274.35887,4301.538356
41,0,4221.025538,4254.35887,4239.999896,4313.333228,4258.974255,4263.589639,4274.87169,4208.205025,3695.897346,4250.256306,4252.820409,4291.794767,4274.35887,4299.487074
42,0,4222.051179,4266.153742,4240.512717,4316.922971,4267.179383,4264.61528,4274.87169,4207.179384,3702.564012,4258.461434,4250.256306,4290.769126,4274.35887,4289.743485
43,0,4231.281948,4264.61528,4251.281947,4320.512715,4265.640921,4265.640921,4274.87169,4206.153743,3701.025551,4249.743486,4244.10246,4288.205023,4266.153742,4286.153741
44,0,4225.128102,4251.281947,4248.717845,4316.922971,4259.487075,4265.640921,4271.794767,4199.999897,3695.897346,4235.897332,4238.461435,4279.999895,4256.410152,4283.589639
45,0,4215.384512,4253.84605,4243.076819,4314.358869,4264.10246,4263.589639,4270.256306,4198.974256,3702.051192,4238.461435,4245.128101,4281.538357,4261.538357,4285.1281
46,0,4226.153743,4264.61528,4251.281947,4314.358869,4265.640921,4264.10246,4274.87169,4203.589641,3712.820422,4243.076819,4255.897332,4288.205023,4267.692203,4292.820408
47,0,4237.435794,4266.666562,4261.538357,4320.512715,4267.692203,4267.179383,4284.102459,4206.666564,3718.461448,4256.922973,4262.563998,4293.846049,4273.333229,4299.999895
48,0,4237.948614,4262.563998,4260.512716,4325.64092,4273.333229,4270.256306,4286.666562,4207.692205,3721.538371,4268.717844,4264.10246,4298.461433,4281.025536,4301.025536
49,0,4234.871691,4264.10246,4251.794768,4322.563997,4277.435793,4269.230665,4283.589639,4205.128102,3728.205037,4263.589639,4263.589639,4294.87169,4284.102459,4304.615279
50,0,4237.435794,4256.922973,4252.820409,4321.025535,4272.307588,4269.743485,4284.102459,4204.102461,3732.307601,4256.410152,4262.563998,4287.179382,4279.487075,4309.230664
51,0,4232.820409,4246.153742,4260.512716,4323.076817,4270.769126,4272.307588,4287.692203,4209.743487,3732.820422,4258.974255,4263.589639,4290.256305,4279.999895,4310.256305
52,0,4230.769127,4248.717845,4260.512716,4318.461433,4271.281947,4273.333229,4287.692203,4211.794769,3736.410165,4257.435793,4265.640921,4296.410151,4285.1281,4307.692202
53,0,4229.230666,4256.410152,4255.384511,4317.435792,4270.769126,4274.87169,4289.230664,4210.256307,3738.974268,4251.281947,4263.076819,4292.307587,4280.512716,4299.487074
54,0,4234.358871,4255.897332,4253.84605,4318.974253,4270.256306,4272.820408,4290.256305,4212.307589,3736.410165,4253.333229,4258.461434,4284.61528,4272.307588,4294.87169
55,0,4238.974255,4249.743486,4252.307588,4318.461433,4272.820408,4271.281947,4287.179382,4210.769128,3735.897345,4256.922973,4261.025537,4280.512716,4278.461434,4298.974254
56,0,4239.999896,4245.640922,4253.84605,4322.051176,4276.410152,4273.333229,4286.153741,4207.692205,3743.076832,4251.281947,4269.743485,4281.025536,4288.717844,4304.102459
57,0,4236.922973,4246.153742,4255.897332,4326.666561,4275.897331,4274.87169,4290.769126,4208.717846,3748.717857,4251.281947,4270.769126,4279.487075,4286.153741,4298.461433
58,0,4245.640922,4250.769127,4255.384511,4321.538356,4277.435793,4273.846049,4291.794767,4210.769128,3751.28196,4263.076819,4266.153742,4277.948613,4282.051177,4289.743485
59,0,4253.84605,4255.384511,4254.871691,4318.461433,4277.948613,4273.333229,4287.179382,4210.769128,3750.769139,4264.61528,4267.179383,4280.512716,4285.640921,4291.281946
60,0,4254.35887,4249.743486,4261.025537,4320.512715,4273.846049,4272.307588,4283.589639,4205.640923,3750.769139,4253.333229,4268.205024,4278.974254,4284.102459,4299.487074
61,0,4254.871691,4247.692204,4264.61528,4319.487074,4270.256306,4273.846049,4284.102459,4201.025538,3755.384524,4248.717845,4262.563998,4272.820408,4277.435793,4298.974254
62,0,4253.333229,4255.384511,4253.333229,4319.487074,4274.35887,4277.435793,4286.666562,4202.051179,3759.999908,4252.820409,4261.025537,4268.205024,4275.897331,4292.307587
63,0,4248.205024,4243.076819,4245.128101,4314.358869,4271.281947,4277.435793,4284.61528,4201.025538,3758.974267,4241.538358,4256.410152,4262.051178,4266.153742,4281.025536
64,0,4245.640922,4225.128102,4245.640922,4305.1281,4267.692203,4277.948613,4283.589639,4199.487077,3763.589652,4236.922973,4251.794768,4256.922973,4261.025537,4271.794767
65,0,4251.794768,4231.281948,4246.153742,4303.589638,4268.205024,4279.487075,4286.153741,4204.102461,3770.256318,4250.256306,4254.871691,4260.512716,4270.769126,4268.717844
66,0,4253.333229,4237.948614,4245.128101,4306.666561,4268.205024,4274.35887,4284.102459,4204.615282,3770.769139,4250.769127,4257.435793,4258.461434,4271.281947,4268.205024
67,0,4252.820409,4230.256307,4248.717845,4304.102459,4267.179383,4272.820408,4282.563998,4200.512718,3770.256318,4234.871691,4250.769127,4251.794768,4261.025537,4266.666562
68,0,4253.84605,4235.384512,4249.743486,4304.615279,4272.307588,4275.384511,4286.153741,4202.051179,3774.358882,4235.384512,4250.256306,4253.333229,4265.640921,4274.35887
69,0,4262.563998,4245.128101,4251.794768,4311.794766,4270.256306,4274.87169,4283.589639,4201.538359,3775.897344,4246.666563,4260.512716,4256.922973,4273.846049,4282.051177
70,0,4263.589639,4243.58964,4253.84605,4317.948612,4267.179383,4273.846049,4282.563998,4201.538359,3778.974267,4249.743486,4264.61528,4258.974255,4275.897331,4280.512716
71,0,4262.563998,4235.897332,4249.743486,4312.820407,4271.281947,4272.820408,4284.102459,4203.589641,3781.538369,4245.640922,4259.999896,4256.922973,4273.846049,4271.794767
72,0,4265.640921,4233.84605,4245.640922,4303.589638,4273.846049,4272.820408,4282.051177,4201.538359,3782.05119,4242.563999,4255.897332,4247.179383,4270.256306,4264.10246
73,0,4276.922972,4243.58964,4254.871691,4308.205023,4271.281947,4278.461434,4280.512716,4199.999897,3788.717856,4246.666563,4256.922973,4246.666563,4270.769126,4269.743485
74,0,4277.435793,4248.717845,4260.512716,4317.435792,4272.307588,4282.051177,4283.589639,4199.999897,3795.897343,4248.717845,4256.922973,4250.256306,4274.35887,4276.922972
75,0,4272.307588,4245.640922,4252.307588,4309.743484,4272.820408,4281.538357,4285.1281,4198.974256,3796.410164,4244.615281,4256.410152,4246.153742,4273.333229,4279.487075
76,0,4268.717844,4250.256306,4246.666563,4303.076818,4274.87169,4278.461434,4280.512716,4197.948615,3797.435805,4244.615281,4257.435793,4245.640922,4274.87169,4279.999895
77,0,4276.922972,4254.871691,4251.281947,4314.358869,4277.948613,4273.333229,4275.897331,4197.948615,3803.07683,4249.743486,4258.974255,4255.897332,4278.461434,4273.846049
78,0,4286.153741,4250.256306,4257.435793,4325.128099,4281.025536,4277.948613,4281.538357,4197.435795,3808.205035,4256.922973,4265.128101,4261.538357,4283.589639,4272.820408
79,0,4291.794767,4259.999896,4259.999896,4325.128099,4288.205023,4286.153741,4290.769126,4202.051179,3815.384522,4265.128101,4272.820408,4263.076819,4294.358869,4291.794767
80,0,4295.897331,4270.769126,4265.128101,4324.615279,4285.1281,4285.1281,4289.743485,4206.153743,3820.512727,4263.589639,4273.333229,4265.128101,4294.87169,4307.179382
81,0,4296.410151,4264.61528,4264.61528,4320.512715,4279.487075,4280.512716,4288.205023,4204.102461,3819.999907,4258.974255,4268.717844,4259.487075,4283.589639,4297.435792
82,0,4294.358869,4259.999896,4259.999896,4308.205023,4282.051177,4282.563998,4291.281946,4202.564,3825.128112,4259.999896,4269.743485,4258.974255,4283.589639,4284.61528
83,0,4291.281946,4263.589639,4261.538357,4302.563997,4287.179382,4282.051177,4289.230664,4203.589641,3831.794778,4262.051178,4275.384511,4262.563998,4293.333228,4288.717844
84,0,4292.820408,4264.10246,4265.128101,4308.717843,4282.563998,4282.563998,4286.666562,4201.538359,3828.205035,4257.435793,4276.410152,4258.461434,4289.743485,4293.333228
85,0,4294.87169,4270.769126,4265.640921,4318.974253,4283.589639,4284.102459,4289.230664,4200.512718,3830.256317,4254.871691,4274.35887,4253.333229,4285.1281,4291.794767
86,0,4306.666561,4277.948613,4272.820408,4325.64092,4287.692203,4283.589639,4288.717844,4202.564,3837.435804,4257.948614,4274.87169,4261.538357,4290.769126,4291.281946
87,0,4314.358869,4276.922972,4276.410152,4324.102458,4286.666562,4282.563998,4285.640921,4200.512718,3833.84606,4259.999896,4273.846049,4262.563998,4288.205023,4296.922972
88,0,4315.89733,4269.230665,4265.128101,4313.846048,4281.025536,4282.563998,4282.051177,4193.333231,3829.230676,4250.769127,4266.666562,4251.281947,4275.384511,4293.846049
89,0,4314.358869,4263.589639,4259.999896,4306.153741,4277.435793,4283.076818,4282.563998,4190.256308,3835.384522,4247.179383,4265.640921,4251.281947,4274.87169,4282.563998
90,0,4323.076817,4263.589639,4269.743485,4306.666561,4277.948613,4282.563998,4281.025536,4192.30759,3840.512727,4252.307588,4270.256306,4256.922973,4283.589639,4289.743485
91,0,4332.820407,4273.333229,4271.794767,4313.846048,4281.538357,4283.076818,4281.025536,4196.922974,3844.10247,4256.410152,4274.87169,4256.922973,4287.179382,4316.410151
92,0,4347.179381,4276.410152,4271.794767,4317.435792,4282.051177,4285.640921,4286.666562,4201.538359,3845.640932,4259.487075,4277.435793,4260.512716,4287.179382,4334.871689
93,0,4355.384509,4268.205024,4276.922972,4315.38451,4276.922972,4279.999895,4283.076818,4194.871692,3843.076829,4257.435793,4273.846049,4261.025537,4285.1281,4332.820407
94,0,4359.487073,4271.281947,4275.897331,4314.358869,4274.35887,4275.897331,4274.87169,4189.230667,3846.666573,4254.35887,4273.846049,4252.820409,4287.179382,4336.922971
95,0,4359.999893,4287.179382,4271.281947,4316.410151,4281.025536,4284.102459,4280.512716,4194.358872,3854.35888,4261.538357,4281.538357,4255.897332,4294.358869,4353.846047
96,0,4356.41015,4294.87169,4270.769126,4313.846048,4285.1281,4285.640921,4283.589639,4197.948615,3855.384521,4264.10246,4281.025536,4264.61528,4292.820408,4355.897329
97,0,4350.769124,4282.051177,4268.717844,4308.205023,4278.461434,4278.461434,4273.333229,4190.769128,3854.35888,4247.179383,4268.717844,4259.487075,4281.025536,4339.999894
98,0,4348.717842,4264.61528,4258.974255,4303.076818,4272.820408,4279.487075,4270.769126,4186.153744,3854.35888,4241.538358,4266.153742,4255.384511,4276.410152,4329.230663
99,0,4346.66656,4254.35887,4254.871691,4295.897331,4267.692203,4282.563998,4273.333229,4188.717846,3856.922983,4247.692204,4269.230665,4262.563998,4270.256306,4323.076817
100,0,4343.589637,4243.076819,4264.10246,4297.435792,4267.179383,4278.461434,4273.333229,4189.743487,3865.128111,4242.563999,4266.153742,4269.230665,4261.025537,4319.487074
101,0,4344.615278,4242.563999,4268.717844,4305.64092,4271.794767,4279.487075,4273.846049,4187.179385,3867.692213,4237.948614,4266.153742,4275.897331,4265.128101,4320.512715
102,0,4339.999894,4261.538357,4258.461434,4305.1281,4269.743485,4281.538357,4273.333229,4185.128103,3866.666572,4250.256306,4269.743485,4284.102459,4275.384511,4317.435792
103,0,4336.922971,4264.10246,4255.384511,4297.435792,4260.512716,4283.076818,4269.230665,4183.076821,3866.666572,4249.743486,4266.153742,4286.153741,4268.205024,4305.64092
104,0,4336.41015,4249.743486,4258.974255,4299.487074,4264.61528,4284.102459,4269.230665,4181.538359,3868.717854,4237.435794,4262.563998,4284.102459,4261.025537,4302.563997
105,0,4336.922971,4251.281947,4259.487075,4304.615279,4269.230665,4282.051177,4273.846049,4182.05118,3870.769136,4239.487076,4267.179383,4288.205023,4266.153742,4304.102459
106,0,4335.384509,4253.84605,4258.461434,4302.563997,4262.563998,4279.999895,4273.846049,4186.153744,3873.846059,4248.205024,4271.281947,4291.281946,4265.128101,4299.487074
107,0,4341.538355,4238.461435,4263.076819,4296.410151,4258.461434,4285.1281,4272.820408,4185.128103,3879.487085,4247.179383,4270.256306,4293.333228,4262.563998,4298.461433
108,0,4338.461432,4243.076819,4266.153742,4298.461433,4268.205024,4289.230664,4275.897331,4184.102462,3885.640931,4249.743486,4271.281947,4294.87169,4274.87169,4308.205023
109,0,4338.461432,4270.256306,4269.230665,4306.666561,4270.769126,4286.153741,4276.410152,4187.179385,3887.692213,4254.35887,4273.333229,4297.435792,4280.512716,4309.743484
110,0,4344.102458,4274.35887,4271.794767,4307.179382,4262.051178,4282.051177,4270.256306,4182.564,3886.153751,4249.743486,4271.281947,4300.512715,4269.230665,4301.538356
111,0,4347.692201,4258.974255,4266.666562,4297.948613,4258.974255,4285.640921,4263.076819,4176.922975,3888.717854,4247.692204,4269.230665,4302.563997,4264.10246,4297.948613
112,0,4339.999894,4257.435793,4261.538357,4291.794767,4263.589639,4290.256305,4263.076819,4175.384513,3891.794777,4246.666563,4269.230665,4302.563997,4267.692203,4297.435792
113,0,4334.871689,4261.538357,4261.538357,4292.820408,4264.10246,4285.640921,4263.589639,4174.871693,3889.743495,4239.487076,4268.717844,4299.999895,4259.487075,4290.256305
114,0,4328.717843,4254.35887,4262.051178,4290.256305,4257.435793,4281.025536,4263.076819,4176.410154,3892.820418,4240.512717,4266.666562,4299.999895,4252.820409,4282.051177
115,0,4327.179381,4248.717845,4262.563998,4286.666562,4257.948614,4291.281946,4271.794767,4185.128103,3902.564007,4255.897332,4269.230665,4305.64092,4265.640921,4285.640921
116,0,4332.820407,4257.435793,4266.666562,4292.307587,4267.179383,4298.461433,4285.1281,4192.82041,3908.717853,4268.205024,4274.87169,4311.281946,4278.461434,4297.948613
117,0,4334.871689,4263.589639,4269.230665,4298.974254,4271.794767,4291.281946,4288.205023,4192.82041,3909.743494,4265.128101,4277.948613,4312.820407,4276.922972,4301.025536
118,0,4333.333227,4256.922973,4264.61528,4294.87169,4267.179383,4287.692203,4282.563998,4193.333231,3913.333238,4256.410152,4275.897331,4315.89733,4274.35887,4290.769126
119,0,4332.307586,4244.10246,4257.948614,4290.256305,4261.538357,4288.205023,4277.435793,4192.30759,3916.410161,4256.922973,4274.35887,4312.307587,4272.820408,4286.666562
120,0,4330.256304,4233.84605,4260.512716,4292.307587,4254.871691,4286.153741,4271.794767,4187.179385,3914.358879,4259.999896,4273.333229,4303.076818,4269.230665,4287.692203
121,0,4324.615279,4236.922973,4261.538357,4293.333228,4258.974255,4287.692203,4277.435793,4186.153744,3917.435802,4260.512716,4273.333229,4304.615279,4270.256306,4285.1281
122,0,4327.692202,4236.922973,4258.461434,4290.769126,4266.666562,4290.256305,4282.051177,4186.153744,3918.974263,4255.897332,4272.820408,4311.281946,4268.717844,4278.461434
123,0,4331.794766,4231.281948,4261.025537,4289.230664,4265.640921,4286.666562,4276.922972,4182.564,3916.410161,4256.922973,4273.333229,4310.769125,4269.743485,4276.410152
124,0,4332.820407,4224.102461,4267.179383,4289.230664,4254.871691,4290.256305,4273.333229,4179.487077,3916.410161,4258.461434,4273.333229,4307.692202,4271.794767,4284.102459
125,0,4332.307586,4224.615281,4260.512716,4287.692203,4255.897332,4295.897331,4274.87169,4185.128103,3918.461443,4256.922973,4274.35887,4307.179382,4270.256306,4289.743485
126,0,4339.487073,4228.205025,4257.435793,4288.717844,4261.538357,4293.333228,4277.435793,4186.666564,3925.128109,4256.922973,4276.922972,4306.153741,4266.153742,4277.435793
127,0,4340.512714,4228.205025,4265.128101,4297.948613,4262.563998,4288.205023,4278.974254,4185.128103,3934.358878,4263.589639,4278.461434,4308.205023,4268.205024,4271.281947
128,0,4338.461432,4231.281948,4263.076819,4297.948613,4259.999896,4288.717844,4277.948613,4185.640923,3934.358878,4266.153742,4278.974254,4306.666561,4272.820408,4287.179382
0,0,4335.384509,4234.871691,4256.410152,4287.179382,4259.487075,4293.333228,4275.897331,4186.666564,3928.205032,4258.461434,4276.410152,4297.435792,4271.281947,4283.589639
1,0,4334.358868,4228.205025,4261.025537,4283.589639,4263.076819,4293.333228,4270.256306,4186.666564,3927.692212,4251.794768,4269.743485,4292.307587,4261.538357,4259.999896
2,0,4326.15374,4219.999897,4261.025537,4283.589639,4261.538357,4287.692203,4263.076819,4179.999898,3931.794776,4255.897332,4266.153742,4293.333228,4254.871691,4260.512716
3,0,4322.563997,4227.692204,4252.820409,4278.461434,4261.025537,4287.179382,4265.128101,4173.846052,3934.358878,4263.589639,4272.307588,4294.87169,4263.589639,4275.384511
4,0,4326.666561,4232.820409,4253.84605,4282.051177,4265.640921,4290.769126,4275.897331,4179.999898,3938.974263,4264.61528,4275.897331,4294.358869,4270.256306,4272.307588
5,0,4327.179381,4226.666563,4254.35887,4290.256305,4269.230665,4290.256305,4277.948613,4186.666564,3942.564006,4263.589639,4271.281947,4292.820408,4263.076819,4264.10246
6,0,4328.205022,4230.256307,4249.743486,4290.256305,4268.205024,4290.256305,4272.820408,4183.589641,3943.076827,4263.076819,4272.307588,4293.333228,4262.563998,4272.820408
7,0,4339.487073,4242.051178,4256.410152,4292.307587,4270.769126,4292.820408,4274.35887,4182.564,3946.66657,4267.692203,4282.563998,4297.948613,4275.897331,4290.769126
8,0,4342.563996,4245.640922,4263.076819,4296.410151,4271.281947,4295.897331,4279.999895,4185.128103,3948.717852,4274.87169,4286.666562,4301.025536,4282.051177,4291.281946
9,0,4335.89733,4247.179383,4264.10246,4297.948613,4272.307588,4298.461433,4283.589639,4184.102462,3950.769134,4278.974254,4286.153741,4296.410151,4276.410152,4285.1281
10,0,4344.102458,4247.692204,4274.35887,4301.538356,4272.307588,4296.410151,4284.102459,4185.640923,3956.92298,4276.922972,4285.1281,4296.922972,4273.333229,4290.256305
11,0,4343.076817,4248.205024,4269.743485,4303.589638,4273.846049,4290.769126,4284.61528,4188.717846,3963.076826,4283.076818,4285.1281,4299.487074,4276.410152,4296.922972
12,0,4333.333227,4246.666563,4254.35887,4298.461433,4275.897331,4294.358869,4285.1281,4185.640923,3961.025544,4279.487075,4287.692203,4298.974254,4278.461434,4295.38451
13,0,4332.307586,4247.179383,4256.410152,4298.974254,4277.948613,4296.922972,4285.640921,4183.589641,3958.974262,4271.281947,4290.256305,4295.897331,4280.512716,4289.230664
14,0,4336.41015,4254.871691,4267.179383,4307.692202,4275.384511,4293.846049,4285.1281,4185.640923,3962.051185,4276.922972,4286.666562,4293.333228,4279.487075,4280.512716
15,0,4330.769125,4263.076819,4266.153742,4309.743484,4272.820408,4295.38451,4283.076818,4187.179385,3965.640929,4280.512716,4282.563998,4290.256305,4276.922972,4277.948613
16,0,4332.820407,4256.922973,4268.205024,4306.153741,4270.256306,4297.435792,4284.102459,4185.128103,3965.640929,4268.717844,4282.051177,4290.769126,4275.897331,4281.025536
17,0,4332.820407,4250.769127,4279.487075,4305.64092,4273.846049,4292.307587,4287.179382,4185.128103,3967.692211,4269.230665,4278.974254,4292.820408,4277.435793,4281.025536
18,0,4327.179381,4258.461434,4280.512716,4306.666561,4281.025536,4293.333228,4284.61528,4186.153744,3968.717852,4277.435793,4275.897331,4290.256305,4274.35887,4277.948613
19,0,4327.179381,4269.230665,4272.307588,4309.743484,4283.076818,4297.435792,4283.076818,4184.615282,3973.333236,4273.846049,4278.461434,4291.281946,4273.846049,4276.410152
20,0,4335.384509,4276.922972,4272.307588,4316.922971,4282.051177,4296.410151,4287.179382,4187.692205,3983.076826,4276.922972,4283.076818,4298.974254,4280.512716,4277.948613
21,0,4328.717843,4282.563998,4275.897331,4319.999894,4285.640921,4297.948613,4291.281946,4191.281949,3988.205031,4283.589639,4284.61528,4303.589638,4285.1281,4289.743485
22,0,4313.846048,4285.640921,4274.35887,4318.461433,4290.256305,4302.563997,4293.846049,4191.281949,3986.153749,4279.487075,4284.61528,4298.974254,4285.1281,4302.051177
23,0,4306.666561,4283.589639,4276.410152,4322.563997,4290.256305,4302.563997,4294.87169,4191.281949,3988.205031,4277.435793,4285.1281,4293.333228,4284.102459,4297.948613
24,0,4309.743484,4278.974254,4278.974254,4323.589638,4288.205023,4298.974254,4289.743485,4189.743487,3993.333236,4281.538357,4284.102459,4288.205023,4279.487075,4289.230664
25,0,4306.666561,4278.974254,4272.820408,4314.871689,4284.61528,4297.948613,4283.589639,4186.666564,3993.846056,4276.922972,4281.538357,4284.102459,4273.846049,4285.1281
26,0,4300.512715,4284.61528,4267.179383,4310.256305,4283.076818,4297.948613,4286.666562,4186.666564,3992.820415,4273.333229,4283.589639,4285.1281,4275.897331,4283.076818
27,0,4297.435792,4283.589639,4264.10246,4309.743484,4281.025536,4297.948613,4286.153741,4186.666564,3990.256313,4273.846049,4285.640921,4285.640921,4278.461434,4275.384511
28,0,4296.922972,4282.051177,4257.948614,4307.692202,4283.589639,4294.87169,4275.897331,4184.102462,3990.256313,4272.307588,4279.999895,4278.461434,4277.948613,4276.410152
29,0,4303.589638,4286.153741,4258.974255,4306.666561,4283.589639,4290.256305,4272.307588,4183.076821,3993.333236,4269.743485,4268.717844,4270.769126,4274.87169,4281.025536
30,0,4297.948613,4286.666562,4259.487075,4306.153741,4281.538357,4289.743485,4276.410152,4182.05118,3994.358877,4271.281947,4264.10246,4272.820408,4274.87169,4277.948613
31,0,4287.179382,4279.999895,4259.487075,4301.025536,4281.538357,4298.461433,4278.461434,4179.999898,3994.871697,4271.281947,4267.179383,4281.538357,4278.461434,4273.333229
32,0,4286.666562,4285.1281,4262.051178,4301.538356,4284.102459,4302.051177,4281.538357,4184.102462,3995.384518,4269.230665,4268.205024,4280.512716,4277.948613,4279.487075
33,0,4297.948613,4303.076818,4263.076819,4304.615279,4281.025536,4297.948613,4282.051177,4188.205026,3994.871697,4266.153742,4262.563998,4272.820408,4270.256306,4289.743485
34,0,4295.38451,4314.871689,4264.61528,4309.230664,4282.563998,4300.512715,4285.640921,4190.769128,4001.025543,4272.820408,4264.10246,4276.922972,4273.846049,4288.205023
35,0,4289.230664,4308.717843,4269.230665,4313.333228,4290.769126,4306.666561,4288.717844,4190.256308,4007.69221,4278.461434,4267.692203,4283.076818,4284.102459,4282.051177
36,0,4287.692203,4303.589638,4260.512716,4312.820407,4293.333228,4301.025536,4284.61528,4184.615282,4005.640928,4270.769126,4258.461434,4268.717844,4277.948613,4280.512716
37,0,4290.769126,4307.179382,4255.897332,4312.307587,4286.153741,4297.948613,4282.563998,4184.615282,4002.051184,4264.61528,4252.820409,4257.948614,4266.666562,4279.487075
38,0,4284.102459,4310.256305,4263.589639,4319.487074,4285.640921,4302.563997,4292.307587,4189.743487,4007.69221,4274.35887,4263.076819,4271.794767,4275.897331,4279.999895
39,0,4276.922972,4302.563997,4266.153742,4321.538356,4291.281946,4304.615279,4296.922972,4195.384513,4014.871697,4278.974254,4267.179383,4278.974254,4281.025536,4287.179382
40,0,4276.922972,4289.230664,4262.563998,4312.820407,4287.692203,4303.076818,4289.230664,4193.846051,4013.846056,4270.769126,4258.974255,4269.743485,4268.205024,4285.640921
41,0,4284.102459,4290.769126,4258.974255,4310.256305,4282.563998,4301.025536,4286.153741,4190.769128,4011.794774,4270.256306,4260.512716,4267.179383,4266.153742,4274.87169
42,0,4282.563998,4296.410151,4254.871691,4315.89733,4284.102459,4302.563997,4289.230664,4192.30759,4014.871697,4275.384511,4266.666562,4268.717844,4273.846049,4273.846049
43,0,4276.410152,4295.38451,4258.974255,4318.461433,4286.666562,4305.1281,4292.820408,4192.82041,4016.922979,4274.35887,4266.153742,4265.640921,4275.897331,4282.563998
44,0,4272.820408,4286.153741,4262.051178,4311.794766,4285.1281,4302.563997,4289.230664,4186.153744,4013.333235,4269.743485,4265.128101,4266.666562,4276.410152,4283.076818
45,0,4268.717844,4279.999895,4251.281947,4304.102459,4284.102459,4295.897331,4279.999895,4182.05118,4011.281953,4269.230665,4262.051178,4266.153742,4275.897331,4277.435793
46,0,4272.820408,4286.153741,4250.769127,4312.307587,4283.589639,4297.948613,4278.974254,4186.666564,4011.794774,4267.692203,4258.461434,4263.076819,4272.307588,4278.974254
47,0,4277.948613,4296.922972,4266.153742,4324.102458,4285.640921,4302.563997,4286.666562,4190.769128,4016.410158,4269.743485,4263.589639,4269.743485,4275.897331,4287.179382
48,0,4274.35887,4292.820408,4263.076819,4316.922971,4285.640921,4301.538356,4287.179382,4188.717846,4019.999902,4275.897331,4269.230665,4273.333229,4280.512716,4279.487075
49,0,4264.61528,4285.1281,4249.230665,4306.666561,4283.589639,4300.512715,4281.538357,4187.179385,4024.102466,4281.538357,4268.205024,4263.076819,4283.076818,4266.666562
50,0,4267.692203,4289.743485,4253.333229,4309.743484,4284.102459,4302.563997,4283.589639,4190.769128,4030.256312,4279.999895,4266.153742,4262.051178,4284.61528,4275.897331
51,0,4269.230665,4290.769126,4258.461434,4314.871689,4285.640921,4303.076818,4287.179382,4193.846051,4031.794773,4274.35887,4268.205024,4267.692203,4282.563998,4289.743485
52,0,4265.128101,4285.1281,4254.871691,4311.281946,4284.61528,4303.076818,4285.640921,4189.230667,4029.743491,4272.307588,4270.256306,4263.589639,4281.538357,4278.974254
53,0,4259.487075,4291.281946,4252.820409,4307.692202,4284.102459,4303.589638,4283.589639,4186.666564,4034.871696,4276.922972,4266.153742,4255.897332,4280.512716,4265.128101
54,0,4259.999896,4293.846049,4252.820409,4307.179382,4281.538357,4302.051177,4280.512716,4187.692205,4038.97426,4270.769126,4258.461434,4253.333229,4270.769126,4267.179383
55,0,4252.820409,4281.538357,4245.640922,4306.153741,4276.410152,4295.897331,4276.410152,4184.102462,4034.358876,4258.461434,4257.948614,4250.256306,4266.153742,4262.563998
56,0,4251.281947,4280.512716,4245.128101,4306.666561,4280.512716,4296.410151,4276.922972,4187.692205,4036.410158,4269.743485,4266.153742,4253.84605,4278.461434,4261.538357
57,0,4256.410152,4301.025536,4255.897332,4314.358869,4290.769126,4299.999895,4282.051177,4197.435795,4045.640927,4289.230664,4273.333229,4262.051178,4288.717844,4271.794767
58,0,4259.487075,4298.461433,4257.435793,4316.410151,4284.61528,4295.38451,4277.435793,4191.281949,4045.640927,4275.897331,4269.230665,4256.922973,4278.461434,4271.281947
59,0,4255.384511,4281.538357,4251.794768,4309.743484,4275.897331,4290.769126,4269.743485,4180.512718,4039.999901,4257.435793,4259.487075,4247.692204,4267.692203,4263.076819
60,0,4251.794768,4289.230664,4247.692204,4306.153741,4280.512716,4296.410151,4272.307588,4183.076821,4039.999901,4265.640921,4259.487075,4250.256306,4272.307588,4263.076819
61,0,4247.692204,4288.205023,4242.563999,4302.051177,4278.974254,4298.974254,4274.87169,4186.153744,4042.564004,4268.717844,4265.640921,4255.384511,4276.922972,4263.589639
62,0,4247.692204,4270.769126,4238.461435,4296.410151,4273.846049,4291.281946,4272.307588,4183.589641,4045.128106,4263.076819,4269.230665,4255.384511,4277.948613,4267.179383
63,0,4251.281947,4272.307588,4243.58964,4297.435792,4275.384511,4288.717844,4269.230665,4181.538359,4046.666568,4265.128101,4269.743485,4255.897332,4279.999895,4272.820408
64,0,4251.281947,4286.666562,4248.205024,4301.025536,4283.076818,4291.281946,4268.717844,4183.076821,4046.153747,4271.281947,4270.769126,4255.384511,4279.999895,4270.256306
65,0,4255.384511,4290.769126,4248.205024,4303.589638,4284.102459,4294.87169,4269.230665,4185.640923,4046.666568,4270.256306,4271.281947,4252.307588,4277.948613,4267.692203
66,0,4253.84605,4292.307587,4247.179383,4305.1281,4277.435793,4287.179382,4267.692203,4180.512718,4046.666568,4264.10246,4270.769126,4246.153742,4276.922972,4268.717844
67,0,4243.58964,4288.717844,4240.512717,4297.948613,4264.61528,4275.384511,4255.384511,4171.79477,4039.999901,4248.205024,4266.666562,4242.563999,4267.692203,4256.922973
68,0,4241.025537,4289.743485,4238.974255,4297.948613,4267.179383,4283.589639,4253.84605,4177.948616,4045.128106,4244.10246,4268.717844,4252.820409,4266.666562,4253.84605
69,0,4254.871691,4297.948613,4247.692204,4305.64092,4275.384511,4298.461433,4269.230665,4188.717846,4058.461439,4261.025537,4282.563998,4269.743485,4277.435793,4270.256306
70,0,4255.897332,4296.410151,4244.10246,4304.615279,4271.281947,4294.87169,4270.769126,4185.640923,4064.102465,4276.410152,4288.205023,4273.333229,4278.974254,4283.076818
71,0,4249.230665,4288.205023,4234.358871,4298.974254,4262.563998,4288.205023,4259.999896,4180.512718,4060.512721,4270.256306,4282.563998,4273.846049,4271.794767,4277.435793
72,0,4240.512717,4285.640921,4231.794768,4295.38451,4258.974255,4290.256305,4257.435793,4175.897334,4057.948619,4256.922973,4277.435793,4276.922972,4268.205024,4265.640921
73,0,4237.435794,4286.153741,4232.307589,4292.820408,4258.974255,4289.743485,4255.897332,4172.30759,4061.538362,4255.897332,4277.435793,4274.35887,4265.128101,4255.384511
74,0,4230.256307,4281.025536,4227.179384,4292.820408,4260.512716,4286.666562,4254.871691,4172.30759,4065.128106,4251.794768,4277.435793,4272.307588,4258.461434,4249.230665
75,0,4229.743486,4271.794767,4224.615281,4289.743485,4254.35887,4285.640921,4254.871691,4171.281949,4059.999901,4232.820409,4272.820408,4273.333229,4249.743486,4249.743486
76,0,4231.794768,4276.922972,4229.230666,4286.666562,4250.769127,4285.1281,4253.333229,4169.230667,4058.461439,4232.820409,4270.256306,4276.922972,4250.256306,4256.922973
77,0,4237.435794,4284.102459,4235.897332,4290.769126,4257.435793,4287.179382,4256.410152,4174.358872,4066.666567,4252.820409,4277.435793,4285.1281,4258.974255,4263.076819
78,0,4235.897332,4270.256306,4232.820409,4289.743485,4253.333229,4285.1281,4257.948614,4175.384513,4068.205029,4252.820409,4277.435793,4288.205023,4257.948614,4254.35887
79,0,4227.692204,4266.666562,4221.538358,4283.076818,4244.10246,4282.051177,4252.820409,4171.281949,4063.076824,4238.974255,4267.692203,4282.563998,4249.230665,4247.692204
80,0,4229.230666,4284.61528,4224.615281,4287.179382,4250.769127,4284.61528,4253.84605,4173.333231,4069.23067,4241.538358,4271.281947,4286.153741,4250.256306,4255.897332
81,0,4238.461435,4287.179382,4233.84605,4293.846049,4256.922973,4281.538357,4257.435793,4179.487077,4075.897336,4250.769127,4283.589639,4291.794767,4256.922973,4262.051178
82,0,4242.051178,4273.846049,4236.410153,4292.307587,4251.281947,4279.999895,4254.871691,4181.025539,4075.384516,4247.179383,4279.487075,4290.769126,4254.35887,4257.435793
83,0,4238.974255,4272.307588,4232.307589,4289.743485,4251.794768,4282.563998,4254.871691,4177.435795,4074.871695,4242.563999,4270.769126,4291.794767,4249.743486,4250.769127
84,0,4232.820409,4269.743485,4227.179384,4285.640921,4250.256306,4276.922972,4251.794768,4166.666565,4072.820413,4236.922973,4269.743485,4289.230664,4242.563999,4238.461435
85,0,4224.615281,4266.666562,4224.102461,4287.692203,4249.230665,4273.333229,4247.692204,4165.640924,4072.820413,4235.384512,4272.820408,4284.102459,4241.538358,4234.871691
86,0,4231.281948,4273.846049,4226.153743,4290.769126,4252.307588,4279.999895,4250.769127,4174.358872,4077.948618,4238.461435,4274.35887,4293.333228,4246.153742,4247.692204
87,0,4237.435794,4283.589639,4226.666563,4285.640921,4251.794768,4279.487075,4253.84605,4172.820411,4083.076823,4239.999896,4275.384511,4301.025536,4248.717845,4257.435793
88,0,4238.461435,4295.38451,4229.230666,4286.153741,4249.743486,4278.974254,4254.35887,4172.30759,4086.153746,4243.076819,4279.487075,4300.512715,4255.897332,4267.179383
89,0,4244.615281,4314.358869,4234.358871,4297.435792,4256.922973,4287.179382,4255.897332,4181.538359,4092.820413,4255.384511,4287.179382,4303.076818,4268.205024,4272.820408
90,0,4251.794768,4316.922971,4235.897332,4295.38451,4253.333229,4288.717844,4253.333229,4178.974257,4099.9999,4252.820409,4286.153741,4299.999895,4263.589639,4262.563998
91,0,4238.461435,4304.102459,4230.256307,4284.61528,4244.615281,4283.076818,4251.281947,4170.256308,4102.564002,4238.461435,4279.487075,4290.256305,4249.743486,4255.384511
92,0,4234.871691,4309.230664,4225.640922,4285.640921,4248.717845,4285.1281,4254.871691,4175.897334,4104.102464,4238.461435,4282.051177,4291.794767,4250.256306,4263.589639
93,0,4238.974255,4327.692202,4223.58964,4293.333228,4255.897332,4289.743485,4257.948614,4181.025539,4103.589643,4247.179383,4290.256305,4299.487074,4258.461434,4269.743485
94,0,4239.999896,4323.589638,4225.640922,4293.846049,4252.820409,4286.153741,4254.871691,4173.846052,4102.051182,4245.128101,4287.179382,4297.948613,4255.897332,4266.666562
95,0,4235.384512,4310.769125,4230.256307,4289.743485,4249.743486,4276.410152,4252.307588,4167.179385,4102.051182,4238.974255,4279.487075,4292.307587,4250.256306,4258.974255
96,0,4235.897332,4319.487074,4230.769127,4290.769126,4250.256306,4273.846049,4253.84605,4171.281949,4101.025541,4243.076819,4281.025536,4294.358869,4253.333229,4255.897332
97,0,4239.487076,4330.256304,4227.179384,4295.38451,4249.743486,4278.974254,4254.35887,4176.922975,4103.589643,4249.230665,4286.153741,4296.922972,4258.461434,4263.076819
98,0,4245.128101,4330.256304,4224.615281,4294.358869,4252.307588,4279.487075,4253.333229,4174.871693,4110.25631,4249.743486,4286.666562,4292.820408,4254.871691,4265.128101
99,0,4242.563999,4322.051176,4224.615281,4285.1281,4246.666563,4269.743485,4247.692204,4167.179385,4107.692207,4237.948614,4277.435793,4281.025536,4244.10246,4251.281947
100,0,4233.33323,4310.769125,4226.153743,4281.025536,4241.025537,4265.640921,4245.128101,4166.666565,4099.487079,4231.281948,4269.743485,4271.281947,4241.538358,4245.640922
101,0,4236.922973,4312.820407,4229.743486,4288.717844,4250.769127,4277.435793,4252.820409,4175.384513,4101.538361,4243.076819,4277.435793,4276.922972,4250.769127,4256.410152
102,0,4244.10246,4323.589638,4229.743486,4293.846049,4257.948614,4283.076818,4257.435793,4177.948616,4109.743489,4255.897332,4287.179382,4282.563998,4260.512716,4259.487075
103,0,4244.10246,4315.38451,4227.692204,4287.692203,4246.666563,4275.384511,4251.794768,4169.743488,4107.692207,4246.153742,4280.512716,4275.897331,4255.897332,4250.769127
104,0,4242.051178,4297.435792,4227.692204,4283.589639,4241.025537,4269.743485,4248.205024,4167.692206,4109.230669,4234.358871,4272.307588,4270.769126,4247.179383,4254.871691
105,0,4247.692204,4293.846049,4227.692204,4281.538357,4245.640922,4273.333229,4247.692204,4172.820411,4115.384515,4234.871691,4276.922972,4274.35887,4247.692204,4263.076819
106,0,4250.769127,4299.487074,4224.615281,4279.999895,4246.153742,4271.794767,4250.256306,4172.820411,4114.871694,4236.922973,4282.051177,4273.846049,4254.35887,4274.35887
107,0,4264.10246,4300.512715,4235.897332,4285.1281,4239.487076,4269.230665,4251.794768,4169.230667,4112.307592,4234.871691,4281.025536,4276.410152,4256.922973,4298.461433
108,0,4281.538357,4300.512715,4244.615281,4287.179382,4233.33323,4265.128101,4245.128101,4166.666565,4112.820412,4232.307589,4278.461434,4281.538357,4257.435793,4323.076817
109,0,4290.769126,4304.102459,4235.384512,4279.999895,4233.33323,4259.487075,4236.922973,4164.615283,4111.794771,4227.179384,4278.461434,4281.025536,4256.410152,4347.179381
110,0,4289.230664,4305.1281,4229.230666,4284.102459,4241.538358,4260.512716,4241.025537,4163.589642,4108.717848,4226.666563,4280.512716,4283.589639,4258.974255,4373.333226
111,0,4298.974254,4293.333228,4237.948614,4289.743485,4237.435794,4261.538357,4240.512717,4162.564001,4108.717848,4220.512717,4278.974254,4287.179382,4257.435793,4382.563995
112,0,4311.281946,4288.717844,4242.051178,4283.076818,4230.769127,4259.487075,4232.820409,4162.564001,4112.307592,4216.410153,4276.922972,4285.1281,4256.410152,4390.769123
113,0,4319.999894,4304.615279,4244.10246,4289.230664,4242.051178,4266.666562,4238.974255,4168.205026,4119.487079,4233.84605,4283.589639,4290.769126,4262.563998,4414.358866
114,0,4322.051176,4308.205023,4251.794768,4304.102459,4250.769127,4273.333229,4246.666563,4173.333231,4127.692207,4239.487076,4286.666562,4297.948613,4265.640921,4414.871687
115,0,4324.615279,4293.846049,4257.435793,4301.025536,4243.076819,4270.256306,4244.615281,4172.820411,4132.307591,4224.615281,4283.589639,4293.333228,4265.128101,4393.846046
116,0,4320.512715,4290.256305,4252.820409,4292.307587,4239.999896,4267.692203,4247.179383,4168.205026,4134.358873,4226.153743,4282.563998,4285.640921,4266.153742,4387.17938
117,0,4316.410151,4293.846049,4249.230665,4298.461433,4251.281947,4268.717844,4252.820409,4169.230667,4135.897335,4242.563999,4285.1281,4286.666562,4271.794767,4390.769123
118,0,4318.461433,4286.666562,4256.922973,4306.666561,4255.384511,4268.205024,4250.769127,4173.333231,4138.461437,4246.153742,4287.692203,4290.769126,4273.333229,4380.512713
119,0,4312.820407,4274.87169,4257.435793,4299.487074,4248.717845,4267.179383,4251.794768,4174.358872,4142.051181,4248.205024,4290.256305,4289.743485,4272.307588,4358.974252
120,0,4297.948613,4259.999896,4244.10246,4286.666562,4242.563999,4269.230665,4255.384511,4174.871693,4142.051181,4250.256306,4288.717844,4285.1281,4273.333229,4344.102458
121,0,4292.820408,4256.922973,4245.640922,4292.307587,4252.307588,4271.794767,4254.871691,4176.922975,4143.076822,4256.410152,4287.179382,4280.512716,4277.435793,4343.076817
122,0,4301.538356,4264.61528,4255.384511,4300.512715,4258.974255,4271.794767,4254.35887,4172.30759,4145.640924,4263.589639,4288.717844,4276.410152,4275.384511,4337.435791
123,0,4298.974254,4262.563998,4243.076819,4291.794767,4251.794768,4266.666562,4248.205024,4168.717847,4140.512719,4254.871691,4285.1281,4269.743485,4268.205024,4324.102458
124,0,4290.769126,4261.538357,4234.871691,4288.717844,4248.717845,4269.743485,4242.563999,4170.769129,4132.820412,4240.512717,4278.461434,4269.743485,4262.051178,4316.922971
125,0,4289.743485,4269.743485,4243.58964,4298.461433,4257.948614,4271.281947,4246.153742,4171.281949,4138.461437,4241.025537,4271.281947,4268.205024,4252.307588,4305.64092
126,0,4295.897331,4259.999896,4248.205024,4293.846049,4259.487075,4265.128101,4248.205024,4172.820411,4145.128104,4242.051178,4265.128101,4259.999896,4245.128101,4287.692203
127,0,4289.230664,4250.769127,4240.512717,4286.153741,4255.897332,4268.717844,4249.743486,4179.487077,4145.640924,4245.128101,4267.179383,4259.999896,4255.897332,4281.025536
128,0,4282.563998,4256.410152,4235.384512,4287.692203,4255.897332,4271.794767,4250.256306,4181.538359,4145.640924,4248.205024,4271.794767,4262.563998,4264.10246,4275.897331
0,0,4277.948613,4252.307588,4238.461435,4282.051177,4251.794768,4257.948614,4244.615281,4175.897334,4144.102463,4242.563999,4270.769126,4256.410152,4259.999896,4266.153742
1,0,4278.461434,4242.051178,4242.051178,4277.435793,4246.153742,4256.410152,4240.512717,4176.410154,4144.615283,4245.640922,4271.794767,4251.281947,4259.487075,4262.563998
2,0,4275.897331,4241.538358,4235.384512,4279.487075,4247.179383,4268.205024,4243.58964,4179.487077,4151.28195,4259.999896,4273.333229,4249.743486,4263.076819,4256.922973
3,0,4273.846049,4232.307589,4227.692204,4273.846049,4245.640922,4265.128101,4244.615281,4173.846052,4152.820411,4256.410152,4270.769126,4247.179383,4261.025537,4246.666563
4,0,4269.230665,4215.897333,4231.794768,4267.179383,4239.999896,4257.948614,4244.10246,4169.743488,4151.79477,4242.563999,4268.717844,4249.743486,4254.35887,4245.128101
5,0,4269.743485,4220.512717,4236.922973,4272.307588,4238.974255,4261.538357,4243.58964,4169.743488,4154.871693,4239.487076,4268.717844,4250.769127,4244.615281,4242.563999
6,0,4270.256306,4232.307589,4236.410153,4273.333229,4239.999896,4259.487075,4237.948614,4168.205026,4156.410155,4235.384512,4262.563998,4241.538358,4235.897332,4221.025538
7,0,4262.051178,4233.84605,4230.256307,4265.128101,4243.58964,4256.410152,4233.84605,4166.153744,4152.307591,4233.33323,4254.35887,4234.358871,4233.84605,4212.307589
8,0,4259.999896,4233.33323,4224.615281,4266.666562,4250.256306,4261.025537,4236.922973,4167.179385,4150.256309,4233.84605,4251.281947,4231.281948,4234.871691,4222.051179
9,0,4268.205024,4237.435794,4225.128102,4274.87169,4253.333229,4259.999896,4240.512717,4169.230667,4157.948616,4237.948614,4255.384511,4231.794768,4238.461435,4220.512717
10,0,4273.846049,4236.410153,4230.256307,4268.205024,4246.153742,4258.461434,4237.948614,4169.230667,4163.589642,4240.512717,4258.461434,4234.358871,4239.487076,4213.846051
11,0,4269.230665,4227.692204,4228.717845,4261.025537,4243.58964,4263.589639,4236.922973,4170.769129,4163.589642,4244.615281,4259.487075,4232.307589,4239.999896,4220.512717
12,0,4264.61528,4218.461435,4225.128102,4263.076819,4245.128101,4263.589639,4237.948614,4170.769129,4162.05118,4243.58964,4257.948614,4231.281948,4243.58964,4221.538358
13,0,4261.025537,4214.871692,4227.179384,4262.051178,4243.076819,4257.435793,4238.974255,4170.256308,4163.589642,4244.615281,4257.948614,4236.410153,4246.153742,4213.846051
14,0,4267.179383,4215.384512,4239.999896,4254.871691,4236.922973,4259.487075,4243.58964,4176.922975,4170.256308,4247.692204,4262.051178,4241.538358,4245.640922,4216.410153
15,0,4266.153742,4212.82041,4239.999896,4250.769127,4237.435794,4261.025537,4248.717845,4181.025539,4172.30759,4245.128101,4261.025537,4235.897332,4245.640922,4220.512717
16,0,4258.974255,4206.666564,4228.717845,4249.743486,4236.922973,4254.35887,4241.025537,4171.79477,4165.640924,4234.871691,4251.281947,4224.615281,4236.410153,4210.769128
17,0,4256.922973,4214.871692,4229.743486,4255.384511,4240.512717,4253.333229,4233.33323,4165.640924,4165.640924,4230.256307,4247.692204,4220.512717,4225.640922,4203.07682
18,0,4266.666562,4228.717845,4234.358871,4260.512716,4247.692204,4257.435793,4239.487076,4173.333231,4172.30759,4227.692204,4250.769127,4224.102461,4225.640922,4201.025538
19,0,4270.256306,4235.897332,4228.717845,4266.153742,4252.820409,4258.461434,4248.717845,4176.410154,4173.846052,4231.794768,4252.820409,4225.128102,4230.769127,4199.999897
20,0,4272.820408,4235.384512,4230.256307,4274.87169,4252.820409,4261.538357,4251.794768,4176.410154,4177.435795,4247.179383,4256.410152,4224.102461,4234.871691,4205.128102
21,0,4269.230665,4226.666563,4237.435794,4271.281947,4249.743486,4263.589639,4250.769127,4179.999898,4183.076821,4253.84605,4256.922973,4221.538358,4232.820409,4204.102461
22,0,4265.128101,4223.58964,4227.179384,4255.897332,4247.179383,4259.999896,4247.692204,4182.05118,4179.999898,4243.076819,4252.820409,4215.384512,4222.563999,4193.333231
23,0,4261.025537,4221.538358,4216.410153,4247.692204,4241.538358,4256.922973,4242.051178,4176.922975,4175.384513,4232.820409,4250.769127,4215.384512,4220.512717,4187.179385
24,0,4258.461434,4209.743487,4218.461435,4239.487076,4238.974255,4257.948614,4234.358871,4170.769129,4176.922975,4233.33323,4249.230665,4213.846051,4223.58964,4183.589641
25,0,4255.384511,4196.410154,4217.435794,4225.640922,4234.871691,4256.922973,4227.692204,4165.640924,4173.333231,4229.230666,4246.666563,4206.666564,4222.563999,4179.999898
26,0,4252.307588,4202.051179,4210.256307,4224.102461,4230.769127,4256.922973,4222.051179,4158.461437,4167.179385,4227.179384,4246.153742,4205.640923,4225.640922,4188.717846
27,0,4251.281947,4207.179384,4208.717846,4225.640922,4225.128102,4252.820409,4214.358871,4152.307591,4161.025539,4226.666563,4242.563999,4205.640923,4223.07682,4192.30759
28,0,4255.384511,4199.487077,4212.307589,4221.025538,4223.07682,4246.666563,4209.230666,4151.28195,4161.025539,4222.051179,4238.461435,4197.435795,4215.384512,4177.435795
29,0,4257.435793,4200.512718,4217.435794,4225.640922,4223.07682,4250.256306,4211.794769,4153.333232,4165.128103,4215.384512,4241.025537,4196.922974,4215.384512,4168.717847
30,0,4252.820409,4211.794769,4214.871692,4232.307589,4223.07682,4251.281947,4210.769128,4153.846052,4163.589642,4212.307589,4241.025537,4202.051179,4217.948615,4178.974257
31,0,4254.871691,4211.794769,4211.281948,4229.230666,4222.563999,4246.666563,4207.179384,4151.28195,4161.53836,4207.179384,4235.897332,4197.948615,4212.307589,4178.974257
32,0,4256.922973,4208.717846,4216.410153,4232.820409,4223.58964,4246.153742,4215.384512,4153.846052,4167.179385,4211.794769,4235.897332,4194.358872,4211.794769,4174.871693
33,0,4262.051178,4211.281948,4222.563999,4239.487076,4225.128102,4248.205024,4221.025538,4160.512719,4172.30759,4223.07682,4242.051178,4201.538359,4219.487076,4183.589641
34,0,4264.10246,4210.256307,4215.384512,4235.897332,4227.179384,4248.205024,4214.871692,4161.53836,4173.333231,4226.153743,4245.640922,4205.640923,4224.102461,4190.769128
35,0,4259.487075,4194.358872,4212.307589,4222.051179,4223.07682,4246.153742,4208.205025,4154.358873,4168.717847,4218.461435,4242.051178,4200.512718,4220.512717,4181.025539
36,0,4247.692204,4179.999898,4217.435794,4213.33323,4222.051179,4244.10246,4210.769128,4152.307591,4168.717847,4219.999897,4240.512717,4196.922974,4217.435794,4175.897334
37,0,4245.128101,4183.589641,4213.33323,4215.897333,4222.563999,4245.640922,4212.307589,4158.461437,4174.358872,4225.640922,4241.025537,4193.846051,4214.871692,4172.30759
38,0,4243.58964,4195.897333,4206.153743,4222.051179,4220.512717,4247.179383,4210.256307,4156.410155,4177.435795,4219.999897,4235.897332,4190.769128,4204.102461,4159.487078
39,0,4249.230665,4200.512718,4212.82041,4221.025538,4219.487076,4249.230665,4212.82041,4155.897334,4176.410154,4212.307589,4232.820409,4196.410154,4199.999897,4158.461437
40,0,4254.35887,4202.051179,4222.563999,4225.640922,4224.102461,4250.769127,4215.897333,4162.05118,4177.948616,4215.384512,4235.384512,4205.640923,4209.743487,4168.717847
41,0,4256.922973,4207.179384,4223.58964,4237.948614,4228.205025,4248.717845,4216.410153,4164.615283,4180.512718,4219.487076,4233.33323,4210.769128,4209.230666,4176.922975
42,0,4259.999896,4209.230666,4221.538358,4238.461435,4226.666563,4251.281947,4219.487076,4160.512719,4179.999898,4212.307589,4230.769127,4216.922974,4203.07682,4184.615282
43,0,4264.10246,4208.717846,4225.128102,4230.256307,4227.179384,4256.410152,4221.025538,4162.05118,4182.564,4211.794769,4235.897332,4227.179384,4203.589641,4184.102462
44,0,4259.999896,4202.051179,4225.640922,4226.153743,4227.179384,4250.769127,4213.846051,4163.076821,4181.025539,4217.948615,4235.897332,4233.33323,4204.102461,4175.897334
45,0,4258.461434,4197.948615,4216.922974,4231.281948,4224.102461,4245.640922,4209.230666,4156.410155,4176.922975,4218.461435,4233.33323,4237.435794,4206.153743,4182.05118
46,0,4265.128101,4207.179384,4221.538358,4242.051178,4225.128102,4254.871691,4217.948615,4156.922975,4182.564,4219.999897,4238.974255,4248.205024,4212.82041,4192.30759
47,0,4268.205024,4213.846051,4236.410153,4247.692204,4230.769127,4254.871691,4223.58964,4162.05118,4188.717846,4222.563999,4243.58964,4257.435793,4216.922974,4196.922974
48,0,4266.666562,4202.051179,4233.84605,4244.10246,4229.743486,4246.153742,4214.358871,4156.922975,4184.615282,4212.307589,4238.461435,4255.897332,4212.82041,4193.846051
49,0,4268.205024,4197.948615,4227.692204,4247.179383,4230.256307,4246.666563,4209.230666,4152.820411,4186.153744,4212.82041,4237.948614,4250.256306,4211.794769,4190.256308
50,0,4278.974254,4203.07682,4239.487076,4254.35887,4231.281948,4253.84605,4213.33323,4160.512719,4194.871692,4226.153743,4243.076819,4253.84605,4215.897333,4197.948615
51,0,4278.974254,4203.589641,4242.051178,4251.281947,4226.153743,4253.333229,4218.974256,4165.640924,4196.410154,4234.871691,4247.692204,4262.051178,4221.538358,4211.794769
52,0,4275.384511,4203.589641,4237.435794,4249.743486,4225.128102,4253.333229,4223.07682,4164.615283,4198.974256,4237.435794,4252.307588,4265.128101,4226.153743,4213.846051
53,0,4269.230665,4207.179384,4236.410153,4253.333229,4233.84605,4255.384511,4225.128102,4165.128103,4202.564,4235.384512,4248.717845,4258.974255,4224.615281,4207.692205
54,0,4264.10246,4206.666564,4229.230666,4246.153742,4233.84605,4255.897332,4222.563999,4165.640924,4196.922974,4227.179384,4241.025537,4252.820409,4216.922974,4203.589641
55,0,4265.640921,4208.717846,4227.692204,4243.076819,4233.33323,4252.820409,4222.563999,4166.666565,4196.922974,4225.640922,4241.538358,4256.922973,4215.384512,4202.051179
56,0,4279.487075,4214.358871,4241.538358,4251.281947,4238.461435,4251.281947,4224.102461,4166.153744,4203.07682,4228.717845,4246.666563,4261.538357,4218.974256,4206.153743
57,0,4282.051177,4219.999897,4244.615281,4256.410152,4237.435794,4252.820409,4223.07682,4164.615283,4203.07682,4227.179384,4244.10246,4260.512716,4216.922974,4209.230666
58,0,4280.512716,4223.58964,4234.358871,4255.384511,4238.461435,4256.922973,4225.640922,4163.589642,4207.179384,4229.743486,4242.051178,4261.025537,4215.384512,4211.281948
59,0,4285.640921,4224.102461,4238.974255,4259.487075,4242.563999,4256.922973,4227.179384,4166.153744,4212.307589,4236.410153,4246.666563,4264.61528,4227.179384,4216.410153
60,0,4289.743485,4221.538358,4252.820409,4263.589639,4242.563999,4255.384511,4226.153743,4170.256308,4208.717846,4238.461435,4253.84605,4269.230665,4234.358871,4218.974256
61,0,4283.076818,4218.461435,4248.717845,4258.461434,4238.974255,4252.820409,4227.692204,4169.230667,4207.692205,4232.820409,4252.307588,4270.256306,4223.58964,4215.897333
62,0,4278.461434,4215.384512,4234.871691,4251.794768,4236.410153,4245.128101,4223.58964,4161.53836,4211.281948,4224.102461,4240.512717,4263.076819,4213.33323,4211.281948
63,0,4281.538357,4208.205025,4241.025537,4254.871691,4230.769127,4241.538358,4216.410153,4159.999898,4209.743487,4222.563999,4238.461435,4263.076819,4218.461435,4206.153743
64,0,4286.153741,4215.384512,4250.769127,4262.051178,4232.820409,4248.717845,4219.999897,4168.205026,4210.256307,4231.794768,4251.281947,4271.794767,4227.179384,4208.205025
65,0,4287.692203,4227.692204,4245.128101,4260.512716,4242.563999,4254.35887,4225.640922,4171.79477,4213.846051,4234.871691,4252.307588,4271.281947,4225.128102,4216.922974
66,0,4287.692203,4225.128102,4244.615281,4257.948614,4245.640922,4254.35887,4227.179384,4171.79477,4215.897333,4235.897332,4244.615281,4269.230665,4224.102461,4217.435794
67,0,4285.640921,4206.153743,4247.692204,4251.794768,4233.84605,4251.794768,4222.563999,4169.230667,4213.33323,4232.307589,4245.128101,4274.35887,4223.07682,4210.256307
68,0,4279.487075,4197.435795,4237.435794,4239.999896,4230.769127,4249.230665,4221.025538,4167.692206,4211.281948,4223.07682,4243.076819,4268.205024,4219.487076,4209.230666
69,0,4287.179382,4199.999897,4240.512717,4244.10246,4237.948614,4252.307588,4228.205025,4173.846052,4215.384512,4225.128102,4241.538358,4264.10246,4222.563999,4214.358871
70,0,4294.87169,4202.564,4254.871691,4256.410152,4240.512717,4254.35887,4235.384512,4175.897334,4220.512717,4242.563999,4250.769127,4272.820408,4231.794768,4224.102461
71,0,4289.743485,4205.128102,4248.717845,4248.717845,4235.384512,4252.820409,4226.666563,4166.666565,4215.897333,4241.538358,4251.794768,4271.794767,4227.179384,4227.179384
72,0,4280.512716,4206.666564,4233.84605,4241.025537,4238.461435,4251.794768,4219.999897,4166.153744,4214.871692,4227.179384,4245.640922,4263.076819,4222.051179,4216.410153
73,0,4288.205023,4201.025538,4240.512717,4250.256306,4243.58964,4249.743486,4224.615281,4169.230667,4218.974256,4227.179384,4244.10246,4264.10246,4229.230666,4210.769128
74,0,4293.333228,4208.205025,4253.333229,4257.948614,4245.128101,4247.692204,4228.717845,4168.205026,4221.538358,4239.487076,4249.230665,4269.230665,4235.384512,4226.153743
75,0,4296.922972,4220.512717,4259.487075,4255.897332,4242.563999,4252.307588,4226.153743,4176.410154,4225.640922,4243.58964,4248.205024,4269.743485,4232.307589,4238.461435
76,0,4295.897331,4212.82041,4258.461434,4254.871691,4243.076819,4256.922973,4228.717845,4182.05118,4229.743486,4238.974255,4244.615281,4264.61528,4229.230666,4233.33323
77,0,4289.743485,4204.615282,4248.717845,4251.281947,4243.58964,4255.897332,4235.897332,4178.461436,4228.205025,4236.410153,4247.179383,4260.512716,4231.281948,4231.794768
78,0,4287.692203,4216.922974,4246.153742,4248.717845,4240.512717,4255.897332,4238.974255,4178.461436,4228.205025,4237.948614,4251.281947,4263.076819,4234.358871,4231.794768
79,0,4298.974254,4225.640922,4256.410152,4250.256306,4234.358871,4255.897332,4238.974255,4181.538359,4229.743486,4238.974255,4251.281947,4267.692203,4236.410153,4228.717845
80,0,4302.563997,4217.948615,4262.563998,4251.794768,4231.794768,4252.820409,4241.538358,4179.999898,4225.128102,4235.897332,4248.717845,4265.640921,4233.84605,4232.820409
81,0,4301.538356,4219.487076,4256.922973,4255.384511,4233.84605,4250.256306,4238.974255,4175.897334,4225.640922,4235.897332,4254.35887,4262.051178,4231.281948,4234.871691
82,0,4302.563997,4223.07682,4253.333229,4250.256306,4231.794768,4250.769127,4228.205025,4169.230667,4227.179384,4230.769127,4252.820409,4260.512716,4229.743486,4225.640922
83,0,4294.358869,4212.307589,4255.897332,4238.461435,4232.307589,4245.640922,4219.999897,4165.640924,4224.615281,4227.179384,4241.025537,4255.384511,4227.179384,4223.58964
84,0,4289.230664,4205.640923,4256.410152,4237.435794,4236.922973,4244.615281,4218.461435,4168.205026,4227.179384,4235.384512,4242.563999,4253.84605,4224.615281,4228.205025
85,0,4290.769126,4208.717846,4247.692204,4243.58964,4238.461435,4250.769127,4222.051179,4170.769129,4235.897332,4246.666563,4253.84605,4257.435793,4228.205025,4225.640922
86,0,4289.743485,4207.692205,4243.58964,4239.999896,4232.307589,4249.230665,4224.615281,4177.948616,4239.999896,4243.076819,4251.794768,4258.974255,4234.871691,4223.58964
87,0,4282.051177,4206.153743,4248.717845,4236.410153,4231.281948,4244.10246,4227.692204,4181.025539,4236.922973,4236.922973,4243.076819,4253.333229,4234.358871,4228.205025
88,0,4282.051177,4204.102461,4247.692204,4236.410153,4229.230666,4245.128101,4230.769127,4173.333231,4231.794768,4231.794768,4244.615281,4248.717845,4227.179384,4224.615281
89,0,4284.102459,4204.615282,4244.10246,4236.922973,4226.153743,4241.538358,4231.794768,4170.769129,4231.794768,4227.692204,4247.692204,4249.743486,4224.102461,4217.435794
90,0,4289.743485,4215.897333,4256.922973,4244.10246,4230.256307,4240.512717,4229.230666,4172.820411,4232.820409,4227.692204,4246.666563,4253.333229,4226.153743,4217.435794
91,0,4286.666562,4229.230666,4262.051178,4246.666563,4236.410153,4245.128101,4225.128102,4169.230667,4229.230666,4226.153743,4247.692204,4251.281947,4226.666563,4221.025538
92,0,4284.61528,4232.820409,4250.256306,4243.076819,4233.33323,4243.076819,4224.102461,4166.153744,4229.743486,4224.102461,4248.205024,4247.179383,4224.615281,4223.58964
93,0,4288.717844,4238.461435,4248.205024,4248.205024,4233.84605,4239.487076,4225.640922,4169.230667,4238.974255,4233.84605,4247.179383,4247.692204,4227.179384,4227.692204
94,0,4292.820408,4239.487076,4253.333229,4248.205024,4238.461435,4242.051178,4218.974256,4170.256308,4236.410153,4233.84605,4244.615281,4244.615281,4229.230666,4226.153743
95,0,4285.1281,4223.07682,4248.717845,4238.461435,4235.384512,4239.999896,4211.281948,4166.153744,4229.230666,4223.58964,4239.999896,4240.512717,4225.640922,4214.871692
96,0,4283.076818,4213.33323,4247.692204,4236.922973,4230.769127,4238.974255,4218.974256,4168.717847,4237.435794,4231.794768,4242.051178,4245.128101,4227.179384,4212.307589
97,0,4276.410152,4217.435794,4249.743486,4238.461435,4233.84605,4243.076819,4227.692204,4176.410154,4245.128101,4238.461435,4242.563999,4242.051178,4231.794768,4216.410153
98,0,4268.205024,4223.07682,4247.692204,4237.435794,4237.948614,4244.10246,4225.128102,4181.025539,4244.10246,4230.769127,4239.999896,4231.794768,4228.717845,4214.871692
99,0,4268.717844,4225.128102,4246.666563,4243.58964,4236.922973,4245.128101,4226.666563,4180.512718,4242.563999,4230.256307,4240.512717,4233.84605,4224.615281,4214.871692
100,0,4268.205024,4216.922974,4242.563999,4240.512717,4234.358871,4243.58964,4225.640922,4175.897334,4239.487076,4226.666563,4240.512717,4229.743486,4222.051179,4212.307589
101,0,4262.563998,4211.281948,4241.025537,4230.256307,4229.743486,4237.435794,4218.974256,4168.205026,4236.922973,4214.358871,4235.384512,4219.487076,4216.410153,4202.564
102,0,4264.10246,4228.717845,4248.717845,4237.948614,4232.820409,4236.410153,4219.999897,4168.717847,4238.974255,4221.538358,4238.461435,4228.205025,4225.128102,4203.07682
103,0,4267.692203,4239.487076,4253.84605,4243.58964,4236.922973,4239.487076,4223.07682,4172.30759,4239.999896,4229.743486,4244.10246,4236.922973,4233.84605,4212.307589
104,0,4258.461434,4232.307589,4255.897332,4233.33323,4234.358871,4239.999896,4222.051179,4170.769129,4244.10246,4230.769127,4243.076819,4231.281948,4231.281948,4220.512717
105,0,4255.384511,4232.307589,4259.487075,4231.794768,4231.794768,4240.512717,4218.974256,4169.743488,4251.794768,4236.922973,4246.666563,4233.33323,4234.871691,4226.666563
106,0,4258.974255,4245.128101,4255.897332,4239.487076,4237.435794,4246.153742,4219.999897,4171.79477,4252.820409,4246.153742,4255.384511,4236.922973,4243.076819,4232.307589
107,0,4260.512716,4246.153742,4249.743486,4234.871691,4236.922973,4246.153742,4217.948615,4172.820411,4249.230665,4239.999896,4250.256306,4229.743486,4233.84605,4228.717845
108,0,4253.333229,4239.487076,4250.769127,4227.692204,4233.33323,4239.487076,4211.281948,4171.281949,4248.717845,4231.794768,4242.051178,4223.07682,4226.666563,4217.948615
109,0,4250.256306,4232.820409,4249.230665,4224.615281,4229.230666,4234.871691,4209.743487,4168.205026,4246.153742,4228.205025,4241.025537,4223.58964,4226.153743,4206.666564
110,0,4245.640922,4229.230666,4239.999896,4221.025538,4221.538358,4232.307589,4214.871692,4169.230667,4241.025537,4219.999897,4232.820409,4215.384512,4209.743487,4201.538359
111,0,4239.999896,4227.692204,4236.410153,4214.871692,4213.846051,4233.33323,4215.384512,4170.256308,4239.999896,4206.666564,4223.58964,4205.128102,4193.846051,4194.871692
112,0,4229.743486,4224.102461,4240.512717,4206.666564,4213.33323,4234.871691,4213.846051,4168.205026,4243.58964,4202.564,4226.666563,4205.640923,4195.897333,4189.743487
113,0,4227.692204,4227.179384,4244.615281,4205.640923,4217.948615,4233.33323,4215.384512,4167.179385,4245.640922,4211.281948,4230.769127,4205.640923,4199.999897,4198.461436
114,0,4233.84605,4242.051178,4244.615281,4218.461435,4222.563999,4231.281948,4214.358871,4167.692206,4246.666563,4215.384512,4230.769127,4205.640923,4199.487077,4207.179384
115,0,4242.563999,4253.333229,4245.640922,4226.153743,4223.58964,4231.794768,4210.256307,4166.153744,4247.692204,4214.358871,4236.410153,4216.410153,4203.589641,4207.692205
116,0,4237.948614,4253.84605,4246.153742,4216.922974,4219.999897,4229.743486,4206.666564,4166.153744,4244.615281,4214.358871,4239.487076,4222.051179,4207.179384,4207.179384
117,0,4236.410153,4250.256306,4252.820409,4215.384512,4219.487076,4224.615281,4203.07682,4166.153744,4245.640922,4216.410153,4238.461435,4214.871692,4210.769128,4210.256307
118,0,4249.230665,4254.871691,4262.051178,4225.640922,4224.615281,4229.230666,4202.051179,4165.128103,4255.384511,4225.128102,4241.025537,4218.974256,4219.487076,4220.512717
119,0,4250.256306,4263.076819,4257.948614,4226.153743,4231.281948,4235.897332,4207.179384,4168.717847,4257.435793,4233.84605,4243.58964,4223.58964,4221.538358,4228.205025
120,0,4231.794768,4255.897332,4245.128101,4215.897333,4229.743486,4233.33323,4208.205025,4167.179385,4249.230665,4226.153743,4236.922973,4210.769128,4211.281948,4215.897333
121,0,4224.102461,4243.076819,4241.025537,4214.358871,4225.128102,4227.179384,4205.640923,4159.487078,4249.230665,4214.358871,4228.717845,4203.07682,4200.512718,4197.435795
122,0,4229.743486,4236.922973,4242.051178,4211.281948,4218.461435,4227.179384,4211.794769,4161.53836,4247.692204,4205.128102,4224.615281,4204.615282,4191.281949,4187.692205
123,0,4218.974256,4236.410153,4234.358871,4202.564,4211.794769,4224.615281,4220.512717,4170.256308,4241.538358,4198.974256,4221.025538,4197.948615,4186.666564,4186.666564
124,0,4217.435794,4243.58964,4241.025537,4209.230666,4211.794769,4223.07682,4217.948615,4171.79477,4246.666563,4203.07682,4222.051179,4198.974256,4190.769128,4194.358872
125,0,4230.256307,4250.256306,4255.897332,4219.999897,4221.025538,4227.692204,4211.794769,4167.692206,4256.410152,4212.82041,4228.717845,4210.256307,4198.461436,4201.025538
126,0,4226.666563,4235.897332,4253.333229,4210.769128,4221.538358,4229.230666,4211.281948,4166.153744,4254.35887,4210.256307,4232.820409,4211.794769,4198.974256,4198.974256
127,0,4211.281948,4227.179384,4241.538358,4204.102461,4218.974256,4225.640922,4208.717846,4163.076821,4253.84605,4210.256307,4229.743486,4206.153743,4198.974256,4197.948615
128,0,4222.563999,4245.128101,4243.076819,4216.922974,4223.58964,4223.58964,4199.999897,4161.53836,4257.435793,4217.435794,4226.153743,4206.153743,4201.025538,4196.922974
0,0,4229.230666,4253.333229,4253.333229,4223.07682,4225.128102,4221.538358,4194.871692,4160.512719,4255.897332,4219.999897,4231.281948,4207.692205,4202.564,4198.461436
1,0,4217.435794,4236.410153,4252.307588,4212.307589,4222.051179,4224.615281,4196.410154,4155.384514,4253.84605,4220.512717,4234.871691,4206.153743,4205.640923,4205.128102
2,0,4213.33323,4230.256307,4244.10246,4208.717846,4223.07682,4227.692204,4197.435795,4152.820411,4252.820409,4219.487076,4229.743486,4202.564,4205.640923,4197.948615
3,0,4227.692204,4244.615281,4242.563999,4213.33323,4222.563999,4223.58964,4197.948615,4156.922975,4251.281947,4211.794769,4227.179384,4197.948615,4200.512718,4184.102462
4,0,4227.179384,4244.10246,4243.58964,4209.743487,4217.948615,4221.538358,4201.025538,4164.615283,4254.35887,4206.666564,4227.692204,4194.358872,4197.435795,4187.179385
5,0,4214.871692,4226.666563,4236.922973,4205.640923,4214.871692,4225.128102,4205.640923,4168.717847,4257.435793,4210.256307,4222.563999,4189.230667,4195.384513,4195.384513
6,0,4211.281948,4223.07682,4233.33323,4209.743487,4212.82041,4225.128102,4209.230666,4169.743488,4256.922973,4207.692205,4219.487076,4188.205026,4191.794769,4192.82041
7,0,4216.410153,4236.410153,4236.410153,4209.743487,4216.410153,4222.563999,4213.33323,4170.256308,4257.435793,4199.487077,4225.640922,4192.30759,4191.281949,4187.179385
8,0,4212.82041,4231.281948,4237.435794,4203.07682,4213.33323,4223.58964,4211.281948,4168.717847,4256.410152,4196.922974,4224.615281,4193.846051,4191.794769,4182.05118
9,0,4208.205025,4217.435794,4241.025537,4204.615282,4207.179384,4225.128102,4208.205025,4169.743488,4257.948614,4210.769128,4223.07682,4198.974256,4196.410154,4190.256308
10,0,4213.846051,4223.07682,4244.615281,4211.281948,4209.743487,4229.230666,4209.743487,4173.333231,4266.666562,4223.58964,4232.820409,4210.256307,4205.128102,4205.128102
11,0,4216.410153,4235.897332,4239.487076,4211.794769,4211.794769,4230.256307,4208.205025,4171.79477,4270.769126,4224.615281,4239.999896,4221.025538,4210.769128,4211.794769
12,0,4218.974256,4231.794768,4239.999896,4206.153743,4203.589641,4225.640922,4195.897333,4162.05118,4263.076819,4223.58964,4235.897332,4231.281948,4207.179384,4208.717846
13,0,4218.974256,4225.640922,4246.153742,4208.205025,4204.615282,4222.563999,4187.179385,4156.922975,4255.897332,4224.102461,4228.717845,4238.461435,4201.538359,4199.999897
14,0,4217.435794,4228.717845,4250.769127,4213.846051,4208.205025,4225.640922,4190.256308,4161.53836,4257.435793,4212.307589,4227.692204,4242.563999,4194.871692,4196.922974
15,0,4212.82041,4228.717845,4251.794768,4213.846051,4205.640923,4229.743486,4199.999897,4168.717847,4261.025537,4204.102461,4229.230666,4247.179383,4190.256308,4207.179384
16,0,4214.358871,4219.487076,4247.692204,4203.07682,4202.564,4230.769127,4205.640923,4169.230667,4257.948614,4201.538359,4224.102461,4243.58964,4187.179385,4210.769128
17,0,4208.205025,4215.384512,4239.999896,4200.512718,4204.615282,4226.666563,4207.692205,4169.230667,4257.435793,4199.487077,4217.435794,4236.410153,4188.717846,4203.589641
18,0,4203.07682,4218.461435,4239.487076,4206.153743,4205.640923,4226.153743,4211.794769,4176.410154,4265.128101,4203.589641,4219.487076,4238.461435,4193.846051,4204.615282
19,0,4205.640923,4219.487076,4241.025537,4207.692205,4205.640923,4230.256307,4216.922974,4185.640923,4270.769126,4212.307589,4225.128102,4241.025537,4194.871692,4201.025538
20,0,4209.230666,4215.897333,4239.487076,4206.153743,4204.102461,4228.717845,4210.256307,4187.179385,4269.743485,4210.256307,4226.666563,4238.974255,4191.794769,4189.230667
21,0,4200.512718,4220.512717,4237.948614,4205.640923,4207.179384,4224.102461,4200.512718,4179.999898,4270.769126,4208.205025,4225.128102,4238.461435,4193.846051,4196.410154
22,0,4206.666564,4224.102461,4243.076819,4208.717846,4214.871692,4229.743486,4202.051179,4176.922975,4276.922972,4213.33323,4224.102461,4245.128101,4196.410154,4212.307589
23,0,4215.384512,4217.948615,4249.743486,4210.769128,4215.897333,4234.358871,4206.153743,4178.974257,4278.461434,4211.281948,4224.102461,4252.820409,4193.333231,4214.871692
24,0,4210.256307,4213.846051,4248.205024,4209.743487,4210.769128,4229.743486,4202.051179,4177.435795,4274.87169,4213.33323,4228.717845,4255.897332,4196.410154,4220.512717
25,0,4206.666564,4215.384512,4243.58964,4208.717846,4207.179384,4232.307589,4194.358872,4173.333231,4273.846049,4222.563999,4231.794768,4255.384511,4205.128102,4227.692204
26,0,4211.794769,4212.307589,4244.10246,4207.692205,4206.153743,4237.948614,4191.281949,4172.30759,4270.769126,4221.025538,4230.769127,4256.410152,4207.692205,4216.410153
27,0,4206.666564,4202.564,4243.076819,4203.07682,4204.102461,4233.33323,4188.717846,4174.358872,4260.512716,4207.179384,4225.640922,4254.871691,4196.410154,4201.538359
28,0,4199.487077,4198.974256,4237.948614,4198.461436,4203.07682,4230.769127,4191.794769,4176.922975,4262.051178,4201.025538,4222.051179,4247.692204,4188.205026,4206.153743
29,0,4201.538359,4195.384513,4238.461435,4197.948615,4198.974256,4236.922973,4203.07682,4183.076821,4274.87169,4207.692205,4221.538358,4245.640922,4190.256308,4210.769128
30,0,4195.897333,4194.358872,4236.922973,4197.435795,4197.435795,4235.384512,4212.307589,4187.692205,4274.87169,4210.256307,4221.538358,4244.615281,4188.205026,4197.948615
31,0,4192.82041,4195.384513,4233.84605,4192.82041,4199.999897,4231.794768,4211.794769,4187.692205,4269.743485,4197.948615,4218.974256,4238.461435,4183.076821,4189.230667
32,0,4198.974256,4199.487077,4236.922973,4194.358872,4203.589641,4235.384512,4209.230666,4187.692205,4275.897331,4192.30759,4217.948615,4235.897332,4188.717846,4202.564
33,0,4207.179384,4207.179384,4242.563999,4203.07682,4203.07682,4237.948614,4209.743487,4187.179385,4278.974254,4206.153743,4221.538358,4245.640922,4195.384513,4213.846051
34,0,4207.179384,4212.82041,4242.051178,4208.717846,4208.205025,4235.384512,4210.256307,4187.179385,4280.512716,4220.512717,4225.128102,4256.410152,4194.871692,4210.769128
35,0,4208.717846,4207.179384,4244.10246,4205.128102,4212.82041,4238.461435,4208.717846,4186.666564,4284.102459,4222.051179,4225.640922,4256.922973,4198.974256,4211.794769
36,0,4203.589641,4191.794769,4244.615281,4199.999897,4206.666564,4237.948614,4204.102461,4182.05118,4279.999895,4217.948615,4225.128102,4249.743486,4199.999897,4214.358871
37,0,4193.333231,4182.05118,4233.33323,4193.846051,4195.384513,4227.179384,4193.846051,4172.30759,4270.769126,4205.128102,4218.974256,4241.025537,4187.692205,4196.410154
38,0,4192.82041,4191.794769,4228.205025,4192.30759,4193.333231,4222.563999,4191.281949,4171.281949,4268.717844,4198.461436,4214.358871,4239.999896,4186.153744,4189.230667
39,0,4207.179384,4207.692205,4239.999896,4196.410154,4197.948615,4230.256307,4199.487077,4180.512718,4274.35887,4208.717846,4221.538358,4246.153742,4196.922974,4213.846051
40,0,4209.230666,4207.179384,4246.666563,4199.487077,4203.07682,4231.794768,4204.615282,4184.615282,4280.512716,4218.461435,4228.717845,4246.666563,4201.025538,4224.615281
41,0,4204.615282,4196.410154,4234.358871,4198.974256,4202.564,4228.717845,4204.102461,4185.640923,4285.1281,4215.384512,4222.563999,4234.358871,4194.871692,4207.692205
42,0,4198.461436,4200.512718,4222.563999,4195.897333,4201.538359,4229.743486,4209.230666,4191.794769,4286.153741,4211.794769,4213.33323,4225.128102,4185.640923,4195.384513
43,0,4195.384513,4201.025538,4231.794768,4191.281949,4207.179384,4229.743486,4215.897333,4192.82041,4286.666562,4213.846051,4214.358871,4224.102461,4181.538359,4195.384513
44,0,4197.948615,4190.256308,4243.58964,4190.769128,4207.692205,4229.230666,4212.82041,4187.179385,4284.102459,4209.230666,4213.846051,4223.07682,4182.05118,4192.30759
45,0,4200.512718,4193.333231,4235.897332,4193.333231,4201.025538,4225.128102,4205.640923,4183.589641,4279.487075,4202.051179,4209.743487,4223.07682,4178.974257,4194.358872
46,0,4199.487077,4197.435795,4228.205025,4189.743487,4198.461436,4222.563999,4202.051179,4183.589641,4281.025536,4200.512718,4208.717846,4223.58964,4176.410154,4199.999897
47,0,4206.153743,4196.410154,4237.948614,4191.794769,4208.717846,4227.179384,4208.205025,4185.640923,4288.717844,4212.307589,4216.922974,4227.692204,4190.769128,4208.717846
48,0,4212.82041,4198.461436,4246.153742,4198.974256,4211.794769,4229.743486,4214.871692,4187.179385,4289.230664,4216.922974,4224.102461,4237.435794,4206.153743,4219.487076
49,0,4205.640923,4197.435795,4243.076819,4197.435795,4205.128102,4219.487076,4208.717846,4187.692205,4285.640921,4211.281948,4218.974256,4236.922973,4198.461436,4219.487076
50,0,4204.102461,4183.076821,4241.538358,4192.82041,4199.487077,4213.846051,4198.974256,4182.564,4285.1281,4209.230666,4211.794769,4225.640922,4186.666564,4207.179384
51,0,4204.102461,4176.410154,4236.922973,4191.794769,4203.07682,4217.948615,4204.615282,4179.999898,4285.640921,4213.846051,4211.794769,4221.025538,4186.666564,4197.948615
52,0,4198.974256,4181.538359,4227.692204,4187.179385,4205.640923,4216.410153,4205.128102,4179.999898,4278.974254,4210.256307,4209.743487,4218.461435,4179.999898,4191.281949
53,0,4194.358872,4183.076821,4221.538358,4183.076821,4203.589641,4208.205025,4193.333231,4175.897334,4274.35887,4199.487077,4202.051179,4208.717846,4172.820411,4178.974257
54,0,4204.615282,4182.564,4226.153743,4187.179385,4197.948615,4207.179384,4193.333231,4175.897334,4279.487075,4195.384513,4203.07682,4209.743487,4178.461436,4177.948616
55,0,4210.769128,4189.230667,4232.820409,4191.794769,4195.897333,4211.281948,4205.128102,4181.025539,4285.640921,4204.102461,4212.307589,4219.999897,4187.692205,4199.487077
56,0,4209.230666,4193.846051,4232.307589,4190.769128,4201.538359,4211.794769,4209.230666,4182.05118,4284.61528,4213.33323,4217.435794,4220.512717,4192.82041,4215.384512
57,0,4202.564,4191.794769,4228.717845,4188.205026,4206.153743,4210.769128,4209.230666,4181.538359,4283.076818,4217.435794,4218.974256,4221.538358,4198.974256,4213.33323
58,0,4205.128102,4187.692205,4226.153743,4183.076821,4198.974256,4211.281948,4209.743487,4184.102462,4282.051177,4218.974256,4223.07682,4227.692204,4201.025538,4210.769128
59,0,4204.102461,4187.179385,4223.58964,4179.487077,4194.871692,4212.307589,4206.666564,4181.538359,4281.538357,4218.461435,4222.563999,4222.563999,4192.82041,4204.615282
60,0,4202.051179,4182.564,4224.102461,4178.461436,4197.948615,4210.769128,4202.564,4178.461436,4282.051177,4214.871692,4215.384512,4212.307589,4185.640923,4193.333231
61,0,4206.666564,4178.974257,4223.58964,4178.974257,4195.897333,4206.666564,4198.974256,4180.512718,4280.512716,4209.230666,4207.179384,4209.743487,4183.076821,4195.897333
62,0,4208.205025,4184.102462,4222.051179,4183.589641,4198.461436,4207.692205,4201.025538,4179.999898,4280.512716,4206.153743,4206.153743,4207.692205,4183.589641,4208.717846
63,0,4203.589641,4184.615282,4227.692204,4188.717846,4204.615282,4212.82041,4208.717846,4181.538359,4283.589639,4207.179384,4207.692205,4204.615282,4187.692205,4209.230666
64,0,4207.692205,4186.666564,4228.205025,4187.692205,4203.589641,4209.743487,4207.179384,4185.640923,4285.640921,4212.82041,4208.205025,4208.205025,4194.871692,4206.666564
65,0,4216.410153,4194.871692,4222.051179,4185.128103,4200.512718,4206.666564,4200.512718,4183.076821,4284.102459,4214.871692,4207.692205,4208.717846,4194.871692,4206.153743
66,0,4218.974256,4205.128102,4229.230666,4192.30759,4207.692205,4215.384512,4207.179384,4184.102462,4290.256305,4222.051179,4215.897333,4209.230666,4198.461436,4208.717846
67,0,4224.102461,4212.307589,4243.58964,4201.025538,4214.871692,4223.07682,4212.82041,4192.82041,4295.897331,4232.820409,4227.692204,4219.999897,4208.717846,4215.384512
68,0,4222.051179,4214.358871,4238.974255,4199.487077,4214.358871,4216.922974,4211.281948,4192.82041,4290.769126,4235.384512,4226.666563,4217.948615,4212.307589,4217.948615
69,0,4212.307589,4209.230666,4226.153743,4191.281949,4210.256307,4216.410153,4215.384512,4187.692205,4287.692203,4229.743486,4219.487076,4205.640923,4207.179384,4213.846051
70,0,4210.769128,4210.256307,4231.281948,4193.846051,4214.871692,4216.922974,4223.58964,4191.794769,4291.281946,4225.640922,4218.974256,4206.666564,4205.128102,4213.846051
71,0,4219.999897,4218.461435,4239.487076,4199.999897,4222.051179,4210.769128,4221.025538,4195.384513,4288.717844,4223.58964,4216.922974,4212.82041,4207.179384,4214.358871
72,0,4215.384512,4218.461435,4228.205025,4196.410154,4220.512717,4207.692205,4215.384512,4189.743487,4285.1281,4224.615281,4211.794769,4204.102461,4203.07682,4203.07682
73,0,4210.256307,4214.871692,4221.538358,4190.256308,4216.410153,4212.307589,4215.897333,4189.230667,4286.666562,4223.07682,4210.256307,4199.487077,4198.461436,4196.922974
74,0,4215.897333,4223.07682,4236.922973,4198.461436,4223.58964,4213.846051,4221.025538,4194.871692,4287.179382,4222.051179,4216.410153,4209.230666,4208.205025,4212.307589
75,0,4222.563999,4225.640922,4240.512717,4203.07682,4225.128102,4212.307589,4222.563999,4192.82041,4284.61528,4224.102461,4219.487076,4212.307589,4213.33323,4219.999897
76,0,4214.358871,4213.33323,4227.179384,4191.794769,4213.33323,4208.205025,4214.871692,4185.128103,4283.589639,4221.538358,4213.846051,4205.128102,4201.538359,4204.102461
77,0,4216.410153,4210.769128,4231.794768,4191.281949,4212.307589,4204.102461,4208.205025,4186.153744,4287.692203,4219.487076,4215.897333,4206.153743,4198.461436,4197.435795
78,0,4223.07682,4224.102461,4243.076819,4201.538359,4225.128102,4209.230666,4214.871692,4191.794769,4291.794767,4228.717845,4225.640922,4214.871692,4209.743487,4210.256307
79,0,4220.512717,4228.205025,4238.974255,4198.461436,4224.102461,4211.794769,4218.974256,4194.358872,4291.281946,4236.922973,4228.717845,4217.948615,4214.871692,4217.948615
80,0,4224.615281,4216.410153,4241.025537,4198.461436,4213.33323,4208.717846,4217.948615,4194.871692,4288.717844,4232.820409,4225.128102,4216.922974,4216.410153,4223.58964
81,0,4233.33323,4216.410153,4248.717845,4204.102461,4218.461435,4208.717846,4223.58964,4194.358872,4290.256305,4234.871691,4228.205025,4213.33323,4217.435794,4230.769127
82,0,4223.07682,4228.205025,4242.051178,4202.564,4224.102461,4210.256307,4221.025538,4191.794769,4288.717844,4235.897332,4226.153743,4207.179384,4210.256307,4221.538358
83,0,4214.871692,4229.743486,4237.948614,4203.07682,4222.563999,4207.692205,4213.33323,4191.794769,4288.205023,4229.743486,4221.025538,4207.692205,4210.256307,4213.846051
84,0,4225.128102,4227.692204,4243.076819,4206.153743,4222.563999,4206.666564,4212.82041,4192.82041,4295.38451,4226.153743,4221.538358,4209.743487,4216.410153,4214.871692
85,0,4220.512717,4230.256307,4233.33323,4198.461436,4226.153743,4207.179384,4210.769128,4191.281949,4292.820408,4227.692204,4220.512717,4198.974256,4210.256307,4209.743487
86,0,4210.769128,4228.717845,4224.102461,4195.384513,4224.102461,4207.179384,4210.769128,4189.230667,4285.1281,4226.666563,4217.948615,4195.384513,4207.179384,4211.794769
87,0,4218.461435,4226.153743,4232.820409,4202.051179,4225.640922,4206.666564,4221.025538,4191.794769,4295.38451,4231.794768,4223.07682,4205.128102,4221.538358,4223.07682
88,0,4226.153743,4222.563999,4239.999896,4202.564,4227.692204,4211.281948,4225.128102,4195.897333,4303.589638,4235.897332,4229.230666,4209.230666,4225.128102,4217.435794
89,0,4219.487076,4221.538358,4241.538358,4205.640923,4228.717845,4218.461435,4221.538358,4198.461436,4298.461433,4238.974255,4230.769127,4208.205025,4221.025538,4215.384512
90,0,4221.538358,4223.07682,4250.256306,4209.743487,4229.743486,4217.948615,4223.07682,4195.897333,4295.897331,4241.025537,4228.205025,4209.230666,4224.102461,4227.179384
91,0,4221.538358,4233.84605,4243.58964,4207.179384,4229.230666,4211.281948,4219.487076,4190.256308,4299.487074,4234.358871,4225.128102,4204.102461,4223.58964,4223.07682
92,0,4219.487076,4236.410153,4227.179384,4204.102461,4224.102461,4210.769128,4209.230666,4188.717846,4296.410151,4221.538358,4218.974256,4193.333231,4213.33323,4204.102461
93,0,4215.897333,4228.205025,4226.666563,4202.564,4226.153743,4212.307589,4213.846051,4191.281949,4293.846049,4219.999897,4213.33323,4190.256308,4206.666564,4201.025538
94,0,4217.948615,4225.640922,4238.974255,4204.102461,4230.769127,4212.82041,4222.051179,4192.30759,4295.38451,4224.102461,4215.384512,4195.897333,4205.640923,4212.82041
95,0,4217.435794,4236.410153,4238.974255,4207.179384,4228.205025,4212.307589,4217.948615,4190.769128,4296.410151,4222.051179,4221.025538,4199.999897,4212.82041,4220.512717
96,0,4220.512717,4241.025537,4236.410153,4206.666564,4227.692204,4211.281948,4214.358871,4189.230667,4297.435792,4224.615281,4220.512717,4199.487077,4223.58964,4214.358871
97,0,4223.07682,4233.33323,4244.10246,4206.666564,4233.33323,4213.33323,4221.538358,4192.30759,4299.487074,4234.871691,4217.948615,4203.589641,4224.102461,4209.230666
98,0,4223.58964,4242.051178,4249.743486,4208.717846,4235.384512,4220.512717,4227.179384,4197.948615,4304.102459,4243.076819,4223.58964,4210.256307,4224.615281,4223.07682
99,0,4226.153743,4259.487075,4246.666563,4210.769128,4235.897332,4224.102461,4226.666563,4202.051179,4307.692202,4247.179383,4232.820409,4212.307589,4232.820409,4237.435794
100,0,4232.307589,4263.589639,4241.025537,4213.846051,4245.640922,4224.615281,4227.692204,4202.564,4308.205023,4250.769127,4237.948614,4210.256307,4237.435794,4240.512717
101,0,4235.384512,4262.051178,4244.615281,4221.538358,4253.333229,4224.102461,4227.692204,4202.051179,4307.179382,4246.666563,4235.897332,4209.230666,4231.794768,4238.974255
102,0,4232.307589,4257.435793,4251.281947,4223.58964,4246.666563,4218.461435,4226.666563,4198.974256,4305.1281,4238.974255,4228.205025,4206.153743,4224.102461,4232.307589
103,0,4229.743486,4247.179383,4248.717845,4221.025538,4237.948614,4217.435794,4228.205025,4197.435795,4303.076818,4237.948614,4223.07682,4204.102461,4219.999897,4217.948615
104,0,4224.615281,4259.487075,4239.999896,4221.538358,4245.640922,4222.563999,4229.743486,4199.999897,4303.076818,4245.640922,4225.128102,4203.589641,4225.128102,4219.487076
105,0,4226.153743,4281.538357,4241.538358,4224.615281,4255.897332,4225.128102,4233.33323,4199.487077,4304.615279,4246.153742,4227.692204,4204.102461,4231.281948,4232.820409
106,0,4230.256307,4273.333229,4247.179383,4226.666563,4255.897332,4223.07682,4238.461435,4201.538359,4306.666561,4246.666563,4231.281948,4205.128102,4232.307589,4235.384512
107,0,4227.179384,4257.435793,4240.512717,4216.922974,4244.10246,4219.999897,4231.794768,4201.025538,4303.589638,4244.10246,4230.256307,4200.512718,4227.179384,4227.692204
108,0,4218.461435,4256.922973,4234.358871,4205.128102,4237.948614,4218.974256,4221.025538,4193.846051,4295.897331,4232.307589,4224.102461,4192.30759,4219.999897,4219.999897
109,0,4221.538358,4254.871691,4240.512717,4203.07682,4239.487076,4217.948615,4221.538358,4190.769128,4296.410151,4226.666563,4225.640922,4197.948615,4219.999897,4214.871692
110,0,4216.410153,4247.179383,4237.435794,4202.051179,4235.384512,4213.33323,4218.974256,4191.281949,4299.487074,4229.743486,4229.743486,4206.666564,4221.538358,4211.281948
111,0,4207.692205,4245.128101,4229.230666,4195.897333,4219.999897,4213.33323,4208.205025,4190.256308,4293.333228,4222.563999,4222.563999,4204.102461,4214.358871,4209.743487
112,0,4205.128102,4261.538357,4229.230666,4199.999897,4222.051179,4218.974256,4210.256307,4190.256308,4294.87169,4219.999897,4218.461435,4206.153743,4210.769128,4212.82041
113,0,4216.922974,4283.076818,4236.922973,4211.281948,4237.948614,4225.128102,4223.07682,4195.384513,4302.051177,4233.33323,4226.666563,4227.179384,4221.538358,4221.025538
114,0,4221.538358,4290.256305,4239.999896,4215.384512,4239.999896,4225.640922,4226.153743,4194.358872,4298.461433,4236.922973,4228.205025,4238.461435,4223.58964,4226.153743
115,0,4216.410153,4278.974254,4239.487076,4211.281948,4227.179384,4218.974256,4215.897333,4189.230667,4294.358869,4221.538358,4218.461435,4226.153743,4206.666564,4216.922974
116,0,4212.82041,4271.281947,4242.563999,4205.128102,4222.051179,4214.871692,4212.82041,4192.82041,4301.538356,4221.538358,4218.974256,4227.692204,4209.230666,4216.922974
117,0,4223.07682,4279.487075,4246.666563,4209.743487,4233.84605,4227.692204,4226.153743,4201.025538,4309.743484,4243.076819,4235.384512,4248.717845,4235.384512,4236.410153
118,0,4226.666563,4286.153741,4248.717845,4222.563999,4243.076819,4237.435794,4234.871691,4202.051179,4306.153741,4253.333229,4242.563999,4258.461434,4242.563999,4244.10246
119,0,4224.615281,4282.051177,4250.256306,4226.153743,4240.512717,4229.743486,4230.256307,4198.974256,4303.589638,4251.794768,4236.410153,4255.384511,4233.33323,4239.487076
120,0,4234.871691,4278.974254,4253.84605,4222.563999,4239.487076,4230.256307,4231.794768,4203.589641,4307.692202,4253.84605,4237.948614,4262.051178,4238.974255,4248.717845
121,0,4239.999896,4290.256305,4255.384511,4230.769127,4249.230665,4236.410153,4242.051178,4208.205025,4308.205023,4261.025537,4246.153742,4269.743485,4249.230665,4260.512716
122,0,4235.897332,4295.38451,4256.410152,4238.974255,4250.769127,4236.922973,4243.58964,4204.102461,4302.563997,4256.922973,4242.051178,4266.666562,4239.487076,4250.256306
123,0,4238.974255,4292.307587,4260.512716,4244.10246,4248.717845,4237.435794,4241.538358,4203.07682,4307.692202,4251.281947,4239.999896,4266.666562,4237.435794,4250.256306
124,0,4244.615281,4297.948613,4268.205024,4249.230665,4251.281947,4239.999896,4245.128101,4207.179384,4317.435792,4254.871691,4247.692204,4274.87169,4248.717845,4267.179383
125,0,4235.897332,4306.153741,4269.230665,4248.717845,4256.410152,4239.999896,4253.84605,4208.205025,4316.922971,4264.61528,4250.256306,4274.87169,4250.769127,4270.256306
126,0,4233.33323,4304.615279,4260.512716,4244.10246,4256.922973,4239.999896,4255.384511,4208.205025,4311.794766,4267.179383,4245.640922,4268.717844,4248.717845,4265.640921
127,0,4237.435794,4301.025536,4251.794768,4243.076819,4255.384511,4239.999896,4245.640922,4210.769128,4313.333228,4265.640921,4247.179383,4270.256306,4259.487075,4266.153742
128,0,4241.025537,4301.025536,4254.35887,4244.10246,4258.461434,4242.051178,4246.666563,4213.33323,4319.999894,4270.256306,4257.435793,4281.025536,4272.307588,4265.640921
0,0,4240.512717,4299.999895,4257.435793,4247.692204,4267.179383,4247.692204,4262.563998,4216.922974,4327.179381,4283.589639,4264.10246,4286.153741,4277.435793,4269.230665
1,0,4245.128101,4290.769126,4258.461434,4252.307588,4263.589639,4246.153742,4264.10246,4219.999897,4324.102458,4282.051177,4261.538357,4282.051177,4273.846049,4277.435793
2,0,4239.999896,4281.025536,4255.897332,4249.743486,4253.333229,4239.999896,4253.333229,4216.922974,4317.435792,4264.10246,4256.922973,4277.435793,4264.61528,4273.333229
3,0,4236.410153,4273.846049,4255.384511,4242.563999,4255.897332,4241.538358,4252.820409,4216.410153,4318.974253,4258.461434,4252.820409,4278.974254,4256.410152,4259.487075
4,0,4239.999896,4273.333229,4264.10246,4247.179383,4260.512716,4245.640922,4259.999896,4222.051179,4321.025535,4267.179383,4250.256306,4283.076818,4258.974255,4251.794768
5,0,4249.743486,4277.435793,4270.256306,4257.948614,4259.999896,4244.615281,4261.538357,4221.538358,4320.512715,4269.743485,4250.769127,4282.563998,4262.051178,4261.025537
6,0,4252.820409,4273.846049,4266.153742,4256.922973,4261.538357,4245.128101,4258.974255,4216.410153,4319.487074,4266.666562,4250.256306,4278.974254,4257.948614,4267.179383
7,0,4252.307588,4264.61528,4264.10246,4250.256306,4261.538357,4242.563999,4254.871691,4218.461435,4318.974253,4268.717844,4250.256306,4278.974254,4254.35887,4261.538357
8,0,4251.281947,4262.051178,4269.230665,4254.35887,4257.948614,4237.948614,4253.84605,4220.512717,4319.487074,4270.256306,4250.769127,4283.589639,4255.384511,4262.563998
9,0,4250.256306,4275.897331,4269.743485,4259.999896,4264.61528,4244.615281,4259.487075,4220.512717,4323.589638,4275.897331,4254.871691,4287.692203,4264.10246,4273.846049
10,0,4254.871691,4280.512716,4270.769126,4259.999896,4271.281947,4255.897332,4265.128101,4222.563999,4326.15374,4287.692203,4264.10246,4292.307587,4276.410152,4277.435793
11,0,4258.974255,4265.640921,4277.435793,4266.666562,4269.743485,4252.307588,4265.128101,4225.640922,4323.589638,4292.307587,4266.153742,4291.794767,4277.948613,4275.897331
12,0,4259.999896,4260.512716,4276.922972,4270.256306,4271.794767,4248.205024,4263.589639,4227.179384,4318.974253,4283.589639,4260.512716,4288.205023,4267.692203,4277.948613
13,0,4256.410152,4266.666562,4269.230665,4261.538357,4273.333229,4246.153742,4259.999896,4224.102461,4312.307587,4273.846049,4255.897332,4282.563998,4259.999896,4272.820408
14,0,4254.871691,4254.35887,4266.666562,4251.794768,4256.922973,4237.948614,4251.281947,4215.384512,4303.589638,4264.10246,4246.666563,4274.35887,4251.794768,4263.589639
15,0,4254.871691,4249.743486,4266.666562,4253.84605,4250.256306,4235.897332,4250.769127,4213.33323,4301.538356,4262.051178,4242.051178,4271.281947,4245.640922,4265.128101
16,0,4258.974255,4263.589639,4267.179383,4256.922973,4258.461434,4242.563999,4257.948614,4221.538358,4308.205023,4267.179383,4251.794768,4275.897331,4250.769127,4269.230665
17,0,4258.461434,4259.999896,4267.692203,4255.897332,4261.025537,4241.538358,4258.461434,4225.128102,4312.820407,4272.820408,4255.897332,4274.35887,4257.948614,4269.743485
18,0,4261.025537,4245.128101,4266.153742,4261.025537,4259.999896,4241.538358,4257.435793,4224.102461,4314.358869,4275.897331,4252.307588,4269.743485,4262.051178,4269.743485
19,0,4257.948614,4257.435793,4262.051178,4268.205024,4269.743485,4249.230665,4262.563998,4226.153743,4317.948612,4286.666562,4259.999896,4276.410152,4272.820408,4279.999895
20,0,4256.922973,4270.256306,4263.589639,4263.589639,4272.307588,4249.743486,4262.051178,4226.666563,4314.871689,4290.769126,4264.61528,4282.051177,4276.922972,4285.640921
21,0,4257.948614,4255.897332,4262.563998,4257.435793,4264.10246,4245.128101,4257.435793,4224.102461,4309.230664,4281.538357,4258.974255,4275.384511,4265.640921,4273.333229
22,0,4261.538357,4248.717845,4259.487075,4260.512716,4262.563998,4248.717845,4258.974255,4225.640922,4313.846048,4281.025536,4257.435793,4272.820408,4262.563998,4272.307588
23,0,4259.999896,4263.076819,4264.61528,4266.153742,4265.640921,4251.281947,4262.051178,4227.179384,4319.999894,4282.563998,4261.538357,4278.461434,4273.333229,4286.153741
24,0,4257.948614,4262.051178,4270.256306,4264.10246,4264.10246,4247.179383,4260.512716,4222.563999,4318.974253,4273.333229,4265.640921,4280.512716,4276.410152,4284.61528
25,0,4248.717845,4240.512717,4263.076819,4258.461434,4259.999896,4244.10246,4254.871691,4216.410153,4312.307587,4263.589639,4260.512716,4268.717844,4263.589639,4266.153742
26,0,4241.538358,4236.410153,4252.307588,4254.35887,4258.974255,4242.563999,4248.717845,4215.384512,4308.717843,4266.666562,4251.281947,4258.974255,4253.333229,4259.487075
27,0,4243.58964,4251.794768,4255.384511,4252.820409,4259.999896,4242.563999,4249.743486,4218.974256,4313.333228,4274.87169,4251.281947,4265.640921,4256.410152,4263.589639
28,0,4248.717845,4260.512716,4263.589639,4254.871691,4259.999896,4243.076819,4255.384511,4220.512717,4318.974253,4278.974254,4254.871691,4272.307588,4263.589639,4275.384511
29,0,4254.871691,4258.461434,4264.61528,4257.435793,4257.948614,4247.692204,4252.307588,4219.487076,4311.281946,4273.333229,4254.35887,4269.230665,4265.128101,4287.179382
30,0,4259.487075,4262.051178,4265.128101,4258.974255,4263.076819,4247.692204,4251.281947,4218.974256,4308.205023,4275.897331,4259.487075,4270.769126,4269.743485,4286.153741
31,0,4256.922973,4268.717844,4262.563998,4257.435793,4268.717844,4242.563999,4253.333229,4217.435794,4315.89733,4284.61528,4264.10246,4275.897331,4274.87169,4282.051177
32,0,4247.179383,4266.666562,4256.410152,4255.384511,4264.61528,4241.025537,4247.179383,4216.410153,4313.333228,4278.974254,4257.948614,4265.128101,4270.256306,4276.922972
33,0,4245.640922,4257.435793,4254.35887,4251.794768,4257.435793,4243.58964,4238.461435,4213.846051,4303.076818,4259.487075,4248.205024,4253.84605,4254.871691,4263.589639
34,0,4246.666563,4262.051178,4255.384511,4252.307588,4264.10246,4243.076819,4242.563999,4214.871692,4308.717843,4255.384511,4245.640922,4254.871691,4248.717845,4260.512716
35,0,4244.10246,4268.205024,4257.948614,4251.794768,4264.61528,4241.538358,4249.743486,4216.410153,4316.410151,4262.051178,4246.153742,4250.256306,4251.794768,4259.999896
36,0,4234.358871,4255.897332,4254.35887,4245.128101,4252.820409,4242.051178,4251.281947,4214.358871,4312.820407,4255.897332,4242.563999,4239.487076,4247.692204,4251.794768
37,0,4236.922973,4249.230665,4249.743486,4242.051178,4252.307588,4242.563999,4250.769127,4215.384512,4314.871689,4256.410152,4244.615281,4246.666563,4248.205024,4258.461434
38,0,4236.410153,4257.948614,4244.10246,4241.538358,4259.487075,4242.051178,4248.205024,4217.435794,4322.563997,4266.153742,4248.717845,4251.281947,4255.384511,4262.051178
39,0,4235.384512,4254.871691,4243.58964,4239.487076,4254.35887,4242.051178,4242.563999,4215.384512,4321.025535,4261.025537,4243.076819,4240.512717,4248.205024,4247.692204
40,0,4241.538358,4242.563999,4251.794768,4247.179383,4248.717845,4242.051178,4244.615281,4214.871692,4317.948612,4257.435793,4244.615281,4243.58964,4244.10246,4257.435793
41,0,4247.692204,4247.692204,4258.461434,4252.820409,4250.769127,4243.58964,4247.692204,4217.948615,4319.999894,4268.717844,4254.35887,4256.922973,4255.384511,4278.974254
42,0,4241.538358,4261.025537,4254.871691,4247.179383,4251.281947,4242.563999,4243.58964,4216.410153,4317.948612,4265.128101,4248.717845,4252.820409,4256.410152,4267.692203
43,0,4242.563999,4262.563998,4253.84605,4246.153742,4254.871691,4241.538358,4239.999896,4213.846051,4316.410151,4251.281947,4242.563999,4243.58964,4246.666563,4250.256306
44,0,4244.10246,4259.487075,4257.948614,4250.769127,4257.948614,4244.10246,4242.051178,4215.384512,4321.025535,4255.897332,4246.153742,4245.128101,4246.153742,4252.820409
45,0,4235.384512,4258.461434,4254.35887,4244.615281,4255.897332,4246.153742,4243.076819,4216.410153,4320.512715,4265.640921,4248.205024,4245.128101,4247.692204,4259.999896
46,0,4236.410153,4254.871691,4255.384511,4242.051178,4255.897332,4245.640922,4243.076819,4215.384512,4316.922971,4258.461434,4246.666563,4243.58964,4244.10246,4264.61528
47,0,4236.922973,4252.307588,4255.897332,4248.205024,4256.922973,4244.10246,4245.128101,4215.384512,4317.435792,4250.256306,4245.640922,4244.615281,4244.615281,4259.487075
48,0,4223.58964,4249.230665,4241.538358,4238.974255,4249.743486,4243.076819,4243.58964,4215.384512,4318.974253,4250.769127,4243.58964,4238.461435,4244.10246,4239.999896
49,0,4221.538358,4251.794768,4237.435794,4229.743486,4248.205024,4242.051178,4241.025537,4214.358871,4317.435792,4259.999896,4244.615281,4228.717845,4245.128101,4234.358871
50,0,4233.84605,4259.999896,4251.281947,4237.948614,4255.384511,4246.666563,4241.025537,4213.33323,4314.871689,4267.692203,4244.615281,4230.769127,4250.256306,4249.743486
51,0,4235.384512,4276.410152,4249.230665,4246.666563,4263.589639,4251.794768,4242.051178,4217.948615,4317.948612,4273.846049,4243.076819,4239.487076,4257.435793,4266.153742
52,0,4235.897332,4284.61528,4239.487076,4244.10246,4263.076819,4248.205024,4242.563999,4219.999897,4320.512715,4272.307588,4245.640922,4238.461435,4256.410152,4265.128101
53,0,4232.820409,4265.640921,4241.538358,4239.487076,4255.897332,4240.512717,4238.974255,4212.82041,4313.846048,4260.512716,4241.538358,4225.640922,4245.128101,4249.230665
54,0,4224.615281,4247.692204,4239.487076,4232.307589,4244.10246,4240.512717,4232.307589,4209.230666,4304.102459,4244.615281,4229.230666,4221.538358,4230.769127,4238.461435
55,0,4214.871692,4253.333229,4228.205025,4224.102461,4237.948614,4237.435794,4232.307589,4209.230666,4303.589638,4234.871691,4227.692204,4223.58964,4224.615281,4232.307589
56,0,4217.948615,4249.230665,4229.230666,4221.025538,4235.897332,4230.769127,4232.307589,4206.666564,4303.589638,4233.84605,4233.84605,4221.025538,4227.692204,4230.256307
57,0,4218.461435,4234.871691,4236.922973,4219.999897,4236.922973,4235.384512,4230.256307,4207.179384,4302.051177,4241.538358,4234.358871,4219.999897,4231.281948,4237.948614
58,0,4220.512717,4236.410153,4239.999896,4221.025538,4236.922973,4241.538358,4230.256307,4207.692205,4302.563997,4239.999896,4229.743486,4220.512717,4227.692204,4242.563999
59,0,4219.999897,4239.487076,4239.487076,4224.615281,4235.384512,4231.281948,4226.666563,4200.512718,4303.589638,4230.769127,4228.717845,4214.871692,4225.640922,4233.84605
60,0,4223.07682,4225.640922,4237.948614,4227.179384,4231.794768,4225.128102,4222.563999,4200.512718,4304.102459,4232.307589,4232.820409,4214.358871,4227.692204,4232.307589
61,0,4228.205025,4218.974256,4236.410153,4226.153743,4233.33323,4234.358871,4227.179384,4208.717846,4308.717843,4238.974255,4237.435794,4221.538358,4228.205025,4237.435794
62,0,4227.179384,4228.717845,4234.358871,4225.640922,4241.025537,4239.999896,4230.256307,4206.666564,4312.820407,4236.410153,4238.461435,4218.461435,4229.230666,4239.487076
63,0,4217.435794,4235.897332,4229.743486,4223.58964,4240.512717,4236.922973,4227.179384,4199.999897,4306.153741,4227.692204,4235.384512,4210.769128,4231.794768,4237.948614
64,0,4207.692205,4232.307589,4221.538358,4217.435794,4233.84605,4228.717845,4223.07682,4200.512718,4299.487074,4223.58964,4229.743486,4205.640923,4226.666563,4223.07682
65,0,4199.999897,4219.999897,4214.358871,4206.153743,4225.640922,4214.358871,4214.871692,4198.461436,4301.025536,4219.487076,4219.999897,4193.333231,4207.179384,4203.589641
66,0,4193.333231,4211.794769,4214.871692,4198.974256,4221.025538,4202.564,4207.179384,4194.358872,4303.589638,4216.922974,4216.922974,4186.666564,4197.948615,4204.102461
67,0,4200.512718,4211.794769,4223.58964,4202.051179,4217.435794,4200.512718,4211.281948,4197.948615,4303.589638,4218.974256,4224.102461,4197.948615,4206.666564,4205.640923
68,0,4212.307589,4224.102461,4231.794768,4205.640923,4217.948615,4196.410154,4217.948615,4200.512718,4302.563997,4226.153743,4227.179384,4206.153743,4216.410153,4202.051179
69,0,4215.384512,4230.256307,4231.794768,4206.666564,4217.948615,4192.30759,4217.435794,4198.461436,4301.538356,4226.153743,4225.128102,4205.128102,4216.922974,4212.82041
70,0,4210.256307,4228.717845,4224.102461,4207.179384,4222.051179,4192.82041,4217.948615,4201.025538,4303.589638,4228.205025,4227.692204,4206.666564,4216.922974,4225.640922
71,0,4214.358871,4231.281948,4222.051179,4206.153743,4224.102461,4194.871692,4216.922974,4202.051179,4305.1281,4232.820409,4230.769127,4209.230666,4216.922974,4222.563999
72,0,4214.871692,4225.640922,4226.666563,4198.974256,4217.435794,4193.846051,4216.410153,4200.512718,4304.102459,4223.58964,4227.179384,4206.666564,4212.82041,4207.692205
73,0,4208.717846,4213.846051,4219.999897,4192.30759,4212.307589,4192.82041,4215.897333,4201.538359,4304.615279,4210.769128,4222.051179,4198.974256,4206.153743,4191.281949
74,0,4200.512718,4215.384512,4211.794769,4197.948615,4220.512717,4197.435795,4218.974256,4202.051179,4307.692202,4219.999897,4221.538358,4194.871692,4206.666564,4196.922974
75,0,4205.128102,4219.487076,4222.051179,4204.615282,4226.666563,4205.640923,4225.640922,4205.128102,4306.153741,4234.358871,4228.717845,4200.512718,4216.410153,4216.922974
76,0,4211.794769,4223.07682,4230.256307,4205.640923,4226.666563,4207.692205,4226.153743,4209.743487,4303.589638,4229.230666,4234.358871,4202.564,4227.692204,4216.922974
77,0,4211.794769,4235.384512,4223.07682,4206.153743,4228.717845,4204.102461,4217.948615,4205.128102,4302.563997,4221.538358,4231.281948,4197.435795,4225.640922,4214.871692
78,0,4204.102461,4238.461435,4220.512717,4209.230666,4227.692204,4199.999897,4213.33323,4198.461436,4303.589638,4224.615281,4227.179384,4194.358872,4218.461435,4222.051179
79,0,4203.07682,4228.205025,4225.640922,4211.281948,4220.512717,4195.384513,4214.358871,4199.487077,4303.589638,4226.666563,4227.692204,4194.871692,4217.948615,4214.871692
80,0,4206.153743,4228.205025,4223.58964,4208.205025,4217.948615,4193.333231,4211.794769,4200.512718,4299.487074,4225.128102,4230.256307,4199.999897,4222.051179,4208.205025
81,0,4212.307589,4235.384512,4221.025538,4202.564,4222.563999,4196.410154,4211.281948,4199.999897,4299.487074,4225.128102,4230.769127,4208.717846,4223.58964,4223.58964
82,0,4212.307589,4237.435794,4227.179384,4203.589641,4224.102461,4199.999897,4215.897333,4199.487077,4304.102459,4227.179384,4230.769127,4218.461435,4222.051179,4236.922973
83,0,4214.358871,4242.563999,4226.666563,4211.281948,4223.07682,4201.025538,4218.461435,4202.051179,4303.076818,4234.358871,4233.33323,4227.179384,4223.07682,4232.820409
84,0,4218.461435,4247.692204,4216.922974,4207.179384,4215.897333,4199.999897,4211.794769,4199.487077,4298.461433,4225.640922,4231.281948,4227.692204,4217.435794,4221.538358
85,0,4214.358871,4243.58964,4217.948615,4202.564,4210.769128,4203.589641,4207.179384,4193.846051,4297.435792,4209.230666,4227.692204,4227.179384,4211.281948,4219.999897
86,0,4206.666564,4235.384512,4227.179384,4208.717846,4207.179384,4208.717846,4208.205025,4191.794769,4298.974254,4208.205025,4225.128102,4233.33323,4207.692205,4219.999897
87,0,4201.025538,4241.538358,4220.512717,4208.717846,4204.102461,4205.128102,4207.692205,4191.794769,4296.922972,4214.871692,4223.07682,4232.820409,4203.07682,4211.794769
88,0,4202.051179,4248.717845,4215.384512,4195.384513,4201.538359,4202.051179,4202.051179,4189.743487,4291.794767,4203.07682,4221.538358,4228.717845,4199.999897,4203.07682
89,0,4202.564,4241.538358,4221.538358,4191.794769,4206.153743,4202.564,4203.07682,4187.179385,4288.205023,4195.384513,4221.025538,4235.384512,4197.948615,4209.743487
90,0,4206.666564,4234.871691,4223.58964,4197.948615,4204.102461,4198.974256,4206.666564,4189.743487,4287.692203,4201.538359,4222.051179,4241.025537,4194.358872,4211.794769
