title:A                                                                               , recorded:02.07.20 13.29.49, sampling:128, subject:S                                                                               , labels:COUNTER INTERPOLATED AF3 F7 F3 FC5 T7 P7 O1 O2 P8 T8 FC6 F4 F8 AF4,, units:emotiv,,,,,,,,,
110,0,4202.051179,4222.563999,4215.897333,4211.281948,4216.922974,4219.487076,4215.384512,4218.974256,4221.538358,4219.999897,4211.281948,4224.102461,4228.205025,4214.358871
111,0,4212.307589,4216.410153,4221.538358,4216.922974,4213.33323,4215.384512,4211.281948,4218.974256,4221.538358,4216.410153,4211.794769,4218.974256,4220.512717,4204.615282
112,0,4219.999897,4205.128102,4224.102461,4212.307589,4207.692205,4217.948615,4210.769128,4219.999897,4216.410153,4215.384512,4209.743487,4220.512717,4214.871692,4200.512718
113,0,4211.281948,4215.897333,4213.846051,4213.846051,4218.974256,4225.128102,4215.897333,4228.205025,4222.563999,4222.051179,4211.281948,4223.58964,4224.102461,4215.897333
114,0,4199.999897,4227.179384,4211.794769,4205.128102,4222.051179,4228.205025,4216.922974,4233.33323,4230.769127,4220.512717,4208.717846,4226.153743,4224.102461,4223.07682
115,0,4202.564,4210.256307,4211.794769,4191.794769,4211.794769,4222.563999,4212.82041,4227.179384,4225.128102,4212.307589,4205.128102,4219.999897,4211.281948,4209.230666
116,0,4205.128102,4191.794769,4202.051179,4205.640923,4210.256307,4213.846051,4207.692205,4218.461435,4215.897333,4208.717846,4211.281948,4214.871692,4208.205025,4196.410154
117,0,4203.07682,4205.640923,4202.051179,4220.512717,4221.538358,4212.307589,4208.717846,4216.922974,4217.948615,4219.999897,4216.922974,4224.102461,4217.948615,4204.615282
118,0,4205.128102,4229.230666,4212.307589,4216.410153,4221.025538,4215.384512,4208.717846,4218.974256,4222.051179,4226.666563,4210.769128,4227.179384,4226.153743,4215.897333
119,0,4210.256307,4228.205025,4217.948615,4214.871692,4209.230666,4210.769128,4203.07682,4213.33323,4218.461435,4215.897333,4208.205025,4222.051179,4224.102461,4213.33323
120,0,4219.487076,4218.974256,4226.153743,4223.58964,4207.179384,4206.666564,4195.897333,4208.205025,4214.358871,4206.153743,4213.846051,4226.153743,4218.461435,4211.281948
121,0,4221.538358,4228.205025,4226.153743,4226.666563,4217.948615,4209.743487,4198.461436,4212.307589,4218.461435,4215.897333,4212.82041,4230.256307,4218.974256,4216.922974
122,0,4219.999897,4237.948614,4219.999897,4212.307589,4221.025538,4214.358871,4207.692205,4218.974256,4221.538358,4219.999897,4207.692205,4228.205025,4223.58964,4217.948615
123,0,4221.538358,4232.307589,4223.07682,4218.461435,4216.410153,4215.384512,4210.256307,4223.58964,4224.615281,4216.410153,4212.82041,4232.307589,4225.640922,4223.07682
124,0,4223.07682,4233.84605,4223.07682,4237.435794,4213.846051,4216.922974,4211.281948,4228.717845,4228.717845,4219.999897,4218.974256,4236.922973,4215.384512,4230.256307
125,0,4207.692205,4240.512717,4212.82041,4223.07682,4212.307589,4213.846051,4216.410153,4229.230666,4225.128102,4224.102461,4213.846051,4226.153743,4208.205025,4219.999897
126,0,4201.538359,4234.358871,4210.769128,4200.512718,4209.743487,4211.794769,4217.948615,4227.692204,4222.051179,4217.948615,4208.205025,4221.538358,4214.358871,4208.205025
127,0,4209.743487,4230.256307,4213.33323,4210.256307,4210.256307,4218.461435,4216.410153,4226.666563,4223.58964,4212.82041,4206.153743,4228.205025,4218.974256,4215.384512
128,0,4218.974256,4239.487076,4214.358871,4221.025538,4209.230666,4223.58964,4213.846051,4222.051179,4225.640922,4214.358871,4206.153743,4231.794768,4209.743487,4218.974256
0,0,4213.33323,4239.999896,4214.358871,4210.256307,4210.256307,4212.82041,4208.205025,4217.435794,4224.615281,4219.487076,4210.256307,4222.051179,4202.564,4206.153743
1,0,4207.692205,4236.922973,4211.281948,4207.179384,4215.384512,4208.205025,4205.128102,4217.435794,4225.128102,4217.435794,4210.769128,4211.281948,4206.666564,4197.948615
2,0,4212.307589,4243.076819,4218.974256,4215.897333,4215.897333,4221.538358,4208.717846,4215.897333,4224.615281,4210.769128,4206.666564,4221.025538,4204.615282,4210.769128
3,0,4222.051179,4246.666563,4226.666563,4219.999897,4214.358871,4230.769127,4213.33323,4217.948615,4223.58964,4218.974256,4210.256307,4235.384512,4207.179384,4230.256307
4,0,4210.769128,4248.205024,4203.589641,4215.384512,4218.461435,4225.640922,4215.384512,4225.128102,4227.179384,4230.256307,4214.871692,4226.153743,4217.948615,4224.615281
5,0,4197.435795,4245.128101,4190.256308,4209.743487,4219.999897,4222.563999,4218.974256,4224.615281,4230.769127,4229.743486,4215.384512,4213.846051,4217.435794,4210.256307
6,0,4207.692205,4231.281948,4214.358871,4208.205025,4209.743487,4224.102461,4221.025538,4224.615281,4234.358871,4224.102461,4214.871692,4225.640922,4210.256307,4217.948615
7,0,4215.897333,4229.230666,4222.051179,4204.615282,4204.102461,4222.563999,4221.538358,4233.84605,4232.820409,4219.999897,4211.281948,4230.769127,4213.846051,4227.179384
8,0,4207.179384,4231.281948,4205.640923,4204.102461,4209.743487,4223.07682,4221.025538,4232.307589,4229.230666,4218.461435,4206.666564,4214.871692,4213.33323,4210.769128
9,0,4204.102461,4226.666563,4205.128102,4210.256307,4215.897333,4219.999897,4210.769128,4219.999897,4232.307589,4215.384512,4204.615282,4208.717846,4205.128102,4194.358872
10,0,4210.256307,4227.692204,4214.358871,4212.307589,4209.230666,4212.82041,4201.025538,4214.871692,4230.256307,4205.128102,4199.999897,4214.871692,4203.07682,4195.897333
11,0,4204.615282,4228.205025,4213.846051,4213.33323,4199.999897,4212.82041,4206.666564,4218.461435,4224.615281,4203.589641,4198.974256,4217.435794,4198.974256,4202.051179
12,0,4204.102461,4223.07682,4218.461435,4201.025538,4202.564,4221.025538,4214.358871,4223.58964,4226.153743,4212.307589,4197.948615,4217.435794,4195.897333,4204.102461
13,0,4207.179384,4236.410153,4217.435794,4193.846051,4215.897333,4223.58964,4215.897333,4229.230666,4230.256307,4217.435794,4197.435795,4221.025538,4205.640923,4209.743487
14,0,4212.307589,4252.307588,4212.82041,4208.205025,4217.435794,4222.563999,4217.948615,4230.256307,4227.179384,4212.307589,4204.102461,4227.692204,4205.128102,4215.897333
15,0,4211.281948,4244.615281,4221.538358,4210.769128,4209.743487,4223.07682,4221.025538,4228.205025,4226.153743,4212.307589,4206.153743,4226.153743,4198.974256,4213.33323
16,0,4208.205025,4241.538358,4223.07682,4205.640923,4209.743487,4222.051179,4223.58964,4229.743486,4229.743486,4216.410153,4206.666564,4228.205025,4208.717846,4211.794769
17,0,4207.179384,4253.84605,4214.871692,4218.461435,4216.410153,4221.025538,4228.717845,4231.794768,4233.33323,4218.974256,4213.846051,4234.358871,4219.487076,4217.948615
18,0,4215.384512,4250.256306,4224.615281,4223.07682,4217.435794,4224.102461,4230.769127,4232.820409,4237.948614,4219.487076,4210.769128,4224.102461,4211.794769,4212.307589
19,0,4208.717846,4241.538358,4230.769127,4214.871692,4214.358871,4225.128102,4226.153743,4230.769127,4232.820409,4216.410153,4199.487077,4210.769128,4199.487077,4201.538359
20,0,4198.461436,4244.10246,4216.922974,4213.846051,4212.307589,4223.07682,4223.07682,4229.230666,4227.179384,4215.384512,4200.512718,4218.461435,4195.384513,4204.615282
21,0,4196.922974,4238.461435,4217.948615,4210.769128,4207.692205,4223.07682,4221.025538,4228.717845,4229.230666,4214.358871,4204.102461,4221.025538,4194.358872,4197.948615
22,0,4195.384513,4230.256307,4224.615281,4206.666564,4202.051179,4218.974256,4215.384512,4222.051179,4227.179384,4209.743487,4195.897333,4206.666564,4196.410154,4179.999898
23,0,4194.871692,4241.025537,4216.922974,4199.487077,4204.102461,4215.384512,4209.743487,4213.33323,4222.563999,4211.281948,4202.051179,4213.33323,4205.128102,4194.871692
24,0,4203.07682,4251.794768,4212.82041,4192.82041,4214.358871,4216.410153,4209.230666,4215.384512,4227.179384,4219.999897,4213.33323,4222.563999,4217.435794,4222.051179
25,0,4201.025538,4239.999896,4212.82041,4207.179384,4212.307589,4216.410153,4207.692205,4217.435794,4226.666563,4211.281948,4200.512718,4215.384512,4210.256307,4212.307589
26,0,4191.794769,4223.58964,4215.897333,4217.435794,4206.153743,4216.410153,4204.615282,4216.922974,4223.07682,4202.051179,4193.846051,4217.948615,4197.948615,4201.538359
27,0,4196.410154,4218.461435,4219.487076,4203.589641,4208.717846,4221.538358,4213.33323,4225.128102,4225.640922,4215.384512,4210.769128,4221.025538,4202.564,4209.743487
28,0,4191.281949,4228.205025,4205.640923,4191.794769,4212.307589,4221.025538,4220.512717,4229.743486,4227.179384,4227.179384,4211.281948,4199.999897,4211.794769,4203.589641
29,0,4185.128103,4225.128102,4203.589641,4189.743487,4205.640923,4219.999897,4214.358871,4222.051179,4223.58964,4214.358871,4193.846051,4187.179385,4205.640923,4189.230667
30,0,4188.205026,4210.769128,4218.461435,4189.743487,4204.102461,4223.07682,4212.307589,4217.948615,4224.102461,4208.717846,4194.358872,4202.564,4195.384513,4196.922974
31,0,4183.589641,4213.846051,4212.82041,4188.205026,4206.153743,4218.974256,4214.871692,4218.974256,4222.563999,4213.846051,4201.025538,4212.307589,4196.922974,4201.025538
32,0,4177.435795,4231.281948,4203.589641,4190.256308,4204.615282,4208.717846,4209.743487,4215.897333,4218.974256,4210.769128,4197.948615,4205.640923,4207.179384,4190.256308
33,0,4200.512718,4239.487076,4215.384512,4193.846051,4207.179384,4211.794769,4204.615282,4214.358871,4221.025538,4207.692205,4204.615282,4210.769128,4216.922974,4196.410154
34,0,4204.615282,4233.33323,4219.487076,4195.897333,4214.871692,4218.974256,4206.153743,4215.897333,4224.102461,4215.897333,4210.769128,4216.410153,4214.358871,4207.692205
35,0,4189.743487,4223.58964,4220.512717,4204.102461,4213.33323,4219.487076,4206.666564,4213.846051,4221.538358,4219.487076,4202.564,4210.256307,4204.102461,4204.102461
36,0,4195.384513,4224.615281,4232.307589,4214.358871,4212.307589,4220.512717,4212.82041,4218.461435,4225.128102,4217.948615,4203.07682,4213.33323,4205.640923,4206.666564
37,0,4203.589641,4237.948614,4224.102461,4208.205025,4217.435794,4225.128102,4223.07682,4231.281948,4230.769127,4226.666563,4211.281948,4224.102461,4211.281948,4215.897333
38,0,4187.179385,4238.974255,4206.666564,4191.794769,4217.435794,4225.640922,4224.102461,4231.794768,4231.794768,4230.769127,4201.538359,4217.435794,4205.640923,4204.615282
39,0,4189.743487,4223.07682,4217.948615,4195.384513,4213.33323,4223.07682,4220.512717,4223.07682,4230.769127,4217.948615,4191.794769,4207.179384,4201.025538,4193.846051
40,0,4205.128102,4220.512717,4230.769127,4209.230666,4215.384512,4223.58964,4220.512717,4221.025538,4227.692204,4211.794769,4199.487077,4212.307589,4201.538359,4200.512718
41,0,4193.333231,4229.230666,4222.563999,4209.743487,4217.948615,4223.07682,4220.512717,4224.102461,4224.615281,4216.922974,4205.128102,4216.410153,4202.564,4202.564
42,0,4171.281949,4225.640922,4209.743487,4200.512718,4215.384512,4219.999897,4214.871692,4219.999897,4224.615281,4213.33323,4202.564,4208.205025,4202.051179,4190.256308
43,0,4174.871693,4222.051179,4204.102461,4186.153744,4213.33323,4220.512717,4209.743487,4216.922974,4224.615281,4210.256307,4198.461436,4199.999897,4198.974256,4184.102462
44,0,4193.333231,4228.205025,4217.435794,4187.179385,4213.33323,4222.563999,4212.307589,4219.999897,4226.153743,4216.922974,4194.358872,4205.640923,4199.487077,4196.410154
45,0,4191.794769,4228.205025,4230.256307,4205.640923,4217.435794,4222.563999,4216.410153,4221.025538,4229.743486,4222.563999,4199.999897,4213.33323,4208.717846,4209.230666
46,0,4184.102462,4228.205025,4216.410153,4214.871692,4223.58964,4225.128102,4219.487076,4223.07682,4230.256307,4221.538358,4211.281948,4208.717846,4212.82041,4206.666564
47,0,4189.230667,4239.487076,4209.230666,4208.717846,4228.205025,4226.666563,4220.512717,4229.230666,4232.820409,4223.07682,4211.794769,4206.153743,4207.692205,4209.230666
48,0,4195.897333,4235.897332,4226.153743,4204.102461,4223.07682,4225.640922,4217.435794,4231.794768,4234.358871,4225.128102,4201.538359,4215.384512,4202.564,4213.33323
49,0,4186.153744,4223.07682,4223.58964,4197.435795,4214.871692,4222.563999,4216.922974,4227.179384,4228.717845,4224.102461,4199.999897,4214.871692,4205.640923,4203.07682
50,0,4188.717846,4220.512717,4219.487076,4188.205026,4211.794769,4221.538358,4219.487076,4222.563999,4225.640922,4215.897333,4201.538359,4209.743487,4211.281948,4195.897333
51,0,4191.281949,4223.58964,4227.692204,4194.871692,4215.384512,4222.563999,4221.538358,4225.128102,4233.33323,4213.33323,4200.512718,4209.743487,4209.743487,4201.538359
52,0,4181.538359,4228.717845,4218.974256,4204.102461,4217.948615,4227.692204,4223.07682,4229.743486,4233.84605,4227.692204,4201.025538,4209.743487,4206.153743,4201.025538
53,0,4171.281949,4228.205025,4210.256307,4195.384513,4215.384512,4228.717845,4221.538358,4225.640922,4225.640922,4227.692204,4194.871692,4207.692205,4205.640923,4192.82041
54,0,4177.948616,4203.07682,4222.563999,4178.974257,4207.179384,4218.974256,4214.871692,4215.897333,4218.974256,4202.051179,4187.692205,4202.564,4194.358872,4186.153744
55,0,4180.512718,4191.794769,4226.153743,4185.640923,4210.769128,4215.897333,4210.769128,4213.33323,4218.461435,4197.948615,4196.410154,4201.025538,4193.333231,4184.102462
56,0,4176.922975,4213.846051,4221.025538,4211.794769,4223.07682,4224.102461,4214.871692,4216.410153,4224.102461,4219.999897,4210.769128,4209.230666,4211.794769,4199.487077
57,0,4174.871693,4228.717845,4220.512717,4217.435794,4222.563999,4226.153743,4217.948615,4219.487076,4229.743486,4223.07682,4209.230666,4218.974256,4215.384512,4211.794769
58,0,4182.05118,4227.179384,4221.538358,4198.461436,4223.58964,4223.58964,4217.435794,4225.640922,4230.769127,4217.435794,4206.666564,4218.461435,4209.743487,4205.640923
59,0,4188.717846,4228.205025,4232.307589,4198.974256,4230.769127,4226.153743,4220.512717,4231.281948,4228.717845,4228.717845,4212.82041,4219.487076,4216.922974,4207.179384
60,0,4183.076821,4236.922973,4237.435794,4204.102461,4227.179384,4227.692204,4222.051179,4227.179384,4228.717845,4232.820409,4212.82041,4224.615281,4219.999897,4219.487076
61,0,4170.256308,4238.974255,4226.153743,4196.922974,4215.897333,4223.07682,4215.384512,4218.461435,4223.58964,4215.897333,4210.769128,4218.974256,4208.205025,4213.846051
62,0,4164.102462,4230.769127,4221.025538,4203.589641,4217.435794,4221.025538,4209.230666,4216.922974,4222.563999,4211.281948,4209.230666,4207.692205,4203.07682,4197.948615
63,0,4163.589642,4214.871692,4223.07682,4197.948615,4222.051179,4226.153743,4215.897333,4220.512717,4224.615281,4222.051179,4201.025538,4206.666564,4207.692205,4198.974256
64,0,4165.128103,4212.82041,4216.410153,4185.128103,4222.563999,4227.692204,4219.487076,4219.999897,4223.58964,4224.102461,4195.384513,4212.82041,4212.82041,4211.794769
65,0,4171.79477,4216.410153,4224.615281,4199.487077,4218.461435,4225.128102,4212.82041,4216.410153,4223.07682,4219.999897,4204.102461,4217.435794,4218.461435,4218.461435
66,0,4174.358872,4209.743487,4239.999896,4209.230666,4216.410153,4224.615281,4217.435794,4218.974256,4227.179384,4228.717845,4220.512717,4221.538358,4224.615281,4221.025538
67,0,4173.333231,4205.640923,4228.717845,4199.487077,4219.999897,4225.640922,4224.102461,4221.025538,4228.205025,4224.615281,4217.948615,4221.538358,4217.948615,4213.33323
68,0,4174.871693,4205.128102,4221.025538,4198.974256,4223.58964,4224.102461,4219.999897,4219.487076,4228.205025,4214.871692,4207.179384,4215.897333,4205.640923,4205.640923
69,0,4179.999898,4199.999897,4238.974255,4203.07682,4219.999897,4227.179384,4218.974256,4219.487076,4229.230666,4219.999897,4208.205025,4214.358871,4206.666564,4206.153743
70,0,4168.205026,4197.948615,4242.051178,4197.435795,4217.435794,4226.666563,4223.58964,4218.974256,4224.615281,4222.563999,4208.717846,4213.846051,4210.769128,4208.717846
71,0,4158.974257,4206.666564,4221.538358,4199.487077,4217.948615,4221.538358,4218.974256,4218.974256,4222.051179,4215.384512,4204.615282,4213.33323,4206.153743,4207.692205
72,0,4157.948616,4210.769128,4214.871692,4204.615282,4221.538358,4222.563999,4215.897333,4223.07682,4230.256307,4219.999897,4206.666564,4212.307589,4204.615282,4204.102461
73,0,4162.05118,4209.743487,4223.07682,4188.717846,4221.025538,4224.102461,4217.948615,4225.128102,4233.84605,4229.743486,4212.82041,4214.358871,4212.307589,4203.07682
74,0,4162.564001,4209.743487,4230.769127,4173.333231,4212.82041,4219.999897,4212.307589,4217.435794,4226.153743,4225.128102,4213.33323,4217.948615,4220.512717,4200.512718
75,0,4176.922975,4208.205025,4239.487076,4197.948615,4212.307589,4220.512717,4210.769128,4215.897333,4220.512717,4216.922974,4210.769128,4224.615281,4223.07682,4208.717846
76,0,4188.205026,4223.58964,4239.999896,4227.692204,4226.666563,4224.615281,4215.384512,4220.512717,4226.153743,4223.58964,4212.82041,4229.230666,4225.640922,4230.769127
77,0,4184.102462,4239.487076,4235.897332,4214.871692,4234.358871,4224.102461,4216.922974,4220.512717,4228.205025,4236.410153,4216.922974,4227.179384,4232.820409,4243.076819
78,0,4186.153744,4232.307589,4243.58964,4206.666564,4231.794768,4225.128102,4221.538358,4220.512717,4227.692204,4237.948614,4220.512717,4230.256307,4233.84605,4237.948614
79,0,4191.794769,4217.948615,4249.230665,4223.07682,4233.84605,4225.128102,4224.102461,4224.102461,4229.230666,4233.84605,4221.538358,4235.384512,4227.179384,4238.461435
80,0,4184.102462,4224.615281,4235.897332,4221.025538,4235.384512,4224.615281,4218.461435,4223.07682,4229.230666,4233.84605,4222.051179,4230.769127,4226.153743,4244.10246
81,0,4173.846052,4241.538358,4230.256307,4203.589641,4233.33323,4224.102461,4218.461435,4222.051179,4230.769127,4234.871691,4223.07682,4224.615281,4231.794768,4239.999896
82,0,4178.974257,4227.692204,4245.640922,4184.615282,4222.051179,4223.07682,4222.563999,4224.102461,4231.281948,4228.205025,4216.922974,4231.794768,4225.640922,4232.820409
83,0,4184.102462,4206.153743,4250.256306,4187.692205,4216.410153,4219.999897,4220.512717,4222.563999,4227.179384,4225.640922,4207.692205,4231.281948,4215.384512,4226.153743
84,0,4185.128103,4217.948615,4244.10246,4217.948615,4223.58964,4215.384512,4214.358871,4217.948615,4224.615281,4226.153743,4213.846051,4225.128102,4217.948615,4222.051179
85,0,4177.435795,4244.615281,4230.256307,4221.025538,4226.666563,4207.692205,4208.205025,4215.897333,4224.102461,4223.58964,4223.58964,4225.640922,4223.07682,4225.640922
86,0,4170.769129,4238.461435,4227.692204,4194.358872,4220.512717,4204.102461,4209.230666,4217.948615,4224.102461,4219.999897,4214.358871,4223.58964,4218.461435,4221.538358
87,0,4172.30759,4224.615281,4242.563999,4197.948615,4224.615281,4206.153743,4219.487076,4223.58964,4230.769127,4229.230666,4209.743487,4225.640922,4222.051179,4227.179384
88,0,4183.076821,4233.84605,4248.717845,4215.384512,4233.33323,4210.256307,4222.563999,4228.717845,4233.84605,4239.487076,4224.102461,4235.384512,4230.256307,4242.563999
89,0,4192.82041,4239.487076,4246.153742,4217.435794,4229.743486,4209.230666,4218.974256,4228.205025,4233.33323,4233.33323,4225.640922,4241.538358,4227.692204,4237.435794
90,0,4202.051179,4233.33323,4256.410152,4221.025538,4222.563999,4204.615282,4216.922974,4222.051179,4233.33323,4222.563999,4216.410153,4244.615281,4223.07682,4228.205025
91,0,4191.794769,4221.538358,4264.10246,4204.615282,4219.487076,4199.999897,4213.846051,4217.948615,4229.743486,4219.999897,4219.487076,4239.487076,4218.461435,4228.205025
92,0,4182.05118,4216.922974,4248.205024,4186.153744,4215.384512,4198.974256,4210.256307,4217.948615,4225.640922,4218.461435,4223.58964,4223.58964,4209.230666,4221.025538
93,0,4186.153744,4229.743486,4233.84605,4203.589641,4216.922974,4200.512718,4212.307589,4216.922974,4226.153743,4214.871692,4219.487076,4227.692204,4207.692205,4220.512717
94,0,4188.717846,4237.948614,4232.820409,4225.128102,4221.538358,4199.999897,4214.358871,4214.871692,4226.153743,4218.974256,4220.512717,4243.076819,4215.384512,4237.948614
95,0,4191.794769,4232.820409,4238.974255,4213.846051,4222.563999,4197.948615,4214.871692,4219.999897,4226.666563,4225.640922,4224.102461,4234.871691,4222.563999,4239.999896
96,0,4199.487077,4225.128102,4249.743486,4196.410154,4220.512717,4197.435795,4214.358871,4224.615281,4229.230666,4222.051179,4221.538358,4224.102461,4218.461435,4226.666563
97,0,4193.846051,4221.025538,4245.640922,4207.692205,4216.922974,4196.410154,4211.281948,4216.922974,4226.666563,4217.948615,4218.461435,4229.743486,4208.205025,4220.512717
98,0,4189.743487,4224.615281,4236.410153,4219.487076,4220.512717,4192.82041,4210.256307,4211.794769,4226.153743,4223.58964,4221.025538,4232.307589,4209.230666,4226.666563
99,0,4205.640923,4230.769127,4244.10246,4216.410153,4227.179384,4198.974256,4216.410153,4223.58964,4230.256307,4229.230666,4226.666563,4229.230666,4221.538358,4234.358871
100,0,4210.769128,4234.358871,4253.333229,4222.563999,4232.307589,4205.128102,4223.07682,4232.307589,4234.358871,4231.794768,4229.743486,4236.410153,4225.640922,4237.435794
101,0,4196.410154,4230.769127,4249.743486,4213.846051,4224.615281,4194.871692,4217.948615,4222.051179,4230.769127,4224.615281,4222.563999,4238.974255,4216.410153,4227.179384
102,0,4192.30759,4226.666563,4239.487076,4192.30759,4215.897333,4188.717846,4210.769128,4214.358871,4226.153743,4218.461435,4214.871692,4230.256307,4207.692205,4216.410153
103,0,4204.615282,4226.666563,4238.974255,4198.461436,4217.435794,4196.922974,4212.307589,4218.461435,4227.692204,4219.487076,4214.358871,4233.33323,4205.640923,4214.871692
104,0,4201.538359,4230.769127,4243.076819,4213.33323,4220.512717,4198.974256,4209.230666,4217.948615,4229.743486,4220.512717,4218.974256,4238.461435,4210.769128,4221.538358
105,0,4190.769128,4228.717845,4237.948614,4198.461436,4218.974256,4194.871692,4200.512718,4214.358871,4225.640922,4218.974256,4224.102461,4229.743486,4217.948615,4231.794768
106,0,4188.717846,4218.461435,4227.692204,4196.410154,4214.358871,4194.358872,4201.025538,4215.384512,4223.58964,4222.563999,4224.615281,4222.563999,4215.897333,4233.33323
107,0,4198.974256,4215.897333,4229.230666,4207.692205,4208.717846,4195.897333,4203.589641,4214.871692,4225.128102,4220.512717,4223.58964,4228.717845,4210.769128,4221.538358
108,0,4197.948615,4223.07682,4233.33323,4187.692205,4205.640923,4195.897333,4201.538359,4214.358871,4225.128102,4213.33323,4223.07682,4229.230666,4210.769128,4212.82041
109,0,4196.922974,4223.07682,4234.871691,4176.410154,4207.179384,4195.897333,4203.589641,4216.922974,4225.128102,4213.846051,4220.512717,4224.615281,4213.33323,4214.358871
110,0,4197.435795,4215.897333,4238.974255,4199.999897,4205.640923,4192.82041,4208.717846,4218.461435,4225.128102,4216.922974,4218.461435,4225.640922,4211.794769,4208.717846
111,0,4197.948615,4214.358871,4236.410153,4206.666564,4199.999897,4192.30759,4204.102461,4217.435794,4227.179384,4215.384512,4217.948615,4225.128102,4201.025538,4201.025538
112,0,4196.410154,4217.435794,4231.281948,4189.743487,4199.487077,4192.30759,4199.999897,4215.384512,4227.692204,4213.33323,4214.358871,4225.128102,4195.384513,4201.538359
113,0,4201.025538,4208.205025,4237.948614,4188.205026,4205.128102,4191.794769,4205.640923,4215.897333,4226.153743,4218.974256,4211.281948,4223.58964,4203.07682,4196.410154
114,0,4206.153743,4207.692205,4241.025537,4197.435795,4210.256307,4196.922974,4209.230666,4218.974256,4227.179384,4227.692204,4219.487076,4224.615281,4210.256307,4199.999897
115,0,4208.205025,4218.974256,4232.820409,4194.358872,4212.82041,4198.461436,4203.589641,4218.461435,4228.205025,4226.666563,4221.025538,4226.153743,4208.205025,4214.871692
116,0,4209.743487,4217.435794,4229.743486,4192.82041,4210.769128,4196.922974,4199.999897,4214.358871,4223.58964,4219.999897,4210.769128,4220.512717,4207.179384,4213.846051
117,0,4211.794769,4213.33323,4232.820409,4195.384513,4209.743487,4199.999897,4208.205025,4214.871692,4221.538358,4216.410153,4211.281948,4219.487076,4206.666564,4204.102461
118,0,4209.743487,4219.487076,4230.769127,4190.256308,4210.256307,4206.666564,4213.33323,4217.948615,4227.692204,4217.435794,4218.461435,4223.07682,4206.666564,4204.102461
119,0,4203.589641,4218.974256,4228.205025,4186.666564,4208.717846,4200.512718,4208.717846,4218.461435,4229.743486,4225.128102,4217.435794,4216.410153,4214.358871,4207.179384
120,0,4210.769128,4210.769128,4235.384512,4199.999897,4206.153743,4193.846051,4207.179384,4216.922974,4226.153743,4229.743486,4215.897333,4211.794769,4213.846051,4213.846051
121,0,4212.307589,4218.974256,4242.051178,4204.102461,4211.281948,4195.897333,4210.256307,4216.922974,4226.153743,4222.563999,4221.025538,4216.922974,4208.205025,4218.974256
122,0,4209.230666,4227.179384,4243.58964,4184.615282,4210.256307,4199.487077,4206.666564,4215.384512,4224.615281,4213.846051,4218.974256,4221.025538,4207.692205,4206.666564
123,0,4211.281948,4223.58964,4232.820409,4182.05118,4210.769128,4199.999897,4205.640923,4214.871692,4222.563999,4218.974256,4213.33323,4222.563999,4207.692205,4201.538359
124,0,4213.33323,4226.153743,4218.461435,4201.538359,4215.384512,4199.487077,4209.743487,4216.410153,4223.07682,4213.33323,4214.871692,4223.58964,4205.128102,4210.256307
125,0,4205.128102,4228.717845,4222.051179,4197.435795,4212.307589,4198.974256,4208.205025,4213.33323,4223.58964,4204.615282,4210.256307,4216.922974,4205.128102,4206.153743
126,0,4210.769128,4218.461435,4236.922973,4176.922975,4204.102461,4202.564,4210.769128,4210.769128,4223.58964,4215.897333,4202.051179,4211.794769,4204.102461,4197.948615
127,0,4221.025538,4222.051179,4235.384512,4192.30759,4211.794769,4206.666564,4222.563999,4221.025538,4229.743486,4232.820409,4205.640923,4218.974256,4205.640923,4209.230666
128,0,4223.07682,4233.33323,4228.205025,4209.230666,4223.07682,4206.153743,4224.102461,4233.84605,4232.820409,4232.820409,4221.538358,4225.128102,4211.281948,4214.358871
0,0,4216.410153,4218.461435,4234.358871,4198.974256,4216.922974,4203.589641,4216.410153,4227.179384,4229.743486,4223.58964,4225.128102,4219.999897,4215.384512,4206.666564
1,0,4215.897333,4212.307589,4234.871691,4194.871692,4207.692205,4199.999897,4213.33323,4216.410153,4228.205025,4225.128102,4221.538358,4213.33323,4213.33323,4209.743487
2,0,4219.999897,4233.33323,4225.128102,4200.512718,4208.205025,4196.410154,4212.82041,4216.410153,4229.743486,4227.179384,4219.999897,4212.307589,4209.743487,4211.794769
3,0,4226.153743,4237.948614,4222.051179,4197.948615,4215.384512,4203.07682,4212.82041,4217.435794,4226.153743,4219.487076,4219.487076,4213.33323,4211.281948,4208.717846
4,0,4224.615281,4219.999897,4226.666563,4195.384513,4214.358871,4209.743487,4214.358871,4213.846051,4223.07682,4213.33323,4221.025538,4217.435794,4210.256307,4212.82041
5,0,4223.07682,4210.769128,4230.256307,4199.487077,4207.692205,4206.153743,4213.33323,4214.358871,4227.692204,4222.563999,4224.615281,4223.07682,4207.692205,4210.769128
6,0,4227.179384,4209.230666,4231.281948,4191.794769,4210.769128,4205.128102,4215.897333,4217.435794,4230.256307,4229.230666,4222.563999,4223.07682,4210.256307,4204.102461
7,0,4219.999897,4210.769128,4227.179384,4185.640923,4217.435794,4208.717846,4217.948615,4216.410153,4226.666563,4222.051179,4218.974256,4218.461435,4210.769128,4215.897333
8,0,4215.384512,4214.358871,4224.102461,4202.051179,4216.922974,4207.179384,4216.410153,4217.435794,4226.153743,4224.102461,4222.051179,4221.025538,4210.769128,4230.256307
9,0,4227.179384,4216.410153,4237.435794,4215.897333,4217.948615,4206.153743,4217.948615,4220.512717,4228.717845,4232.820409,4228.717845,4226.666563,4223.58964,4231.794768
10,0,4236.410153,4214.358871,4252.307588,4200.512718,4215.384512,4208.205025,4213.846051,4216.410153,4224.102461,4226.666563,4229.230666,4229.743486,4222.563999,4224.102461
11,0,4225.640922,4210.256307,4234.871691,4181.025539,4208.205025,4203.07682,4202.051179,4211.281948,4219.487076,4214.871692,4218.974256,4223.07682,4197.948615,4209.743487
12,0,4222.563999,4210.769128,4215.897333,4189.743487,4210.769128,4204.102461,4201.538359,4213.846051,4223.07682,4215.384512,4212.82041,4212.82041,4194.871692,4201.538359
13,0,4217.948615,4206.666564,4219.487076,4197.435795,4217.948615,4208.717846,4209.743487,4213.846051,4224.615281,4221.025538,4218.974256,4205.128102,4213.33323,4203.07682
14,0,4207.179384,4196.410154,4217.948615,4188.717846,4207.692205,4201.538359,4207.692205,4208.205025,4219.487076,4216.922974,4211.281948,4202.564,4208.717846,4193.333231
15,0,4207.692205,4212.307589,4213.33323,4192.82041,4204.102461,4195.384513,4208.205025,4210.769128,4221.025538,4214.871692,4202.564,4207.692205,4197.948615,4189.743487
16,0,4223.58964,4230.256307,4223.07682,4206.153743,4216.410153,4203.589641,4214.871692,4216.922974,4225.128102,4220.512717,4218.461435,4213.846051,4209.230666,4209.230666
17,0,4223.07682,4213.846051,4228.205025,4201.538359,4218.461435,4207.692205,4213.33323,4216.922974,4223.07682,4222.563999,4229.230666,4211.794769,4217.435794,4212.307589
18,0,4224.615281,4200.512718,4223.58964,4194.871692,4209.743487,4202.564,4210.769128,4214.871692,4221.538358,4219.999897,4222.051179,4213.33323,4207.692205,4194.871692
19,0,4229.743486,4212.307589,4223.07682,4199.999897,4215.384512,4203.07682,4211.794769,4214.871692,4218.461435,4219.999897,4223.07682,4217.948615,4207.692205,4196.410154
20,0,4226.153743,4212.307589,4228.205025,4190.256308,4220.512717,4203.07682,4208.205025,4214.358871,4213.846051,4219.999897,4227.179384,4213.33323,4214.871692,4213.846051
21,0,4222.051179,4205.640923,4229.743486,4184.102462,4209.743487,4200.512718,4201.538359,4213.846051,4219.487076,4218.974256,4221.538358,4213.846051,4210.256307,4218.461435
22,0,4226.666563,4208.205025,4224.102461,4199.999897,4208.205025,4203.589641,4203.07682,4213.846051,4226.666563,4223.07682,4226.153743,4223.58964,4210.256307,4213.33323
23,0,4223.07682,4195.897333,4211.794769,4201.538359,4216.410153,4208.717846,4212.307589,4214.871692,4222.051179,4223.58964,4235.384512,4226.153743,4219.999897,4208.205025
24,0,4218.461435,4175.897334,4206.666564,4190.769128,4217.435794,4204.102461,4215.897333,4215.897333,4221.538358,4220.512717,4224.615281,4218.461435,4216.410153,4203.07682
25,0,4224.102461,4170.256308,4215.384512,4195.897333,4209.743487,4197.948615,4211.794769,4213.846051,4225.640922,4217.435794,4211.794769,4211.281948,4199.999897,4201.025538
26,0,4222.051179,4179.487077,4218.461435,4202.051179,4207.179384,4201.025538,4209.743487,4212.82041,4223.07682,4217.948615,4215.897333,4207.692205,4201.538359,4207.179384
27,0,4220.512717,4188.205026,4216.922974,4198.974256,4210.256307,4202.564,4213.33323,4215.384512,4219.999897,4213.33323,4218.461435,4211.794769,4211.281948,4208.717846
28,0,4223.58964,4191.794769,4215.384512,4203.589641,4215.384512,4199.999897,4216.410153,4215.384512,4222.051179,4214.871692,4215.384512,4213.33323,4207.179384,4195.897333
29,0,4227.179384,4185.128103,4220.512717,4196.922974,4213.33323,4203.07682,4213.846051,4213.33323,4223.07682,4225.128102,4222.563999,4207.179384,4205.640923,4189.743487
30,0,4232.307589,4177.435795,4227.692204,4191.794769,4211.794769,4206.153743,4207.692205,4214.871692,4221.538358,4226.153743,4226.153743,4210.256307,4212.307589,4205.640923
31,0,4240.512717,4183.589641,4227.179384,4207.179384,4218.461435,4205.640923,4206.666564,4216.922974,4218.974256,4215.384512,4219.999897,4223.58964,4210.769128,4212.82041
32,0,4235.384512,4196.410154,4224.102461,4204.615282,4219.999897,4205.128102,4213.33323,4214.871692,4217.948615,4219.487076,4226.666563,4223.07682,4213.33323,4204.615282
33,0,4230.256307,4199.487077,4229.743486,4195.384513,4213.33323,4210.256307,4221.025538,4215.897333,4222.051179,4235.384512,4236.922973,4223.07682,4224.102461,4207.179384
34,0,4228.717845,4199.487077,4228.717845,4215.897333,4214.871692,4212.82041,4220.512717,4217.948615,4224.615281,4233.33323,4232.820409,4229.230666,4223.58964,4213.846051
35,0,4229.743486,4210.256307,4215.384512,4219.487076,4220.512717,4213.33323,4217.435794,4219.487076,4224.615281,4224.102461,4230.769127,4230.769127,4216.410153,4213.33323
36,0,4229.743486,4209.230666,4217.435794,4199.999897,4214.358871,4210.769128,4217.435794,4217.948615,4228.205025,4225.128102,4237.435794,4229.230666,4219.487076,4218.974256
37,0,4233.84605,4194.871692,4225.640922,4204.102461,4207.179384,4207.692205,4216.410153,4215.897333,4228.717845,4226.153743,4235.384512,4224.615281,4221.538358,4224.102461
38,0,4234.871691,4199.999897,4219.487076,4218.461435,4220.512717,4213.33323,4216.922974,4221.538358,4226.666563,4230.769127,4229.230666,4218.974256,4225.128102,4223.58964
39,0,4246.153742,4212.82041,4221.025538,4213.846051,4235.897332,4219.999897,4218.974256,4224.615281,4228.717845,4241.025537,4231.794768,4219.999897,4232.307589,4225.128102
40,0,4253.84605,4206.153743,4234.871691,4202.051179,4227.692204,4216.922974,4218.974256,4216.922974,4226.666563,4236.922973,4233.33323,4224.615281,4228.717845,4220.512717
41,0,4247.179383,4196.922974,4230.769127,4202.564,4216.922974,4209.743487,4216.410153,4214.358871,4223.07682,4224.102461,4231.794768,4222.051179,4222.051179,4211.794769
42,0,4239.487076,4203.07682,4210.769128,4217.435794,4227.179384,4212.307589,4215.384512,4219.999897,4225.640922,4229.230666,4233.84605,4224.102461,4225.640922,4214.871692
43,0,4241.025537,4206.666564,4208.717846,4222.563999,4234.871691,4213.846051,4215.897333,4217.948615,4228.205025,4237.435794,4240.512717,4227.179384,4231.281948,4226.666563
44,0,4242.563999,4201.025538,4218.461435,4199.487077,4221.025538,4214.358871,4218.461435,4215.897333,4227.179384,4229.743486,4236.410153,4228.717845,4227.179384,4222.563999
45,0,4235.897332,4198.461436,4222.051179,4193.333231,4213.846051,4215.384512,4219.999897,4218.461435,4225.640922,4226.666563,4229.743486,4233.84605,4219.999897,4210.256307
46,0,4247.179383,4194.358872,4226.153743,4220.512717,4222.051179,4214.871692,4217.435794,4216.922974,4221.025538,4231.281948,4233.33323,4230.769127,4217.948615,4214.358871
47,0,4252.307588,4191.794769,4221.025538,4223.07682,4224.615281,4214.871692,4216.410153,4215.897333,4219.999897,4232.307589,4236.922973,4222.563999,4222.563999,4223.07682
48,0,4242.563999,4190.769128,4213.33323,4194.358872,4215.897333,4213.33323,4218.974256,4217.948615,4222.563999,4226.153743,4231.281948,4223.58964,4221.538358,4209.743487
49,0,4246.666563,4192.30759,4220.512717,4193.846051,4214.358871,4208.717846,4219.487076,4217.435794,4220.512717,4226.666563,4232.307589,4228.717845,4219.487076,4207.692205
50,0,4257.435793,4202.051179,4222.051179,4222.051179,4216.410153,4208.205025,4213.33323,4216.922974,4221.025538,4233.84605,4244.615281,4226.666563,4221.538358,4224.102461
51,0,4243.58964,4214.358871,4203.07682,4223.58964,4215.384512,4211.281948,4212.307589,4216.410153,4226.153743,4231.794768,4244.615281,4223.07682,4223.07682,4221.025538
52,0,4242.051178,4213.33323,4202.051179,4207.179384,4214.358871,4211.794769,4217.948615,4217.435794,4221.025538,4217.948615,4235.384512,4227.179384,4227.179384,4212.82041
53,0,4251.281947,4201.538359,4221.025538,4209.743487,4210.769128,4207.179384,4211.794769,4212.82041,4209.230666,4207.179384,4227.692204,4229.230666,4222.051179,4217.948615
54,0,4245.640922,4189.230667,4223.58964,4207.179384,4199.487077,4205.128102,4196.922974,4202.051179,4205.128102,4205.640923,4222.051179,4224.615281,4208.205025,4209.743487
55,0,4238.461435,4185.128103,4210.769128,4195.897333,4195.897333,4207.179384,4197.948615,4202.051179,4210.769128,4209.743487,4224.102461,4220.512717,4209.230666,4199.999897
56,0,4244.615281,4188.717846,4205.128102,4197.948615,4209.230666,4212.307589,4210.256307,4213.33323,4215.897333,4215.897333,4229.230666,4229.230666,4217.435794,4218.974256
57,0,4241.538358,4193.846051,4212.307589,4205.128102,4218.974256,4212.82041,4214.871692,4215.897333,4216.922974,4217.435794,4230.769127,4231.794768,4212.307589,4224.615281
58,0,4250.769127,4199.999897,4220.512717,4211.281948,4215.384512,4208.205025,4214.358871,4213.33323,4217.948615,4216.410153,4232.307589,4224.102461,4214.358871,4205.640923
59,0,4264.61528,4205.128102,4214.871692,4230.256307,4215.384512,4214.358871,4217.948615,4218.461435,4218.461435,4221.025538,4232.307589,4230.256307,4219.487076,4209.230666
60,0,4257.948614,4207.179384,4206.666564,4237.435794,4220.512717,4221.025538,4218.461435,4219.999897,4221.538358,4224.615281,4233.84605,4238.461435,4215.384512,4227.692204
61,0,4251.794768,4212.307589,4207.692205,4216.922974,4218.974256,4218.974256,4215.897333,4216.922974,4224.615281,4217.948615,4237.948614,4235.384512,4218.974256,4227.692204
62,0,4257.435793,4207.179384,4215.384512,4209.743487,4215.897333,4217.948615,4216.922974,4216.410153,4222.563999,4213.846051,4239.999896,4237.435794,4223.07682,4222.563999
63,0,4259.487075,4186.153744,4221.538358,4213.846051,4208.717846,4219.487076,4211.281948,4215.384512,4218.974256,4217.948615,4241.538358,4242.563999,4213.846051,4224.102461
64,0,4252.820409,4184.102462,4210.256307,4206.153743,4202.564,4212.82041,4203.07682,4211.794769,4219.487076,4219.999897,4240.512717,4232.307589,4207.179384,4218.974256
65,0,4250.256306,4193.846051,4199.999897,4206.153743,4198.461436,4206.666564,4201.025538,4205.128102,4213.846051,4207.692205,4230.769127,4224.102461,4206.666564,4214.358871
66,0,4243.58964,4191.281949,4199.487077,4215.384512,4199.999897,4208.717846,4204.102461,4201.538359,4211.281948,4199.999897,4227.179384,4232.307589,4205.128102,4213.846051
67,0,4244.10246,4196.410154,4199.487077,4210.256307,4204.615282,4211.794769,4208.717846,4208.205025,4221.025538,4211.281948,4234.871691,4235.384512,4206.666564,4210.769128
68,0,4250.256306,4199.487077,4201.025538,4198.974256,4206.666564,4212.307589,4214.358871,4215.384512,4224.615281,4217.948615,4235.897332,4231.281948,4213.846051,4218.461435
69,0,4257.948614,4187.692205,4205.128102,4211.794769,4202.051179,4212.307589,4212.307589,4214.871692,4217.435794,4204.615282,4227.692204,4238.461435,4212.307589,4226.666563
70,0,4246.666563,4191.281949,4201.538359,4219.999897,4198.974256,4208.205025,4206.153743,4212.82041,4217.435794,4199.999897,4226.153743,4237.948614,4206.153743,4218.974256
71,0,4237.948614,4192.82041,4197.435795,4198.461436,4198.974256,4205.640923,4208.205025,4214.871692,4223.58964,4212.82041,4232.307589,4220.512717,4207.179384,4207.692205
72,0,4242.563999,4172.820411,4200.512718,4200.512718,4204.102461,4206.153743,4208.205025,4214.871692,4223.58964,4218.974256,4240.512717,4216.410153,4213.33323,4208.717846
73,0,4246.666563,4172.30759,4198.461436,4231.794768,4213.846051,4206.666564,4203.07682,4210.769128,4217.435794,4211.281948,4237.948614,4229.743486,4206.153743,4216.410153
74,0,4235.384512,4191.794769,4188.717846,4231.794768,4212.82041,4199.487077,4199.487077,4204.102461,4214.871692,4205.128102,4228.205025,4228.717845,4193.846051,4216.410153
75,0,4233.33323,4186.666564,4191.794769,4205.640923,4203.589641,4194.358872,4202.051179,4204.102461,4216.922974,4204.615282,4232.820409,4224.102461,4194.871692,4217.435794
76,0,4239.999896,4175.897334,4198.974256,4209.230666,4204.102461,4198.461436,4206.666564,4211.281948,4217.948615,4204.102461,4243.076819,4232.820409,4204.102461,4219.999897
77,0,4237.948614,4178.974257,4195.384513,4224.615281,4207.179384,4199.487077,4209.743487,4212.82041,4216.410153,4204.615282,4241.025537,4231.794768,4207.179384,4215.897333
78,0,4228.717845,4172.30759,4196.922974,4213.846051,4198.461436,4195.384513,4208.205025,4207.692205,4213.33323,4204.615282,4231.281948,4218.974256,4199.487077,4206.666564
79,0,4225.128102,4163.076821,4206.153743,4197.435795,4189.743487,4190.256308,4205.640923,4206.666564,4210.769128,4203.589641,4224.615281,4220.512717,4189.230667,4202.564
80,0,4224.102461,4173.846052,4198.974256,4200.512718,4194.871692,4192.82041,4206.666564,4212.307589,4213.846051,4199.999897,4224.102461,4232.307589,4194.358872,4206.666564
81,0,4221.538358,4197.435795,4181.538359,4226.153743,4207.179384,4198.461436,4210.769128,4216.922974,4218.461435,4209.230666,4234.871691,4229.230666,4207.179384,4210.769128
82,0,4228.717845,4202.051179,4188.205026,4242.051178,4206.153743,4197.435795,4207.692205,4214.871692,4215.384512,4209.230666,4236.410153,4217.948615,4198.974256,4208.717846
83,0,4230.769127,4199.999897,4195.384513,4229.743486,4203.07682,4190.769128,4201.025538,4210.256307,4213.846051,4192.82041,4219.487076,4216.922974,4187.692205,4204.615282
84,0,4227.692204,4211.794769,4187.179385,4218.974256,4211.794769,4193.846051,4205.128102,4210.769128,4215.897333,4196.922974,4224.102461,4224.615281,4199.999897,4208.205025
85,0,4226.153743,4218.974256,4184.615282,4218.974256,4221.025538,4201.025538,4212.307589,4215.897333,4217.948615,4218.461435,4246.153742,4225.128102,4213.33323,4213.846051
86,0,4227.179384,4210.769128,4191.794769,4221.538358,4216.410153,4198.461436,4214.358871,4216.410153,4220.512717,4222.051179,4247.179383,4225.640922,4210.256307,4214.358871
87,0,4219.487076,4209.230666,4194.358872,4220.512717,4211.794769,4194.358872,4217.435794,4215.897333,4224.615281,4218.461435,4243.58964,4232.820409,4213.846051,4224.102461
88,0,4217.435794,4209.230666,4193.333231,4210.769128,4210.769128,4198.461436,4216.922974,4215.897333,4224.102461,4219.487076,4242.563999,4230.769127,4211.794769,4228.205025
89,0,4221.025538,4201.025538,4190.769128,4212.82041,4210.256307,4197.435795,4212.82041,4211.794769,4216.922974,4209.743487,4226.153743,4221.538358,4186.153744,4209.743487
90,0,4225.128102,4206.666564,4185.640923,4231.281948,4211.794769,4192.82041,4211.794769,4209.743487,4215.384512,4205.640923,4219.487076,4220.512717,4181.538359,4195.897333
91,0,4222.051179,4214.358871,4184.102462,4242.563999,4212.82041,4192.82041,4214.358871,4213.846051,4214.358871,4213.33323,4234.871691,4225.640922,4203.589641,4207.179384
92,0,4225.640922,4207.179384,4193.846051,4238.461435,4210.769128,4196.410154,4213.33323,4216.410153,4208.717846,4207.179384,4236.922973,4225.128102,4201.538359,4216.922974
93,0,4226.666563,4212.82041,4198.974256,4238.461435,4212.307589,4195.897333,4212.307589,4215.897333,4208.205025,4199.999897,4225.128102,4223.58964,4188.717846,4204.615282
94,0,4226.666563,4228.205025,4195.897333,4233.33323,4214.871692,4194.358872,4214.358871,4218.461435,4216.410153,4213.33323,4232.307589,4226.666563,4202.564,4201.538359
95,0,4220.512717,4227.179384,4194.871692,4223.58964,4210.769128,4194.358872,4215.384512,4217.948615,4217.948615,4221.025538,4243.076819,4229.230666,4212.307589,4213.33323
96,0,4219.487076,4223.07682,4198.461436,4227.692204,4203.589641,4192.30759,4214.358871,4213.33323,4210.256307,4208.205025,4236.922973,4224.102461,4200.512718,4216.922974
97,0,4225.128102,4222.563999,4202.564,4228.205025,4201.538359,4197.435795,4214.358871,4213.33323,4210.769128,4203.07682,4235.384512,4224.615281,4199.487077,4212.307589
98,0,4226.153743,4223.58964,4197.948615,4226.153743,4210.256307,4204.102461,4218.974256,4214.358871,4217.948615,4213.33323,4243.076819,4231.281948,4207.692205,4217.948615
99,0,4225.640922,4230.769127,4194.358872,4232.307589,4219.999897,4203.589641,4224.102461,4215.384512,4222.563999,4219.999897,4240.512717,4229.230666,4207.692205,4220.512717
100,0,4223.07682,4239.487076,4193.846051,4244.615281,4226.666563,4204.102461,4229.230666,4222.051179,4227.179384,4233.84605,4242.051178,4228.205025,4212.307589,4222.563999
101,0,4225.640922,4235.897332,4202.564,4248.717845,4228.717845,4212.307589,4235.384512,4230.769127,4230.769127,4242.051178,4252.307588,4240.512717,4215.897333,4236.410153
102,0,4227.179384,4231.794768,4205.128102,4243.076819,4227.179384,4207.179384,4235.384512,4232.307589,4228.205025,4228.717845,4245.128101,4238.974255,4210.769128,4230.769127
103,0,4223.58964,4235.384512,4187.179385,4233.84605,4218.461435,4197.948615,4230.256307,4229.743486,4223.07682,4221.025538,4231.281948,4222.563999,4204.102461,4207.692205
104,0,4215.384512,4236.922973,4176.410154,4227.692204,4214.871692,4202.051179,4232.820409,4229.743486,4224.615281,4232.307589,4241.538358,4220.512717,4207.179384,4214.358871
105,0,4221.538358,4238.974255,4194.871692,4233.84605,4219.999897,4204.102461,4234.871691,4230.256307,4225.128102,4231.794768,4251.794768,4229.743486,4218.974256,4235.897332
106,0,4232.307589,4239.999896,4208.717846,4245.128101,4226.666563,4201.025538,4229.230666,4226.153743,4223.07682,4227.692204,4240.512717,4228.717845,4224.615281,4234.871691
107,0,4228.205025,4230.256307,4194.871692,4253.84605,4222.563999,4203.07682,4224.615281,4219.487076,4221.538358,4232.307589,4234.358871,4223.07682,4215.384512,4223.07682
108,0,4211.794769,4215.897333,4177.948616,4244.10246,4214.358871,4199.487077,4224.102461,4214.871692,4219.487076,4228.717845,4243.076819,4223.58964,4205.640923,4219.487076
109,0,4210.769128,4210.256307,4179.487077,4227.179384,4213.33323,4192.82041,4218.974256,4215.897333,4220.512717,4218.974256,4245.640922,4225.128102,4208.717846,4218.461435
110,0,4213.33323,4216.922974,4184.615282,4229.230666,4218.974256,4197.435795,4217.948615,4218.461435,4224.615281,4218.461435,4240.512717,4223.07682,4210.256307,4216.922974
111,0,4212.82041,4206.666564,4190.769128,4233.84605,4221.025538,4203.07682,4225.640922,4221.025538,4225.128102,4222.051179,4235.384512,4221.025538,4202.564,4214.871692
112,0,4201.538359,4190.256308,4181.538359,4223.58964,4217.948615,4198.461436,4227.692204,4219.999897,4218.974256,4218.461435,4233.84605,4215.897333,4198.461436,4215.384512
113,0,4193.846051,4205.128102,4168.717847,4216.922974,4215.897333,4194.358872,4223.58964,4216.922974,4213.33323,4209.230666,4234.871691,4212.82041,4196.922974,4208.717846
114,0,4198.974256,4224.102461,4183.589641,4232.820409,4213.846051,4195.384513,4222.563999,4215.384512,4214.358871,4206.666564,4230.256307,4215.897333,4192.30759,4187.692205
115,0,4207.692205,4217.948615,4194.358872,4243.076819,4214.871692,4196.410154,4221.025538,4216.922974,4215.384512,4217.948615,4229.743486,4222.563999,4197.435795,4190.769128
116,0,4204.102461,4216.410153,4175.897334,4237.435794,4217.435794,4197.435795,4217.948615,4216.922974,4212.82041,4223.07682,4239.999896,4223.58964,4205.128102,4211.281948
117,0,4197.435795,4231.281948,4162.564001,4231.794768,4219.999897,4198.974256,4216.922974,4215.897333,4213.33323,4218.461435,4239.487076,4210.256307,4204.615282,4214.871692
118,0,4205.128102,4222.051179,4181.025539,4233.84605,4215.897333,4198.974256,4215.897333,4215.897333,4215.384512,4213.33323,4224.615281,4206.666564,4196.922974,4210.256307
119,0,4207.179384,4210.256307,4188.205026,4236.922973,4215.384512,4197.948615,4214.358871,4216.922974,4218.461435,4211.794769,4226.666563,4222.051179,4195.897333,4215.897333
120,0,4199.487077,4219.487076,4177.435795,4229.230666,4216.410153,4198.461436,4218.974256,4218.461435,4221.538358,4211.281948,4235.897332,4223.58964,4203.07682,4213.33323
121,0,4192.30759,4212.82041,4169.743488,4217.435794,4209.230666,4193.333231,4218.461435,4214.358871,4218.974256,4214.871692,4230.256307,4202.051179,4207.692205,4201.538359
122,0,4192.82041,4197.948615,4165.640924,4218.461435,4204.102461,4193.846051,4212.307589,4213.846051,4216.410153,4220.512717,4226.153743,4199.999897,4207.179384,4201.025538
123,0,4193.333231,4209.743487,4169.230667,4233.84605,4216.922974,4205.640923,4217.435794,4223.58964,4222.563999,4227.179384,4231.281948,4212.82041,4210.256307,4209.230666
124,0,4197.948615,4229.230666,4177.948616,4241.538358,4229.230666,4210.256307,4227.179384,4226.153743,4224.615281,4229.743486,4229.230666,4213.33323,4215.384512,4218.461435
125,0,4197.435795,4228.717845,4181.025539,4243.076819,4225.640922,4201.025538,4224.615281,4217.948615,4219.487076,4228.717845,4224.102461,4213.846051,4209.230666,4221.025538
126,0,4199.487077,4220.512717,4184.615282,4246.153742,4218.461435,4197.948615,4215.384512,4214.871692,4219.999897,4228.205025,4226.666563,4221.538358,4206.153743,4211.794769
127,0,4198.974256,4221.538358,4191.281949,4248.717845,4224.615281,4204.615282,4217.435794,4219.999897,4223.58964,4230.256307,4232.820409,4223.58964,4211.281948,4209.230666
128,0,4197.435795,4219.999897,4189.743487,4244.615281,4226.666563,4205.128102,4224.615281,4219.487076,4219.999897,4225.128102,4234.358871,4218.974256,4208.205025,4220.512717
0,0,4193.333231,4209.230666,4179.487077,4226.666563,4215.897333,4201.538359,4224.102461,4214.871692,4214.871692,4214.871692,4230.769127,4215.897333,4204.615282,4223.07682
1,0,4193.846051,4196.410154,4174.871693,4223.07682,4210.769128,4205.640923,4218.974256,4215.384512,4213.33323,4211.281948,4224.615281,4213.846051,4201.025538,4210.769128
2,0,4187.179385,4197.948615,4169.743488,4239.487076,4214.358871,4206.666564,4217.435794,4216.922974,4213.846051,4215.897333,4218.974256,4207.179384,4193.333231,4201.025538
3,0,4177.948616,4206.666564,4166.153744,4237.948614,4212.82041,4199.487077,4217.435794,4218.461435,4215.897333,4221.025538,4225.640922,4205.128102,4196.410154,4199.487077
4,0,4175.384513,4206.666564,4166.153744,4231.281948,4211.281948,4198.461436,4216.922974,4216.922974,4216.922974,4217.948615,4231.794768,4211.281948,4203.589641,4196.410154
5,0,4183.076821,4211.281948,4172.30759,4246.153742,4218.974256,4202.051179,4216.410153,4216.410153,4219.487076,4217.948615,4228.205025,4219.487076,4203.589641,4205.640923
6,0,4192.82041,4216.410153,4189.230667,4249.743486,4223.58964,4202.051179,4215.897333,4218.461435,4222.563999,4223.58964,4223.58964,4221.538358,4206.666564,4221.025538
7,0,4191.794769,4216.922974,4193.333231,4234.871691,4224.615281,4203.07682,4215.897333,4222.051179,4221.025538,4228.205025,4225.640922,4218.974256,4208.717846,4219.487076
8,0,4189.743487,4218.461435,4178.974257,4231.794768,4225.640922,4205.640923,4215.384512,4220.512717,4218.974256,4223.58964,4226.666563,4218.461435,4204.615282,4211.281948
9,0,4192.82041,4221.538358,4174.358872,4236.410153,4228.205025,4204.615282,4218.974256,4221.025538,4227.692204,4227.692204,4223.07682,4219.999897,4213.846051,4217.435794
10,0,4196.410154,4219.487076,4183.589641,4243.58964,4232.307589,4209.230666,4228.205025,4229.743486,4234.871691,4246.153742,4230.769127,4223.58964,4226.666563,4227.692204
11,0,4185.640923,4214.358871,4176.922975,4247.179383,4232.820409,4210.769128,4228.205025,4228.717845,4226.666563,4248.205024,4233.84605,4221.538358,4221.538358,4228.205025
12,0,4183.589641,4198.974256,4173.846052,4232.820409,4224.102461,4207.179384,4217.948615,4218.974256,4217.435794,4226.153743,4219.999897,4217.435794,4207.179384,4224.102461
13,0,4181.538359,4189.230667,4174.358872,4218.461435,4215.897333,4203.07682,4215.384512,4214.871692,4217.435794,4214.358871,4212.307589,4212.82041,4198.461436,4216.922974
14,0,4166.153744,4198.974256,4162.05118,4212.82041,4211.281948,4198.461436,4214.358871,4215.384512,4214.358871,4213.846051,4215.897333,4207.179384,4191.794769,4201.538359
15,0,4163.589642,4199.999897,4167.692206,4214.358871,4207.179384,4198.461436,4206.153743,4213.33323,4210.256307,4212.307589,4214.871692,4200.512718,4192.82041,4191.281949
16,0,4181.538359,4194.871692,4182.564,4217.435794,4209.230666,4204.615282,4208.205025,4214.358871,4216.410153,4212.307589,4212.307589,4201.025538,4197.948615,4199.487077
17,0,4175.384513,4202.051179,4166.666565,4215.384512,4215.897333,4206.153743,4216.922974,4217.435794,4222.051179,4216.410153,4213.33323,4209.230666,4196.922974,4207.692205
18,0,4162.05118,4207.179384,4156.410155,4214.358871,4217.435794,4204.102461,4217.435794,4215.897333,4220.512717,4218.461435,4211.794769,4208.717846,4193.846051,4199.487077
19,0,4169.743488,4209.743487,4178.974257,4229.743486,4222.563999,4209.743487,4220.512717,4217.948615,4225.128102,4228.205025,4215.384512,4209.743487,4208.205025,4201.025538
20,0,4184.102462,4209.230666,4190.256308,4237.435794,4230.769127,4210.769128,4224.102461,4223.07682,4229.230666,4239.487076,4222.563999,4219.999897,4221.538358,4220.512717
21,0,4178.974257,4197.435795,4179.999898,4228.205025,4225.128102,4203.07682,4216.410153,4219.487076,4222.051179,4226.666563,4221.538358,4225.128102,4212.307589,4219.487076
22,0,4173.846052,4198.461436,4172.30759,4225.640922,4219.999897,4204.615282,4215.897333,4215.897333,4218.974256,4213.33323,4220.512717,4217.948615,4203.589641,4207.692205
23,0,4174.358872,4216.410153,4172.820411,4225.128102,4224.102461,4209.743487,4224.615281,4224.102461,4224.615281,4223.07682,4219.999897,4212.82041,4211.281948,4210.256307
24,0,4171.79477,4209.230666,4180.512718,4221.025538,4225.128102,4206.153743,4224.615281,4227.179384,4228.717845,4234.871691,4216.410153,4216.410153,4212.307589,4221.538358
25,0,4171.281949,4189.743487,4185.128103,4212.307589,4218.461435,4203.589641,4219.487076,4217.948615,4225.640922,4223.07682,4209.230666,4215.384512,4199.487077,4214.358871
26,0,4174.358872,4203.589641,4174.358872,4208.205025,4221.025538,4206.153743,4220.512717,4215.384512,4222.051179,4215.897333,4205.128102,4208.717846,4196.922974,4201.025538
27,0,4174.871693,4228.205025,4162.564001,4216.922974,4224.102461,4206.666564,4221.538358,4220.512717,4220.512717,4224.615281,4214.871692,4211.794769,4204.102461,4206.153743
28,0,4173.846052,4220.512717,4172.820411,4235.384512,4215.384512,4203.07682,4218.461435,4216.922974,4220.512717,4227.179384,4225.128102,4218.974256,4210.769128,4211.794769
29,0,4188.717846,4206.153743,4194.358872,4243.076819,4209.743487,4206.153743,4212.82041,4211.281948,4217.948615,4225.640922,4215.384512,4221.025538,4209.743487,4204.102461
30,0,4193.333231,4229.743486,4192.30759,4231.794768,4221.025538,4212.82041,4213.846051,4215.897333,4218.461435,4233.84605,4209.743487,4224.102461,4208.717846,4212.82041
31,0,4186.666564,4257.435793,4183.076821,4232.307589,4230.769127,4219.487076,4222.563999,4221.025538,4223.58964,4234.358871,4224.102461,4228.205025,4217.948615,4236.922973
32,0,4191.281949,4250.769127,4196.410154,4250.769127,4229.743486,4222.051179,4225.640922,4218.461435,4224.615281,4230.256307,4227.179384,4233.33323,4223.58964,4246.153742
33,0,4199.487077,4229.230666,4203.589641,4242.051178,4226.666563,4221.025538,4217.435794,4215.384512,4221.538358,4230.256307,4218.974256,4241.538358,4214.871692,4237.435794
34,0,4188.205026,4222.563999,4187.692205,4219.999897,4228.205025,4219.999897,4215.897333,4215.384512,4221.538358,4225.640922,4221.538358,4233.84605,4213.846051,4226.153743
35,0,4193.846051,4227.179384,4184.615282,4231.794768,4225.128102,4222.563999,4223.07682,4216.922974,4224.615281,4223.58964,4225.128102,4225.128102,4222.051179,4223.07682
36,0,4203.589641,4221.025538,4195.384513,4249.230665,4219.487076,4226.153743,4223.58964,4217.948615,4226.666563,4229.743486,4225.640922,4236.410153,4218.974256,4232.307589
37,0,4188.717846,4206.153743,4197.948615,4233.33323,4216.922974,4225.128102,4221.538358,4221.538358,4225.640922,4229.230666,4222.563999,4245.128101,4207.692205,4242.051178
38,0,4175.384513,4212.82041,4187.179385,4224.102461,4221.538358,4223.07682,4225.128102,4223.58964,4228.205025,4224.615281,4216.410153,4235.897332,4207.179384,4236.922973
39,0,4186.153744,4230.256307,4174.358872,4233.33323,4224.615281,4225.128102,4223.07682,4223.58964,4231.794768,4225.640922,4212.307589,4224.102461,4210.256307,4218.461435
40,0,4190.256308,4224.102461,4179.999898,4227.179384,4217.435794,4227.692204,4216.410153,4223.58964,4228.205025,4217.948615,4214.358871,4223.07682,4209.230666,4212.307589
41,0,4186.153744,4215.384512,4193.846051,4221.538358,4216.410153,4225.128102,4216.922974,4221.025538,4220.512717,4211.281948,4217.948615,4230.256307,4205.128102,4228.205025
42,0,4186.666564,4226.153743,4184.615282,4230.256307,4223.07682,4224.615281,4213.846051,4214.871692,4219.487076,4218.461435,4215.384512,4228.205025,4205.128102,4225.128102
43,0,4183.589641,4228.205025,4167.692206,4239.999896,4224.615281,4222.051179,4204.102461,4210.769128,4219.999897,4218.974256,4207.179384,4215.897333,4205.128102,4204.615282
44,0,4187.692205,4213.846051,4177.435795,4248.717845,4220.512717,4216.410153,4207.179384,4213.846051,4216.410153,4209.743487,4201.538359,4217.435794,4195.384513,4209.230666
45,0,4197.435795,4214.358871,4197.948615,4242.563999,4223.07682,4217.435794,4214.358871,4217.435794,4217.948615,4219.487076,4208.205025,4228.205025,4198.974256,4224.615281
46,0,4203.07682,4232.307589,4199.999897,4234.358871,4230.256307,4224.102461,4215.897333,4218.461435,4225.128102,4237.435794,4214.871692,4226.666563,4219.999897,4223.07682
47,0,4203.07682,4232.820409,4187.692205,4243.58964,4232.820409,4218.974256,4215.384512,4219.999897,4223.58964,4231.281948,4211.281948,4215.384512,4221.025538,4217.948615
48,0,4206.153743,4218.461435,4187.179385,4258.461434,4228.717845,4209.743487,4215.897333,4218.461435,4216.922974,4214.871692,4208.717846,4215.384512,4204.102461,4216.410153
49,0,4199.487077,4215.897333,4195.897333,4240.512717,4223.07682,4211.794769,4216.410153,4217.435794,4219.487076,4217.948615,4208.717846,4225.128102,4203.07682,4221.538358
50,0,4196.410154,4217.948615,4196.922974,4213.846051,4221.025538,4213.33323,4215.384512,4217.948615,4222.051179,4221.025538,4212.307589,4223.07682,4208.717846,4224.615281
51,0,4198.461436,4211.281948,4192.30759,4223.58964,4223.07682,4210.769128,4212.82041,4216.410153,4217.435794,4213.846051,4210.769128,4221.025538,4203.07682,4217.948615
52,0,4198.974256,4207.692205,4188.717846,4235.897332,4221.538358,4213.846051,4212.307589,4212.82041,4214.871692,4211.281948,4202.564,4229.743486,4199.999897,4211.281948
53,0,4192.82041,4214.358871,4188.205026,4231.794768,4221.025538,4214.871692,4216.922974,4212.307589,4219.487076,4217.435794,4206.666564,4230.769127,4208.205025,4217.948615
54,0,4199.487077,4214.871692,4194.358872,4227.179384,4219.999897,4212.82041,4218.461435,4216.410153,4222.563999,4221.025538,4218.974256,4224.102461,4214.871692,4225.640922
55,0,4203.07682,4209.743487,4195.897333,4221.025538,4217.948615,4213.846051,4212.307589,4216.410153,4223.07682,4217.948615,4213.33323,4222.051179,4210.256307,4214.358871
56,0,4200.512718,4214.871692,4192.30759,4217.948615,4218.461435,4212.82041,4209.230666,4212.307589,4218.461435,4214.871692,4200.512718,4222.051179,4204.615282,4207.692205
57,0,4203.07682,4226.666563,4193.333231,4232.307589,4220.512717,4214.358871,4212.307589,4212.82041,4214.871692,4212.307589,4207.179384,4221.025538,4205.640923,4217.948615
58,0,4207.692205,4233.33323,4191.794769,4242.563999,4225.640922,4220.512717,4213.846051,4215.384512,4216.410153,4213.846051,4216.922974,4221.025538,4210.769128,4222.051179
59,0,4200.512718,4227.179384,4192.82041,4232.307589,4227.692204,4217.948615,4211.281948,4213.33323,4215.897333,4216.922974,4210.769128,4221.538358,4209.743487,4216.410153
60,0,4197.948615,4219.999897,4207.692205,4229.230666,4227.692204,4211.794769,4215.384512,4211.794769,4212.82041,4217.435794,4214.358871,4232.820409,4208.205025,4224.102461
61,0,4207.692205,4224.102461,4210.256307,4237.435794,4227.692204,4214.358871,4216.410153,4212.82041,4212.82041,4212.307589,4219.999897,4242.563999,4209.743487,4229.230666
62,0,4207.179384,4226.153743,4194.871692,4245.640922,4229.230666,4211.794769,4208.717846,4212.82041,4209.743487,4210.769128,4207.179384,4229.230666,4206.666564,4216.410153
63,0,4204.615282,4213.846051,4201.025538,4236.410153,4226.666563,4210.256307,4210.769128,4213.846051,4210.256307,4214.871692,4202.051179,4218.974256,4204.615282,4210.256307
64,0,4207.692205,4210.769128,4217.435794,4216.922974,4224.102461,4214.358871,4219.999897,4217.435794,4218.461435,4222.051179,4217.948615,4219.999897,4210.256307,4215.384512
65,0,4211.794769,4217.948615,4214.358871,4218.974256,4223.07682,4212.307589,4217.948615,4215.897333,4218.461435,4222.563999,4212.82041,4227.692204,4209.230666,4219.487076
66,0,4206.666564,4225.640922,4199.999897,4238.974255,4227.692204,4209.230666,4216.922974,4212.307589,4214.358871,4222.051179,4197.948615,4233.33323,4205.128102,4227.692204
67,0,4205.128102,4233.84605,4203.589641,4242.051178,4233.33323,4216.410153,4223.07682,4216.410153,4219.999897,4226.153743,4208.205025,4229.743486,4210.256307,4227.692204
68,0,4210.769128,4237.435794,4223.58964,4228.717845,4233.33323,4216.410153,4224.615281,4218.974256,4222.563999,4226.153743,4221.025538,4228.205025,4214.871692,4220.512717
69,0,4217.948615,4236.410153,4229.743486,4228.717845,4228.717845,4213.846051,4224.615281,4216.410153,4216.922974,4216.922974,4219.999897,4239.487076,4211.281948,4222.051179
70,0,4212.307589,4234.358871,4213.33323,4231.794768,4229.230666,4217.948615,4224.615281,4215.897333,4216.410153,4217.435794,4215.384512,4238.461435,4210.256307,4226.666563
71,0,4208.717846,4225.128102,4205.640923,4218.461435,4225.640922,4217.435794,4216.922974,4216.922974,4217.948615,4220.512717,4212.307589,4220.512717,4210.256307,4221.538358
72,0,4211.281948,4221.538358,4213.846051,4218.974256,4221.025538,4209.743487,4215.384512,4216.410153,4216.410153,4215.897333,4209.230666,4223.07682,4209.230666,4224.615281
73,0,4215.897333,4229.743486,4218.461435,4241.025537,4220.512717,4209.230666,4218.461435,4214.871692,4213.33323,4214.871692,4206.153743,4234.358871,4206.666564,4235.897332
74,0,4209.743487,4229.230666,4218.461435,4236.922973,4224.102461,4216.410153,4215.897333,4212.82041,4210.256307,4216.922974,4208.717846,4224.615281,4208.717846,4217.948615
75,0,4203.589641,4223.58964,4217.948615,4213.846051,4222.563999,4219.487076,4216.410153,4214.358871,4213.33323,4216.410153,4209.743487,4218.974256,4212.82041,4195.897333
76,0,4202.564,4228.205025,4213.846051,4213.33323,4214.871692,4213.846051,4218.461435,4215.897333,4214.871692,4213.846051,4199.487077,4230.769127,4208.205025,4194.871692
77,0,4209.743487,4233.84605,4215.897333,4225.128102,4219.999897,4210.256307,4213.846051,4212.82041,4209.743487,4213.846051,4203.589641,4229.230666,4206.666564,4196.410154
78,0,4210.256307,4228.205025,4218.974256,4231.794768,4229.743486,4216.922974,4214.358871,4213.846051,4212.82041,4219.999897,4225.640922,4215.897333,4221.538358,4197.948615
79,0,4202.564,4212.82041,4209.743487,4221.538358,4224.615281,4219.487076,4218.974256,4216.922974,4219.999897,4225.640922,4225.640922,4215.384512,4228.205025,4209.230666
80,0,4204.615282,4201.538359,4208.205025,4209.743487,4213.846051,4214.871692,4214.358871,4214.358871,4215.384512,4219.999897,4209.230666,4214.358871,4214.358871,4204.615282
81,0,4209.743487,4212.307589,4213.33323,4219.487076,4217.948615,4213.33323,4206.666564,4212.82041,4215.384512,4214.358871,4204.102461,4205.640923,4205.640923,4182.05118
82,0,4205.128102,4221.025538,4211.794769,4222.563999,4219.999897,4214.871692,4205.640923,4216.922974,4217.948615,4213.846051,4202.051179,4204.615282,4207.692205,4179.487077
83,0,4195.897333,4214.871692,4207.692205,4201.025538,4215.384512,4214.358871,4206.666564,4213.846051,4211.281948,4216.922974,4201.538359,4213.846051,4209.230666,4193.846051
84,0,4193.333231,4211.794769,4210.256307,4188.717846,4213.846051,4212.82041,4202.564,4205.128102,4206.153743,4214.871692,4202.564,4219.999897,4203.07682,4190.256308
85,0,4192.30759,4211.281948,4218.974256,4209.743487,4214.871692,4210.769128,4200.512718,4200.512718,4210.256307,4205.640923,4201.025538,4213.846051,4198.974256,4178.974257
86,0,4201.025538,4212.82041,4219.999897,4218.461435,4214.871692,4213.33323,4204.102461,4205.640923,4211.794769,4201.538359,4204.615282,4209.743487,4202.564,4184.102462
87,0,4204.102461,4223.58964,4208.205025,4201.025538,4217.435794,4212.307589,4206.666564,4212.307589,4209.743487,4213.33323,4204.615282,4212.307589,4207.692205,4194.871692
88,0,4205.128102,4227.179384,4207.692205,4207.179384,4217.948615,4209.230666,4209.230666,4214.871692,4214.871692,4223.07682,4204.102461,4211.794769,4213.33323,4196.410154
89,0,4205.640923,4223.58964,4221.025538,4234.358871,4219.487076,4215.384512,4215.384512,4215.897333,4221.538358,4221.538358,4212.307589,4212.82041,4224.102461,4206.666564
90,0,4208.205025,4235.897332,4221.538358,4229.743486,4220.512717,4221.025538,4217.435794,4217.435794,4218.461435,4223.58964,4214.358871,4225.128102,4228.205025,4216.922974
91,0,4205.640923,4249.230665,4214.871692,4206.153743,4219.999897,4213.846051,4210.769128,4216.922974,4214.871692,4232.820409,4206.666564,4221.538358,4222.563999,4209.743487
92,0,4207.179384,4243.076819,4220.512717,4209.743487,4219.487076,4213.33323,4209.743487,4215.384512,4217.948615,4230.256307,4211.281948,4211.281948,4221.538358,4206.666564
93,0,4203.589641,4233.33323,4223.07682,4210.256307,4218.461435,4217.948615,4210.769128,4213.33323,4217.948615,4218.974256,4216.922974,4215.384512,4221.538358,4208.205025
94,0,4205.640923,4232.307589,4217.948615,4203.07682,4218.974256,4214.358871,4206.666564,4212.82041,4211.281948,4215.897333,4210.256307,4213.846051,4218.461435,4209.743487
95,0,4212.307589,4230.769127,4223.58964,4213.33323,4217.948615,4214.871692,4208.205025,4215.384512,4211.794769,4219.999897,4211.281948,4212.307589,4215.384512,4218.461435
96,0,4211.281948,4218.974256,4230.256307,4220.512717,4217.435794,4216.922974,4212.82041,4215.897333,4216.410153,4222.051179,4219.999897,4218.974256,4215.384512,4222.051179
97,0,4204.615282,4211.794769,4225.640922,4215.384512,4217.948615,4212.82041,4209.743487,4213.846051,4216.410153,4225.640922,4218.974256,4220.512717,4219.487076,4216.922974
98,0,4207.692205,4208.717846,4228.717845,4208.205025,4217.435794,4212.307589,4207.692205,4214.358871,4210.769128,4227.179384,4209.230666,4221.025538,4221.538358,4214.358871
99,0,4208.205025,4207.179384,4237.435794,4206.153743,4214.358871,4217.435794,4210.256307,4215.897333,4208.717846,4221.538358,4209.743487,4228.205025,4220.512717,4211.281948
100,0,4197.435795,4214.358871,4227.692204,4211.794769,4215.384512,4214.871692,4209.743487,4215.384512,4218.974256,4225.128102,4219.487076,4226.153743,4223.07682,4210.256307
101,0,4201.538359,4219.487076,4222.051179,4217.948615,4217.435794,4212.82041,4211.794769,4215.384512,4223.58964,4232.307589,4217.948615,4221.025538,4224.615281,4217.948615
102,0,4217.435794,4210.769128,4237.435794,4211.281948,4221.538358,4216.410153,4220.512717,4217.948615,4221.025538,4233.84605,4213.846051,4225.128102,4221.538358,4223.07682
103,0,4215.897333,4196.922974,4244.615281,4195.897333,4221.025538,4217.948615,4222.563999,4218.974256,4220.512717,4229.230666,4217.948615,4226.666563,4217.435794,4214.358871
104,0,4191.794769,4201.538359,4228.717845,4197.435795,4219.999897,4216.922974,4217.948615,4218.461435,4219.999897,4227.179384,4210.769128,4225.128102,4210.769128,4201.025538
105,0,4194.358872,4210.256307,4227.692204,4210.256307,4225.128102,4217.435794,4218.974256,4218.974256,4219.999897,4226.666563,4203.07682,4227.179384,4209.743487,4199.999897
106,0,4211.281948,4214.871692,4234.871691,4223.07682,4229.743486,4219.999897,4223.58964,4221.025538,4223.07682,4231.281948,4221.538358,4229.743486,4223.58964,4215.384512
107,0,4209.230666,4209.230666,4231.794768,4217.435794,4222.051179,4218.974256,4223.58964,4219.999897,4219.487076,4234.871691,4227.692204,4228.205025,4220.512717,4224.615281
108,0,4201.025538,4205.640923,4241.025537,4199.487077,4218.461435,4216.922974,4219.487076,4215.897333,4214.358871,4227.179384,4211.281948,4224.102461,4207.179384,4217.948615
109,0,4209.230666,4214.871692,4252.820409,4212.82041,4229.230666,4218.461435,4216.922974,4215.897333,4214.871692,4221.025538,4213.846051,4227.179384,4214.871692,4214.358871
110,0,4208.205025,4217.435794,4241.538358,4226.666563,4235.897332,4217.435794,4217.948615,4218.461435,4218.461435,4226.153743,4219.487076,4237.948614,4222.051179,4219.487076
111,0,4203.589641,4207.692205,4224.102461,4209.743487,4225.640922,4212.307589,4215.384512,4213.33323,4216.922974,4225.640922,4207.692205,4236.410153,4210.769128,4221.025538
112,0,4204.615282,4206.153743,4227.179384,4204.615282,4216.922974,4212.82041,4210.769128,4207.692205,4213.846051,4215.897333,4204.102461,4219.487076,4204.102461,4212.307589
113,0,4204.102461,4214.871692,4238.974255,4217.948615,4225.640922,4218.974256,4212.82041,4210.769128,4213.33323,4218.461435,4211.281948,4215.897333,4213.846051,4209.743487
114,0,4204.102461,4215.897333,4239.999896,4217.948615,4231.794768,4218.974256,4216.922974,4215.897333,4214.871692,4224.102461,4213.33323,4227.692204,4218.461435,4216.922974
115,0,4210.256307,4211.794769,4237.948614,4211.281948,4225.128102,4215.384512,4214.871692,4213.846051,4213.846051,4211.794769,4214.358871,4228.205025,4210.769128,4215.897333
116,0,4218.461435,4204.102461,4240.512717,4213.846051,4221.025538,4216.922974,4215.384512,4213.33323,4209.230666,4202.564,4211.794769,4223.07682,4204.615282,4205.640923
117,0,4215.384512,4193.846051,4243.076819,4205.640923,4221.025538,4215.897333,4216.922974,4214.871692,4209.743487,4215.384512,4207.692205,4224.102461,4208.717846,4206.153743
118,0,4205.128102,4195.384513,4234.871691,4194.871692,4219.999897,4213.33323,4212.82041,4212.307589,4213.846051,4218.974256,4202.051179,4222.051179,4211.281948,4208.717846
119,0,4203.07682,4208.717846,4230.256307,4203.589641,4224.615281,4216.922974,4214.871692,4213.846051,4219.487076,4210.769128,4198.461436,4220.512717,4209.743487,4208.717846
120,0,4214.871692,4211.281948,4243.076819,4217.435794,4231.281948,4225.128102,4223.58964,4219.487076,4222.051179,4218.974256,4208.205025,4224.102461,4216.922974,4211.281948
121,0,4217.435794,4206.666564,4246.666563,4227.692204,4232.820409,4225.640922,4222.563999,4221.025538,4222.051179,4233.84605,4222.051179,4226.666563,4226.666563,4216.410153
122,0,4217.435794,4208.205025,4241.538358,4226.153743,4228.717845,4222.563999,4215.897333,4216.410153,4224.615281,4231.281948,4219.487076,4231.281948,4224.615281,4221.025538
123,0,4219.487076,4210.769128,4243.58964,4218.461435,4229.230666,4222.563999,4213.33323,4212.82041,4223.58964,4226.153743,4209.230666,4228.717845,4223.58964,4218.461435
124,0,4217.435794,4208.717846,4243.076819,4211.281948,4227.692204,4221.025538,4211.794769,4213.33323,4216.410153,4221.538358,4207.179384,4219.999897,4225.128102,4209.743487
125,0,4209.230666,4212.307589,4232.820409,4208.205025,4225.640922,4215.897333,4212.82041,4214.358871,4213.846051,4219.487076,4212.82041,4219.999897,4226.666563,4215.384512
126,0,4216.410153,4212.82041,4236.922973,4209.230666,4227.692204,4218.974256,4218.461435,4215.897333,4221.025538,4227.179384,4216.410153,4228.205025,4225.128102,4224.102461
127,0,4224.102461,4209.230666,4247.692204,4214.871692,4232.307589,4224.615281,4220.512717,4218.974256,4222.563999,4230.769127,4212.82041,4226.666563,4224.615281,4221.025538
128,0,4221.025538,4219.487076,4235.384512,4214.871692,4233.84605,4223.58964,4219.999897,4220.512717,4220.512717,4231.794768,4209.743487,4223.07682,4227.179384,4213.33323
0,0,4218.974256,4219.999897,4228.205025,4201.025538,4229.743486,4221.025538,4224.615281,4217.948615,4224.102461,4237.435794,4213.846051,4223.07682,4230.769127,4211.794769
1,0,4228.717845,4208.205025,4244.615281,4202.051179,4231.281948,4222.563999,4230.256307,4219.487076,4226.666563,4234.871691,4216.922974,4224.615281,4225.128102,4218.974256
2,0,4228.205025,4221.538358,4245.128101,4217.948615,4238.974255,4225.640922,4231.281948,4226.153743,4228.717845,4236.922973,4215.384512,4232.307589,4227.179384,4229.230666
3,0,4222.563999,4236.410153,4236.922973,4227.179384,4241.025537,4220.512717,4229.743486,4226.153743,4231.281948,4245.640922,4215.897333,4237.948614,4237.948614,4231.281948
4,0,4226.666563,4224.102461,4251.794768,4226.153743,4229.743486,4217.435794,4224.615281,4217.435794,4224.615281,4235.384512,4212.82041,4236.410153,4230.769127,4228.205025
5,0,4227.179384,4223.07682,4253.333229,4213.33323,4223.07682,4219.487076,4219.999897,4216.922974,4219.999897,4227.692204,4208.205025,4231.281948,4221.538358,4229.743486
6,0,4218.974256,4232.307589,4230.256307,4198.461436,4227.179384,4218.974256,4219.487076,4223.58964,4225.128102,4228.717845,4208.717846,4227.692204,4226.666563,4222.051179
7,0,4214.358871,4224.615281,4230.769127,4202.564,4231.281948,4218.974256,4223.07682,4221.538358,4227.692204,4223.58964,4211.281948,4226.153743,4231.794768,4216.410153
8,0,4219.999897,4217.435794,4249.743486,4213.846051,4224.102461,4224.615281,4223.07682,4214.871692,4223.07682,4219.999897,4205.640923,4226.666563,4223.58964,4218.461435
9,0,4225.128102,4222.051179,4242.563999,4196.922974,4213.33323,4222.051179,4218.461435,4214.871692,4221.025538,4223.58964,4193.333231,4228.205025,4212.82041,4216.410153
10,0,4225.640922,4225.128102,4232.820409,4184.615282,4218.974256,4218.461435,4223.58964,4222.563999,4224.102461,4225.128102,4196.410154,4234.871691,4212.307589,4217.948615
11,0,4221.538358,4225.128102,4245.128101,4210.256307,4235.384512,4225.128102,4233.84605,4228.717845,4227.692204,4230.256307,4213.846051,4239.999896,4224.102461,4226.666563
12,0,4225.128102,4228.205025,4250.256306,4227.692204,4228.717845,4227.179384,4230.769127,4230.256307,4228.205025,4230.256307,4219.999897,4241.538358,4230.256307,4231.794768
13,0,4222.563999,4229.230666,4235.897332,4210.256307,4216.922974,4223.58964,4227.179384,4229.743486,4227.692204,4227.692204,4215.897333,4243.076819,4222.051179,4229.230666
14,0,4226.153743,4222.051179,4237.948614,4199.999897,4226.666563,4225.128102,4231.794768,4225.128102,4229.230666,4231.794768,4215.897333,4242.051178,4222.051179,4227.692204
15,0,4230.256307,4218.974256,4251.794768,4213.846051,4234.358871,4226.153743,4229.743486,4218.974256,4227.179384,4230.769127,4214.871692,4238.461435,4229.230666,4232.820409
16,0,4230.256307,4229.743486,4245.640922,4213.33323,4226.153743,4222.051179,4215.897333,4214.871692,4222.051179,4226.666563,4210.256307,4239.487076,4222.051179,4237.948614
17,0,4226.153743,4238.461435,4233.33323,4209.743487,4225.128102,4221.025538,4213.846051,4213.846051,4223.07682,4231.794768,4207.179384,4237.948614,4215.384512,4236.410153
18,0,4225.640922,4230.256307,4240.512717,4214.871692,4231.794768,4226.666563,4222.563999,4217.435794,4228.205025,4235.897332,4206.666564,4235.384512,4222.563999,4226.153743
19,0,4224.102461,4224.102461,4249.230665,4211.794769,4233.84605,4231.281948,4230.769127,4224.102461,4229.230666,4235.384512,4210.256307,4239.999896,4226.666563,4219.999897
20,0,4222.563999,4234.871691,4237.435794,4199.487077,4231.281948,4231.281948,4234.358871,4224.615281,4226.153743,4229.230666,4209.743487,4237.435794,4218.461435,4223.58964
21,0,4215.897333,4240.512717,4223.58964,4199.487077,4221.538358,4227.692204,4228.205025,4218.974256,4223.07682,4218.974256,4199.487077,4221.538358,4212.307589,4224.102461
22,0,4215.384512,4227.179384,4229.743486,4208.717846,4215.384512,4224.102461,4220.512717,4218.974256,4224.615281,4216.922974,4194.871692,4219.487076,4208.717846,4222.563999
23,0,4217.435794,4213.846051,4240.512717,4201.538359,4221.538358,4223.58964,4219.999897,4222.563999,4226.153743,4215.897333,4196.922974,4226.666563,4202.564,4216.410153
24,0,4209.743487,4219.999897,4228.717845,4189.230667,4223.07682,4222.051179,4221.538358,4222.051179,4225.640922,4215.897333,4199.999897,4219.999897,4204.615282,4206.153743
25,0,4215.897333,4231.281948,4222.563999,4195.897333,4215.897333,4224.615281,4217.948615,4218.461435,4225.128102,4218.461435,4205.128102,4219.999897,4207.692205,4207.692205
26,0,4224.615281,4242.051178,4239.487076,4209.743487,4221.538358,4227.692204,4218.461435,4216.922974,4223.58964,4217.948615,4207.692205,4231.281948,4208.205025,4227.692204
27,0,4213.33323,4248.717845,4248.717845,4209.230666,4231.794768,4229.743486,4221.025538,4216.922974,4222.563999,4212.82041,4201.538359,4228.717845,4208.717846,4222.051179
28,0,4206.666564,4249.743486,4235.384512,4207.179384,4232.307589,4231.281948,4219.999897,4215.384512,4225.128102,4213.846051,4195.897333,4219.999897,4208.205025,4203.589641
29,0,4225.640922,4248.717845,4231.794768,4206.666564,4226.153743,4232.820409,4218.461435,4215.384512,4229.743486,4221.538358,4201.538359,4230.769127,4207.692205,4214.871692
30,0,4229.230666,4245.640922,4237.948614,4206.666564,4224.102461,4228.205025,4220.512717,4217.435794,4232.820409,4227.179384,4211.281948,4235.897332,4210.769128,4227.179384
31,0,4218.974256,4246.153742,4232.820409,4210.769128,4225.640922,4227.692204,4223.07682,4218.974256,4231.281948,4221.538358,4211.794769,4224.102461,4215.384512,4216.922974
32,0,4215.384512,4245.640922,4237.948614,4199.999897,4228.205025,4234.358871,4225.128102,4222.051179,4231.794768,4221.538358,4207.179384,4229.230666,4216.922974,4218.461435
33,0,4227.179384,4243.58964,4258.461434,4197.435795,4228.717845,4232.307589,4228.717845,4227.179384,4232.307589,4232.820409,4209.230666,4245.640922,4216.922974,4233.33323
34,0,4233.84605,4250.769127,4254.871691,4218.974256,4232.307589,4226.666563,4232.820409,4229.743486,4230.256307,4233.84605,4217.435794,4242.051178,4222.051179,4234.358871
35,0,4231.794768,4263.076819,4232.820409,4225.128102,4238.461435,4231.281948,4232.820409,4230.769127,4229.230666,4226.666563,4218.974256,4233.33323,4224.615281,4225.128102
36,0,4226.153743,4259.487075,4240.512717,4204.102461,4234.358871,4230.769127,4230.769127,4226.153743,4230.256307,4225.640922,4213.33323,4239.487076,4217.435794,4222.051179
37,0,4227.692204,4241.538358,4262.051178,4197.948615,4222.563999,4224.102461,4228.205025,4219.999897,4229.743486,4225.640922,4216.922974,4244.10246,4218.974256,4230.256307
38,0,4228.717845,4240.512717,4255.897332,4209.743487,4222.051179,4224.102461,4229.743486,4222.563999,4229.743486,4228.717845,4217.435794,4239.487076,4227.692204,4242.051178
39,0,4234.358871,4256.410152,4242.563999,4214.358871,4233.33323,4226.153743,4232.307589,4227.692204,4232.307589,4235.897332,4211.794769,4239.487076,4226.153743,4242.563999
40,0,4238.461435,4250.256306,4248.205024,4206.153743,4228.205025,4219.999897,4226.153743,4218.974256,4226.666563,4224.615281,4213.846051,4238.974255,4222.051179,4234.358871
41,0,4233.33323,4233.84605,4256.922973,4195.384513,4218.974256,4219.999897,4218.461435,4212.82041,4220.512717,4220.512717,4224.615281,4240.512717,4225.640922,4232.820409
42,0,4233.33323,4240.512717,4253.84605,4210.256307,4232.307589,4226.666563,4226.666563,4221.538358,4228.205025,4239.999896,4228.717845,4244.615281,4233.33323,4238.461435
43,0,4239.999896,4252.820409,4247.179383,4232.307589,4245.640922,4226.666563,4233.84605,4226.153743,4237.948614,4248.205024,4225.128102,4242.563999,4241.538358,4242.563999
44,0,4242.563999,4250.256306,4248.717845,4219.487076,4237.435794,4223.58964,4226.666563,4217.948615,4229.743486,4233.84605,4225.128102,4243.58964,4241.025537,4244.615281
45,0,4233.84605,4251.281947,4247.692204,4199.487077,4229.230666,4224.102461,4225.128102,4217.435794,4221.025538,4228.205025,4227.692204,4250.769127,4230.256307,4250.256306
46,0,4233.84605,4250.256306,4246.666563,4206.666564,4227.179384,4225.640922,4227.179384,4224.102461,4226.666563,4232.820409,4226.153743,4248.717845,4222.563999,4246.666563
47,0,4239.487076,4249.230665,4250.256306,4224.102461,4230.256307,4221.025538,4222.563999,4224.615281,4227.692204,4232.307589,4220.512717,4234.871691,4225.640922,4228.717845
48,0,4241.025537,4255.384511,4252.307588,4218.461435,4231.794768,4218.974256,4224.615281,4225.640922,4222.051179,4226.666563,4221.538358,4236.410153,4228.717845,4223.58964
49,0,4232.307589,4245.128101,4251.794768,4197.435795,4222.563999,4217.435794,4226.666563,4226.153743,4225.128102,4225.128102,4224.615281,4242.563999,4226.666563,4233.84605
50,0,4228.717845,4235.384512,4248.205024,4197.435795,4217.948615,4212.82041,4218.461435,4218.461435,4229.230666,4226.666563,4219.999897,4236.922973,4223.58964,4239.999896
51,0,4228.717845,4258.461434,4246.666563,4219.999897,4231.281948,4215.897333,4213.33323,4212.82041,4225.640922,4231.794768,4218.461435,4234.871691,4233.33323,4240.512717
52,0,4237.435794,4268.717844,4258.974255,4220.512717,4234.358871,4226.153743,4216.410153,4214.871692,4222.051179,4233.84605,4226.666563,4244.10246,4244.615281,4241.538358
53,0,4236.922973,4253.84605,4262.051178,4212.307589,4228.717845,4226.153743,4216.922974,4215.384512,4221.025538,4233.84605,4230.256307,4244.10246,4241.025537,4241.538358
54,0,4229.230666,4255.897332,4243.58964,4220.512717,4234.871691,4218.461435,4214.871692,4214.358871,4223.58964,4233.33323,4221.538358,4239.487076,4234.871691,4235.897332
55,0,4225.640922,4267.179383,4238.461435,4214.871692,4237.948614,4219.487076,4217.435794,4216.410153,4229.230666,4230.256307,4217.435794,4245.640922,4233.84605,4236.922973
56,0,4230.769127,4258.974255,4252.820409,4202.564,4223.58964,4224.102461,4222.051179,4217.948615,4228.717845,4224.615281,4222.563999,4245.128101,4231.281948,4237.948614
57,0,4226.666563,4258.461434,4254.35887,4215.384512,4216.410153,4223.58964,4229.743486,4223.58964,4228.717845,4226.153743,4223.07682,4233.33323,4234.358871,4236.922973
58,0,4218.974256,4271.281947,4242.051178,4219.487076,4227.692204,4222.563999,4234.358871,4230.769127,4233.84605,4239.999896,4223.07682,4242.051178,4240.512717,4248.717845
59,0,4223.58964,4269.230665,4242.563999,4208.717846,4232.820409,4221.538358,4231.794768,4230.769127,4231.794768,4239.999896,4227.692204,4259.487075,4236.410153,4254.35887
60,0,4236.410153,4261.025537,4260.512716,4210.769128,4229.230666,4219.999897,4227.692204,4230.769127,4225.640922,4232.307589,4226.153743,4249.230665,4236.410153,4247.692204
61,0,4235.384512,4263.589639,4264.10246,4216.922974,4228.205025,4218.974256,4222.563999,4229.230666,4227.692204,4235.897332,4224.102461,4235.384512,4244.10246,4244.615281
62,0,4230.256307,4273.846049,4250.769127,4223.07682,4235.384512,4221.538358,4218.461435,4221.538358,4231.281948,4240.512717,4229.743486,4244.615281,4243.076819,4246.666563
63,0,4241.538358,4271.281947,4252.820409,4224.615281,4237.948614,4225.128102,4218.974256,4216.922974,4227.692204,4236.410153,4230.256307,4249.230665,4240.512717,4244.615281
64,0,4243.076819,4263.076819,4259.999896,4216.410153,4236.410153,4223.58964,4222.563999,4221.025538,4228.717845,4242.051178,4230.769127,4243.076819,4247.692204,4253.84605
65,0,4235.384512,4253.84605,4258.974255,4218.461435,4230.256307,4222.051179,4224.615281,4219.487076,4228.717845,4247.179383,4232.820409,4250.256306,4246.666563,4262.051178
66,0,4234.871691,4251.794768,4262.563998,4229.230666,4229.743486,4225.640922,4232.307589,4214.358871,4224.102461,4237.948614,4229.743486,4255.384511,4239.487076,4259.999896
67,0,4232.820409,4259.487075,4253.84605,4216.922974,4232.820409,4229.230666,4238.461435,4221.025538,4225.640922,4231.794768,4215.384512,4245.128101,4233.33323,4257.948614
68,0,4216.922974,4263.076819,4236.410153,4201.025538,4232.820409,4224.615281,4235.384512,4229.743486,4229.230666,4230.256307,4213.33323,4237.435794,4235.384512,4243.076819
69,0,4226.666563,4253.333229,4253.84605,4208.205025,4236.410153,4224.102461,4237.435794,4231.794768,4229.230666,4228.205025,4228.717845,4243.076819,4240.512717,4235.384512
70,0,4236.922973,4256.922973,4269.743485,4219.487076,4244.10246,4226.666563,4242.563999,4234.358871,4232.820409,4239.487076,4231.794768,4245.128101,4238.461435,4247.179383
71,0,4225.640922,4269.230665,4249.743486,4225.128102,4238.974255,4222.051179,4236.922973,4237.435794,4235.384512,4249.743486,4221.538358,4242.563999,4233.84605,4255.384511
72,0,4221.538358,4253.333229,4244.615281,4223.07682,4230.256307,4217.948615,4230.256307,4234.358871,4232.820409,4247.179383,4227.179384,4247.692204,4235.897332,4252.307588
73,0,4232.820409,4235.897332,4266.666562,4212.307589,4234.871691,4222.051179,4230.769127,4230.256307,4231.281948,4245.128101,4237.948614,4251.794768,4241.025537,4248.205024
74,0,4229.743486,4253.333229,4265.640921,4215.384512,4239.999896,4226.666563,4231.794768,4229.230666,4233.84605,4248.205024,4231.281948,4246.153742,4240.512717,4243.076819
75,0,4230.256307,4272.307588,4252.820409,4232.307589,4235.897332,4227.179384,4233.33323,4228.205025,4233.84605,4251.281947,4231.281948,4248.205024,4243.58964,4253.333229
76,0,4238.974255,4271.281947,4254.871691,4231.281948,4234.358871,4227.179384,4231.281948,4223.07682,4230.256307,4249.230665,4235.897332,4254.871691,4244.10246,4263.589639
77,0,4235.897332,4266.153742,4250.256306,4223.07682,4232.307589,4221.538358,4221.025538,4213.33323,4224.615281,4236.922973,4227.692204,4248.717845,4237.948614,4252.307588
78,0,4234.871691,4262.563998,4252.307588,4222.563999,4231.794768,4217.435794,4218.974256,4210.256307,4220.512717,4228.205025,4224.102461,4246.153742,4236.410153,4247.692204
79,0,4239.487076,4259.487075,4269.743485,4215.897333,4242.563999,4222.563999,4228.205025,4217.948615,4225.640922,4240.512717,4230.769127,4249.743486,4239.487076,4250.769127
80,0,4227.179384,4257.948614,4256.410152,4207.179384,4243.076819,4226.666563,4231.794768,4226.666563,4235.384512,4248.205024,4225.640922,4238.461435,4239.487076,4234.871691
81,0,4214.871692,4257.948614,4228.717845,4218.974256,4236.922973,4224.615281,4231.794768,4230.769127,4232.820409,4244.615281,4216.922974,4232.307589,4236.410153,4231.281948
82,0,4230.769127,4257.435793,4246.153742,4234.358871,4238.974255,4225.128102,4238.461435,4233.84605,4214.871692,4243.076819,4226.666563,4252.820409,4235.384512,4248.205024
83,0,4239.999896,4257.435793,4268.205024,4225.128102,4237.948614,4224.615281,4239.487076,4235.384512,4206.153743,4241.025537,4233.84605,4258.974255,4236.410153,4254.871691
84,0,4236.410153,4261.538357,4256.922973,4214.358871,4232.307589,4223.07682,4230.256307,4232.307589,4210.769128,4235.384512,4227.692204,4245.128101,4244.10246,4250.769127
85,0,4238.974255,4269.743485,4246.666563,4225.640922,4238.461435,4224.102461,4228.717845,4229.743486,4211.281948,4238.461435,4229.743486,4244.615281,4248.717845,4252.307588
86,0,4249.230665,4277.435793,4254.871691,4241.025537,4234.871691,4226.666563,4231.281948,4231.281948,4211.281948,4242.563999,4236.410153,4249.743486,4242.563999,4252.307588
87,0,4249.743486,4276.922972,4268.717844,4233.33323,4225.640922,4225.128102,4228.205025,4228.717845,4214.871692,4241.538358,4232.820409,4249.230665,4239.999896,4259.999896
88,0,4245.640922,4272.307588,4266.153742,4222.563999,4238.974255,4226.153743,4223.58964,4219.487076,4209.743487,4242.563999,4229.230666,4246.153742,4243.076819,4261.538357
89,0,4232.307589,4266.153742,4244.615281,4222.051179,4251.794768,4224.615281,4224.615281,4211.794769,4202.051179,4239.487076,4224.102461,4233.33323,4237.435794,4239.999896
90,0,4233.84605,4262.051178,4234.871691,4211.794769,4242.563999,4223.58964,4227.179384,4214.358871,4205.128102,4230.256307,4217.435794,4226.153743,4226.153743,4226.153743
91,0,4243.58964,4268.717844,4242.051178,4219.487076,4241.025537,4227.179384,4233.84605,4225.640922,4214.358871,4230.256307,4221.025538,4238.461435,4227.179384,4233.84605
92,0,4243.58964,4272.820408,4244.615281,4243.076819,4248.717845,4228.717845,4242.563999,4233.84605,4215.897333,4237.948614,4229.230666,4243.58964,4236.922973,4235.384512
93,0,4233.33323,4269.743485,4240.512717,4242.563999,4247.179383,4225.128102,4244.10246,4234.358871,4214.871692,4238.461435,4223.07682,4238.974255,4241.538358,4236.410153
94,0,4236.410153,4269.230665,4238.974255,4231.794768,4241.538358,4223.07682,4235.897332,4234.358871,4215.897333,4236.922973,4217.948615,4244.615281,4240.512717,4247.692204
95,0,4248.205024,4271.794767,4239.999896,4228.717845,4244.10246,4224.615281,4230.256307,4235.384512,4214.871692,4242.051178,4229.743486,4252.307588,4247.179383,4251.281947
96,0,4254.871691,4262.563998,4254.871691,4224.102461,4243.58964,4224.615281,4234.871691,4233.33323,4212.82041,4248.205024,4241.538358,4256.922973,4258.461434,4262.563998
97,0,4261.025537,4250.769127,4269.230665,4226.153743,4232.820409,4226.153743,4232.820409,4231.281948,4214.358871,4252.307588,4243.076819,4262.563998,4261.025537,4276.922972
98,0,4260.512716,4258.461434,4251.281947,4227.179384,4231.281948,4226.153743,4224.615281,4232.820409,4217.435794,4255.897332,4243.58964,4260.512716,4254.871691,4263.589639
99,0,4260.512716,4264.61528,4234.358871,4223.58964,4235.384512,4225.640922,4219.999897,4228.717845,4214.358871,4245.640922,4238.461435,4255.384511,4244.615281,4240.512717
100,0,4254.35887,4264.61528,4233.84605,4229.743486,4239.487076,4229.743486,4224.615281,4219.487076,4206.666564,4235.384512,4226.153743,4248.717845,4239.487076,4244.615281
101,0,4245.128101,4262.563998,4234.871691,4235.384512,4243.58964,4239.487076,4232.820409,4215.897333,4207.692205,4237.435794,4222.563999,4238.974255,4241.025537,4249.230665
102,0,4248.717845,4257.948614,4238.974255,4231.794768,4244.10246,4238.974255,4237.948614,4217.948615,4215.897333,4238.974255,4227.179384,4238.974255,4239.487076,4242.051178
103,0,4255.384511,4250.769127,4244.10246,4227.179384,4234.358871,4226.666563,4236.410153,4223.58964,4216.410153,4233.84605,4226.153743,4242.563999,4233.84605,4237.948614
104,0,4243.58964,4249.230665,4235.897332,4220.512717,4233.84605,4226.153743,4238.974255,4230.256307,4212.307589,4234.871691,4226.153743,4237.948614,4235.384512,4234.358871
105,0,4243.58964,4252.307588,4230.256307,4210.769128,4241.538358,4240.512717,4247.692204,4234.358871,4216.922974,4237.948614,4227.692204,4247.179383,4239.487076,4239.999896
106,0,4250.769127,4254.35887,4232.307589,4212.307589,4235.897332,4239.999896,4248.205024,4232.820409,4221.538358,4239.487076,4231.281948,4256.922973,4238.974255,4251.281947
107,0,4251.281947,4259.999896,4228.205025,4223.58964,4227.692204,4229.230666,4241.538358,4233.33323,4217.948615,4239.487076,4236.410153,4248.205024,4239.999896,4245.640922
108,0,4254.871691,4265.640921,4233.33323,4236.922973,4233.33323,4229.743486,4237.435794,4234.871691,4216.410153,4239.487076,4231.794768,4248.717845,4242.051178,4237.948614
109,0,4266.153742,4267.692203,4250.256306,4244.10246,4238.461435,4234.871691,4233.84605,4232.307589,4219.999897,4241.025537,4227.179384,4260.512716,4243.58964,4242.051178
110,0,4262.051178,4267.692203,4251.281947,4244.10246,4239.487076,4233.84605,4229.743486,4230.769127,4222.563999,4247.179383,4235.384512,4256.922973,4245.640922,4242.051178
111,0,4259.999896,4265.640921,4237.435794,4248.205024,4241.025537,4232.307589,4229.230666,4232.307589,4219.487076,4246.666563,4243.58964,4251.794768,4247.692204,4240.512717
112,0,4254.871691,4249.743486,4234.358871,4230.769127,4234.871691,4232.307589,4231.281948,4227.179384,4211.794769,4230.769127,4239.487076,4253.84605,4237.948614,4243.58964
113,0,4245.128101,4230.256307,4241.538358,4208.205025,4227.179384,4233.33323,4232.307589,4215.384512,4206.666564,4218.461435,4226.153743,4242.051178,4221.538358,4234.358871
114,0,4251.281947,4241.025537,4234.871691,4228.717845,4232.307589,4238.461435,4238.461435,4218.974256,4212.82041,4225.640922,4221.538358,4234.871691,4224.102461,4225.128102
115,0,4257.948614,4263.589639,4222.051179,4246.153742,4238.974255,4238.461435,4241.538358,4232.307589,4221.538358,4233.84605,4230.769127,4248.717845,4236.410153,4238.461435
116,0,4252.820409,4255.897332,4224.615281,4228.717845,4229.743486,4229.743486,4233.84605,4230.769127,4213.846051,4222.563999,4226.153743,4255.897332,4225.128102,4238.974255
117,0,4257.435793,4239.999896,4227.692204,4229.743486,4230.769127,4226.666563,4231.281948,4227.692204,4210.769128,4219.487076,4216.922974,4249.230665,4215.384512,4222.051179
118,0,4273.333229,4242.563999,4236.922973,4256.922973,4242.563999,4233.84605,4238.461435,4234.358871,4220.512717,4229.230666,4223.07682,4249.230665,4227.179384,4228.205025
119,0,4267.692203,4241.025537,4246.153742,4259.999896,4243.58964,4237.435794,4236.922973,4234.871691,4222.051179,4233.33323,4226.666563,4251.794768,4228.205025,4243.58964
120,0,4259.999896,4235.897332,4232.307589,4240.512717,4240.512717,4236.922973,4227.692204,4230.256307,4219.999897,4232.820409,4222.563999,4244.615281,4221.538358,4235.897332
121,0,4261.538357,4242.563999,4225.128102,4239.999896,4250.256306,4239.999896,4227.179384,4230.769127,4222.563999,4235.384512,4229.743486,4241.538358,4232.820409,4231.794768
122,0,4263.589639,4236.922973,4236.410153,4244.10246,4248.717845,4239.487076,4224.615281,4222.563999,4216.922974,4230.769127,4230.256307,4243.076819,4236.922973,4234.358871
123,0,4258.461434,4230.256307,4224.615281,4241.025537,4237.435794,4235.384512,4218.974256,4212.82041,4211.281948,4222.051179,4219.999897,4238.461435,4227.692204,4227.179384
124,0,4266.153742,4236.410153,4214.358871,4242.051178,4241.538358,4242.051178,4228.717845,4222.051179,4220.512717,4223.58964,4228.717845,4244.10246,4232.307589,4237.435794
125,0,4266.666562,4236.410153,4225.640922,4243.076819,4247.179383,4247.692204,4245.640922,4233.33323,4223.07682,4234.871691,4237.435794,4248.717845,4239.487076,4248.205024
126,0,4265.640921,4223.58964,4224.615281,4249.743486,4243.58964,4242.563999,4247.692204,4230.769127,4216.410153,4232.820409,4226.666563,4241.025537,4231.794768,4231.794768
127,0,4275.384511,4218.461435,4227.179384,4259.487075,4240.512717,4235.897332,4240.512717,4228.205025,4218.461435,4222.051179,4220.512717,4237.948614,4225.640922,4223.58964
128,0,4276.410152,4220.512717,4233.33323,4256.410152,4237.435794,4233.33323,4238.974255,4231.281948,4224.102461,4223.07682,4222.563999,4241.025537,4226.153743,4235.384512
0,0,4261.538357,4231.281948,4216.922974,4245.128101,4235.897332,4234.871691,4243.076819,4232.307589,4224.615281,4231.281948,4226.153743,4245.640922,4228.205025,4237.435794
1,0,4265.128101,4235.897332,4229.230666,4246.153742,4239.999896,4235.384512,4244.10246,4232.307589,4226.153743,4238.461435,4230.769127,4256.922973,4232.307589,4239.999896
2,0,4275.897331,4224.102461,4251.281947,4253.84605,4244.615281,4234.358871,4237.948614,4232.820409,4226.153743,4243.58964,4233.84605,4257.948614,4240.512717,4247.692204
3,0,4271.794767,4232.307589,4226.153743,4262.563998,4247.179383,4233.33323,4230.769127,4232.307589,4226.666563,4246.666563,4235.384512,4247.692204,4244.615281,4243.58964
4,0,4270.769126,4248.717845,4216.410153,4262.051178,4245.128101,4232.820409,4231.281948,4231.281948,4227.179384,4239.999896,4233.84605,4246.153742,4234.358871,4236.922973
5,0,4269.743485,4231.794768,4232.307589,4231.281948,4235.384512,4226.666563,4229.743486,4228.205025,4218.974256,4228.205025,4223.07682,4241.538358,4221.538358,4236.922973
6,0,4257.435793,4216.410153,4221.025538,4228.717845,4228.717845,4225.640922,4226.666563,4226.153743,4212.82041,4219.999897,4214.358871,4234.871691,4219.999897,4230.256307
7,0,4256.922973,4231.281948,4208.205025,4258.461434,4236.410153,4231.794768,4234.358871,4229.230666,4219.487076,4221.025538,4222.051179,4236.922973,4226.153743,4227.692204
8,0,4264.61528,4237.435794,4216.922974,4254.871691,4237.435794,4229.743486,4243.076819,4230.769127,4223.58964,4227.692204,4227.692204,4237.948614,4230.256307,4229.743486
9,0,4256.922973,4230.769127,4218.974256,4238.974255,4233.33323,4227.179384,4247.692204,4228.717845,4218.974256,4229.743486,4230.256307,4241.538358,4236.922973,4239.999896
10,0,4257.948614,4231.794768,4223.58964,4242.051178,4233.84605,4229.743486,4251.794768,4229.230666,4221.538358,4228.205025,4236.922973,4251.794768,4238.974255,4249.230665
11,0,4267.179383,4243.58964,4233.84605,4251.281947,4242.563999,4229.743486,4254.871691,4234.358871,4231.281948,4238.974255,4241.025537,4252.820409,4240.512717,4246.153742
12,0,4277.435793,4263.589639,4231.794768,4271.794767,4249.230665,4230.256307,4254.35887,4235.384512,4230.256307,4253.84605,4242.563999,4255.897332,4251.281947,4246.153742
13,0,4274.87169,4263.076819,4226.153743,4282.563998,4248.717845,4233.84605,4249.743486,4232.307589,4224.615281,4255.384511,4242.563999,4259.999896,4252.307588,4253.84605
14,0,4266.153742,4238.974255,4226.666563,4249.230665,4243.076819,4231.281948,4242.563999,4238.461435,4225.640922,4248.717845,4239.999896,4251.281947,4242.051178,4250.769127
15,0,4270.769126,4233.84605,4233.33323,4240.512717,4245.128101,4228.205025,4239.487076,4247.179383,4228.205025,4249.743486,4238.461435,4243.58964,4244.615281,4248.717845
16,0,4291.281946,4242.051178,4239.487076,4276.922972,4250.256306,4233.84605,4239.999896,4243.076819,4228.205025,4249.743486,4241.538358,4248.717845,4251.281947,4260.512716
17,0,4282.563998,4240.512717,4230.769127,4286.153741,4249.230665,4233.33323,4236.410153,4233.33323,4224.615281,4242.563999,4240.512717,4249.230665,4238.461435,4258.974255
18,0,4263.589639,4237.948614,4224.102461,4258.974255,4246.153742,4231.281948,4238.461435,4232.307589,4222.051179,4235.897332,4233.33323,4240.512717,4225.640922,4241.025537
19,0,4262.563998,4239.487076,4227.179384,4252.307588,4245.128101,4236.410153,4247.692204,4234.871691,4224.615281,4231.794768,4233.33323,4241.025537,4235.384512,4236.922973
20,0,4264.10246,4242.051178,4223.58964,4274.87169,4245.640922,4239.487076,4253.333229,4234.358871,4226.153743,4234.871691,4234.871691,4247.692204,4238.974255,4239.487076
21,0,4257.435793,4245.128101,4214.871692,4272.820408,4246.153742,4237.948614,4254.35887,4233.33323,4223.07682,4242.051178,4230.769127,4244.615281,4227.179384,4235.897332
22,0,4259.999896,4244.615281,4216.922974,4250.256306,4247.692204,4236.410153,4255.897332,4232.820409,4222.563999,4248.205024,4231.281948,4235.897332,4227.692204,4234.358871
23,0,4272.307588,4247.179383,4228.717845,4263.589639,4250.769127,4238.974255,4261.025537,4232.820409,4227.179384,4247.692204,4240.512717,4240.512717,4243.58964,4239.487076
24,0,4275.384511,4260.512716,4226.666563,4290.769126,4254.35887,4240.512717,4258.974255,4233.84605,4231.281948,4243.58964,4244.10246,4249.743486,4246.153742,4249.230665
25,0,4271.794767,4252.307588,4226.153743,4274.35887,4248.717845,4235.897332,4250.256306,4231.794768,4224.102461,4230.769127,4233.33323,4249.230665,4231.794768,4243.58964
26,0,4269.743485,4238.974255,4234.871691,4264.10246,4245.640922,4228.717845,4244.10246,4232.820409,4221.538358,4229.230666,4230.256307,4249.230665,4234.358871,4237.435794
27,0,4273.333229,4247.692204,4235.384512,4283.076818,4255.384511,4234.358871,4244.10246,4241.538358,4232.307589,4249.743486,4241.538358,4254.35887,4249.743486,4244.615281
28,0,4270.256306,4254.35887,4228.717845,4274.35887,4259.999896,4241.025537,4248.717845,4245.640922,4237.948614,4264.10246,4249.230665,4251.794768,4255.384511,4251.281947
29,0,4268.717844,4248.717845,4233.33323,4264.61528,4248.717845,4238.974255,4245.640922,4235.384512,4227.692204,4245.128101,4245.640922,4247.179383,4245.128101,4252.820409
30,0,4267.692203,4244.615281,4227.692204,4283.076818,4245.128101,4237.435794,4236.922973,4228.717845,4222.051179,4231.281948,4242.563999,4249.230665,4239.487076,4256.922973
31,0,4261.025537,4233.84605,4208.205025,4274.35887,4251.794768,4242.563999,4236.922973,4233.33323,4228.205025,4241.025537,4240.512717,4246.153742,4242.563999,4247.692204
32,0,4253.333229,4217.435794,4214.871692,4254.871691,4251.794768,4241.025537,4247.179383,4232.307589,4226.666563,4241.025537,4233.84605,4233.84605,4241.538358,4227.179384
33,0,4267.692203,4226.666563,4238.461435,4275.384511,4247.179383,4235.897332,4252.307588,4231.794768,4222.051179,4234.871691,4235.384512,4239.487076,4241.538358,4237.435794
34,0,4278.974254,4246.153742,4236.410153,4282.563998,4251.281947,4236.922973,4257.948614,4239.999896,4227.692204,4246.153742,4245.640922,4261.538357,4249.743486,4265.640921
35,0,4266.666562,4241.538358,4216.922974,4256.922973,4256.410152,4240.512717,4263.589639,4241.025537,4232.307589,4254.871691,4251.281947,4264.10246,4255.384511,4267.179383
36,0,4250.256306,4231.281948,4213.33323,4263.589639,4255.384511,4237.948614,4252.307588,4232.307589,4230.769127,4249.743486,4248.717845,4240.512717,4251.281947,4248.717845
37,0,4263.589639,4231.794768,4230.769127,4286.153741,4251.794768,4236.410153,4239.487076,4229.743486,4227.179384,4248.205024,4241.025537,4232.307589,4244.615281,4241.025537
38,0,4275.384511,4233.84605,4232.307589,4279.999895,4252.307588,4243.58964,4245.128101,4237.948614,4230.256307,4249.743486,4238.974255,4248.717845,4242.051178,4244.615281
39,0,4265.640921,4231.794768,4222.563999,4265.640921,4254.35887,4249.743486,4252.820409,4246.153742,4235.384512,4248.717845,4249.743486,4251.794768,4247.179383,4245.640922
40,0,4264.61528,4229.743486,4227.179384,4265.640921,4251.281947,4244.615281,4249.230665,4247.179383,4238.974255,4251.794768,4250.769127,4239.487076,4251.281947,4245.128101
41,0,4270.769126,4232.307589,4228.717845,4273.846049,4248.205024,4238.461435,4244.10246,4244.10246,4237.435794,4251.281947,4237.435794,4237.435794,4244.10246,4242.563999
42,0,4256.410152,4234.358871,4216.410153,4271.794767,4248.205024,4242.563999,4245.640922,4241.025537,4233.33323,4241.538358,4236.410153,4241.538358,4235.897332,4232.820409
43,0,4248.205024,4228.717845,4214.358871,4266.153742,4248.717845,4243.076819,4248.717845,4237.435794,4232.820409,4236.410153,4241.538358,4239.487076,4238.461435,4232.307589
44,0,4268.717844,4221.025538,4226.153743,4267.692203,4245.128101,4237.435794,4244.615281,4232.307589,4226.666563,4229.743486,4237.948614,4242.563999,4232.307589,4238.461435
45,0,4261.538357,4222.563999,4218.974256,4263.589639,4244.10246,4235.897332,4237.948614,4228.717845,4220.512717,4222.051179,4232.307589,4240.512717,4224.615281,4223.07682
46,0,4242.563999,4217.948615,4210.256307,4254.35887,4245.128101,4239.487076,4238.461435,4228.205025,4221.025538,4226.153743,4229.230666,4231.794768,4231.794768,4211.281948
47,0,4250.769127,4215.897333,4216.410153,4267.692203,4248.205024,4239.487076,4247.179383,4231.281948,4223.07682,4235.384512,4237.948614,4244.10246,4239.487076,4237.948614
48,0,4270.256306,4233.84605,4226.153743,4288.205023,4250.256306,4237.435794,4249.230665,4233.84605,4224.615281,4239.999896,4253.84605,4262.563998,4248.717845,4265.128101
49,0,4268.717844,4238.974255,4233.84605,4269.743485,4248.205024,4235.897332,4239.487076,4232.820409,4226.666563,4246.153742,4250.256306,4250.256306,4259.999896,4255.897332
50,0,4257.948614,4227.692204,4233.33323,4242.051178,4245.640922,4237.435794,4232.820409,4231.794768,4226.666563,4244.615281,4237.948614,4238.461435,4255.897332,4238.461435
51,0,4253.84605,4236.922973,4225.640922,4254.871691,4249.230665,4237.948614,4236.410153,4232.820409,4230.769127,4244.10246,4243.58964,4252.307588,4248.717845,4245.128101
52,0,4269.743485,4236.922973,4223.58964,4282.051177,4246.153742,4234.358871,4235.897332,4235.384512,4234.358871,4252.307588,4249.230665,4249.230665,4256.410152,4251.794768
53,0,4271.794767,4224.102461,4222.051179,4271.794767,4238.461435,4232.820409,4231.794768,4232.820409,4229.230666,4246.666563,4243.58964,4230.256307,4255.897332,4241.025537
54,0,4248.205024,4225.128102,4212.307589,4236.922973,4236.922973,4232.307589,4230.256307,4224.102461,4219.999897,4228.205025,4238.461435,4229.743486,4236.410153,4228.717845
55,0,4237.435794,4225.128102,4203.07682,4239.487076,4239.487076,4231.281948,4223.58964,4215.897333,4216.922974,4227.692204,4229.743486,4231.281948,4232.820409,4225.128102
56,0,4259.487075,4230.256307,4204.615282,4263.076819,4243.58964,4236.410153,4222.051179,4218.461435,4219.999897,4236.922973,4230.256307,4230.256307,4244.615281,4238.461435
57,0,4272.307588,4244.615281,4214.358871,4263.589639,4243.076819,4239.487076,4228.205025,4221.025538,4223.58964,4233.33323,4239.999896,4241.538358,4245.640922,4252.820409
58,0,4267.179383,4238.461435,4222.563999,4258.461434,4241.025537,4236.922973,4230.256307,4219.999897,4224.102461,4232.307589,4243.076819,4238.461435,4244.10246,4243.58964
59,0,4259.999896,4229.230666,4221.025538,4273.846049,4244.615281,4238.974255,4231.794768,4220.512717,4222.051179,4237.435794,4241.025537,4231.794768,4248.717845,4230.256307
60,0,4261.538357,4249.743486,4216.410153,4280.512716,4254.871691,4243.58964,4238.461435,4222.563999,4225.128102,4243.58964,4244.615281,4246.153742,4251.794768,4241.538358
61,0,4267.179383,4257.435793,4217.948615,4264.61528,4249.230665,4238.974255,4237.948614,4226.153743,4226.153743,4245.128101,4245.640922,4248.205024,4249.230665,4239.999896
62,0,4262.563998,4236.410153,4224.102461,4257.948614,4235.897332,4233.33323,4230.769127,4229.743486,4219.487076,4236.410153,4238.974255,4231.794768,4248.205024,4222.051179
63,0,4261.538357,4230.256307,4223.58964,4266.666562,4236.922973,4237.435794,4231.794768,4232.307589,4218.974256,4230.256307,4236.410153,4239.487076,4248.205024,4224.615281
64,0,4262.051178,4247.179383,4213.33323,4260.512716,4242.563999,4239.487076,4233.33323,4233.33323,4225.640922,4241.538358,4247.692204,4255.384511,4253.84605,4238.461435
65,0,4267.692203,4246.666563,4225.128102,4239.487076,4233.84605,4239.487076,4230.256307,4232.820409,4225.128102,4244.615281,4253.333229,4248.205024,4254.35887,4236.922973
66,0,4271.794767,4231.794768,4244.615281,4251.794768,4226.666563,4237.948614,4229.230666,4230.256307,4216.410153,4228.205025,4236.922973,4238.461435,4244.10246,4225.128102
67,0,4267.179383,4239.487076,4227.692204,4276.922972,4234.358871,4233.84605,4229.230666,4228.717845,4212.82041,4220.512717,4230.769127,4243.076819,4237.435794,4218.974256
68,0,4256.922973,4258.974255,4208.205025,4268.205024,4244.10246,4233.84605,4229.743486,4228.717845,4216.922974,4225.640922,4242.563999,4244.615281,4237.435794,4219.487076
69,0,4270.256306,4256.410152,4231.794768,4254.35887,4243.58964,4242.563999,4234.358871,4227.692204,4219.487076,4231.281948,4239.487076,4239.999896,4239.999896,4222.563999
70,0,4281.025536,4252.820409,4246.666563,4273.846049,4242.051178,4245.128101,4241.025537,4228.205025,4222.051179,4246.153742,4234.358871,4238.974255,4247.179383,4233.33323
71,0,4272.307588,4261.538357,4225.128102,4273.333229,4242.051178,4239.487076,4238.974255,4230.256307,4223.58964,4250.256306,4250.256306,4247.692204,4246.666563,4245.640922
72,0,4264.10246,4264.61528,4214.358871,4246.153742,4242.051178,4238.461435,4234.871691,4228.717845,4220.512717,4235.384512,4260.512716,4250.769127,4243.076819,4241.538358
73,0,4273.333229,4267.179383,4229.230666,4257.948614,4243.076819,4239.487076,4232.820409,4223.07682,4219.487076,4233.84605,4251.281947,4241.538358,4252.307588,4231.281948
74,0,4278.461434,4269.743485,4242.051178,4283.589639,4243.076819,4238.461435,4232.820409,4224.615281,4222.563999,4246.666563,4244.615281,4241.025537,4256.922973,4230.769127
75,0,4277.948613,4263.589639,4236.922973,4283.589639,4244.10246,4239.999896,4233.84605,4232.307589,4225.128102,4242.563999,4246.666563,4253.84605,4247.179383,4235.897332
76,0,4267.692203,4251.281947,4227.692204,4270.256306,4244.10246,4241.025537,4232.307589,4235.384512,4222.563999,4228.717845,4247.179383,4250.256306,4243.58964,4231.281948
77,0,4257.435793,4243.076819,4232.820409,4267.179383,4244.10246,4242.051178,4238.974255,4235.384512,4224.102461,4235.897332,4245.128101,4236.922973,4245.640922,4226.666563
78,0,4268.205024,4238.974255,4243.58964,4268.717844,4242.051178,4244.10246,4246.153742,4235.897332,4226.666563,4242.563999,4245.640922,4239.487076,4244.10246,4228.205025
79,0,4271.281947,4229.743486,4237.435794,4254.35887,4232.820409,4245.128101,4239.487076,4234.358871,4225.640922,4233.33323,4248.717845,4244.10246,4236.410153,4227.179384
80,0,4259.999896,4236.922973,4221.025538,4253.84605,4233.84605,4250.256306,4236.922973,4234.358871,4227.692204,4233.84605,4249.230665,4247.179383,4235.897332,4225.128102
81,0,4266.153742,4257.948614,4229.230666,4281.538357,4247.179383,4253.84605,4249.743486,4236.410153,4234.871691,4249.230665,4250.256306,4254.35887,4248.717845,4237.435794
82,0,4281.538357,4245.128101,4248.205024,4291.281946,4242.051178,4249.230665,4248.717845,4232.820409,4232.307589,4245.128101,4251.281947,4251.794768,4253.333229,4247.179383
83,0,4266.153742,4218.974256,4233.84605,4267.179383,4227.692204,4242.563999,4234.358871,4225.640922,4219.999897,4229.743486,4245.640922,4239.487076,4243.58964,4234.358871
84,0,4249.743486,4222.563999,4211.281948,4251.794768,4229.743486,4244.10246,4230.769127,4224.102461,4216.922974,4228.205025,4233.84605,4237.435794,4234.358871,4214.871692
85,0,4261.538357,4231.281948,4229.230666,4248.717845,4235.384512,4243.076819,4235.897332,4228.205025,4223.58964,4231.794768,4236.410153,4242.051178,4236.922973,4214.358871
86,0,4276.922972,4226.666563,4246.153742,4248.717845,4227.179384,4240.512717,4232.820409,4230.256307,4225.128102,4232.307589,4253.333229,4242.563999,4244.615281,4227.179384
87,0,4262.051178,4237.948614,4224.102461,4265.640921,4229.230666,4242.563999,4229.743486,4230.256307,4226.666563,4243.076819,4257.435793,4241.025537,4249.743486,4236.922973
88,0,4252.307588,4252.820409,4211.794769,4270.256306,4237.435794,4243.58964,4234.871691,4232.820409,4230.256307,4250.256306,4249.230665,4244.10246,4246.666563,4238.974255
89,0,4255.897332,4241.025537,4221.025538,4255.897332,4231.281948,4242.563999,4237.435794,4233.84605,4230.769127,4243.58964,4245.128101,4244.10246,4232.307589,4231.794768
90,0,4261.538357,4223.07682,4224.102461,4256.410152,4218.461435,4243.58964,4231.281948,4230.769127,4227.692204,4232.307589,4243.58964,4237.948614,4223.58964,4216.410153
91,0,4256.922973,4222.051179,4226.153743,4257.435793,4216.410153,4244.10246,4228.205025,4229.230666,4224.615281,4225.640922,4238.974255,4239.999896,4228.205025,4211.794769
92,0,4251.281947,4229.230666,4224.102461,4240.512717,4222.051179,4241.538358,4230.256307,4230.256307,4224.615281,4225.640922,4233.84605,4242.563999,4231.281948,4217.435794
93,0,4244.10246,4230.256307,4213.846051,4227.692204,4221.538358,4241.538358,4230.256307,4227.692204,4223.58964,4221.025538,4229.230666,4229.230666,4224.102461,4212.82041
94,0,4241.025537,4219.487076,4218.461435,4230.769127,4220.512717,4239.487076,4230.256307,4222.051179,4222.051179,4215.897333,4230.256307,4222.051179,4218.974256,4203.589641
95,0,4249.743486,4214.871692,4231.281948,4245.128101,4222.051179,4230.769127,4232.820409,4223.07682,4223.58964,4222.051179,4229.743486,4236.410153,4223.07682,4206.153743
96,0,4262.563998,4224.102461,4230.256307,4261.538357,4225.128102,4216.922974,4232.307589,4230.769127,4225.640922,4228.717845,4232.307589,4248.205024,4227.179384,4222.051179
97,0,4262.563998,4230.769127,4228.717845,4264.61528,4222.563999,4212.307589,4232.307589,4233.33323,4225.640922,4227.692204,4239.999896,4245.640922,4229.230666,4227.692204
98,0,4250.256306,4226.666563,4232.307589,4253.333229,4219.999897,4216.410153,4233.33323,4231.281948,4225.128102,4230.769127,4240.512717,4242.563999,4231.281948,4218.461435
99,0,4250.256306,4221.025538,4233.33323,4245.640922,4222.563999,4220.512717,4231.281948,4231.281948,4222.563999,4230.256307,4236.410153,4243.076819,4230.256307,4214.871692
100,0,4253.84605,4221.538358,4226.666563,4243.076819,4223.58964,4215.897333,4230.256307,4230.769127,4219.999897,4224.615281,4239.999896,4239.487076,4229.743486,4219.999897
101,0,4245.128101,4210.769128,4219.487076,4241.025537,4218.461435,4211.281948,4229.230666,4228.205025,4220.512717,4219.487076,4234.871691,4235.897332,4223.58964,4215.384512
102,0,4232.820409,4201.538359,4219.487076,4232.307589,4218.974256,4212.82041,4224.102461,4229.743486,4224.102461,4215.384512,4222.563999,4235.897332,4218.974256,4210.769128
103,0,4242.563999,4215.897333,4225.640922,4226.153743,4218.461435,4216.922974,4223.07682,4232.307589,4225.128102,4218.461435,4225.640922,4233.33323,4221.538358,4211.281948
104,0,4251.794768,4223.07682,4225.640922,4243.076819,4218.461435,4217.435794,4230.769127,4229.743486,4225.128102,4226.153743,4231.794768,4225.640922,4225.640922,4205.640923
105,0,4248.717845,4208.205025,4219.487076,4253.84605,4224.102461,4215.897333,4234.358871,4228.717845,4224.102461,4222.563999,4227.692204,4226.666563,4222.051179,4205.640923
106,0,4233.33323,4203.589641,4211.794769,4237.948614,4224.615281,4210.769128,4228.717845,4228.205025,4220.512717,4214.871692,4225.128102,4228.205025,4219.999897,4209.743487
107,0,4237.948614,4210.769128,4214.358871,4236.410153,4221.025538,4211.794769,4224.615281,4226.153743,4218.461435,4215.384512,4230.769127,4226.666563,4229.743486,4216.922974
108,0,4259.487075,4209.230666,4230.769127,4262.051178,4232.307589,4220.512717,4232.307589,4227.692204,4225.128102,4223.58964,4241.025537,4236.410153,4237.435794,4234.358871
109,0,4266.666562,4212.82041,4240.512717,4261.025537,4241.538358,4224.102461,4243.58964,4232.820409,4231.281948,4235.384512,4242.563999,4246.153742,4238.974255,4240.512717
110,0,4250.769127,4210.256307,4239.999896,4237.435794,4229.743486,4216.922974,4235.897332,4233.33323,4228.717845,4234.871691,4235.897332,4235.897332,4242.051178,4224.102461
111,0,4240.512717,4192.82041,4225.128102,4238.974255,4224.102461,4219.487076,4222.563999,4229.743486,4224.615281,4219.999897,4231.281948,4224.102461,4236.410153,4213.33323
112,0,4241.025537,4196.922974,4212.307589,4240.512717,4230.256307,4234.358871,4227.179384,4227.179384,4225.640922,4215.384512,4231.794768,4227.179384,4225.128102,4219.999897
113,0,4242.563999,4209.230666,4224.102461,4224.615281,4224.102461,4237.435794,4233.84605,4228.717845,4226.153743,4221.025538,4229.743486,4228.205025,4223.58964,4224.102461
114,0,4241.538358,4204.102461,4231.794768,4223.58964,4216.922974,4230.256307,4230.769127,4233.33323,4229.230666,4223.07682,4229.230666,4227.692204,4229.230666,4221.538358
115,0,4241.538358,4203.07682,4219.487076,4237.435794,4228.717845,4234.871691,4235.384512,4233.84605,4233.33323,4227.179384,4236.922973,4230.256307,4230.769127,4224.102461
116,0,4244.615281,4203.589641,4220.512717,4241.538358,4233.84605,4241.538358,4239.999896,4230.256307,4230.769127,4227.179384,4235.897332,4231.794768,4229.743486,4220.512717
117,0,4249.743486,4197.948615,4229.230666,4241.538358,4223.07682,4237.435794,4237.948614,4230.769127,4230.256307,4225.128102,4229.743486,4235.384512,4236.410153,4222.563999
118,0,4248.205024,4191.281949,4231.794768,4228.717845,4215.384512,4235.384512,4237.435794,4232.307589,4234.871691,4225.640922,4235.897332,4240.512717,4235.384512,4231.794768
119,0,4238.461435,4189.230667,4237.948614,4219.999897,4221.538358,4237.948614,4239.487076,4232.307589,4235.384512,4230.769127,4245.640922,4237.948614,4229.230666,4230.256307
120,0,4242.051178,4201.025538,4234.358871,4237.435794,4227.692204,4239.487076,4239.487076,4231.794768,4231.794768,4230.256307,4237.948614,4236.410153,4232.307589,4225.640922
121,0,4245.640922,4211.794769,4221.025538,4236.922973,4224.615281,4240.512717,4240.512717,4232.307589,4228.205025,4222.051179,4226.666563,4237.435794,4235.897332,4230.256307
122,0,4240.512717,4199.487077,4223.07682,4221.025538,4217.948615,4240.512717,4241.025537,4232.820409,4226.666563,4221.538358,4225.640922,4229.230666,4233.33323,4226.153743
123,0,4226.666563,4189.743487,4219.487076,4226.153743,4225.640922,4238.974255,4241.538358,4233.33323,4230.769127,4229.230666,4230.256307,4220.512717,4232.307589,4214.358871
124,0,4237.435794,4192.82041,4220.512717,4240.512717,4234.871691,4241.025537,4240.512717,4233.84605,4232.820409,4228.717845,4234.871691,4227.179384,4230.769127,4218.974256
125,0,4255.384511,4194.871692,4232.307589,4244.10246,4227.692204,4242.051178,4238.461435,4235.384512,4232.307589,4229.743486,4234.358871,4235.384512,4232.820409,4230.256307
126,0,4249.230665,4194.358872,4232.307589,4231.281948,4219.999897,4239.487076,4237.435794,4234.871691,4233.33323,4234.871691,4230.256307,4232.307589,4237.948614,4227.692204
127,0,4232.820409,4192.82041,4228.717845,4216.922974,4222.051179,4238.461435,4237.948614,4233.84605,4232.820409,4227.179384,4231.794768,4224.615281,4236.922973,4221.025538
128,0,4238.461435,4197.435795,4234.871691,4225.128102,4223.58964,4239.999896,4239.999896,4234.358871,4230.769127,4223.58964,4236.922973,4229.230666,4238.461435,4229.743486
0,0,4243.076819,4210.769128,4229.743486,4239.487076,4227.179384,4241.538358,4242.051178,4233.84605,4230.769127,4231.281948,4229.230666,4236.410153,4243.58964,4241.025537
1,0,4230.256307,4200.512718,4219.999897,4218.461435,4228.205025,4242.051178,4235.897332,4232.820409,4229.743486,4224.102461,4221.025538,4228.205025,4231.794768,4225.128102
2,0,4228.717845,4173.333231,4224.615281,4203.589641,4217.948615,4239.487076,4232.307589,4230.256307,4227.692204,4218.461435,4226.153743,4224.615281,4219.999897,4210.256307
3,0,4241.538358,4174.871693,4230.769127,4226.666563,4215.897333,4236.922973,4232.307589,4230.256307,4228.205025,4231.281948,4230.769127,4233.33323,4231.281948,4228.717845
4,0,4242.051178,4197.948615,4227.179384,4236.922973,4226.153743,4238.461435,4227.179384,4228.717845,4226.666563,4230.769127,4222.563999,4228.205025,4236.922973,4234.358871
5,0,4227.692204,4213.846051,4219.999897,4221.538358,4228.205025,4240.512717,4223.58964,4221.538358,4228.717845,4223.07682,4219.487076,4212.307589,4228.205025,4213.33323
6,0,4229.230666,4204.615282,4226.666563,4215.384512,4221.025538,4238.461435,4226.666563,4219.487076,4227.179384,4220.512717,4224.102461,4212.82041,4222.563999,4206.666564
7,0,4247.179383,4189.230667,4236.922973,4226.153743,4223.58964,4238.461435,4230.769127,4228.205025,4226.153743,4221.025538,4223.58964,4224.102461,4224.102461,4218.974256
8,0,4238.461435,4192.30759,4229.230666,4218.974256,4227.692204,4242.563999,4232.820409,4233.33323,4226.666563,4222.563999,4222.563999,4225.640922,4225.128102,4222.051179
9,0,4221.538358,4214.358871,4216.922974,4207.179384,4230.256307,4241.025537,4236.410153,4231.794768,4228.717845,4223.58964,4221.025538,4221.025538,4226.666563,4214.871692
10,0,4235.897332,4220.512717,4224.615281,4228.205025,4233.33323,4241.025537,4236.922973,4233.84605,4231.794768,4223.07682,4219.487076,4223.58964,4225.128102,4210.256307
11,0,4237.948614,4207.179384,4230.769127,4243.58964,4233.33323,4241.025537,4235.384512,4234.358871,4232.820409,4226.666563,4221.025538,4228.717845,4222.563999,4212.307589
12,0,4224.102461,4209.743487,4219.999897,4227.692204,4231.281948,4227.179384,4232.307589,4232.820409,4232.820409,4230.769127,4224.102461,4226.666563,4225.640922,4213.846051
13,0,4229.230666,4222.051179,4217.948615,4215.897333,4229.743486,4209.743487,4228.717845,4230.256307,4234.358871,4231.794768,4219.487076,4226.666563,4228.205025,4214.358871
14,0,4241.025537,4215.897333,4223.07682,4216.410153,4220.512717,4207.179384,4223.58964,4223.07682,4230.256307,4225.640922,4210.769128,4229.230666,4224.615281,4215.897333
15,0,4225.640922,4207.692205,4217.948615,4215.897333,4215.384512,4208.717846,4222.051179,4222.563999,4222.563999,4217.948615,4209.743487,4225.128102,4217.435794,4206.666564
16,0,4226.666563,4210.769128,4226.153743,4219.999897,4219.999897,4205.640923,4226.153743,4228.717845,4223.58964,4216.410153,4217.948615,4225.640922,4213.846051,4202.564
17,0,4236.410153,4219.487076,4234.358871,4225.128102,4222.051179,4205.640923,4230.256307,4231.281948,4232.820409,4221.025538,4222.563999,4229.230666,4222.051179,4213.33323
18,0,4226.153743,4227.692204,4216.410153,4212.82041,4222.051179,4208.717846,4231.794768,4232.820409,4234.358871,4225.640922,4219.999897,4224.615281,4227.179384,4206.666564
19,0,4216.922974,4225.640922,4208.717846,4210.769128,4223.58964,4210.256307,4229.230666,4229.743486,4227.179384,4223.58964,4220.512717,4221.538358,4219.487076,4193.846051
20,0,4228.205025,4213.33323,4222.563999,4223.07682,4221.025538,4205.128102,4225.128102,4223.07682,4223.07682,4217.948615,4221.538358,4224.102461,4218.461435,4205.128102
21,0,4234.871691,4205.128102,4222.563999,4218.461435,4218.974256,4199.999897,4223.07682,4220.512717,4225.128102,4219.487076,4218.974256,4221.538358,4223.58964,4212.82041
22,0,4226.153743,4201.538359,4213.33323,4206.666564,4215.384512,4199.999897,4216.922974,4220.512717,4221.538358,4223.58964,4211.794769,4215.897333,4215.897333,4200.512718
23,0,4220.512717,4199.487077,4217.948615,4208.717846,4209.743487,4202.051179,4213.846051,4222.051179,4218.974256,4218.974256,4210.256307,4221.025538,4210.256307,4194.871692
24,0,4227.692204,4202.051179,4228.717845,4221.538358,4220.512717,4205.128102,4226.153743,4230.769127,4230.256307,4228.717845,4225.128102,4233.33323,4226.666563,4213.33323
25,0,4234.358871,4199.487077,4233.84605,4223.58964,4232.307589,4210.256307,4233.84605,4234.358871,4234.358871,4238.461435,4230.256307,4237.948614,4232.820409,4220.512717
26,0,4218.461435,4193.333231,4223.07682,4202.051179,4227.692204,4207.692205,4224.615281,4227.692204,4226.153743,4223.07682,4213.33323,4224.615281,4213.33323,4199.487077
27,0,4206.153743,4194.358872,4210.769128,4185.128103,4222.051179,4206.153743,4223.58964,4228.205025,4225.640922,4210.769128,4208.205025,4216.922974,4206.666564,4190.769128
28,0,4211.794769,4193.333231,4215.897333,4208.717846,4225.640922,4208.717846,4232.820409,4232.820409,4229.743486,4223.07682,4223.07682,4226.153743,4223.07682,4205.128102
29,0,4219.999897,4185.640923,4224.615281,4231.794768,4224.102461,4204.102461,4229.743486,4228.717845,4224.615281,4222.051179,4221.025538,4228.205025,4219.999897,4199.487077
30,0,4213.33323,4185.128103,4227.692204,4209.230666,4219.999897,4198.974256,4223.58964,4226.666563,4222.563999,4206.666564,4211.794769,4219.999897,4206.153743,4186.153744
31,0,4210.769128,4191.281949,4226.666563,4198.461436,4221.538358,4202.564,4228.205025,4226.666563,4225.128102,4210.769128,4218.461435,4218.461435,4209.230666,4195.897333
32,0,4210.256307,4197.948615,4214.871692,4225.128102,4228.717845,4203.589641,4230.256307,4224.102461,4223.58964,4225.128102,4218.461435,4214.358871,4214.358871,4202.051179
