title:JTA                                                                             , recorded:03.07.20 12.26.13, sampling:128, subject:JTA                                                                             , labels:COUNTER INTERPOLATED AF3 F7 F3 FC5 T7 P7 O1 O2 P8 T8 FC6 F4 F8 AF4,, units:emotiv,,,,,,,,,
105,0,4222.563999,4215.384512,4222.051179,4217.435794,4211.794769,4201.538359,4218.974256,4211.281948,4218.461435,4230.769127,4232.307589,4208.205025,4233.33323,4222.051179
106,0,4219.487076,4228.717845,4215.897333,4218.974256,4251.794768,4204.102461,4215.384512,4198.461436,4198.974256,4253.333229,4224.615281,4201.025538,4230.769127,4219.487076
107,0,4214.358871,4224.102461,4212.307589,4216.410153,4222.563999,4219.999897,4213.33323,4199.487077,4208.205025,4235.897332,4221.538358,4200.512718,4231.794768,4215.384512
108,0,4204.102461,4204.615282,4207.692205,4212.82041,4196.410154,4218.461435,4212.82041,4204.102461,4219.999897,4220.512717,4223.58964,4199.487077,4225.640922,4206.666564
109,0,4200.512718,4203.589641,4206.666564,4209.743487,4218.461435,4211.281948,4212.82041,4200.512718,4215.384512,4192.82041,4223.07682,4198.974256,4226.153743,4206.666564
110,0,4215.897333,4223.58964,4215.384512,4215.897333,4230.256307,4210.769128,4215.384512,4202.051179,4207.179384,4183.589641,4228.205025,4203.589641,4238.461435,4217.948615
111,0,4220.512717,4222.051179,4220.512717,4217.948615,4212.307589,4212.82041,4217.948615,4209.743487,4202.051179,4225.640922,4231.281948,4204.102461,4240.512717,4218.974256
112,0,4201.025538,4198.974256,4210.769128,4204.615282,4213.33323,4216.922974,4218.461435,4206.666564,4199.999897,4244.615281,4215.384512,4196.410154,4220.512717,4199.999897
113,0,4198.461436,4198.974256,4208.717846,4201.538359,4220.512717,4213.846051,4214.871692,4199.487077,4208.205025,4221.538358,4212.307589,4195.897333,4213.33323,4196.410154
114,0,4215.384512,4219.487076,4215.384512,4214.871692,4219.999897,4208.205025,4212.82041,4201.025538,4213.846051,4196.410154,4228.205025,4202.051179,4229.230666,4215.384512
115,0,4219.487076,4224.615281,4215.897333,4218.461435,4231.281948,4219.487076,4212.307589,4202.051179,4214.871692,4181.538359,4225.640922,4202.051179,4227.692204,4216.922974
116,0,4214.871692,4214.358871,4213.846051,4212.82041,4206.153743,4224.102461,4206.153743,4196.410154,4214.871692,4180.512718,4210.769128,4198.974256,4215.384512,4205.640923
117,0,4215.384512,4220.512717,4215.384512,4215.384512,4173.846052,4203.589641,4207.179384,4206.153743,4215.897333,4210.256307,4219.487076,4204.615282,4226.666563,4211.281948
118,0,4216.410153,4236.922973,4217.435794,4219.999897,4204.102461,4196.410154,4214.358871,4220.512717,4217.435794,4233.33323,4233.84605,4214.358871,4233.84605,4221.538358
119,0,4217.948615,4231.281948,4217.435794,4218.974256,4251.281947,4212.82041,4217.435794,4211.281948,4216.922974,4228.717845,4227.179384,4215.384512,4221.025538,4218.974256
120,0,4212.307589,4214.871692,4211.794769,4213.846051,4235.897332,4218.461435,4212.82041,4194.871692,4216.922974,4224.615281,4215.384512,4204.102461,4212.307589,4211.281948
121,0,4199.487077,4212.307589,4201.538359,4209.230666,4201.025538,4214.358871,4207.179384,4193.846051,4212.307589,4199.487077,4213.846051,4192.82041,4210.256307,4201.025538
122,0,4203.07682,4226.153743,4200.512718,4212.82041,4196.410154,4214.358871,4206.666564,4197.948615,4209.230666,4181.025539,4213.33323,4190.256308,4209.230666,4195.897333
123,0,4216.410153,4232.307589,4205.640923,4218.974256,4192.30759,4208.717846,4210.256307,4198.461436,4215.897333,4214.358871,4214.871692,4196.922974,4213.33323,4206.153743
124,0,4211.281948,4222.563999,4202.564,4212.82041,4208.717846,4207.692205,4212.307589,4201.025538,4217.435794,4236.410153,4224.615281,4199.999897,4217.435794,4210.769128
125,0,4199.487077,4213.846051,4198.461436,4202.564,4238.974255,4213.846051,4211.281948,4200.512718,4206.153743,4215.897333,4226.153743,4192.30759,4214.358871,4202.564
126,0,4200.512718,4214.871692,4199.487077,4205.640923,4231.281948,4208.205025,4211.281948,4197.435795,4198.461436,4210.769128,4214.871692,4190.256308,4212.82041,4198.974256
127,0,4202.051179,4218.461435,4201.025538,4212.307589,4210.769128,4203.589641,4211.794769,4198.974256,4209.230666,4218.974256,4214.358871,4195.384513,4217.948615,4203.589641
128,0,4201.025538,4216.922974,4201.025538,4204.615282,4216.410153,4209.230666,4213.846051,4202.051179,4216.410153,4202.564,4221.025538,4192.82041,4221.538358,4205.128102
0,0,4199.999897,4212.82041,4197.948615,4197.948615,4216.410153,4215.384512,4214.358871,4202.051179,4211.794769,4185.640923,4214.358871,4187.179385,4212.82041,4201.025538
1,0,4202.051179,4212.82041,4198.461436,4208.717846,4184.102462,4217.435794,4214.358871,4203.589641,4215.384512,4183.076821,4216.922974,4194.358872,4213.33323,4208.205025
2,0,4208.205025,4219.999897,4202.051179,4217.435794,4176.410154,4215.384512,4216.410153,4204.102461,4221.025538,4196.922974,4230.769127,4201.538359,4225.128102,4217.435794
3,0,4215.897333,4229.743486,4204.615282,4215.384512,4215.897333,4215.897333,4216.922974,4205.128102,4216.922974,4224.615281,4229.230666,4198.974256,4223.07682,4219.487076
4,0,4218.974256,4232.820409,4208.205025,4213.33323,4240.512717,4216.410153,4216.410153,4208.205025,4215.384512,4224.102461,4215.897333,4199.487077,4213.846051,4218.461435
5,0,4212.82041,4225.640922,4211.281948,4214.871692,4223.58964,4206.153743,4210.769128,4205.640923,4219.487076,4198.974256,4211.281948,4197.435795,4211.794769,4216.410153
6,0,4209.230666,4222.563999,4214.871692,4219.999897,4217.948615,4199.999897,4211.281948,4202.051179,4221.025538,4201.538359,4222.563999,4199.999897,4212.307589,4218.974256
7,0,4205.640923,4218.461435,4210.256307,4211.794769,4210.769128,4203.589641,4211.794769,4196.922974,4206.666564,4227.692204,4221.025538,4197.948615,4199.999897,4212.307589
8,0,4202.051179,4212.82041,4201.025538,4201.538359,4180.512718,4199.487077,4205.128102,4194.871692,4203.07682,4222.563999,4206.153743,4187.692205,4194.871692,4200.512718
9,0,4204.102461,4221.025538,4204.102461,4208.205025,4206.153743,4203.589641,4202.564,4202.564,4222.563999,4198.974256,4208.717846,4189.743487,4207.692205,4203.589641
10,0,4205.128102,4227.179384,4207.179384,4211.281948,4255.384511,4214.358871,4203.589641,4201.538359,4219.487076,4204.615282,4218.461435,4194.871692,4210.256307,4208.717846
11,0,4208.205025,4222.051179,4202.051179,4206.153743,4231.281948,4205.640923,4207.179384,4199.999897,4201.538359,4217.948615,4213.846051,4189.743487,4204.102461,4207.692205
12,0,4211.794769,4221.538358,4201.538359,4209.230666,4199.487077,4197.435795,4215.897333,4211.281948,4209.743487,4225.640922,4212.82041,4187.692205,4200.512718,4207.179384
13,0,4204.102461,4218.974256,4203.07682,4208.205025,4215.384512,4207.692205,4214.871692,4209.230666,4214.358871,4224.102461,4217.948615,4188.205026,4202.051179,4206.153743
14,0,4201.538359,4213.33323,4202.564,4200.512718,4218.974256,4212.82041,4203.07682,4195.384513,4197.948615,4199.487077,4211.794769,4182.564,4208.717846,4207.179384
15,0,4213.846051,4224.615281,4208.717846,4208.717846,4215.384512,4210.256307,4209.743487,4204.102461,4206.153743,4199.487077,4215.897333,4190.769128,4216.922974,4217.948615
16,0,4217.435794,4227.179384,4209.743487,4216.922974,4216.922974,4217.948615,4220.512717,4216.922974,4222.051179,4237.435794,4224.615281,4202.564,4213.33323,4220.512717
17,0,4211.794769,4212.82041,4205.128102,4211.794769,4199.487077,4221.025538,4214.871692,4214.871692,4217.435794,4243.076819,4219.487076,4198.974256,4210.256307,4214.358871
18,0,4211.794769,4224.102461,4211.794769,4211.281948,4202.051179,4212.82041,4215.384512,4216.922974,4213.846051,4205.640923,4219.487076,4197.948615,4217.948615,4216.922974
19,0,4209.230666,4236.410153,4217.435794,4217.435794,4235.897332,4210.769128,4218.974256,4220.512717,4214.871692,4196.922974,4223.58964,4202.564,4215.384512,4217.948615
20,0,4210.256307,4221.025538,4211.794769,4217.948615,4236.410153,4214.358871,4215.897333,4217.948615,4225.128102,4212.307589,4219.999897,4204.615282,4214.871692,4219.487076
21,0,4213.846051,4211.281948,4203.589641,4207.692205,4220.512717,4215.897333,4215.897333,4215.384512,4228.717845,4224.102461,4216.410153,4197.435795,4215.897333,4216.922974
22,0,4204.615282,4221.025538,4199.487077,4204.102461,4216.410153,4215.897333,4219.487076,4216.410153,4214.358871,4239.999896,4216.922974,4194.358872,4206.153743,4207.179384
23,0,4199.999897,4222.563999,4200.512718,4212.82041,4187.179385,4214.358871,4217.948615,4218.461435,4210.256307,4246.666563,4215.384512,4197.948615,4203.07682,4202.564
24,0,4204.615282,4217.435794,4202.051179,4213.846051,4164.102462,4215.897333,4216.922974,4218.974256,4217.435794,4222.563999,4216.410153,4195.384513,4211.281948,4211.794769
25,0,4203.07682,4216.922974,4199.487077,4202.051179,4162.05118,4219.999897,4219.999897,4218.461435,4214.871692,4190.769128,4218.461435,4189.230667,4209.743487,4214.871692
26,0,4198.974256,4213.33323,4198.461436,4196.410154,4151.79477,4214.358871,4217.435794,4216.410153,4215.384512,4203.07682,4212.82041,4186.666564,4195.384513,4202.564
27,0,4199.999897,4208.205025,4198.974256,4205.640923,4158.461437,4206.153743,4213.846051,4218.461435,4221.025538,4212.82041,4211.281948,4189.230667,4196.922974,4203.589641
28,0,4205.640923,4211.281948,4199.999897,4211.794769,4183.076821,4213.33323,4216.410153,4219.999897,4209.743487,4206.666564,4215.384512,4192.30759,4211.281948,4215.384512
29,0,4216.410153,4227.179384,4207.692205,4213.33323,4179.999898,4221.538358,4219.999897,4213.846051,4196.922974,4228.717845,4221.538358,4199.487077,4221.025538,4219.487076
30,0,4225.640922,4234.358871,4215.897333,4214.871692,4173.846052,4217.435794,4216.410153,4213.33323,4207.692205,4226.666563,4223.58964,4207.179384,4219.999897,4226.153743
31,0,4220.512717,4221.025538,4213.33323,4213.846051,4192.30759,4215.897333,4212.307589,4224.615281,4226.153743,4199.487077,4223.58964,4212.307589,4215.897333,4234.871691
32,0,4214.358871,4218.461435,4213.33323,4216.410153,4189.230667,4218.974256,4216.410153,4229.230666,4225.128102,4217.948615,4229.743486,4217.948615,4222.051179,4233.84605
33,0,4219.487076,4227.692204,4221.025538,4219.487076,4170.769129,4214.358871,4221.025538,4224.102461,4214.871692,4247.692204,4233.33323,4214.358871,4227.692204,4226.666563
34,0,4214.358871,4222.051179,4214.358871,4209.743487,4182.564,4212.82041,4218.974256,4217.435794,4211.281948,4221.025538,4221.538358,4202.564,4211.794769,4213.846051
35,0,4201.538359,4213.846051,4199.999897,4204.102461,4198.974256,4222.563999,4216.410153,4210.256307,4204.615282,4200.512718,4210.256307,4194.871692,4192.82041,4204.102461
36,0,4204.102461,4219.487076,4203.07682,4216.410153,4194.871692,4224.615281,4218.974256,4211.794769,4203.07682,4226.666563,4213.846051,4196.922974,4205.128102,4211.794769
37,0,4209.230666,4218.974256,4208.205025,4218.974256,4189.230667,4214.358871,4219.487076,4222.563999,4225.128102,4229.743486,4218.974256,4199.999897,4225.640922,4221.538358
38,0,4204.102461,4213.33323,4201.025538,4207.179384,4189.743487,4213.33323,4216.922974,4221.025538,4233.33323,4210.769128,4222.563999,4197.948615,4220.512717,4214.358871
39,0,4207.692205,4222.563999,4200.512718,4210.769128,4184.615282,4218.974256,4216.410153,4214.358871,4212.82041,4227.179384,4225.128102,4198.461436,4213.33323,4209.743487
40,0,4215.384512,4224.615281,4207.179384,4218.974256,4183.589641,4215.897333,4218.461435,4227.692204,4216.410153,4256.410152,4223.58964,4202.564,4219.487076,4218.974256
41,0,4206.153743,4207.179384,4202.564,4209.743487,4188.717846,4212.307589,4216.410153,4228.717845,4234.871691,4242.563999,4213.33323,4197.948615,4212.307589,4214.358871
42,0,4200.512718,4201.538359,4198.974256,4202.051179,4193.846051,4212.307589,4213.846051,4208.717846,4232.820409,4209.743487,4210.769128,4190.769128,4201.025538,4203.589641
43,0,4204.615282,4216.410153,4206.153743,4204.615282,4196.922974,4209.230666,4214.358871,4207.692205,4234.871691,4204.102461,4222.563999,4196.410154,4212.82041,4211.794769
44,0,4201.538359,4219.999897,4205.640923,4203.07682,4184.102462,4210.769128,4214.358871,4217.435794,4248.717845,4205.128102,4226.666563,4202.051179,4223.07682,4216.410153
45,0,4206.666564,4213.33323,4200.512718,4205.128102,4162.564001,4218.974256,4213.846051,4215.897333,4247.692204,4212.82041,4216.410153,4200.512718,4214.358871,4209.230666
46,0,4212.82041,4215.384512,4208.717846,4217.435794,4163.589642,4220.512717,4215.384512,4215.897333,4246.153742,4237.435794,4210.769128,4202.564,4211.794769,4213.846051
47,0,4211.794769,4223.07682,4217.435794,4222.051179,4190.769128,4216.410153,4215.897333,4216.922974,4254.871691,4233.33323,4223.58964,4208.717846,4220.512717,4221.538358
48,0,4214.358871,4229.230666,4210.256307,4213.33323,4216.922974,4215.384512,4214.871692,4218.974256,4261.025537,4214.358871,4231.794768,4207.692205,4222.051179,4216.410153
49,0,4218.974256,4234.871691,4206.153743,4214.358871,4217.435794,4215.897333,4213.846051,4227.179384,4266.153742,4231.281948,4226.666563,4204.615282,4219.487076,4215.897333
50,0,4217.948615,4235.897332,4213.33323,4222.051179,4201.538359,4218.461435,4217.435794,4223.58964,4256.922973,4245.128101,4225.640922,4205.640923,4219.487076,4222.563999
51,0,4217.435794,4229.743486,4216.410153,4220.512717,4185.640923,4222.563999,4220.512717,4216.922974,4242.051178,4227.179384,4230.769127,4212.307589,4218.974256,4226.666563
52,0,4221.538358,4225.640922,4216.410153,4216.922974,4185.640923,4221.538358,4218.461435,4225.640922,4250.256306,4237.948614,4234.358871,4216.410153,4219.999897,4230.769127
53,0,4222.563999,4231.794768,4216.410153,4218.461435,4198.461436,4218.974256,4216.410153,4232.307589,4257.948614,4249.230665,4231.281948,4214.358871,4218.461435,4228.205025
54,0,4214.871692,4232.820409,4215.384512,4217.948615,4193.846051,4225.128102,4218.974256,4225.128102,4247.692204,4205.640923,4225.640922,4211.281948,4213.846051,4219.487076
55,0,4206.666564,4221.025538,4214.358871,4214.358871,4178.974257,4227.692204,4218.974256,4221.025538,4243.58964,4188.717846,4221.025538,4211.794769,4211.281948,4214.358871
56,0,4211.794769,4214.871692,4213.846051,4214.871692,4189.230667,4217.948615,4214.871692,4220.512717,4250.256306,4234.358871,4224.102461,4212.307589,4215.897333,4214.871692
57,0,4220.512717,4220.512717,4213.846051,4217.435794,4207.692205,4212.82041,4215.384512,4219.999897,4245.640922,4250.256306,4231.281948,4213.846051,4223.07682,4219.999897
58,0,4215.897333,4225.640922,4209.230666,4217.435794,4199.487077,4217.948615,4216.922974,4224.615281,4235.384512,4210.769128,4229.743486,4211.794769,4222.051179,4220.512717
59,0,4213.33323,4228.205025,4202.051179,4216.410153,4185.128103,4214.358871,4213.846051,4229.230666,4231.281948,4206.153743,4220.512717,4203.07682,4211.281948,4213.846051
60,0,4219.487076,4231.281948,4206.666564,4215.897333,4186.153744,4214.871692,4214.358871,4231.281948,4238.974255,4253.84605,4221.538358,4201.025538,4209.743487,4215.384512
61,0,4220.512717,4233.33323,4212.82041,4216.410153,4194.358872,4228.717845,4219.487076,4229.743486,4247.179383,4254.35887,4226.666563,4208.717846,4220.512717,4224.102461
62,0,4217.435794,4228.205025,4209.230666,4214.358871,4202.051179,4228.205025,4217.435794,4227.179384,4241.025537,4199.999897,4222.051179,4208.205025,4219.999897,4223.07682
63,0,4216.922974,4221.025538,4207.692205,4212.82041,4206.666564,4219.487076,4215.384512,4226.666563,4238.461435,4197.948615,4213.33323,4202.564,4211.281948,4214.871692
64,0,4221.538358,4227.179384,4217.435794,4217.435794,4201.025538,4230.769127,4222.563999,4232.307589,4251.281947,4242.563999,4215.384512,4211.281948,4217.435794,4215.384512
65,0,4223.07682,4232.307589,4222.051179,4219.999897,4182.564,4233.84605,4224.102461,4236.410153,4251.794768,4242.051178,4227.692204,4222.051179,4225.128102,4228.717845
66,0,4216.410153,4220.512717,4216.410153,4213.846051,4183.589641,4212.82041,4216.410153,4229.230666,4233.33323,4222.563999,4225.128102,4215.897333,4215.897333,4229.743486
67,0,4213.846051,4215.384512,4213.846051,4212.82041,4208.717846,4217.435794,4216.922974,4227.179384,4228.205025,4221.025538,4215.384512,4211.794769,4213.33323,4218.461435
68,0,4224.615281,4224.102461,4216.922974,4219.487076,4222.051179,4234.871691,4222.563999,4232.307589,4233.33323,4212.82041,4226.153743,4217.948615,4226.153743,4223.58964
69,0,4229.230666,4229.230666,4217.435794,4217.948615,4214.871692,4224.615281,4219.487076,4229.743486,4231.794768,4213.846051,4234.358871,4217.948615,4222.563999,4229.743486
70,0,4222.563999,4232.307589,4214.358871,4213.33323,4198.461436,4216.922974,4216.410153,4228.205025,4232.820409,4232.820409,4221.025538,4214.358871,4210.256307,4221.538358
71,0,4225.128102,4235.384512,4217.435794,4217.948615,4184.102462,4227.692204,4219.999897,4232.307589,4236.922973,4238.974255,4221.025538,4215.384512,4221.025538,4224.102461
72,0,4234.358871,4228.717845,4219.487076,4220.512717,4195.897333,4234.871691,4218.974256,4229.230666,4229.743486,4230.769127,4235.384512,4216.922974,4237.948614,4237.435794
73,0,4232.307589,4225.640922,4215.897333,4216.922974,4216.410153,4226.666563,4215.897333,4231.794768,4227.179384,4231.794768,4231.794768,4217.948615,4232.820409,4234.871691
74,0,4230.769127,4238.461435,4217.435794,4217.435794,4209.743487,4216.922974,4225.640922,4245.640922,4239.999896,4243.58964,4230.256307,4223.58964,4227.692204,4232.820409
75,0,4233.84605,4238.974255,4222.051179,4218.974256,4203.07682,4221.538358,4234.358871,4242.563999,4245.128101,4234.871691,4229.743486,4223.58964,4233.84605,4235.384512
76,0,4224.102461,4221.025538,4215.384512,4215.384512,4211.281948,4233.33323,4223.07682,4231.794768,4228.205025,4203.07682,4217.435794,4212.307589,4224.102461,4224.615281
77,0,4207.179384,4212.82041,4204.615282,4211.281948,4199.487077,4232.307589,4213.846051,4228.205025,4216.922974,4210.256307,4209.230666,4202.051179,4199.487077,4213.33323
78,0,4203.589641,4214.358871,4205.128102,4210.769128,4184.102462,4228.205025,4222.051179,4220.512717,4222.563999,4245.640922,4207.692205,4196.922974,4191.794769,4210.769128
79,0,4216.922974,4224.102461,4215.384512,4215.897333,4208.717846,4234.358871,4232.820409,4220.512717,4227.179384,4234.871691,4213.846051,4201.538359,4211.281948,4218.461435
80,0,4232.307589,4239.999896,4220.512717,4222.051179,4242.051178,4235.384512,4229.230666,4234.871691,4238.461435,4225.640922,4229.230666,4214.358871,4234.358871,4229.230666
81,0,4234.358871,4243.076819,4218.461435,4220.512717,4225.128102,4227.692204,4221.025538,4238.461435,4250.769127,4241.538358,4231.794768,4215.897333,4238.461435,4232.820409
82,0,4229.743486,4231.794768,4216.410153,4216.410153,4188.717846,4227.179384,4218.461435,4229.743486,4236.922973,4213.846051,4218.461435,4207.692205,4223.07682,4230.769127
83,0,4225.640922,4226.153743,4214.871692,4216.410153,4189.230667,4235.384512,4218.974256,4226.153743,4224.615281,4198.461436,4216.410153,4208.205025,4209.743487,4228.717845
84,0,4227.179384,4232.307589,4217.435794,4219.999897,4216.922974,4231.281948,4226.153743,4233.84605,4235.384512,4249.743486,4225.128102,4214.871692,4225.128102,4230.769127
85,0,4232.307589,4236.922973,4222.051179,4220.512717,4226.666563,4214.358871,4228.717845,4235.897332,4232.820409,4267.179383,4225.640922,4218.974256,4240.512717,4233.33323
86,0,4232.820409,4232.820409,4221.025538,4218.974256,4212.82041,4219.999897,4222.051179,4221.538358,4211.281948,4219.487076,4216.922974,4216.922974,4224.102461,4232.307589
87,0,4228.717845,4228.717845,4224.102461,4219.487076,4200.512718,4234.871691,4218.974256,4219.487076,4217.435794,4200.512718,4214.358871,4214.358871,4211.794769,4230.769127
88,0,4229.230666,4232.820409,4229.230666,4220.512717,4203.589641,4223.58964,4221.538358,4234.358871,4236.410153,4223.07682,4224.615281,4221.025538,4227.692204,4233.33323
89,0,4234.871691,4236.922973,4222.563999,4218.974256,4221.538358,4210.256307,4221.025538,4232.820409,4234.871691,4232.307589,4234.358871,4228.205025,4236.410153,4235.897332
90,0,4229.743486,4232.820409,4215.897333,4218.974256,4230.256307,4221.025538,4223.58964,4226.666563,4228.205025,4232.307589,4232.820409,4221.538358,4226.153743,4232.820409
91,0,4220.512717,4231.794768,4217.948615,4219.999897,4217.435794,4232.307589,4224.615281,4231.281948,4230.769127,4258.461434,4226.666563,4212.82041,4225.128102,4228.717845
92,0,4226.666563,4241.538358,4222.563999,4219.999897,4208.717846,4228.717845,4218.974256,4232.820409,4236.410153,4281.538357,4227.692204,4214.358871,4233.33323,4232.307589
93,0,4235.384512,4245.128101,4222.563999,4219.487076,4211.794769,4229.230666,4223.07682,4229.743486,4228.717845,4223.07682,4231.794768,4217.948615,4230.769127,4239.999896
94,0,4232.820409,4242.563999,4221.538358,4223.07682,4212.82041,4235.384512,4230.256307,4232.820409,4219.487076,4177.435795,4233.33323,4218.461435,4230.769127,4238.974255
95,0,4231.281948,4247.179383,4224.102461,4226.666563,4227.179384,4232.307589,4226.666563,4236.922973,4227.179384,4241.025537,4236.922973,4219.999897,4241.538358,4235.897332
96,0,4231.281948,4243.076819,4221.538358,4220.512717,4242.051178,4227.179384,4223.07682,4232.307589,4230.769127,4284.102459,4228.717845,4214.358871,4235.384512,4231.794768
97,0,4226.666563,4231.281948,4217.435794,4214.871692,4217.435794,4231.281948,4225.640922,4228.205025,4224.615281,4250.769127,4217.948615,4207.692205,4226.153743,4226.666563
98,0,4230.256307,4240.512717,4224.615281,4225.128102,4206.153743,4235.384512,4230.256307,4238.974255,4224.615281,4241.538358,4229.743486,4214.871692,4239.487076,4238.461435
99,0,4237.948614,4254.35887,4233.33323,4233.33323,4233.33323,4232.307589,4233.33323,4248.717845,4233.84605,4242.563999,4247.179383,4225.640922,4242.051178,4248.717845
100,0,4235.384512,4247.692204,4231.281948,4229.743486,4231.794768,4230.256307,4229.743486,4243.076819,4236.922973,4210.769128,4246.153742,4224.615281,4227.179384,4238.974255
101,0,4229.743486,4238.974255,4223.07682,4227.692204,4198.461436,4234.871691,4219.487076,4228.205025,4225.128102,4213.33323,4232.307589,4215.897333,4228.205025,4230.769127
102,0,4229.230666,4235.897332,4220.512717,4224.102461,4208.717846,4234.358871,4217.435794,4218.461435,4213.846051,4246.153742,4219.999897,4208.717846,4236.410153,4232.820409
103,0,4232.820409,4233.84605,4222.563999,4218.461435,4238.974255,4229.743486,4227.179384,4224.615281,4213.846051,4251.281947,4221.025538,4209.743487,4231.281948,4230.769127
104,0,4229.230666,4234.358871,4222.051179,4217.948615,4215.384512,4238.461435,4232.820409,4233.84605,4218.461435,4232.307589,4231.794768,4213.846051,4218.974256,4229.743486
105,0,4222.051179,4231.794768,4221.025538,4217.948615,4195.384513,4245.640922,4230.769127,4233.33323,4225.128102,4211.794769,4231.281948,4212.307589,4215.897333,4229.743486
106,0,4226.666563,4229.743486,4227.179384,4221.025538,4216.410153,4231.794768,4230.769127,4231.794768,4229.743486,4210.256307,4226.666563,4213.33323,4227.179384,4231.281948
107,0,4237.948614,4237.435794,4234.358871,4228.717845,4225.128102,4225.128102,4231.794768,4233.84605,4219.487076,4222.051179,4234.871691,4216.922974,4231.281948,4237.948614
108,0,4236.410153,4246.666563,4237.435794,4232.307589,4209.743487,4231.281948,4230.769127,4238.974255,4218.461435,4222.051179,4238.461435,4218.461435,4229.230666,4241.025537
109,0,4232.307589,4249.743486,4244.10246,4229.743486,4221.538358,4233.33323,4231.794768,4243.076819,4232.820409,4214.358871,4230.256307,4225.640922,4241.025537,4242.563999
110,0,4237.948614,4243.58964,4245.128101,4229.230666,4247.179383,4235.897332,4234.358871,4239.999896,4227.692204,4215.384512,4231.794768,4230.769127,4236.410153,4244.10246
111,0,4238.974255,4231.794768,4236.410153,4226.153743,4239.999896,4237.435794,4234.358871,4235.384512,4213.846051,4235.384512,4236.922973,4220.512717,4212.82041,4236.922973
112,0,4233.84605,4228.717845,4234.871691,4219.999897,4219.999897,4232.820409,4235.897332,4241.538358,4210.769128,4251.794768,4230.256307,4212.307589,4214.358871,4230.769127
113,0,4231.794768,4232.307589,4232.307589,4218.974256,4207.179384,4232.307589,4235.897332,4250.769127,4223.07682,4244.615281,4227.179384,4214.871692,4233.33323,4232.820409
114,0,4231.281948,4232.307589,4231.281948,4223.07682,4225.128102,4234.871691,4230.769127,4251.794768,4240.512717,4228.717845,4236.410153,4218.461435,4230.769127,4232.307589
115,0,4225.640922,4231.794768,4232.307589,4222.051179,4234.358871,4231.281948,4229.743486,4238.461435,4221.538358,4189.230667,4230.256307,4217.435794,4218.974256,4229.230666
116,0,4221.538358,4227.179384,4226.153743,4215.384512,4197.948615,4234.358871,4229.743486,4226.153743,4192.30759,4178.461436,4214.871692,4209.743487,4214.871692,4229.743486
117,0,4221.538358,4215.897333,4222.563999,4214.358871,4188.205026,4238.974255,4223.58964,4230.256307,4207.179384,4238.461435,4220.512717,4203.589641,4212.82041,4227.692204
118,0,4229.230666,4223.07682,4229.230666,4221.538358,4223.58964,4222.563999,4221.538358,4232.307589,4225.640922,4264.61528,4232.820409,4214.358871,4219.487076,4235.384512
119,0,4241.538358,4245.640922,4234.358871,4229.230666,4242.563999,4214.358871,4229.743486,4231.281948,4213.846051,4225.128102,4233.84605,4225.640922,4231.794768,4245.128101
120,0,4241.025537,4249.230665,4233.84605,4228.205025,4232.820409,4229.230666,4234.358871,4243.58964,4216.410153,4223.07682,4234.358871,4224.102461,4236.922973,4242.563999
121,0,4228.717845,4235.897332,4233.33323,4221.025538,4223.07682,4235.897332,4231.794768,4252.307588,4234.358871,4240.512717,4234.358871,4219.999897,4229.743486,4237.435794
122,0,4229.230666,4230.256307,4233.84605,4224.102461,4209.230666,4228.717845,4232.307589,4250.769127,4232.307589,4219.999897,4232.820409,4223.07682,4225.128102,4243.58964
123,0,4242.563999,4234.358871,4238.974255,4234.358871,4217.435794,4236.922973,4236.410153,4250.769127,4216.410153,4214.358871,4238.974255,4227.692204,4233.84605,4252.820409
124,0,4240.512717,4234.358871,4240.512717,4228.205025,4225.128102,4245.640922,4234.358871,4252.307588,4218.974256,4233.84605,4241.025537,4224.615281,4234.358871,4246.666563
125,0,4228.717845,4231.794768,4232.307589,4218.461435,4195.897333,4238.974255,4230.256307,4250.256306,4232.820409,4231.794768,4230.256307,4219.487076,4223.07682,4233.84605
126,0,4229.743486,4233.84605,4230.769127,4223.07682,4203.07682,4235.384512,4230.769127,4250.256306,4233.33323,4228.205025,4227.179384,4217.435794,4216.410153,4230.256307
127,0,4230.769127,4231.794768,4230.256307,4223.58964,4235.897332,4228.717845,4231.794768,4250.256306,4231.281948,4234.871691,4231.281948,4213.33323,4216.410153,4231.794768
128,0,4223.58964,4225.640922,4217.435794,4213.846051,4226.153743,4222.563999,4228.717845,4238.461435,4231.794768,4225.640922,4225.128102,4206.666564,4214.358871,4228.717845
0,0,4223.58964,4228.205025,4213.846051,4214.358871,4210.769128,4230.256307,4230.256307,4234.871691,4226.666563,4221.025538,4220.512717,4209.230666,4216.410153,4227.179384
1,0,4229.743486,4234.871691,4226.666563,4223.07682,4216.922974,4236.922973,4235.384512,4245.128101,4225.128102,4237.948614,4228.205025,4217.948615,4222.563999,4231.281948
2,0,4223.07682,4230.769127,4227.692204,4219.487076,4223.07682,4232.307589,4227.179384,4241.538358,4224.102461,4231.281948,4231.794768,4212.82041,4218.974256,4229.230666
3,0,4214.871692,4224.615281,4214.358871,4212.82041,4225.640922,4228.205025,4219.487076,4224.615281,4212.82041,4196.410154,4225.128102,4206.153743,4210.256307,4224.615281
4,0,4224.102461,4230.256307,4213.846051,4216.410153,4215.384512,4228.717845,4227.179384,4227.179384,4213.33323,4196.410154,4223.07682,4211.281948,4212.82041,4228.717845
5,0,4232.307589,4239.487076,4223.58964,4219.999897,4198.974256,4231.794768,4234.871691,4248.205024,4231.281948,4225.640922,4230.769127,4216.410153,4221.538358,4234.358871
6,0,4224.615281,4233.33323,4222.563999,4216.410153,4222.563999,4232.307589,4228.717845,4252.820409,4238.461435,4235.897332,4234.358871,4216.922974,4223.07682,4227.692204
7,0,4213.846051,4218.461435,4213.33323,4212.307589,4240.512717,4230.256307,4222.051179,4233.84605,4221.025538,4233.84605,4224.102461,4211.281948,4218.461435,4215.897333
8,0,4211.794769,4214.871692,4211.794769,4211.794769,4213.33323,4236.922973,4224.102461,4216.922974,4206.666564,4214.358871,4214.358871,4204.102461,4211.794769,4216.410153
9,0,4219.487076,4223.07682,4221.538358,4215.384512,4201.538359,4234.358871,4228.717845,4229.743486,4226.153743,4205.640923,4223.07682,4206.666564,4212.82041,4226.666563
10,0,4233.84605,4235.897332,4234.871691,4222.051179,4218.461435,4216.410153,4232.820409,4249.230665,4239.487076,4231.281948,4238.974255,4219.487076,4226.153743,4236.410153
11,0,4234.871691,4234.358871,4235.384512,4224.102461,4226.153743,4219.487076,4233.84605,4241.025537,4216.922974,4232.820409,4235.384512,4222.563999,4231.794768,4236.922973
12,0,4219.487076,4219.999897,4221.025538,4217.435794,4206.153743,4230.769127,4226.666563,4227.692204,4210.256307,4210.769128,4217.435794,4210.769128,4218.974256,4223.07682
13,0,4215.897333,4221.025538,4215.384512,4213.33323,4188.205026,4222.051179,4218.974256,4225.640922,4218.974256,4208.717846,4212.307589,4201.538359,4207.692205,4214.871692
14,0,4212.307589,4226.666563,4215.897333,4212.307589,4206.153743,4221.025538,4215.897333,4216.410153,4207.692205,4208.717846,4215.384512,4195.384513,4203.07682,4214.358871
15,0,4205.640923,4224.102461,4213.33323,4212.307589,4231.281948,4237.948614,4216.922974,4208.205025,4204.102461,4208.205025,4215.897333,4197.435795,4206.666564,4215.384512
16,0,4224.615281,4229.743486,4223.58964,4218.461435,4227.692204,4230.256307,4222.563999,4227.179384,4218.974256,4224.102461,4223.58964,4212.307589,4225.640922,4227.692204
17,0,4238.461435,4235.384512,4231.281948,4222.051179,4206.153743,4210.769128,4230.769127,4246.666563,4216.410153,4230.256307,4232.307589,4219.487076,4231.281948,4232.820409
18,0,4223.07682,4232.820409,4224.102461,4218.461435,4214.871692,4221.538358,4230.769127,4238.461435,4213.33323,4236.922973,4230.256307,4212.82041,4221.025538,4225.640922
19,0,4216.410153,4231.794768,4222.563999,4216.922974,4230.256307,4233.33323,4223.58964,4230.769127,4226.666563,4227.179384,4231.794768,4213.33323,4222.563999,4226.666563
20,0,4224.102461,4224.615281,4225.128102,4216.410153,4217.948615,4223.58964,4219.999897,4237.948614,4224.615281,4186.153744,4234.358871,4218.461435,4224.615281,4229.230666
21,0,4217.948615,4218.461435,4218.461435,4214.358871,4205.640923,4220.512717,4218.974256,4237.435794,4215.897333,4196.922974,4221.025538,4209.230666,4216.922974,4217.948615
22,0,4209.743487,4230.769127,4214.358871,4214.871692,4212.307589,4231.794768,4216.922974,4218.974256,4215.384512,4250.256306,4211.794769,4196.410154,4211.794769,4209.230666
23,0,4218.461435,4233.84605,4221.538358,4217.435794,4224.102461,4236.922973,4222.563999,4212.82041,4211.281948,4250.769127,4224.615281,4201.025538,4218.461435,4219.487076
24,0,4229.230666,4224.615281,4230.769127,4222.051179,4211.281948,4227.179384,4231.794768,4228.717845,4221.025538,4210.256307,4233.84605,4213.846051,4226.153743,4232.820409
25,0,4232.307589,4234.871691,4235.384512,4228.717845,4198.974256,4217.948615,4231.281948,4236.922973,4230.769127,4198.461436,4230.256307,4219.999897,4232.307589,4236.410153
26,0,4234.358871,4249.743486,4236.410153,4233.84605,4218.974256,4221.025538,4225.640922,4228.205025,4215.897333,4224.615281,4230.769127,4217.948615,4235.897332,4234.358871
27,0,4238.974255,4243.58964,4235.384512,4231.281948,4246.153742,4227.692204,4223.07682,4218.461435,4204.102461,4242.051178,4230.256307,4214.358871,4227.179384,4232.307589
28,0,4229.230666,4227.179384,4229.230666,4220.512717,4235.384512,4231.794768,4221.025538,4222.051179,4209.230666,4222.051179,4224.102461,4209.230666,4216.410153,4222.051179
29,0,4213.846051,4221.538358,4222.563999,4212.307589,4196.922974,4230.769127,4223.07682,4227.692204,4208.717846,4209.230666,4223.58964,4202.051179,4218.974256,4213.846051
30,0,4221.538358,4236.922973,4228.205025,4219.999897,4203.07682,4220.512717,4228.205025,4231.794768,4209.743487,4226.153743,4229.743486,4205.640923,4229.743486,4225.128102
31,0,4239.487076,4250.769127,4236.922973,4232.820409,4243.58964,4216.922974,4232.307589,4241.538358,4223.58964,4223.58964,4234.871691,4218.974256,4231.794768,4237.435794
32,0,4235.897332,4244.615281,4232.820409,4229.743486,4249.230665,4229.230666,4231.794768,4239.487076,4219.487076,4219.999897,4229.743486,4215.897333,4228.205025,4235.384512
33,0,4218.461435,4229.743486,4219.487076,4218.974256,4208.717846,4230.256307,4222.051179,4217.435794,4199.487077,4231.281948,4217.435794,4198.974256,4226.153743,4223.58964
34,0,4214.871692,4229.230666,4216.410153,4217.948615,4194.358872,4219.999897,4216.410153,4210.769128,4199.487077,4223.58964,4219.487076,4199.999897,4226.153743,4218.974256
35,0,4227.692204,4245.128101,4225.128102,4221.025538,4233.33323,4229.743486,4227.179384,4230.256307,4222.563999,4217.948615,4234.871691,4216.922974,4232.820409,4226.153743
36,0,4233.33323,4244.615281,4231.794768,4219.999897,4235.897332,4237.435794,4231.281948,4237.435794,4232.820409,4228.717845,4237.435794,4218.974256,4237.435794,4233.33323
37,0,4227.692204,4231.794768,4229.743486,4219.999897,4214.871692,4221.538358,4222.051179,4233.84605,4219.999897,4237.948614,4229.743486,4215.384512,4232.820409,4232.307589
38,0,4219.487076,4229.230666,4224.615281,4218.461435,4223.58964,4212.82041,4221.025538,4233.84605,4212.307589,4237.435794,4222.563999,4213.33323,4222.563999,4222.051179
39,0,4213.33323,4224.102461,4217.948615,4213.33323,4224.102461,4215.897333,4218.974256,4224.102461,4208.205025,4216.410153,4212.82041,4203.07682,4209.743487,4210.256307
40,0,4213.846051,4221.025538,4217.435794,4214.871692,4218.974256,4216.922974,4215.897333,4214.871692,4198.974256,4197.435795,4213.846051,4202.051179,4211.281948,4212.307589
41,0,4218.974256,4230.769127,4224.615281,4221.025538,4229.743486,4227.179384,4225.128102,4219.487076,4202.051179,4214.358871,4223.07682,4210.256307,4221.538358,4220.512717
42,0,4218.461435,4229.743486,4221.538358,4218.974256,4216.410153,4235.384512,4225.640922,4219.999897,4210.256307,4213.33323,4218.974256,4203.07682,4221.538358,4216.922974
43,0,4215.384512,4220.512717,4216.922974,4215.384512,4194.358872,4214.358871,4212.307589,4211.281948,4208.717846,4195.897333,4211.281948,4194.871692,4216.922974,4213.846051
44,0,4219.487076,4230.256307,4224.615281,4218.461435,4225.640922,4195.897333,4211.794769,4214.358871,4205.128102,4232.307589,4220.512717,4204.615282,4219.999897,4219.487076
45,0,4219.999897,4240.512717,4225.128102,4218.461435,4247.179383,4210.769128,4220.512717,4219.487076,4203.07682,4262.051178,4233.84605,4208.717846,4222.563999,4222.563999
46,0,4215.897333,4230.256307,4214.358871,4213.33323,4209.743487,4217.435794,4216.922974,4214.871692,4200.512718,4219.487076,4229.230666,4199.999897,4217.435794,4221.025538
47,0,4215.384512,4221.538358,4211.281948,4211.794769,4188.205026,4207.692205,4210.256307,4212.307589,4203.07682,4195.897333,4217.948615,4196.922974,4214.358871,4218.461435
48,0,4217.948615,4223.58964,4218.461435,4215.384512,4208.717846,4211.794769,4213.846051,4215.384512,4202.564,4214.871692,4217.948615,4198.461436,4222.563999,4217.435794
49,0,4215.897333,4223.07682,4216.922974,4216.922974,4226.153743,4218.461435,4215.384512,4213.846051,4194.358872,4214.871692,4217.435794,4197.948615,4227.179384,4215.384512
50,0,4208.205025,4215.384512,4212.82041,4213.846051,4215.384512,4213.33323,4216.922974,4210.769128,4201.538359,4219.999897,4215.384512,4194.358872,4216.922974,4211.281948
51,0,4213.33323,4223.07682,4224.102461,4214.871692,4213.846051,4211.281948,4226.153743,4221.538358,4214.358871,4236.922973,4224.102461,4202.051179,4217.435794,4217.435794
52,0,4225.640922,4233.33323,4230.769127,4219.487076,4232.820409,4217.948615,4227.692204,4227.179384,4204.102461,4228.205025,4231.281948,4211.281948,4234.358871,4227.692204
53,0,4222.051179,4222.051179,4222.563999,4217.435794,4236.922973,4218.974256,4224.102461,4221.538358,4195.384513,4209.230666,4228.717845,4205.128102,4235.897332,4225.128102
54,0,4214.358871,4219.487076,4221.025538,4213.846051,4215.897333,4216.410153,4227.692204,4224.102461,4203.07682,4211.281948,4230.256307,4205.128102,4227.692204,4217.948615
55,0,4215.384512,4229.230666,4225.128102,4214.871692,4192.30759,4218.461435,4226.153743,4230.256307,4210.769128,4219.999897,4231.281948,4215.384512,4231.794768,4218.461435
56,0,4215.897333,4222.563999,4218.974256,4214.871692,4196.922974,4219.999897,4214.358871,4232.307589,4216.922974,4212.307589,4228.717845,4217.435794,4233.33323,4225.640922
57,0,4214.871692,4213.846051,4215.897333,4214.871692,4223.58964,4216.410153,4215.897333,4231.281948,4218.974256,4205.128102,4230.769127,4210.769128,4228.205025,4229.743486
58,0,4217.948615,4221.538358,4222.051179,4217.948615,4235.897332,4211.281948,4225.128102,4223.07682,4204.102461,4218.461435,4229.230666,4208.717846,4229.743486,4224.102461
59,0,4212.82041,4223.07682,4216.922974,4217.435794,4229.230666,4214.358871,4221.538358,4212.307589,4191.281949,4225.640922,4214.358871,4201.025538,4226.666563,4213.33323
60,0,4212.82041,4223.07682,4215.384512,4214.871692,4230.256307,4218.974256,4218.461435,4214.358871,4205.128102,4221.025538,4216.922974,4198.974256,4227.692204,4216.922974
61,0,4227.179384,4230.769127,4225.128102,4215.384512,4222.051179,4216.922974,4221.025538,4219.487076,4216.922974,4229.230666,4234.871691,4209.743487,4242.563999,4231.281948
62,0,4235.384512,4231.281948,4225.640922,4217.435794,4197.435795,4214.358871,4219.487076,4214.871692,4204.102461,4231.281948,4231.281948,4208.205025,4241.538358,4235.897332
63,0,4237.435794,4230.256307,4221.538358,4218.461435,4205.640923,4216.922974,4217.435794,4213.33323,4194.871692,4213.33323,4222.563999,4202.051179,4230.769127,4236.922973
64,0,4244.10246,4236.922973,4226.153743,4216.922974,4222.051179,4214.358871,4218.974256,4214.358871,4204.102461,4200.512718,4229.743486,4209.743487,4244.615281,4243.58964
65,0,4257.948614,4247.179383,4233.33323,4222.051179,4201.025538,4204.615282,4217.435794,4216.922974,4207.692205,4198.461436,4238.974255,4220.512717,4271.281947,4259.487075
66,0,4274.35887,4250.769127,4233.84605,4231.281948,4200.512718,4202.564,4215.384512,4222.563999,4204.615282,4212.307589,4238.974255,4222.051179,4278.974254,4272.307588
67,0,4278.974254,4251.794768,4231.794768,4232.307589,4241.538358,4212.307589,4217.948615,4218.974256,4202.051179,4233.84605,4234.871691,4216.922974,4272.820408,4269.743485
68,0,4283.589639,4261.538357,4235.897332,4227.692204,4251.794768,4219.999897,4218.974256,4212.82041,4198.974256,4235.384512,4238.461435,4219.487076,4276.922972,4276.410152
69,0,4307.179382,4275.384511,4247.179383,4232.307589,4212.307589,4213.33323,4216.410153,4214.358871,4202.564,4223.58964,4250.256306,4231.794768,4288.717844,4299.999895
70,0,4316.922971,4273.846049,4247.692204,4235.897332,4190.769128,4203.589641,4214.358871,4209.230666,4204.102461,4198.461436,4251.281947,4236.410153,4286.666562,4306.153741
71,0,4299.487074,4261.538357,4235.384512,4229.743486,4214.358871,4204.102461,4212.82041,4196.410154,4196.410154,4182.05118,4245.640922,4229.230666,4275.897331,4293.333228
72,0,4299.487074,4263.589639,4236.922973,4230.256307,4239.999896,4205.640923,4207.692205,4197.435795,4196.410154,4209.230666,4250.256306,4230.256307,4279.487075,4295.897331
73,0,4304.615279,4267.179383,4240.512717,4234.358871,4239.999896,4197.948615,4200.512718,4203.07682,4204.102461,4244.10246,4242.563999,4227.692204,4273.846049,4292.307587
74,0,4284.102459,4254.871691,4230.256307,4227.179384,4217.435794,4201.025538,4205.128102,4199.999897,4199.999897,4232.307589,4224.615281,4215.384512,4246.666563,4269.743485
75,0,4271.281947,4244.615281,4226.666563,4222.051179,4199.487077,4213.846051,4218.974256,4206.153743,4194.871692,4193.846051,4234.871691,4214.871692,4240.512717,4267.692203
76,0,4278.974254,4248.205024,4232.820409,4230.256307,4215.897333,4213.846051,4222.563999,4219.999897,4209.230666,4198.974256,4248.717845,4222.051179,4257.948614,4279.999895
77,0,4271.281947,4250.256306,4229.743486,4229.230666,4234.358871,4217.948615,4218.461435,4222.563999,4217.435794,4237.435794,4238.974255,4218.974256,4260.512716,4266.666562
78,0,4252.820409,4241.538358,4221.538358,4216.922974,4214.358871,4227.179384,4219.999897,4219.999897,4208.205025,4239.487076,4230.769127,4214.358871,4242.563999,4247.692204
79,0,4247.692204,4234.358871,4218.461435,4215.384512,4197.435795,4219.487076,4219.999897,4219.487076,4209.230666,4236.410153,4231.281948,4212.82041,4227.692204,4245.128101
80,0,4246.666563,4232.820409,4218.974256,4219.487076,4222.051179,4211.281948,4216.410153,4217.435794,4216.922974,4256.922973,4226.153743,4210.256307,4235.897332,4239.999896
81,0,4243.58964,4231.794768,4224.615281,4217.435794,4238.461435,4217.948615,4216.410153,4222.563999,4214.358871,4237.948614,4223.58964,4211.281948,4244.10246,4229.230666
82,0,4243.58964,4233.33323,4228.205025,4216.922974,4231.794768,4217.948615,4216.410153,4232.307589,4217.948615,4203.07682,4233.33323,4216.410153,4236.410153,4233.33323
83,0,4239.487076,4237.435794,4223.07682,4219.487076,4226.153743,4211.794769,4217.948615,4224.102461,4218.974256,4231.281948,4233.33323,4214.358871,4234.358871,4234.871691
84,0,4221.538358,4229.743486,4214.358871,4216.922974,4207.692205,4217.948615,4217.435794,4208.205025,4198.974256,4246.153742,4215.384512,4200.512718,4232.307589,4218.974256
85,0,4210.769128,4220.512717,4212.82041,4213.846051,4197.435795,4219.999897,4215.384512,4213.846051,4195.897333,4206.666564,4210.769128,4194.358872,4218.974256,4209.743487
86,0,4224.615281,4232.307589,4218.974256,4215.897333,4219.999897,4210.256307,4222.563999,4233.84605,4216.410153,4211.281948,4226.153743,4209.743487,4225.640922,4217.435794
87,0,4233.33323,4241.025537,4222.051179,4219.487076,4241.538358,4208.717846,4229.743486,4239.999896,4222.563999,4237.948614,4232.820409,4217.435794,4242.051178,4224.102461
88,0,4218.461435,4223.58964,4215.384512,4213.33323,4216.410153,4212.307589,4220.512717,4227.179384,4209.230666,4224.102461,4214.358871,4203.07682,4226.666563,4212.82041
89,0,4210.256307,4211.794769,4209.743487,4203.07682,4182.05118,4212.82041,4210.256307,4217.435794,4204.102461,4214.871692,4202.051179,4191.794769,4207.692205,4197.435795
90,0,4217.948615,4225.128102,4217.435794,4207.692205,4199.999897,4214.358871,4215.897333,4221.025538,4210.256307,4221.538358,4211.794769,4199.487077,4212.82041,4202.564
91,0,4218.974256,4231.794768,4221.538358,4218.461435,4234.358871,4218.974256,4220.512717,4223.07682,4207.692205,4205.128102,4218.461435,4204.615282,4218.461435,4216.410153
92,0,4222.051179,4225.640922,4216.922974,4218.461435,4225.640922,4217.435794,4216.410153,4216.410153,4199.999897,4207.692205,4217.948615,4201.025538,4223.07682,4217.435794
93,0,4228.205025,4232.307589,4222.563999,4214.871692,4212.82041,4211.794769,4215.897333,4213.846051,4201.538359,4241.025537,4222.563999,4208.205025,4229.230666,4215.384512
94,0,4223.58964,4233.84605,4231.794768,4217.948615,4236.410153,4215.897333,4220.512717,4219.999897,4203.07682,4223.58964,4222.051179,4217.948615,4224.615281,4217.948615
95,0,4214.871692,4217.948615,4224.102461,4217.435794,4236.410153,4215.384512,4219.487076,4218.974256,4195.897333,4194.358872,4214.358871,4210.769128,4210.256307,4209.743487
96,0,4214.871692,4212.82041,4214.871692,4214.358871,4192.82041,4204.615282,4213.33323,4210.256307,4199.999897,4202.051179,4213.33323,4199.999897,4203.589641,4201.025538
97,0,4213.846051,4218.461435,4216.410153,4213.846051,4187.179385,4208.717846,4214.871692,4211.281948,4206.666564,4195.384513,4215.897333,4199.487077,4201.025538,4202.051179
98,0,4209.743487,4221.025538,4216.410153,4214.871692,4224.615281,4223.07682,4219.487076,4216.410153,4201.538359,4191.794769,4213.33323,4199.487077,4198.974256,4202.564
99,0,4215.384512,4223.58964,4214.871692,4215.384512,4215.384512,4216.410153,4218.461435,4216.922974,4199.487077,4217.435794,4220.512717,4199.999897,4209.230666,4204.615282
100,0,4215.897333,4219.487076,4214.871692,4213.33323,4186.666564,4206.666564,4217.948615,4216.922974,4199.487077,4230.256307,4219.487076,4197.435795,4217.435794,4206.666564
101,0,4205.128102,4211.794769,4211.794769,4213.846051,4217.435794,4219.487076,4219.999897,4222.051179,4197.948615,4207.179384,4204.102461,4190.769128,4208.205025,4195.897333
102,0,4198.974256,4217.948615,4210.769128,4214.358871,4243.076819,4218.974256,4218.461435,4222.563999,4201.025538,4181.025539,4203.589641,4192.30759,4195.384513,4188.717846
103,0,4201.538359,4221.538358,4212.82041,4211.281948,4212.82041,4200.512718,4215.384512,4217.435794,4204.615282,4195.897333,4215.897333,4194.358872,4196.410154,4196.922974
104,0,4203.07682,4212.82041,4213.33323,4211.794769,4204.615282,4205.128102,4217.435794,4219.999897,4201.025538,4229.230666,4218.974256,4191.794769,4207.692205,4203.07682
105,0,4203.07682,4213.846051,4216.922974,4216.922974,4219.999897,4222.051179,4224.615281,4231.281948,4201.025538,4222.051179,4219.999897,4199.487077,4215.384512,4203.07682
106,0,4202.051179,4218.974256,4217.435794,4217.435794,4217.435794,4221.025538,4231.794768,4234.871691,4206.666564,4195.384513,4216.410153,4199.999897,4207.692205,4198.974256
107,0,4198.974256,4217.948615,4209.743487,4211.794769,4229.743486,4214.871692,4229.743486,4227.692204,4202.051179,4193.846051,4199.999897,4184.615282,4192.82041,4187.692205
108,0,4202.564,4215.384512,4208.717846,4213.846051,4232.307589,4215.897333,4228.717845,4229.743486,4204.615282,4212.82041,4203.07682,4190.256308,4198.461436,4191.794769
109,0,4205.640923,4212.307589,4211.281948,4214.358871,4209.230666,4219.487076,4230.256307,4234.358871,4222.051179,4227.692204,4222.051179,4203.07682,4209.743487,4205.128102
110,0,4197.435795,4211.281948,4204.102461,4204.615282,4222.051179,4218.974256,4222.051179,4223.07682,4213.33323,4210.769128,4213.846051,4192.82041,4202.564,4198.461436
111,0,4193.333231,4215.897333,4199.999897,4204.102461,4238.461435,4206.153743,4213.846051,4210.769128,4190.256308,4193.333231,4200.512718,4187.179385,4195.897333,4190.769128
112,0,4202.051179,4215.897333,4209.230666,4213.846051,4198.461436,4199.999897,4217.948615,4213.33323,4194.871692,4222.051179,4209.743487,4196.410154,4204.615282,4199.487077
113,0,4207.692205,4209.743487,4213.846051,4216.410153,4173.846052,4207.179384,4219.487076,4218.461435,4208.205025,4221.025538,4210.769128,4196.922974,4206.666564,4202.051179
114,0,4203.589641,4214.871692,4208.717846,4213.33323,4214.358871,4206.666564,4214.358871,4214.358871,4198.974256,4165.640924,4199.487077,4191.281949,4194.871692,4197.948615
115,0,4202.564,4219.999897,4205.128102,4211.281948,4245.640922,4204.102461,4216.410153,4213.846051,4193.333231,4171.79477,4198.461436,4191.281949,4197.948615,4196.410154
116,0,4201.538359,4207.692205,4202.564,4205.128102,4215.897333,4204.102461,4213.846051,4221.025538,4208.205025,4218.974256,4205.128102,4189.743487,4206.153743,4192.82041
117,0,4190.256308,4192.30759,4197.948615,4198.974256,4174.358872,4209.230666,4208.717846,4207.692205,4201.538359,4198.461436,4201.025538,4182.05118,4188.717846,4183.589641
118,0,4187.692205,4196.410154,4198.974256,4201.025538,4183.589641,4213.846051,4211.281948,4191.794769,4183.589641,4183.076821,4193.846051,4180.512718,4177.435795,4179.487077
119,0,4208.205025,4214.358871,4213.33323,4210.256307,4232.307589,4207.692205,4217.435794,4216.410153,4196.922974,4224.615281,4207.692205,4199.999897,4203.07682,4196.922974
120,0,4220.512717,4227.179384,4224.615281,4219.999897,4250.256306,4207.692205,4222.563999,4239.487076,4213.846051,4231.794768,4224.615281,4217.948615,4222.051179,4217.948615
121,0,4207.692205,4220.512717,4216.922974,4216.410153,4210.769128,4213.33323,4221.025538,4223.07682,4203.07682,4213.846051,4213.846051,4210.256307,4208.717846,4211.281948
122,0,4194.871692,4201.538359,4201.538359,4205.640923,4188.205026,4203.589641,4211.281948,4211.794769,4196.410154,4230.769127,4191.794769,4192.30759,4193.333231,4189.230667
123,0,4197.435795,4202.051179,4198.461436,4207.692205,4220.512717,4202.051179,4208.717846,4219.999897,4206.666564,4215.384512,4195.897333,4191.281949,4193.333231,4189.743487
124,0,4203.589641,4217.435794,4204.102461,4214.871692,4236.922973,4218.974256,4218.461435,4217.948615,4204.615282,4174.358872,4215.384512,4200.512718,4201.538359,4200.512718
125,0,4199.487077,4211.794769,4205.128102,4209.230666,4207.692205,4213.846051,4220.512717,4215.897333,4197.948615,4198.461436,4217.948615,4204.102461,4209.743487,4201.538359
126,0,4195.384513,4198.461436,4202.564,4203.07682,4197.435795,4205.128102,4213.846051,4217.435794,4201.538359,4231.794768,4205.128102,4198.974256,4208.717846,4199.999897
127,0,4197.948615,4205.128102,4202.051179,4209.743487,4226.666563,4215.384512,4214.871692,4214.871692,4205.640923,4219.999897,4197.948615,4195.384513,4199.999897,4198.461436
128,0,4201.538359,4215.897333,4205.640923,4214.871692,4221.538358,4219.487076,4219.487076,4222.563999,4206.153743,4211.281948,4202.051179,4198.974256,4203.07682,4199.999897
0,0,4199.999897,4214.358871,4203.07682,4210.256307,4187.692205,4215.384512,4216.410153,4222.563999,4199.487077,4201.025538,4203.589641,4192.30759,4209.230666,4198.974256
1,0,4197.435795,4212.307589,4197.435795,4208.717846,4200.512718,4209.743487,4212.307589,4210.769128,4195.384513,4194.871692,4197.948615,4182.05118,4206.153743,4194.871692
2,0,4202.051179,4216.922974,4205.128102,4215.897333,4228.205025,4201.025538,4216.922974,4222.051179,4207.692205,4215.384512,4206.153743,4190.769128,4206.666564,4200.512718
3,0,4204.102461,4214.358871,4212.82041,4220.512717,4218.461435,4199.999897,4220.512717,4234.358871,4216.922974,4217.435794,4217.435794,4203.589641,4211.281948,4204.102461
4,0,4193.846051,4202.051179,4202.051179,4211.281948,4217.435794,4207.692205,4214.358871,4213.846051,4202.564,4202.051179,4201.025538,4194.358872,4206.153743,4190.256308
5,0,4185.640923,4198.974256,4194.358872,4203.07682,4222.051179,4215.384512,4213.846051,4201.025538,4184.615282,4199.487077,4184.615282,4182.05118,4197.948615,4179.999898
6,0,4184.102462,4204.615282,4198.974256,4207.179384,4206.666564,4211.794769,4217.948615,4211.281948,4182.564,4193.333231,4194.871692,4184.102462,4192.82041,4183.589641
7,0,4185.640923,4205.128102,4201.025538,4212.307589,4209.743487,4202.564,4215.384512,4213.846051,4195.384513,4205.128102,4206.666564,4186.153744,4193.333231,4184.102462
8,0,4194.358872,4204.615282,4203.07682,4213.33323,4229.743486,4207.692205,4214.871692,4219.999897,4208.717846,4221.025538,4205.128102,4187.692205,4197.435795,4186.666564
9,0,4205.128102,4215.897333,4207.692205,4216.410153,4219.999897,4212.307589,4220.512717,4232.820409,4207.692205,4198.461436,4205.128102,4195.897333,4205.128102,4193.333231
10,0,4199.487077,4218.461435,4206.153743,4215.897333,4192.30759,4210.769128,4218.974256,4225.640922,4204.102461,4201.025538,4206.153743,4198.461436,4208.205025,4192.82041
11,0,4188.717846,4204.615282,4201.538359,4210.256307,4208.205025,4214.871692,4214.871692,4212.307589,4202.564,4229.230666,4201.538359,4190.769128,4204.102461,4186.153744
12,0,4193.333231,4203.589641,4203.07682,4210.769128,4251.794768,4215.897333,4218.461435,4214.871692,4188.205026,4195.384513,4203.07682,4191.281949,4197.948615,4185.128103
13,0,4199.999897,4213.33323,4207.692205,4213.846051,4240.512717,4213.846051,4220.512717,4217.948615,4182.564,4175.384513,4210.256307,4199.999897,4204.615282,4192.30759
14,0,4200.512718,4215.897333,4212.82041,4213.33323,4201.025538,4214.871692,4219.999897,4224.102461,4201.538359,4220.512717,4218.974256,4205.128102,4217.435794,4204.615282
15,0,4201.538359,4213.846051,4212.307589,4212.307589,4219.487076,4210.256307,4223.07682,4228.717845,4204.102461,4229.743486,4219.487076,4202.051179,4209.743487,4203.589641
16,0,4202.564,4210.769128,4204.615282,4212.307589,4237.435794,4204.615282,4223.07682,4221.538358,4196.922974,4213.846051,4214.358871,4197.435795,4197.948615,4191.281949
17,0,4197.948615,4207.179384,4199.999897,4215.384512,4218.974256,4212.307589,4216.922974,4215.897333,4202.564,4215.897333,4206.153743,4197.435795,4201.025538,4186.666564
18,0,4195.897333,4212.307589,4199.487077,4214.358871,4221.025538,4218.974256,4214.358871,4214.871692,4193.846051,4211.794769,4198.461436,4199.487077,4207.692205,4188.205026
19,0,4201.025538,4215.897333,4199.487077,4206.153743,4189.743487,4210.256307,4215.897333,4217.948615,4192.82041,4200.512718,4207.179384,4199.999897,4207.179384,4186.666564
20,0,4195.897333,4200.512718,4197.435795,4199.487077,4169.743488,4204.102461,4213.846051,4217.948615,4201.538359,4208.717846,4207.692205,4189.230667,4193.846051,4181.025539
21,0,4191.281949,4196.410154,4198.461436,4205.640923,4234.871691,4211.794769,4215.384512,4215.384512,4189.743487,4218.461435,4194.358872,4184.615282,4191.281949,4182.05118
22,0,4199.487077,4216.410153,4204.102461,4216.922974,4260.512716,4219.999897,4221.538358,4223.58964,4184.102462,4199.487077,4197.435795,4195.384513,4199.999897,4188.205026
23,0,4204.615282,4221.025538,4203.07682,4213.33323,4212.82041,4211.281948,4219.487076,4231.281948,4202.564,4192.82041,4205.640923,4197.948615,4196.410154,4187.692205
24,0,4194.871692,4208.205025,4198.974256,4203.589641,4205.128102,4205.640923,4215.384512,4222.563999,4208.205025,4220.512717,4199.999897,4186.153744,4187.692205,4183.589641
25,0,4189.230667,4208.717846,4202.051179,4203.589641,4226.666563,4215.897333,4218.974256,4213.33323,4197.948615,4227.179384,4199.487077,4185.128103,4196.410154,4186.153744
26,0,4191.281949,4211.794769,4206.153743,4207.179384,4220.512717,4221.025538,4221.025538,4217.948615,4201.025538,4194.871692,4206.666564,4190.769128,4205.640923,4188.717846
27,0,4185.128103,4206.153743,4198.974256,4202.051179,4212.307589,4214.871692,4215.384512,4219.999897,4202.564,4177.435795,4202.564,4186.666564,4201.025538,4182.564
28,0,4185.128103,4207.692205,4195.897333,4199.487077,4206.666564,4205.128102,4214.358871,4216.922974,4200.512718,4188.205026,4200.512718,4190.256308,4197.435795,4182.05118
29,0,4196.410154,4212.307589,4206.666564,4210.256307,4208.717846,4207.179384,4219.999897,4216.410153,4197.948615,4215.384512,4202.564,4198.974256,4199.487077,4188.205026
30,0,4201.025538,4211.281948,4214.358871,4217.435794,4224.102461,4217.948615,4222.051179,4218.974256,4187.179385,4239.487076,4200.512718,4199.999897,4207.692205,4190.769128
31,0,4194.358872,4211.281948,4208.205025,4211.794769,4214.358871,4214.871692,4217.948615,4220.512717,4169.743488,4205.128102,4199.999897,4197.948615,4205.640923,4188.717846
32,0,4182.05118,4196.922974,4197.948615,4197.948615,4195.384513,4211.281948,4214.871692,4216.410153,4162.05118,4162.05118,4198.974256,4190.769128,4185.128103,4176.922975
33,0,4175.897334,4185.128103,4196.922974,4193.333231,4205.640923,4219.487076,4215.897333,4216.410153,4171.79477,4187.179385,4198.461436,4183.076821,4178.974257,4169.743488
34,0,4186.666564,4205.128102,4202.051179,4207.179384,4231.794768,4212.307589,4216.922974,4219.487076,4165.640924,4227.179384,4199.999897,4188.717846,4193.333231,4181.538359
35,0,4202.564,4223.07682,4205.128102,4216.922974,4233.33323,4192.82041,4217.435794,4218.461435,4151.28195,4234.871691,4203.07682,4199.999897,4205.640923,4193.846051
36,0,4199.999897,4212.307589,4204.102461,4206.666564,4213.33323,4199.487077,4215.384512,4216.410153,4159.999898,4220.512717,4201.025538,4197.435795,4202.051179,4188.205026
37,0,4186.153744,4196.922974,4200.512718,4197.948615,4200.512718,4212.82041,4210.256307,4214.358871,4166.153744,4194.871692,4189.230667,4185.128103,4190.769128,4179.999898
38,0,4183.076821,4199.487077,4202.051179,4202.051179,4192.82041,4203.07682,4209.230666,4213.33323,4158.974257,4182.564,4186.153744,4186.153744,4187.692205,4182.05118
39,0,4192.82041,4210.769128,4212.307589,4205.128102,4203.589641,4202.564,4214.871692,4215.384512,4160.512719,4202.564,4199.487077,4199.487077,4197.948615,4186.153744
40,0,4198.461436,4212.307589,4213.33323,4204.615282,4236.922973,4214.358871,4217.435794,4215.897333,4163.076821,4212.307589,4204.102461,4196.922974,4202.051179,4186.153744
41,0,4197.435795,4211.794769,4206.153743,4207.692205,4243.58964,4206.666564,4215.897333,4215.384512,4157.948616,4197.435795,4196.922974,4187.692205,4198.974256,4185.128103
42,0,4201.025538,4215.897333,4208.717846,4211.281948,4217.948615,4202.564,4217.435794,4216.922974,4155.384514,4204.615282,4203.589641,4195.897333,4201.538359,4188.717846
43,0,4198.461436,4208.205025,4207.179384,4211.794769,4205.640923,4215.897333,4216.410153,4215.897333,4154.358873,4212.82041,4201.538359,4194.871692,4197.435795,4185.640923
44,0,4190.256308,4201.538359,4199.999897,4212.307589,4223.07682,4212.82041,4212.82041,4215.384512,4158.461437,4191.794769,4189.230667,4179.487077,4193.333231,4180.512718
45,0,4196.922974,4217.435794,4206.666564,4214.871692,4235.384512,4197.948615,4214.358871,4217.435794,4167.179385,4183.589641,4204.615282,4187.179385,4210.769128,4193.333231
46,0,4207.179384,4225.640922,4211.794769,4215.897333,4213.846051,4207.179384,4218.461435,4212.82041,4162.564001,4199.999897,4215.897333,4197.948615,4219.999897,4203.07682
47,0,4203.07682,4210.256307,4202.564,4212.82041,4197.948615,4216.410153,4216.922974,4209.743487,4161.53836,4211.281948,4202.564,4185.640923,4210.769128,4193.846051
48,0,4198.461436,4211.281948,4200.512718,4212.307589,4221.538358,4206.666564,4214.358871,4217.435794,4173.333231,4226.666563,4203.589641,4184.615282,4214.358871,4191.794769
49,0,4206.666564,4229.743486,4209.743487,4216.410153,4242.563999,4206.153743,4215.384512,4219.487076,4170.769129,4237.948614,4213.33323,4201.025538,4224.102461,4202.564
50,0,4212.307589,4230.769127,4208.205025,4216.410153,4242.563999,4216.410153,4217.948615,4215.384512,4162.564001,4213.33323,4207.692205,4203.07682,4216.922974,4204.102461
51,0,4207.692205,4216.410153,4201.538359,4215.897333,4231.281948,4218.974256,4218.974256,4219.487076,4171.79477,4193.846051,4210.256307,4191.794769,4214.358871,4198.974256
52,0,4197.948615,4214.871692,4199.487077,4215.897333,4212.82041,4213.33323,4217.435794,4216.410153,4173.333231,4199.999897,4216.410153,4188.205026,4221.538358,4197.435795
53,0,4190.256308,4213.33323,4199.999897,4207.692205,4211.281948,4211.794769,4215.897333,4204.102461,4154.871693,4198.974256,4203.07682,4189.743487,4213.846051,4189.743487
54,0,4191.281949,4202.051179,4197.948615,4202.051179,4213.33323,4215.897333,4211.794769,4198.974256,4151.28195,4206.153743,4193.846051,4185.128103,4197.948615,4182.564
55,0,4198.974256,4209.743487,4201.025538,4209.230666,4216.410153,4211.281948,4210.256307,4201.025538,4162.05118,4223.58964,4202.564,4186.666564,4197.948615,4190.256308
56,0,4205.640923,4225.128102,4210.256307,4216.410153,4234.358871,4206.666564,4217.948615,4210.256307,4155.384514,4198.461436,4206.666564,4199.487077,4211.281948,4202.564
57,0,4201.025538,4214.871692,4206.666564,4212.82041,4214.871692,4208.717846,4221.538358,4215.384512,4148.717847,4178.974257,4201.025538,4202.051179,4214.358871,4199.487077
58,0,4203.07682,4211.794769,4204.102461,4212.307589,4190.256308,4211.794769,4215.897333,4208.205025,4165.128103,4209.743487,4202.051179,4195.897333,4209.230666,4195.384513
59,0,4216.410153,4230.256307,4213.33323,4217.435794,4233.84605,4216.922974,4214.871692,4204.615282,4175.384513,4235.384512,4208.205025,4196.922974,4210.256307,4199.487077
60,0,4218.461435,4230.256307,4219.487076,4217.948615,4260.512716,4218.974256,4220.512717,4214.358871,4163.076821,4222.563999,4206.666564,4201.025538,4216.410153,4201.538359
61,0,4204.615282,4210.256307,4213.33323,4214.358871,4223.58964,4206.666564,4216.922974,4217.435794,4155.897334,4178.974257,4202.564,4197.435795,4214.358871,4197.435795
62,0,4197.435795,4208.205025,4204.102461,4212.307589,4203.589641,4198.974256,4209.230666,4205.640923,4161.025539,4166.666565,4198.461436,4189.230667,4201.025538,4192.82041
63,0,4208.205025,4227.692204,4204.102461,4215.897333,4218.461435,4208.717846,4212.82041,4197.948615,4157.435796,4214.871692,4196.410154,4192.82041,4197.948615,4194.358872
64,0,4217.435794,4235.384512,4206.666564,4216.922974,4226.666563,4215.384512,4217.948615,4207.179384,4153.333232,4241.538358,4203.07682,4198.974256,4212.82041,4200.512718
65,0,4214.358871,4221.025538,4204.615282,4213.33323,4217.948615,4211.794769,4214.871692,4215.897333,4161.025539,4198.974256,4212.307589,4192.82041,4219.487076,4200.512718
66,0,4211.281948,4213.846051,4205.640923,4214.358871,4217.948615,4205.640923,4212.82041,4210.769128,4166.666565,4179.487077,4213.33323,4188.717846,4211.794769,4198.974256
67,0,4217.948615,4228.717845,4214.871692,4218.461435,4232.820409,4199.999897,4216.922974,4213.33323,4167.692206,4225.640922,4212.82041,4195.897333,4213.33323,4202.051179
68,0,4215.384512,4235.384512,4211.281948,4218.461435,4225.128102,4209.230666,4216.922974,4217.948615,4164.102462,4239.487076,4207.692205,4192.82041,4213.846051,4202.564
69,0,4201.538359,4218.461435,4199.487077,4212.307589,4211.794769,4219.999897,4211.794769,4208.717846,4159.487078,4207.692205,4197.948615,4182.05118,4209.230666,4195.384513
70,0,4205.640923,4215.897333,4207.692205,4211.281948,4225.640922,4210.256307,4211.794769,4208.717846,4171.281949,4202.051179,4206.666564,4191.281949,4215.384512,4199.487077
71,0,4217.435794,4233.33323,4219.999897,4217.948615,4232.307589,4205.128102,4216.410153,4221.538358,4184.102462,4212.307589,4221.538358,4204.102461,4221.025538,4211.281948
72,0,4218.461435,4235.897332,4219.487076,4221.538358,4219.999897,4215.897333,4221.538358,4227.179384,4173.846052,4207.692205,4221.538358,4200.512718,4218.974256,4210.256307
73,0,4212.82041,4221.538358,4213.33323,4217.948615,4221.538358,4217.435794,4222.051179,4221.538358,4165.640924,4225.128102,4214.358871,4191.281949,4218.974256,4201.538359
74,0,4204.102461,4215.897333,4203.589641,4212.307589,4219.999897,4213.33323,4209.743487,4208.205025,4170.256308,4247.179383,4205.128102,4180.512718,4213.33323,4194.358872
75,0,4197.435795,4213.846051,4199.487077,4208.717846,4204.615282,4213.33323,4203.589641,4194.871692,4167.179385,4224.102461,4194.871692,4172.30759,4205.640923,4189.743487
76,0,4209.743487,4214.358871,4209.743487,4214.871692,4209.743487,4206.666564,4213.846051,4203.589641,4164.102462,4189.743487,4203.589641,4179.999898,4211.794769,4198.974256
77,0,4226.153743,4228.205025,4219.999897,4226.153743,4230.256307,4199.999897,4219.999897,4218.974256,4168.205026,4179.999898,4223.58964,4197.948615,4223.58964,4216.410153
78,0,4223.07682,4235.384512,4216.410153,4224.615281,4231.794768,4202.564,4210.769128,4215.897333,4170.769129,4208.717846,4224.615281,4200.512718,4226.153743,4214.871692
79,0,4214.871692,4227.692204,4212.307589,4216.922974,4222.051179,4199.999897,4207.179384,4208.205025,4172.30759,4255.897332,4214.358871,4194.871692,4219.999897,4202.564
80,0,4214.358871,4226.153743,4214.358871,4217.948615,4213.33323,4204.102461,4214.871692,4206.153743,4168.205026,4253.333229,4211.794769,4192.82041,4214.871692,4199.487077
81,0,4216.922974,4233.84605,4216.410153,4221.025538,4206.153743,4216.410153,4214.358871,4214.871692,4172.820411,4214.871692,4215.897333,4193.333231,4222.563999,4202.564
82,0,4216.922974,4231.794768,4217.948615,4218.461435,4220.512717,4215.384512,4203.07682,4215.384512,4183.589641,4198.461436,4216.410153,4195.897333,4229.230666,4207.179384
83,0,4217.435794,4221.538358,4218.974256,4217.435794,4243.076819,4204.102461,4204.102461,4201.538359,4172.30759,4202.564,4212.82041,4199.999897,4229.230666,4213.33323
84,0,4218.974256,4217.948615,4219.487076,4219.487076,4252.307588,4204.615282,4214.871692,4204.615282,4161.53836,4231.794768,4216.922974,4201.025538,4230.769127,4214.358871
85,0,4218.461435,4223.58964,4219.487076,4220.512717,4235.897332,4206.666564,4210.256307,4217.948615,4169.743488,4242.563999,4218.461435,4197.948615,4224.615281,4206.666564
86,0,4206.666564,4219.999897,4210.256307,4216.410153,4188.717846,4203.07682,4197.435795,4204.102461,4163.589642,4193.846051,4205.128102,4187.692205,4211.794769,4197.948615
87,0,4197.948615,4211.281948,4199.487077,4211.794769,4194.871692,4208.205025,4198.974256,4192.30759,4152.820411,4175.897334,4202.051179,4179.487077,4212.307589,4198.461436
88,0,4208.205025,4222.051179,4206.153743,4214.871692,4260.512716,4213.33323,4209.743487,4215.384512,4168.205026,4219.487076,4219.999897,4190.256308,4219.487076,4205.640923
89,0,4215.384512,4230.256307,4214.358871,4219.487076,4264.61528,4214.871692,4216.922974,4226.666563,4180.512718,4251.794768,4218.974256,4198.461436,4223.07682,4206.153743
90,0,4208.717846,4216.410153,4206.666564,4217.435794,4219.999897,4216.410153,4215.897333,4212.307589,4171.281949,4241.025537,4202.051179,4188.717846,4225.128102,4197.948615
91,0,4209.743487,4211.281948,4203.07682,4216.410153,4210.769128,4207.179384,4211.281948,4214.358871,4170.769129,4216.922974,4208.205025,4190.256308,4226.666563,4198.461436
92,0,4212.82041,4219.487076,4207.692205,4219.487076,4212.307589,4199.487077,4214.871692,4221.538358,4172.30759,4197.948615,4217.948615,4201.538359,4221.538358,4205.128102
93,0,4202.051179,4216.922974,4201.025538,4214.871692,4211.281948,4213.33323,4213.846051,4207.179384,4166.153744,4196.410154,4205.640923,4192.30759,4214.871692,4196.922974
94,0,4195.897333,4211.281948,4195.384513,4210.256307,4221.538358,4221.538358,4203.07682,4196.410154,4169.230667,4208.717846,4198.461436,4181.538359,4214.358871,4190.256308
95,0,4202.564,4216.922974,4202.051179,4214.871692,4225.640922,4210.256307,4204.102461,4209.743487,4171.281949,4211.794769,4205.128102,4189.230667,4217.435794,4196.410154
96,0,4203.589641,4218.461435,4202.564,4216.410153,4240.512717,4215.897333,4214.358871,4218.461435,4165.128103,4225.128102,4202.564,4191.794769,4213.846051,4192.82041
97,0,4204.615282,4213.33323,4196.922974,4211.794769,4251.794768,4221.025538,4216.922974,4215.384512,4167.692206,4236.922973,4202.051179,4189.743487,4213.846051,4189.230667
98,0,4208.205025,4216.410153,4197.948615,4212.307589,4226.666563,4207.179384,4209.743487,4218.974256,4175.897334,4204.615282,4216.410153,4196.922974,4223.58964,4201.025538
99,0,4205.128102,4224.615281,4202.051179,4215.384512,4203.589641,4206.153743,4204.615282,4216.410153,4169.743488,4174.358872,4214.871692,4193.846051,4223.58964,4203.07682
100,0,4202.564,4223.58964,4199.999897,4215.384512,4219.999897,4220.512717,4207.692205,4205.128102,4164.102462,4200.512718,4202.564,4184.102462,4211.794769,4191.794769
101,0,4209.743487,4216.922974,4200.512718,4217.948615,4239.487076,4221.025538,4215.384512,4213.33323,4174.358872,4224.615281,4208.717846,4190.769128,4214.871692,4198.974256
102,0,4215.384512,4217.435794,4209.743487,4218.974256,4216.922974,4212.82041,4212.307589,4230.256307,4183.076821,4212.82041,4218.461435,4201.025538,4229.743486,4213.33323
103,0,4215.384512,4218.974256,4216.922974,4216.922974,4206.153743,4214.358871,4206.153743,4228.717845,4179.999898,4210.256307,4220.512717,4199.487077,4228.717845,4211.794769
104,0,4211.794769,4215.897333,4216.410153,4216.410153,4238.974255,4218.461435,4211.281948,4216.410153,4170.256308,4187.692205,4212.82041,4197.435795,4215.897333,4203.589641
105,0,4204.615282,4217.435794,4214.358871,4216.922974,4248.205024,4216.922974,4211.281948,4210.256307,4168.205026,4159.999898,4201.538359,4198.974256,4213.846051,4199.999897
106,0,4204.102461,4224.102461,4212.82041,4215.384512,4226.153743,4216.922974,4208.717846,4214.358871,4176.922975,4183.589641,4204.102461,4199.487077,4216.410153,4200.512718
107,0,4210.769128,4223.07682,4213.33323,4217.435794,4229.230666,4218.461435,4215.384512,4226.666563,4182.05118,4221.025538,4217.435794,4197.435795,4219.487076,4203.07682
108,0,4215.384512,4217.948615,4217.435794,4221.538358,4236.922973,4214.358871,4218.974256,4234.358871,4185.640923,4224.615281,4221.538358,4198.974256,4228.717845,4210.256307
109,0,4212.82041,4218.974256,4218.461435,4220.512717,4215.384512,4210.256307,4213.33323,4225.640922,4185.640923,4214.358871,4214.871692,4197.948615,4229.743486,4214.358871
110,0,4203.589641,4212.82041,4210.256307,4214.358871,4205.640923,4215.384512,4212.82041,4214.358871,4175.897334,4203.589641,4206.666564,4193.846051,4212.307589,4203.589641
111,0,4196.922974,4201.538359,4205.128102,4212.307589,4225.640922,4217.435794,4215.897333,4221.538358,4173.333231,4194.358872,4204.615282,4195.384513,4206.666564,4193.846051
112,0,4206.153743,4211.794769,4210.256307,4214.358871,4241.538358,4213.846051,4213.846051,4232.307589,4190.769128,4205.128102,4218.461435,4204.102461,4228.205025,4206.666564
113,0,4216.410153,4232.307589,4214.358871,4217.435794,4234.358871,4213.33323,4222.051179,4231.281948,4202.051179,4221.025538,4225.128102,4205.128102,4236.922973,4218.974256
114,0,4215.897333,4240.512717,4213.33323,4224.615281,4234.871691,4218.461435,4232.820409,4227.692204,4192.82041,4213.846051,4213.33323,4199.999897,4220.512717,4209.230666
115,0,4212.82041,4242.563999,4215.897333,4229.230666,4249.230665,4223.58964,4227.179384,4222.051179,4182.05118,4204.102461,4205.128102,4202.051179,4209.743487,4202.564
116,0,4201.538359,4232.307589,4213.846051,4220.512717,4225.640922,4213.846051,4214.871692,4218.974256,4190.256308,4202.051179,4202.564,4197.435795,4211.281948,4200.512718
117,0,4187.692205,4212.82041,4208.717846,4211.281948,4188.205026,4209.743487,4212.82041,4221.025538,4199.487077,4185.640923,4201.025538,4185.128103,4202.051179,4186.666564
118,0,4192.82041,4218.461435,4212.307589,4219.487076,4208.205025,4217.435794,4215.384512,4216.922974,4184.102462,4183.076821,4198.461436,4185.640923,4193.846051,4183.589641
119,0,4205.640923,4239.487076,4219.487076,4227.692204,4255.897332,4206.153743,4213.846051,4211.794769,4173.333231,4221.538358,4205.128102,4199.999897,4207.692205,4199.487077
120,0,4203.589641,4241.538358,4219.487076,4222.563999,4256.410152,4201.538359,4217.948615,4219.487076,4188.205026,4235.897332,4215.897333,4204.615282,4218.461435,4206.153743
121,0,4197.948615,4229.743486,4215.384512,4217.948615,4221.538358,4220.512717,4218.974256,4223.58964,4193.333231,4206.666564,4208.205025,4192.82041,4205.128102,4194.871692
122,0,4201.025538,4226.153743,4214.358871,4218.974256,4214.871692,4217.948615,4208.205025,4211.794769,4178.974257,4184.615282,4197.948615,4189.230667,4195.384513,4186.153744
123,0,4206.153743,4233.84605,4216.410153,4219.999897,4235.897332,4201.025538,4203.589641,4208.717846,4186.153744,4179.999898,4208.717846,4199.487077,4211.794769,4191.281949
124,0,4206.666564,4232.820409,4221.025538,4219.487076,4233.84605,4211.794769,4215.384512,4222.051179,4202.564,4204.102461,4218.461435,4206.666564,4224.102461,4203.589641
125,0,4197.948615,4220.512717,4215.897333,4215.384512,4217.435794,4224.615281,4216.922974,4218.974256,4194.871692,4239.487076,4204.102461,4196.410154,4204.102461,4200.512718
126,0,4186.153744,4212.82041,4202.051179,4207.179384,4216.922974,4217.435794,4205.128102,4200.512718,4178.461436,4218.461435,4192.30759,4182.05118,4181.538359,4186.666564
127,0,4186.153744,4218.974256,4198.461436,4208.717846,4222.051179,4212.307589,4209.230666,4202.051179,4176.922975,4184.102462,4196.922974,4181.538359,4187.692205,4186.666564
128,0,4189.743487,4222.563999,4209.230666,4215.384512,4221.538358,4213.33323,4218.461435,4219.999897,4194.871692,4201.025538,4204.615282,4187.692205,4202.051179,4191.281949
0,0,4189.230667,4218.974256,4214.871692,4212.307589,4236.410153,4217.948615,4214.871692,4222.051179,4199.999897,4199.999897,4204.102461,4189.230667,4200.512718,4192.30759
1,0,4192.82041,4218.461435,4211.794769,4211.794769,4240.512717,4219.999897,4214.358871,4213.846051,4185.640923,4177.435795,4198.974256,4188.205026,4195.384513,4196.410154
2,0,4196.922974,4217.435794,4211.281948,4214.871692,4221.025538,4212.307589,4216.922974,4213.846051,4179.487077,4207.179384,4199.487077,4188.205026,4195.384513,4198.974256
3,0,4195.384513,4217.435794,4211.281948,4213.846051,4219.999897,4212.307589,4213.33323,4212.82041,4187.179385,4240.512717,4205.640923,4184.615282,4199.487077,4197.435795
4,0,4200.512718,4227.179384,4216.410153,4215.384512,4228.205025,4218.461435,4215.384512,4214.871692,4199.487077,4212.82041,4215.897333,4191.281949,4211.281948,4202.051179
5,0,4207.692205,4235.384512,4223.07682,4219.487076,4217.435794,4215.384512,4216.922974,4223.07682,4212.82041,4184.102462,4221.538358,4203.07682,4217.435794,4207.692205
6,0,4200.512718,4224.102461,4217.435794,4215.897333,4213.33323,4212.307589,4206.666564,4212.82041,4212.82041,4196.922974,4210.769128,4196.922974,4206.153743,4199.487077
7,0,4195.897333,4221.538358,4211.281948,4214.871692,4229.230666,4219.487076,4205.128102,4202.564,4196.410154,4214.871692,4198.974256,4187.179385,4198.974256,4194.871692
8,0,4200.512718,4232.307589,4212.82041,4217.435794,4230.769127,4222.051179,4214.871692,4207.692205,4195.384513,4218.461435,4198.974256,4186.666564,4199.487077,4197.948615
9,0,4198.461436,4228.717845,4213.33323,4215.897333,4223.58964,4215.384512,4215.384512,4207.692205,4202.564,4207.179384,4203.07682,4187.692205,4204.102461,4198.461436
10,0,4197.435795,4224.102461,4213.33323,4214.871692,4239.487076,4213.846051,4211.281948,4205.640923,4200.512718,4190.769128,4210.769128,4193.846051,4216.922974,4197.948615
11,0,4203.589641,4230.769127,4216.922974,4216.410153,4224.102461,4216.410153,4213.33323,4217.435794,4202.564,4194.871692,4217.948615,4204.102461,4219.487076,4202.564
12,0,4204.102461,4232.820409,4218.461435,4223.07682,4195.384513,4218.461435,4212.82041,4222.563999,4207.179384,4198.974256,4214.871692,4201.538359,4205.128102,4203.589641
13,0,4200.512718,4230.769127,4218.461435,4227.692204,4230.256307,4217.948615,4211.281948,4214.871692,4202.051179,4201.538359,4209.743487,4196.922974,4205.128102,4199.999897
14,0,4203.07682,4235.897332,4219.999897,4221.025538,4263.076819,4212.82041,4218.974256,4217.948615,4198.461436,4229.743486,4209.230666,4200.512718,4214.871692,4201.538359
15,0,4199.487077,4230.256307,4217.948615,4213.33323,4219.487076,4219.487076,4215.897333,4221.538358,4200.512718,4232.307589,4202.564,4195.384513,4207.179384,4199.487077
16,0,4192.82041,4216.410153,4214.358871,4213.846051,4198.461436,4228.205025,4203.07682,4214.358871,4199.487077,4193.846051,4199.487077,4184.102462,4198.461436,4190.256308
17,0,4195.897333,4219.999897,4215.897333,4217.435794,4243.076819,4216.922974,4207.179384,4211.281948,4198.461436,4194.871692,4207.179384,4184.615282,4203.07682,4190.256308
18,0,4203.07682,4230.769127,4218.461435,4217.435794,4248.717845,4206.666564,4220.512717,4216.922974,4208.205025,4233.33323,4211.281948,4192.82041,4208.205025,4199.999897
19,0,4210.769128,4233.84605,4220.512717,4218.461435,4225.128102,4213.33323,4215.897333,4223.58964,4218.461435,4239.487076,4214.871692,4201.538359,4216.410153,4206.666564
20,0,4216.410153,4240.512717,4220.512717,4224.102461,4232.820409,4216.922974,4207.179384,4216.410153,4206.666564,4211.794769,4215.384512,4196.922974,4216.410153,4205.128102
21,0,4212.82041,4245.640922,4219.487076,4229.743486,4247.692204,4216.410153,4212.82041,4206.153743,4192.82041,4188.717846,4205.640923,4186.153744,4202.564,4202.564
22,0,4210.256307,4245.640922,4218.461435,4230.769127,4245.640922,4216.922974,4215.384512,4216.410153,4209.743487,4192.82041,4207.179384,4191.794769,4206.666564,4204.102461
23,0,4211.794769,4242.563999,4218.461435,4226.666563,4223.07682,4214.358871,4211.794769,4220.512717,4216.410153,4225.640922,4215.384512,4199.487077,4218.461435,4203.07682
24,0,4204.615282,4231.281948,4216.410153,4221.538358,4207.692205,4215.384512,4208.717846,4199.999897,4195.897333,4237.948614,4204.102461,4188.717846,4209.743487,4196.922974
25,0,4197.948615,4225.128102,4214.358871,4217.948615,4221.538358,4215.897333,4208.717846,4201.025538,4201.025538,4215.384512,4202.051179,4184.615282,4206.153743,4197.435795
26,0,4202.051179,4232.307589,4214.358871,4216.410153,4246.666563,4211.281948,4212.82041,4217.435794,4217.948615,4210.769128,4216.410153,4192.30759,4213.33323,4201.025538
27,0,4206.153743,4236.922973,4215.384512,4219.999897,4257.435793,4214.871692,4212.307589,4203.589641,4204.615282,4219.487076,4208.717846,4187.692205,4207.692205,4197.435795
28,0,4212.82041,4241.025537,4222.051179,4231.794768,4258.461434,4220.512717,4213.846051,4195.897333,4190.256308,4221.025538,4200.512718,4185.128103,4205.128102,4204.102461
29,0,4218.461435,4245.128101,4223.07682,4231.794768,4239.487076,4216.922974,4214.358871,4217.948615,4204.102461,4232.820409,4215.897333,4191.794769,4217.948615,4215.384512
30,0,4211.281948,4235.384512,4215.384512,4218.974256,4208.717846,4212.307589,4205.640923,4216.922974,4215.384512,4228.717845,4219.999897,4192.82041,4218.461435,4209.743487
31,0,4203.589641,4225.640922,4215.384512,4219.487076,4218.461435,4215.897333,4203.589641,4198.974256,4204.102461,4197.948615,4207.692205,4190.769128,4209.230666,4199.999897
32,0,4202.051179,4228.205025,4218.974256,4223.07682,4234.358871,4217.435794,4213.846051,4207.179384,4196.410154,4201.538359,4209.230666,4189.230667,4208.717846,4198.974256
33,0,4199.999897,4231.281948,4215.384512,4216.922974,4228.717845,4213.33323,4214.358871,4217.435794,4202.564,4235.384512,4213.33323,4188.717846,4207.179384,4200.512718
34,0,4201.538359,4234.358871,4213.33323,4215.384512,4238.974255,4213.846051,4212.82041,4208.717846,4197.948615,4223.07682,4205.128102,4189.230667,4199.487077,4197.948615
35,0,4199.999897,4228.717845,4213.846051,4217.435794,4246.153742,4220.512717,4214.871692,4200.512718,4180.512718,4192.82041,4196.922974,4186.153744,4199.487077,4190.769128
36,0,4192.82041,4217.948615,4212.82041,4214.358871,4232.307589,4219.999897,4205.128102,4202.564,4191.281949,4211.281948,4197.948615,4181.025539,4202.564,4184.102462
37,0,4190.256308,4217.948615,4212.82041,4215.897333,4227.179384,4211.794769,4203.07682,4210.256307,4210.769128,4236.922973,4205.128102,4183.076821,4195.897333,4181.538359
38,0,4203.589641,4231.281948,4216.922974,4225.640922,4234.358871,4210.256307,4215.897333,4213.846051,4196.922974,4237.948614,4211.794769,4192.30759,4204.615282,4195.384513
39,0,4225.128102,4244.615281,4225.128102,4228.717845,4235.384512,4215.897333,4218.461435,4215.384512,4187.179385,4232.307589,4215.384512,4199.487077,4233.84605,4222.563999
40,0,4234.358871,4233.84605,4225.128102,4221.025538,4232.307589,4221.025538,4214.871692,4213.846051,4199.999897,4212.307589,4219.487076,4203.07682,4242.051178,4237.948614
41,0,4233.33323,4216.410153,4217.435794,4215.897333,4216.922974,4215.384512,4210.256307,4206.153743,4196.922974,4191.281949,4222.051179,4204.102461,4234.358871,4233.84605
42,0,4236.922973,4223.58964,4217.435794,4218.974256,4202.564,4208.717846,4202.051179,4194.358872,4182.564,4202.051179,4214.871692,4201.538359,4237.435794,4229.743486
43,0,4248.205024,4235.897332,4230.769127,4225.640922,4216.922974,4213.846051,4206.153743,4201.025538,4189.230667,4231.794768,4215.384512,4205.128102,4247.692204,4239.999896
44,0,4254.35887,4234.358871,4238.974255,4231.794768,4246.666563,4218.974256,4222.051179,4222.563999,4204.102461,4247.692204,4233.84605,4218.461435,4253.84605,4251.794768
45,0,4249.230665,4230.769127,4231.794768,4228.205025,4256.410152,4218.974256,4217.435794,4217.948615,4205.128102,4252.307588,4233.33323,4217.435794,4247.692204,4246.153742
46,0,4241.538358,4228.205025,4225.640922,4214.871692,4235.384512,4218.461435,4202.051179,4197.948615,4195.897333,4239.487076,4212.82041,4204.615282,4237.435794,4234.358871
47,0,4245.128101,4228.205025,4231.794768,4218.974256,4211.281948,4216.922974,4206.666564,4202.564,4199.487077,4206.153743,4218.974256,4211.794769,4245.640922,4244.615281
48,0,4250.256306,4234.358871,4238.974255,4232.820409,4222.563999,4216.410153,4219.487076,4221.538358,4217.435794,4201.025538,4237.948614,4224.615281,4257.948614,4251.794768
49,0,4238.461435,4230.769127,4231.281948,4224.102461,4239.487076,4216.922974,4216.922974,4220.512717,4215.897333,4238.974255,4232.307589,4215.384512,4244.10246,4234.358871
50,0,4228.717845,4222.051179,4223.07682,4210.769128,4218.974256,4214.358871,4208.717846,4209.230666,4196.410154,4263.589639,4221.025538,4204.615282,4229.230666,4225.640922
51,0,4232.820409,4226.666563,4226.153743,4220.512717,4215.384512,4214.871692,4212.82041,4209.743487,4192.30759,4253.333229,4226.666563,4210.256307,4238.974255,4233.84605
52,0,4235.384512,4232.820409,4230.769127,4230.256307,4248.717845,4222.051179,4219.999897,4217.435794,4202.051179,4239.487076,4230.256307,4217.435794,4250.769127,4236.410153
53,0,4232.820409,4229.230666,4230.256307,4221.025538,4247.179383,4219.999897,4217.948615,4219.487076,4211.281948,4215.897333,4227.692204,4217.435794,4250.769127,4232.307589
54,0,4234.358871,4228.717845,4230.769127,4214.358871,4214.358871,4213.846051,4217.948615,4219.999897,4212.82041,4202.564,4230.256307,4216.410153,4249.230665,4234.871691
55,0,4236.410153,4233.84605,4231.794768,4224.615281,4217.435794,4221.025538,4228.205025,4224.615281,4206.153743,4238.974255,4232.820409,4218.461435,4250.769127,4243.58964
56,0,4237.435794,4236.410153,4230.769127,4231.281948,4244.615281,4234.871691,4232.307589,4224.615281,4203.07682,4257.435793,4229.743486,4221.025538,4245.640922,4244.10246
57,0,4239.999896,4234.358871,4230.256307,4230.769127,4235.384512,4232.820409,4222.051179,4219.999897,4206.153743,4224.615281,4231.794768,4225.128102,4245.640922,4236.922973
58,0,4236.922973,4229.230666,4231.794768,4232.820409,4212.307589,4219.487076,4214.358871,4214.358871,4201.025538,4213.846051,4230.769127,4222.563999,4247.179383,4233.84605
59,0,4229.743486,4224.615281,4228.205025,4224.615281,4215.897333,4215.384512,4217.435794,4207.692205,4196.922974,4223.07682,4216.922974,4212.307589,4232.307589,4231.281948
60,0,4229.743486,4228.205025,4225.640922,4214.358871,4236.410153,4218.461435,4219.999897,4206.666564,4208.717846,4219.487076,4214.871692,4211.281948,4223.58964,4226.153743
61,0,4235.897332,4233.84605,4230.256307,4224.102461,4232.307589,4218.461435,4220.512717,4216.410153,4225.128102,4232.307589,4233.84605,4218.461435,4241.025537,4231.281948
62,0,4234.358871,4228.205025,4233.33323,4230.256307,4207.179384,4215.384512,4222.563999,4221.538358,4234.358871,4254.871691,4235.384512,4217.948615,4253.333229,4235.384512
63,0,4227.692204,4224.102461,4231.794768,4218.461435,4224.615281,4218.461435,4221.538358,4216.410153,4231.281948,4236.410153,4218.461435,4212.82041,4238.461435,4231.794768
64,0,4231.281948,4227.692204,4229.743486,4219.999897,4263.589639,4224.615281,4217.948615,4213.33323,4222.051179,4210.769128,4221.025538,4214.358871,4228.205025,4231.281948
65,0,4229.743486,4213.846051,4229.230666,4228.717845,4225.128102,4220.512717,4216.410153,4212.307589,4216.410153,4220.512717,4227.692204,4216.922974,4238.974255,4228.205025
66,0,4215.384512,4202.564,4231.794768,4221.538358,4188.205026,4216.410153,4216.922974,4215.384512,4215.897333,4214.871692,4224.615281,4215.384512,4246.153742,4223.07682
67,0,4218.461435,4226.153743,4232.307589,4213.846051,4254.35887,4221.538358,4215.897333,4218.461435,4226.666563,4208.717846,4232.307589,4215.897333,4243.076819,4229.743486
68,0,4235.897332,4240.512717,4227.692204,4215.897333,4282.563998,4217.435794,4214.871692,4217.435794,4232.307589,4245.640922,4239.999896,4216.410153,4244.10246,4231.281948
69,0,4232.820409,4217.948615,4225.128102,4213.846051,4211.794769,4212.82041,4216.410153,4216.410153,4220.512717,4261.538357,4228.205025,4214.358871,4243.076819,4222.051179
70,0,4226.153743,4211.281948,4229.230666,4216.922974,4194.358872,4223.07682,4216.922974,4216.922974,4215.897333,4224.615281,4221.538358,4214.358871,4234.358871,4224.102461
71,0,4234.358871,4233.84605,4233.84605,4224.615281,4239.999896,4222.051179,4215.897333,4217.948615,4233.84605,4212.82041,4234.358871,4218.461435,4238.461435,4233.33323
72,0,4233.84605,4239.487076,4231.794768,4222.051179,4237.948614,4212.82041,4215.897333,4215.384512,4235.897332,4242.051178,4236.922973,4217.948615,4249.230665,4234.871691
73,0,4226.666563,4221.538358,4228.205025,4216.922974,4222.563999,4221.538358,4217.948615,4214.358871,4218.974256,4257.948614,4229.230666,4212.307589,4243.076819,4228.717845
74,0,4230.769127,4216.410153,4228.205025,4219.487076,4232.820409,4224.615281,4217.948615,4216.922974,4222.563999,4254.871691,4228.717845,4210.256307,4234.871691,4222.051179
75,0,4233.33323,4231.281948,4230.769127,4224.615281,4232.307589,4216.410153,4216.410153,4216.410153,4231.794768,4234.871691,4231.794768,4216.922974,4235.384512,4223.58964
76,0,4232.820409,4236.922973,4233.33323,4228.205025,4219.487076,4223.07682,4216.410153,4217.435794,4231.794768,4214.871692,4229.743486,4218.974256,4234.871691,4227.179384
77,0,4227.179384,4219.487076,4227.692204,4227.692204,4204.615282,4229.743486,4216.922974,4212.82041,4227.179384,4220.512717,4221.025538,4207.179384,4232.820409,4217.948615
78,0,4219.999897,4212.307589,4218.461435,4221.538358,4227.179384,4217.948615,4217.435794,4206.153743,4221.538358,4217.435794,4214.358871,4198.974256,4227.179384,4210.256307
79,0,4217.948615,4221.025538,4216.922974,4216.922974,4257.948614,4211.281948,4216.410153,4211.794769,4218.974256,4201.538359,4215.384512,4202.564,4216.410153,4215.384512
80,0,4217.435794,4217.435794,4219.487076,4216.410153,4242.563999,4217.948615,4218.974256,4218.974256,4224.102461,4213.846051,4216.410153,4201.025538,4215.384512,4215.384512
81,0,4216.922974,4210.256307,4219.487076,4214.358871,4202.564,4215.384512,4216.410153,4207.692205,4226.666563,4251.794768,4213.33323,4196.922974,4226.153743,4212.307589
82,0,4221.025538,4217.435794,4218.974256,4215.384512,4193.846051,4207.179384,4205.640923,4197.948615,4221.025538,4256.410152,4215.897333,4199.999897,4233.33323,4217.435794
83,0,4220.512717,4221.538358,4216.410153,4216.922974,4223.07682,4218.461435,4205.640923,4208.717846,4226.153743,4189.230667,4221.025538,4202.051179,4229.230666,4217.948615
84,0,4210.769128,4211.281948,4215.384512,4212.82041,4233.84605,4227.692204,4218.974256,4218.461435,4227.179384,4150.769129,4218.974256,4205.640923,4218.461435,4211.281948
85,0,4213.846051,4216.410153,4221.538358,4216.922974,4223.58964,4215.897333,4222.051179,4218.461435,4217.948615,4222.563999,4218.974256,4212.82041,4222.563999,4214.871692
86,0,4223.07682,4234.358871,4224.102461,4225.640922,4223.58964,4209.743487,4216.922974,4215.897333,4216.410153,4275.384511,4221.538358,4209.743487,4233.33323,4220.512717
87,0,4217.435794,4236.922973,4216.922974,4226.153743,4243.58964,4223.58964,4217.435794,4205.640923,4218.461435,4224.102461,4213.33323,4199.487077,4220.512717,4206.153743
88,0,4210.256307,4240.512717,4215.897333,4228.205025,4233.33323,4224.102461,4215.897333,4200.512718,4217.435794,4187.179385,4207.692205,4197.948615,4205.640923,4194.871692
89,0,4217.435794,4247.692204,4219.999897,4228.717845,4194.871692,4213.33323,4214.871692,4205.640923,4211.281948,4222.051179,4212.307589,4201.025538,4213.846051,4202.051179
90,0,4216.410153,4236.922973,4219.487076,4219.999897,4202.564,4214.358871,4218.461435,4207.692205,4212.82041,4238.974255,4214.358871,4199.487077,4219.487076,4203.07682
91,0,4203.07682,4229.743486,4216.922974,4219.487076,4222.051179,4213.846051,4216.922974,4204.615282,4215.897333,4218.461435,4210.769128,4196.922974,4209.230666,4196.922974
92,0,4199.999897,4240.512717,4217.948615,4230.769127,4225.128102,4215.384512,4216.922974,4205.128102,4213.846051,4175.384513,4207.179384,4192.30759,4201.025538,4196.922974
93,0,4202.051179,4240.512717,4218.974256,4230.769127,4237.435794,4221.538358,4219.999897,4206.153743,4212.82041,4168.717847,4202.564,4185.640923,4197.435795,4192.30759
94,0,4201.025538,4230.256307,4217.948615,4221.025538,4243.076819,4219.487076,4217.435794,4208.205025,4214.871692,4224.102461,4199.999897,4185.640923,4199.999897,4186.153744
95,0,4199.487077,4226.666563,4216.922974,4216.922974,4217.435794,4216.922974,4215.384512,4215.384512,4218.974256,4234.871691,4206.666564,4194.358872,4202.564,4191.281949
96,0,4199.999897,4231.794768,4216.410153,4217.948615,4201.538359,4221.025538,4215.897333,4211.794769,4218.974256,4204.615282,4212.307589,4196.922974,4201.538359,4196.922974
97,0,4202.564,4237.948614,4216.922974,4217.435794,4227.179384,4218.461435,4216.922974,4203.589641,4215.897333,4222.563999,4208.205025,4191.794769,4204.615282,4200.512718
98,0,4203.07682,4229.743486,4215.897333,4216.922974,4231.794768,4213.33323,4212.307589,4203.07682,4205.128102,4232.820409,4203.589641,4186.666564,4199.487077,4198.461436
99,0,4199.999897,4223.58964,4214.358871,4218.461435,4213.846051,4215.897333,4206.153743,4197.948615,4195.897333,4205.640923,4206.153743,4183.589641,4197.435795,4192.82041
100,0,4201.025538,4233.33323,4215.897333,4219.487076,4223.07682,4215.384512,4209.230666,4201.025538,4212.307589,4204.615282,4211.794769,4190.769128,4214.358871,4195.384513
101,0,4207.692205,4239.487076,4217.948615,4218.974256,4244.10246,4213.846051,4218.974256,4217.948615,4228.717845,4211.794769,4216.922974,4203.07682,4219.999897,4203.07682
102,0,4206.153743,4234.358871,4217.435794,4217.435794,4237.435794,4219.999897,4219.999897,4216.410153,4213.846051,4204.615282,4218.461435,4199.487077,4203.07682,4201.538359
103,0,4199.487077,4229.743486,4213.33323,4215.384512,4209.743487,4219.999897,4214.358871,4199.487077,4194.871692,4202.564,4214.871692,4186.666564,4199.999897,4198.461436
104,0,4203.589641,4229.743486,4210.256307,4220.512717,4211.281948,4213.846051,4215.897333,4206.153743,4202.564,4205.640923,4213.33323,4189.230667,4211.794769,4200.512718
105,0,4214.358871,4234.871691,4214.358871,4227.179384,4229.743486,4213.33323,4220.512717,4223.07682,4217.948615,4230.256307,4217.948615,4199.999897,4216.410153,4202.051179
106,0,4212.82041,4235.384512,4218.461435,4223.07682,4225.640922,4216.410153,4220.512717,4219.487076,4218.461435,4226.666563,4219.487076,4200.512718,4218.974256,4202.051179
107,0,4202.564,4227.179384,4215.384512,4215.897333,4208.717846,4216.922974,4219.487076,4213.846051,4211.281948,4177.948616,4216.922974,4197.435795,4218.461435,4199.487077
108,0,4201.025538,4227.692204,4212.82041,4218.461435,4213.33323,4216.410153,4216.922974,4215.897333,4206.666564,4183.076821,4217.435794,4195.384513,4212.82041,4198.461436
109,0,4204.102461,4232.307589,4214.871692,4221.025538,4235.384512,4215.897333,4215.897333,4218.461435,4202.564,4220.512717,4216.410153,4192.30759,4212.82041,4201.025538
110,0,4204.102461,4229.230666,4216.922974,4222.563999,4235.384512,4216.410153,4219.487076,4214.358871,4202.051179,4206.153743,4215.384512,4187.692205,4216.922974,4202.564
111,0,4203.07682,4228.717845,4215.384512,4225.128102,4216.922974,4220.512717,4220.512717,4204.102461,4208.205025,4185.640923,4215.384512,4184.615282,4213.33323,4197.948615
112,0,4206.153743,4239.999896,4217.948615,4225.640922,4211.281948,4217.435794,4217.948615,4209.230666,4215.897333,4211.281948,4215.384512,4189.743487,4209.743487,4199.487077
113,0,4215.897333,4246.153742,4223.58964,4229.230666,4224.615281,4208.717846,4222.051179,4227.179384,4217.435794,4225.640922,4217.435794,4199.487077,4216.922974,4213.33323
114,0,4218.461435,4235.897332,4219.487076,4231.281948,4241.025537,4210.256307,4223.58964,4228.205025,4216.922974,4194.358872,4220.512717,4204.102461,4217.435794,4216.410153
115,0,4207.179384,4227.179384,4211.794769,4220.512717,4245.128101,4221.025538,4213.33323,4209.743487,4216.410153,4187.179385,4221.025538,4197.435795,4208.205025,4201.025538
116,0,4202.564,4230.256307,4211.794769,4214.358871,4224.615281,4223.07682,4209.230666,4199.999897,4204.102461,4212.82041,4215.384512,4189.230667,4208.717846,4196.410154
117,0,4211.281948,4231.281948,4214.358871,4223.58964,4206.666564,4211.281948,4214.358871,4207.692205,4192.30759,4217.948615,4211.281948,4190.769128,4214.358871,4207.179384
118,0,4222.051179,4235.384512,4220.512717,4231.281948,4226.666563,4207.692205,4215.897333,4218.974256,4207.179384,4212.307589,4221.538358,4201.025538,4216.922974,4217.435794
119,0,4229.230666,4246.153742,4230.256307,4231.281948,4249.230665,4215.384512,4218.461435,4218.974256,4217.948615,4214.358871,4233.33323,4209.230666,4217.435794,4223.58964
120,0,4230.256307,4248.205024,4231.794768,4231.281948,4237.948614,4215.897333,4219.487076,4213.846051,4206.666564,4210.769128,4227.179384,4205.640923,4217.435794,4221.025538
121,0,4226.666563,4244.615281,4228.205025,4230.769127,4228.205025,4212.82041,4215.384512,4216.410153,4203.589641,4210.769128,4221.025538,4201.025538,4222.051179,4219.487076
122,0,4229.230666,4248.205024,4225.640922,4232.820409,4219.999897,4216.922974,4214.871692,4213.846051,4207.179384,4211.281948,4228.205025,4201.025538,4227.692204,4225.128102
123,0,4232.307589,4248.205024,4221.538358,4233.33323,4205.128102,4218.974256,4214.358871,4204.102461,4199.999897,4202.564,4224.102461,4201.538359,4218.461435,4223.58964
124,0,4227.692204,4241.538358,4215.384512,4226.153743,4200.512718,4213.33323,4207.692205,4201.025538,4196.922974,4197.948615,4212.82041,4197.948615,4211.281948,4217.435794
125,0,4235.897332,4245.640922,4213.33323,4221.025538,4208.717846,4214.871692,4205.128102,4197.435795,4199.999897,4188.717846,4218.461435,4196.922974,4230.769127,4228.717845
126,0,4264.10246,4259.487075,4225.640922,4231.281948,4223.07682,4218.974256,4213.846051,4197.948615,4198.461436,4204.615282,4234.871691,4210.256307,4256.922973,4255.384511
127,0,4288.205023,4268.205024,4239.999896,4243.58964,4219.999897,4208.717846,4218.461435,4208.717846,4196.922974,4236.922973,4242.051178,4227.179384,4269.230665,4274.87169
128,0,4295.38451,4266.666562,4238.974255,4240.512717,4218.974256,4205.640923,4208.717846,4210.256307,4201.025538,4224.102461,4246.666563,4233.33323,4278.461434,4286.666562
0,0,4297.948613,4265.128101,4234.358871,4234.358871,4229.743486,4212.82041,4202.564,4199.999897,4202.564,4215.897333,4246.153742,4226.153743,4283.076818,4293.333228
1,0,4297.948613,4265.640921,4235.897332,4235.384512,4205.128102,4208.205025,4203.07682,4194.871692,4192.30759,4218.974256,4234.358871,4219.999897,4269.230665,4294.358869
2,0,4296.410151,4262.563998,4234.871691,4236.410153,4192.30759,4201.025538,4201.538359,4197.435795,4189.230667,4194.871692,4232.307589,4224.102461,4262.051178,4294.87169
3,0,4303.589638,4264.61528,4238.974255,4234.358871,4237.435794,4217.435794,4207.692205,4205.128102,4202.564,4201.025538,4249.743486,4233.33323,4281.025536,4301.538356
4,0,4303.076818,4265.640921,4243.58964,4233.33323,4250.256306,4231.281948,4216.922974,4216.410153,4210.769128,4239.487076,4250.256306,4234.871691,4285.640921,4304.102459
5,0,4288.205023,4248.717845,4236.922973,4232.820409,4211.794769,4223.07682,4217.435794,4216.410153,4205.128102,4242.051178,4233.84605,4228.205025,4264.10246,4290.769126
6,0,4276.410152,4225.640922,4230.769127,4225.640922,4205.640923,4220.512717,4217.435794,4212.82041,4198.974256,4222.563999,4235.897332,4227.692204,4256.410152,4279.487075
7,0,4268.717844,4226.153743,4233.33323,4220.512717,4213.846051,4221.538358,4219.999897,4217.435794,4198.461436,4217.948615,4242.563999,4227.179384,4263.076819,4278.461434
8,0,4264.10246,4242.051178,4234.358871,4225.640922,4214.358871,4216.922974,4217.948615,4219.487076,4207.179384,4226.153743,4236.410153,4222.051179,4263.076819,4275.384511
9,0,4261.025537,4235.384512,4232.820409,4228.205025,4218.974256,4218.974256,4216.922974,4221.025538,4218.974256,4233.84605,4234.358871,4218.974256,4256.410152,4269.230665
10,0,4253.333229,4215.897333,4231.794768,4221.025538,4205.128102,4220.512717,4218.461435,4216.922974,4213.846051,4235.384512,4231.281948,4219.487076,4244.615281,4264.61528
11,0,4241.025537,4213.846051,4228.205025,4215.384512,4203.589641,4217.948615,4215.897333,4203.07682,4199.487077,4228.717845,4222.563999,4215.897333,4231.281948,4252.820409
12,0,4241.025537,4221.538358,4226.153743,4216.410153,4227.179384,4223.07682,4216.410153,4199.487077,4195.897333,4209.743487,4226.153743,4211.281948,4233.33323,4242.051178
13,0,4248.717845,4221.025538,4232.820409,4219.999897,4237.435794,4231.794768,4218.461435,4216.922974,4210.256307,4213.33323,4237.435794,4217.948615,4250.256306,4248.717845
14,0,4242.563999,4218.974256,4233.84605,4221.025538,4236.922973,4226.153743,4216.410153,4222.051179,4219.999897,4238.461435,4233.33323,4222.051179,4246.153742,4253.333229
15,0,4228.205025,4216.410153,4221.538358,4214.871692,4217.435794,4220.512717,4214.871692,4205.640923,4206.666564,4230.256307,4221.025538,4209.230666,4216.922974,4239.487076
16,0,4224.615281,4210.769128,4216.922974,4214.871692,4191.794769,4217.435794,4214.358871,4204.615282,4203.589641,4217.435794,4221.538358,4197.435795,4207.692205,4227.179384
17,0,4232.307589,4219.999897,4228.205025,4227.692204,4211.281948,4211.794769,4216.410153,4217.948615,4218.974256,4233.84605,4228.717845,4204.102461,4227.179384,4231.794768
18,0,4234.358871,4235.897332,4233.33323,4230.769127,4243.076819,4223.58964,4224.615281,4218.974256,4218.461435,4228.205025,4229.230666,4213.846051,4235.897332,4238.974255
19,0,4231.794768,4231.281948,4226.153743,4219.487076,4229.743486,4233.84605,4228.205025,4212.307589,4210.769128,4209.230666,4232.307589,4212.82041,4230.769127,4238.461435
20,0,4230.256307,4215.897333,4218.974256,4215.384512,4212.307589,4223.07682,4219.999897,4212.82041,4219.487076,4223.07682,4234.358871,4208.717846,4228.205025,4234.871691
21,0,4226.666563,4213.33323,4218.461435,4218.461435,4224.102461,4226.153743,4215.384512,4214.871692,4221.538358,4239.999896,4222.051179,4209.230666,4227.179384,4233.33323
22,0,4225.640922,4220.512717,4223.07682,4218.974256,4223.58964,4231.281948,4219.487076,4213.33323,4214.358871,4218.974256,4220.512717,4214.358871,4231.794768,4233.33323
23,0,4223.07682,4223.07682,4222.051179,4219.487076,4207.692205,4216.922974,4219.487076,4208.205025,4216.410153,4198.974256,4233.84605,4217.435794,4232.820409,4234.358871
24,0,4214.358871,4213.33323,4214.358871,4215.384512,4222.563999,4218.461435,4215.897333,4200.512718,4216.922974,4219.999897,4224.102461,4208.205025,4220.512717,4228.205025
25,0,4208.717846,4204.615282,4213.33323,4209.743487,4243.076819,4230.256307,4217.948615,4203.589641,4211.794769,4235.384512,4211.281948,4199.487077,4210.769128,4218.461435
26,0,4212.307589,4213.846051,4217.948615,4212.82041,4224.615281,4218.461435,4221.025538,4218.974256,4217.948615,4221.538358,4225.128102,4207.692205,4215.897333,4216.410153
27,0,4213.33323,4220.512717,4217.435794,4215.384512,4207.692205,4213.33323,4221.025538,4220.512717,4225.128102,4221.025538,4234.358871,4214.871692,4225.128102,4221.538358
28,0,4214.871692,4215.897333,4216.410153,4213.846051,4225.128102,4224.102461,4219.999897,4215.384512,4226.153743,4239.999896,4230.256307,4215.897333,4231.281948,4227.179384
29,0,4224.615281,4223.58964,4218.974256,4218.461435,4227.179384,4225.128102,4227.179384,4228.717845,4230.769127,4241.538358,4234.358871,4224.615281,4235.384512,4233.33323
30,0,4226.153743,4232.307589,4217.948615,4221.538358,4209.743487,4225.640922,4233.84605,4235.897332,4227.179384,4213.33323,4237.948614,4225.640922,4235.384512,4234.871691
31,0,4216.410153,4221.025538,4213.846051,4216.922974,4221.538358,4227.692204,4225.128102,4221.025538,4213.33323,4207.692205,4231.281948,4214.871692,4231.281948,4230.256307
32,0,4214.358871,4221.538358,4214.871692,4216.410153,4248.205024,4230.256307,4219.487076,4213.846051,4209.743487,4243.076819,4228.205025,4212.82041,4230.769127,4229.230666
33,0,4221.538358,4235.384512,4218.461435,4218.974256,4229.743486,4231.281948,4228.205025,4223.07682,4223.58964,4258.974255,4232.307589,4218.461435,4234.871691,4234.871691
34,0,4219.999897,4226.153743,4218.461435,4221.025538,4188.205026,4222.563999,4232.820409,4229.230666,4231.794768,4234.871691,4234.871691,4221.025538,4232.820409,4235.897332
35,0,4217.435794,4218.974256,4218.461435,4225.640922,4209.230666,4222.563999,4228.205025,4229.230666,4221.538358,4214.358871,4235.897332,4222.563999,4229.230666,4233.33323
36,0,4222.051179,4232.307589,4220.512717,4224.102461,4262.563998,4229.230666,4223.07682,4227.179384,4212.82041,4205.128102,4236.410153,4223.58964,4231.794768,4235.897332
37,0,4216.922974,4234.358871,4217.948615,4216.922974,4251.281947,4224.102461,4217.948615,4213.846051,4216.410153,4217.948615,4230.769127,4215.384512,4219.999897,4229.230666
38,0,4206.153743,4225.640922,4213.33323,4218.974256,4208.717846,4215.897333,4212.307589,4197.435795,4211.281948,4239.999896,4219.999897,4204.102461,4202.051179,4214.358871
39,0,4208.205025,4230.256307,4215.384512,4226.666563,4209.230666,4214.871692,4213.846051,4200.512718,4202.051179,4222.051179,4216.922974,4208.717846,4205.128102,4213.846051
40,0,4210.769128,4231.794768,4218.974256,4223.58964,4227.179384,4216.410153,4218.461435,4213.846051,4207.692205,4215.384512,4219.487076,4214.358871,4208.205025,4214.871692
41,0,4198.974256,4225.128102,4215.384512,4213.33323,4219.999897,4222.051179,4218.974256,4212.82041,4215.384512,4231.281948,4215.897333,4204.615282,4198.461436,4205.128102
42,0,4198.974256,4230.769127,4214.358871,4219.487076,4195.384513,4219.487076,4217.435794,4212.307589,4217.948615,4193.846051,4216.410153,4206.153743,4200.512718,4210.769128
43,0,4207.692205,4236.922973,4218.461435,4231.281948,4195.384513,4211.281948,4217.435794,4217.948615,4215.897333,4177.435795,4219.999897,4216.410153,4208.205025,4219.999897
44,0,4201.025538,4229.743486,4214.358871,4223.07682,4232.820409,4215.384512,4217.435794,4206.153743,4210.769128,4235.384512,4214.358871,4204.615282,4198.974256,4204.615282
45,0,4195.384513,4227.692204,4208.717846,4212.82041,4250.769127,4219.487076,4214.871692,4193.333231,4222.051179,4259.999896,4214.871692,4193.846051,4195.384513,4197.435795
46,0,4203.589641,4235.384512,4212.82041,4215.897333,4234.358871,4214.358871,4216.410153,4204.102461,4237.948614,4224.615281,4219.487076,4205.128102,4211.794769,4211.281948
47,0,4206.153743,4233.84605,4218.974256,4222.051179,4224.615281,4216.922974,4221.538358,4214.871692,4229.743486,4199.999897,4218.974256,4213.846051,4216.922974,4214.871692
48,0,4198.974256,4226.666563,4216.922974,4223.58964,4227.692204,4219.999897,4217.435794,4214.358871,4229.743486,4205.640923,4219.999897,4210.769128,4205.128102,4209.743487
49,0,4199.487077,4230.769127,4214.871692,4220.512717,4226.153743,4217.435794,4214.871692,4215.384512,4246.666563,4220.512717,4225.640922,4208.205025,4203.589641,4215.897333
50,0,4204.102461,4233.84605,4216.922974,4217.435794,4224.102461,4224.615281,4225.128102,4216.410153,4238.974255,4228.205025,4224.102461,4203.589641,4206.153743,4214.871692
51,0,4201.025538,4231.794768,4215.384512,4222.563999,4216.410153,4228.205025,4231.281948,4211.794769,4222.563999,4231.794768,4217.435794,4200.512718,4200.512718,4204.615282
52,0,4204.615282,4235.897332,4216.922974,4230.769127,4206.153743,4218.974256,4227.692204,4215.897333,4230.256307,4240.512717,4222.051179,4207.179384,4204.615282,4210.769128
53,0,4215.384512,4240.512717,4224.102461,4233.33323,4219.487076,4218.974256,4231.281948,4227.179384,4237.435794,4224.615281,4231.794768,4214.871692,4216.922974,4222.563999
54,0,4213.846051,4235.897332,4224.102461,4230.256307,4246.153742,4231.281948,4236.410153,4225.128102,4232.820409,4199.999897,4235.384512,4214.871692,4216.922974,4216.922974
55,0,4204.102461,4231.281948,4215.897333,4226.153743,4252.820409,4236.410153,4232.307589,4216.922974,4237.948614,4206.666564,4227.179384,4214.871692,4212.307589,4211.794769
56,0,4201.538359,4233.84605,4214.358871,4227.692204,4225.640922,4231.281948,4229.743486,4216.410153,4241.025537,4224.102461,4218.974256,4210.769128,4206.153743,4215.384512
57,0,4202.564,4234.358871,4215.897333,4231.281948,4205.128102,4226.153743,4226.666563,4208.205025,4228.205025,4240.512717,4213.33323,4199.487077,4195.897333,4208.205025
58,0,4201.025538,4230.769127,4213.33323,4223.58964,4224.615281,4229.743486,4225.128102,4198.974256,4228.205025,4237.948614,4210.769128,4196.922974,4195.384513,4198.461436
59,0,4200.512718,4228.205025,4212.307589,4213.846051,4249.743486,4230.256307,4226.153743,4203.589641,4235.897332,4197.948615,4218.974256,4202.564,4201.538359,4202.564
60,0,4199.487077,4230.769127,4213.846051,4217.948615,4234.358871,4217.435794,4221.025538,4204.615282,4236.410153,4195.897333,4216.410153,4199.999897,4201.025538,4203.589641
61,0,4201.025538,4236.922973,4215.897333,4225.128102,4214.871692,4218.461435,4219.999897,4200.512718,4234.871691,4239.999896,4206.666564,4196.922974,4199.999897,4198.461436
62,0,4201.025538,4228.717845,4214.871692,4220.512717,4228.717845,4231.281948,4225.640922,4199.999897,4229.230666,4222.563999,4208.717846,4197.435795,4198.461436,4198.461436
63,0,4199.487077,4219.999897,4212.82041,4216.410153,4225.640922,4225.640922,4222.051179,4200.512718,4235.897332,4187.692205,4218.461435,4197.948615,4199.487077,4203.07682
64,0,4203.07682,4227.179384,4216.922974,4224.615281,4208.717846,4213.33323,4214.871692,4205.128102,4247.692204,4208.717846,4217.948615,4201.025538,4205.640923,4204.615282
65,0,4202.564,4232.820409,4215.897333,4224.102461,4228.717845,4219.487076,4220.512717,4202.051179,4238.461435,4224.102461,4210.256307,4197.435795,4202.564,4201.025538
66,0,4196.410154,4227.179384,4208.717846,4213.33323,4245.640922,4223.58964,4221.538358,4188.205026,4224.615281,4216.922974,4208.717846,4192.30759,4194.871692,4197.948615
67,0,4202.051179,4229.743486,4210.769128,4221.025538,4231.281948,4216.922974,4215.897333,4188.717846,4229.230666,4238.974255,4212.82041,4196.922974,4198.974256,4201.025538
68,0,4215.384512,4237.948614,4221.025538,4234.871691,4227.179384,4222.051179,4222.563999,4204.615282,4244.615281,4240.512717,4218.974256,4206.153743,4212.307589,4206.153743
69,0,4215.384512,4234.871691,4222.051179,4229.743486,4231.281948,4225.640922,4227.179384,4206.153743,4244.615281,4191.794769,4218.974256,4207.179384,4214.871692,4208.717846
70,0,4212.307589,4233.33323,4214.871692,4226.666563,4214.871692,4215.384512,4216.922974,4196.410154,4232.307589,4197.948615,4214.871692,4203.589641,4212.307589,4212.82041
71,0,4212.82041,4233.33323,4214.358871,4230.769127,4206.153743,4208.717846,4212.307589,4198.974256,4228.205025,4243.58964,4214.358871,4202.051179,4213.846051,4212.82041
72,0,4206.153743,4228.205025,4212.82041,4222.051179,4224.102461,4217.948615,4219.487076,4204.102461,4236.922973,4233.33323,4214.871692,4199.487077,4211.794769,4205.128102
73,0,4197.435795,4227.179384,4206.666564,4213.33323,4236.922973,4226.153743,4216.922974,4194.358872,4234.871691,4200.512718,4214.358871,4196.922974,4204.615282,4198.974256
74,0,4202.564,4233.84605,4208.205025,4224.102461,4234.871691,4228.205025,4215.384512,4190.256308,4223.58964,4208.717846,4212.307589,4195.897333,4202.051179,4201.538359
75,0,4210.256307,4235.384512,4217.948615,4233.33323,4243.58964,4226.666563,4225.128102,4202.051179,4229.230666,4212.307589,4213.846051,4199.999897,4201.538359,4203.07682
76,0,4204.615282,4225.640922,4217.435794,4227.179384,4244.615281,4225.128102,4224.102461,4202.564,4230.256307,4189.230667,4215.384512,4200.512718,4202.564,4203.07682
77,0,4209.230666,4232.820409,4217.435794,4227.179384,4226.666563,4231.794768,4217.435794,4198.974256,4230.256307,4202.051179,4216.410153,4199.999897,4215.384512,4214.358871
78,0,4226.153743,4249.743486,4228.717845,4234.871691,4231.794768,4225.640922,4221.025538,4213.846051,4245.128101,4230.256307,4227.692204,4210.769128,4222.563999,4228.205025
79,0,4225.640922,4242.563999,4233.33323,4234.871691,4238.461435,4215.384512,4226.666563,4216.410153,4247.692204,4236.410153,4232.307589,4216.922974,4215.897333,4224.615281
80,0,4216.410153,4234.871691,4229.743486,4233.84605,4201.025538,4222.563999,4227.179384,4198.974256,4233.33323,4241.538358,4222.563999,4208.205025,4215.384512,4216.922974
81,0,4216.410153,4239.999896,4226.153743,4234.358871,4196.410154,4227.179384,4227.179384,4200.512718,4228.205025,4249.230665,4213.846051,4196.922974,4212.307589,4214.871692
82,0,4216.410153,4233.84605,4226.153743,4232.820409,4252.307588,4224.615281,4231.281948,4213.846051,4235.897332,4236.922973,4215.384512,4202.051179,4207.179384,4212.82041
83,0,4218.461435,4226.666563,4232.307589,4233.33323,4276.922972,4231.281948,4235.897332,4218.974256,4242.051178,4203.07682,4224.102461,4216.922974,4218.461435,4216.410153
84,0,4218.461435,4233.33323,4228.717845,4231.794768,4242.051178,4235.897332,4234.358871,4224.102461,4248.717845,4199.487077,4229.743486,4215.384512,4216.922974,4219.487076
85,0,4213.846051,4237.435794,4219.487076,4231.281948,4219.999897,4230.256307,4230.256307,4230.769127,4248.205024,4238.974255,4222.051179,4206.153743,4197.948615,4214.358871
86,0,4223.58964,4244.10246,4226.666563,4237.435794,4242.051178,4231.281948,4236.410153,4230.256307,4235.384512,4264.10246,4215.897333,4211.794769,4202.564,4215.897333
87,0,4234.358871,4249.743486,4236.410153,4238.974255,4256.922973,4229.743486,4240.512717,4220.512717,4229.230666,4243.58964,4223.58964,4219.999897,4218.974256,4222.051179
88,0,4222.051179,4240.512717,4227.179384,4232.307589,4230.256307,4218.974256,4229.230666,4211.794769,4234.358871,4220.512717,4228.205025,4211.281948,4211.794769,4216.410153
89,0,4212.82041,4234.358871,4220.512717,4230.769127,4198.974256,4219.487076,4219.487076,4208.205025,4232.307589,4218.974256,4223.58964,4202.564,4198.974256,4213.846051
90,0,4218.461435,4232.307589,4228.205025,4233.33323,4224.102461,4232.307589,4224.102461,4206.666564,4230.256307,4211.281948,4219.487076,4202.564,4205.640923,4216.922974
91,0,4218.974256,4233.33323,4228.205025,4230.256307,4265.128101,4234.358871,4225.640922,4206.153743,4242.051178,4220.512717,4216.922974,4206.153743,4216.922974,4218.461435
92,0,4218.461435,4242.051178,4226.153743,4228.717845,4259.487075,4222.563999,4224.615281,4212.307589,4243.076819,4256.410152,4223.58964,4213.846051,4217.948615,4222.051179
93,0,4220.512717,4240.512717,4231.794768,4230.769127,4228.717845,4216.410153,4229.743486,4218.974256,4230.256307,4249.743486,4231.281948,4215.897333,4214.871692,4221.025538
94,0,4216.410153,4230.769127,4228.717845,4231.794768,4216.922974,4219.487076,4231.281948,4212.307589,4229.230666,4211.281948,4222.563999,4207.179384,4211.281948,4213.846051
95,0,4213.33323,4231.281948,4217.435794,4230.256307,4222.563999,4220.512717,4225.640922,4203.589641,4234.871691,4219.999897,4212.307589,4199.487077,4203.589641,4211.794769
96,0,4214.871692,4234.358871,4216.410153,4228.717845,4232.820409,4216.922974,4221.025538,4208.717846,4234.358871,4241.025537,4222.051179,4204.615282,4202.564,4213.846051
97,0,4217.435794,4231.281948,4219.999897,4229.230666,4243.076819,4222.051179,4225.640922,4216.922974,4231.794768,4213.33323,4229.743486,4214.358871,4210.769128,4215.897333
98,0,4216.410153,4226.666563,4220.512717,4229.230666,4213.846051,4230.769127,4229.230666,4214.358871,4231.281948,4191.794769,4219.999897,4212.82041,4212.307589,4218.974256
99,0,4216.410153,4228.717845,4225.640922,4229.743486,4200.512718,4228.205025,4228.205025,4212.82041,4231.794768,4207.692205,4217.435794,4209.743487,4214.871692,4216.922974
100,0,4219.999897,4234.871691,4231.794768,4233.33323,4242.563999,4224.102461,4228.717845,4218.974256,4235.384512,4223.07682,4221.025538,4217.435794,4214.871692,4214.871692
101,0,4222.051179,4234.871691,4230.256307,4233.84605,4247.179383,4220.512717,4226.153743,4219.999897,4235.897332,4232.307589,4217.435794,4217.435794,4204.102461,4218.974256
102,0,4224.102461,4229.230666,4227.692204,4231.281948,4214.358871,4217.948615,4224.615281,4216.410153,4235.384512,4233.33323,4221.538358,4204.615282,4207.692205,4218.974256
103,0,4226.666563,4229.743486,4232.307589,4231.794768,4236.922973,4227.179384,4233.33323,4217.435794,4234.871691,4203.07682,4231.794768,4203.07682,4224.102461,4219.999897
104,0,4226.153743,4234.358871,4232.820409,4232.820409,4255.897332,4235.897332,4237.435794,4220.512717,4231.794768,4196.922974,4226.666563,4211.281948,4218.461435,4222.051179
105,0,4214.358871,4230.256307,4219.487076,4223.58964,4215.384512,4225.640922,4223.07682,4212.307589,4233.33323,4231.794768,4211.794769,4201.025538,4201.538359,4209.230666
106,0,4200.512718,4219.487076,4207.692205,4213.846051,4210.769128,4216.410153,4216.922974,4198.461436,4233.84605,4230.769127,4208.717846,4184.615282,4196.410154,4195.384513
107,0,4204.615282,4217.435794,4211.281948,4215.897333,4239.487076,4217.948615,4220.512717,4204.102461,4230.769127,4200.512718,4211.794769,4191.281949,4198.974256,4205.640923
108,0,4218.974256,4228.717845,4219.487076,4221.538358,4231.281948,4214.871692,4219.999897,4219.487076,4231.281948,4196.922974,4219.999897,4205.640923,4206.153743,4220.512717
109,0,4217.435794,4230.769127,4217.948615,4218.461435,4209.230666,4212.307589,4216.410153,4213.846051,4231.281948,4203.589641,4223.07682,4201.025538,4206.153743,4213.846051
110,0,4208.205025,4214.871692,4211.794769,4216.410153,4206.153743,4213.846051,4214.871692,4207.179384,4236.410153,4194.871692,4216.922974,4195.384513,4198.974256,4205.640923
111,0,4215.897333,4213.846051,4219.999897,4223.58964,4233.33323,4216.410153,4225.640922,4219.999897,4248.205024,4214.871692,4225.640922,4210.256307,4207.692205,4215.897333
112,0,4223.07682,4228.205025,4231.794768,4226.153743,4252.307588,4218.461435,4233.33323,4223.58964,4243.58964,4251.794768,4236.922973,4222.563999,4217.948615,4224.102461
113,0,4216.410153,4224.102461,4225.128102,4216.410153,4228.205025,4218.974256,4223.07682,4212.307589,4230.256307,4240.512717,4224.102461,4216.410153,4208.205025,4217.435794
114,0,4211.794769,4212.82041,4214.871692,4216.922974,4208.717846,4219.487076,4216.410153,4211.794769,4230.769127,4210.769128,4214.358871,4211.794769,4202.051179,4212.307589
115,0,4214.358871,4219.487076,4219.487076,4227.692204,4213.846051,4215.897333,4224.102461,4218.974256,4236.922973,4216.410153,4223.58964,4217.948615,4215.384512,4216.410153
116,0,4218.461435,4228.205025,4224.102461,4227.179384,4219.487076,4210.256307,4226.153743,4220.512717,4243.076819,4226.153743,4227.692204,4224.102461,4218.461435,4220.512717
117,0,4213.33323,4224.615281,4212.82041,4214.358871,4230.769127,4221.025538,4217.948615,4212.307589,4242.051178,4224.615281,4217.948615,4214.358871,4200.512718,4212.307589
118,0,4205.128102,4225.640922,4205.128102,4212.307589,4243.58964,4231.794768,4215.897333,4208.717846,4230.769127,4232.820409,4214.871692,4203.07682,4194.358872,4205.128102
119,0,4216.922974,4234.358871,4217.948615,4228.205025,4241.025537,4215.897333,4226.153743,4222.051179,4228.205025,4230.256307,4225.128102,4210.256307,4210.769128,4217.948615
120,0,4231.794768,4236.410153,4227.179384,4233.33323,4230.256307,4203.07682,4231.281948,4228.205025,4246.153742,4225.128102,4233.84605,4220.512717,4223.58964,4227.179384
121,0,4228.205025,4231.794768,4215.897333,4219.487076,4228.205025,4214.871692,4219.487076,4216.410153,4252.307588,4229.230666,4226.666563,4213.846051,4218.461435,4222.051179
122,0,4229.230666,4231.794768,4212.307589,4219.487076,4229.230666,4222.051179,4213.846051,4211.794769,4236.922973,4216.410153,4219.999897,4207.692205,4220.512717,4224.102461
123,0,4248.717845,4242.051178,4228.717845,4231.794768,4227.179384,4217.948615,4219.999897,4216.922974,4234.358871,4201.538359,4230.769127,4215.897333,4239.487076,4239.999896
124,0,4265.640921,4252.820409,4233.33323,4234.871691,4216.410153,4216.410153,4219.487076,4214.871692,4256.410152,4213.846051,4243.58964,4223.07682,4256.410152,4258.461434
125,0,4285.640921,4259.487075,4233.84605,4238.461435,4216.922974,4215.384512,4217.435794,4214.871692,4272.307588,4237.948614,4247.692204,4232.307589,4270.256306,4283.076818
126,0,4306.153741,4265.640921,4239.999896,4242.051178,4233.84605,4214.871692,4221.025538,4218.461435,4255.384511,4244.10246,4248.205024,4236.922973,4284.102459,4298.974254
127,0,4308.205023,4256.410152,4237.948614,4232.820409,4229.743486,4215.384512,4216.410153,4213.846051,4245.128101,4220.512717,4244.615281,4234.358871,4281.538357,4296.410151
128,0,4314.871689,4247.692204,4240.512717,4231.281948,4212.82041,4210.769128,4210.769128,4211.794769,4259.999896,4205.128102,4248.717845,4242.051178,4276.922972,4307.692202
0,0,4331.281945,4253.84605,4250.769127,4235.384512,4208.205025,4210.769128,4213.846051,4213.33323,4259.999896,4239.487076,4253.333229,4251.794768,4289.230664,4324.615279
1,0,4328.717843,4256.410152,4252.307588,4231.794768,4222.563999,4214.871692,4218.461435,4216.410153,4246.153742,4253.333229,4251.794768,4252.820409,4295.38451,4322.563997
2,0,4313.846048,4244.10246,4243.58964,4229.230666,4233.84605,4205.640923,4216.410153,4213.846051,4240.512717,4207.179384,4246.666563,4244.615281,4276.410152,4312.307587
3,0,4310.256305,4230.256307,4241.538358,4230.769127,4218.974256,4196.410154,4213.33323,4210.769128,4245.128101,4193.333231,4243.076819,4236.922973,4266.153742,4305.64092
4,0,4310.769125,4229.230666,4245.128101,4231.281948,4211.794769,4206.666564,4215.897333,4214.871692,4245.640922,4226.666563,4248.205024,4237.948614,4271.281947,4301.025536
5,0,4299.999895,4234.871691,4241.025537,4229.230666,4228.717845,4217.948615,4216.922974,4214.358871,4251.281947,4244.615281,4251.281947,4239.487076,4268.205024,4292.820408
6,0,4288.205023,4235.384512,4232.307589,4227.692204,4228.205025,4214.871692,4214.871692,4208.205025,4259.999896,4225.640922,4239.487076,4234.358871,4263.076819,4284.102459
7,0,4281.538357,4231.794768,4229.743486,4230.256307,4213.33323,4213.33323,4216.410153,4208.205025,4252.307588,4212.82041,4230.256307,4228.717845,4259.487075,4277.435793
8,0,4275.897331,4231.281948,4232.820409,4228.717845,4227.179384,4220.512717,4219.999897,4212.82041,4241.538358,4225.128102,4233.84605,4232.820409,4248.205024,4270.769126
9,0,4269.743485,4226.666563,4234.871691,4222.563999,4234.358871,4217.948615,4219.487076,4215.897333,4247.692204,4227.692204,4235.897332,4237.435794,4236.922973,4267.692203
10,0,4259.999896,4214.871692,4229.230666,4216.922974,4217.948615,4211.281948,4214.358871,4213.33323,4252.820409,4215.897333,4226.666563,4227.179384,4229.743486,4258.461434
11,0,4253.333229,4213.846051,4222.563999,4214.871692,4218.461435,4220.512717,4215.897333,4211.794769,4244.615281,4217.435794,4224.615281,4215.897333,4227.692204,4248.717845
12,0,4261.538357,4226.666563,4228.205025,4223.58964,4215.897333,4229.230666,4228.205025,4226.666563,4255.384511,4235.897332,4238.461435,4227.179384,4236.410153,4252.820409
13,0,4268.717844,4231.794768,4237.948614,4234.358871,4204.102461,4220.512717,4232.820409,4244.615281,4275.384511,4225.640922,4248.717845,4239.487076,4243.58964,4263.589639
14,0,4251.794768,4218.974256,4227.692204,4226.666563,4231.281948,4211.281948,4221.538358,4232.820409,4261.025537,4193.846051,4238.974255,4222.563999,4228.205025,4251.281947
15,0,4229.743486,4212.82041,4213.846051,4213.33323,4257.948614,4216.410153,4216.410153,4214.358871,4241.538358,4210.256307,4220.512717,4209.230666,4214.871692,4229.743486
16,0,4229.743486,4215.384512,4214.358871,4214.871692,4233.33323,4221.025538,4221.538358,4217.948615,4246.666563,4254.35887,4216.410153,4212.307589,4220.512717,4228.205025
17,0,4227.179384,4207.179384,4215.897333,4217.435794,4216.922974,4216.410153,4218.974256,4220.512717,4251.794768,4246.666563,4223.07682,4207.179384,4219.487076,4230.769127
18,0,4218.461435,4198.974256,4215.897333,4213.33323,4224.102461,4210.769128,4215.384512,4217.435794,4248.205024,4209.743487,4228.717845,4207.179384,4213.846051,4227.692204
19,0,4221.025538,4198.974256,4216.922974,4212.307589,4203.589641,4210.256307,4221.025538,4220.512717,4245.640922,4197.435795,4232.820409,4216.410153,4223.58964,4226.666563
20,0,4225.128102,4203.589641,4217.948615,4214.358871,4201.025538,4214.871692,4222.051179,4221.025538,4247.692204,4203.07682,4229.743486,4217.948615,4233.84605,4232.307589
21,0,4221.538358,4208.205025,4214.871692,4214.358871,4237.948614,4213.33323,4214.871692,4219.487076,4256.922973,4234.358871,4221.538358,4215.897333,4227.179384,4233.33323
22,0,4214.871692,4201.538359,4204.102461,4210.769128,4244.615281,4213.33323,4212.307589,4213.846051,4253.333229,4259.999896,4211.794769,4211.794769,4208.205025,4221.025538
23,0,4216.410153,4203.589641,4204.102461,4213.33323,4213.846051,4215.384512,4216.410153,4208.205025,4235.897332,4233.84605,4215.897333,4208.205025,4205.640923,4216.410153
24,0,4222.563999,4214.871692,4216.922974,4223.58964,4204.102461,4210.256307,4217.948615,4214.871692,4236.410153,4194.358872,4230.256307,4214.871692,4221.025538,4222.563999
25,0,4221.538358,4209.743487,4215.897333,4217.948615,4226.666563,4208.717846,4216.410153,4223.58964,4254.35887,4182.05118,4230.256307,4216.922974,4224.615281,4218.461435
26,0,4212.307589,4197.435795,4203.07682,4203.07682,4236.410153,4214.871692,4217.435794,4218.461435,4259.999896,4209.230666,4218.974256,4205.128102,4212.82041,4213.846051
27,0,4204.102461,4201.025538,4195.384513,4199.487077,4216.410153,4216.410153,4215.897333,4211.281948,4251.281947,4243.58964,4215.384512,4199.999897,4211.281948,4214.358871
28,0,4204.102461,4198.974256,4192.82041,4204.615282,4198.974256,4214.358871,4213.846051,4210.256307,4241.538358,4222.563999,4217.435794,4198.461436,4217.435794,4206.666564
