title:JTA                                                                             , recorded:03.07.20 12.31.51, sampling:128, subject:JTA                                                                             , labels:COUNTER INTERPOLATED AF3 F7 F3 FC5 T7 P7 O1 O2 P8 T8 FC6 F4 F8 AF4,, units:emotiv,,,,,,,,,
114,0,4224.102461,4224.102461,4226.153743,4217.435794,4203.07682,4218.461435,4214.871692,4227.179384,4216.922974,4209.743487,4214.358871,4212.82041,4213.33323,4205.128102
115,0,4227.179384,4221.538358,4231.281948,4222.563999,4217.435794,4216.922974,4215.897333,4230.256307,4216.410153,4226.666563,4226.666563,4215.384512,4224.615281,4217.948615
116,0,4230.769127,4217.948615,4231.794768,4219.487076,4225.128102,4226.153743,4214.358871,4231.794768,4218.974256,4225.128102,4233.84605,4218.461435,4228.205025,4222.051179
117,0,4229.743486,4217.435794,4227.692204,4215.384512,4216.410153,4233.33323,4214.871692,4229.230666,4218.461435,4210.256307,4231.794768,4218.974256,4214.871692,4215.897333
118,0,4226.666563,4226.153743,4229.743486,4217.435794,4217.435794,4225.640922,4217.948615,4230.256307,4218.461435,4219.487076,4229.230666,4219.487076,4219.999897,4216.410153
119,0,4222.563999,4226.666563,4230.256307,4218.974256,4216.410153,4215.897333,4217.435794,4227.692204,4216.922974,4237.435794,4223.07682,4214.358871,4230.769127,4218.461435
120,0,4217.948615,4217.948615,4221.538358,4216.922974,4198.461436,4217.435794,4212.307589,4218.461435,4214.358871,4226.666563,4215.384512,4203.589641,4216.410153,4212.307589
121,0,4217.948615,4215.384512,4216.922974,4216.410153,4196.922974,4217.948615,4203.589641,4212.82041,4213.33323,4202.564,4212.82041,4199.999897,4208.205025,4207.692205
122,0,4218.974256,4219.999897,4224.102461,4217.435794,4228.717845,4215.897333,4201.025538,4214.358871,4213.33323,4189.743487,4220.512717,4204.615282,4218.461435,4210.256307
123,0,4223.07682,4221.025538,4230.769127,4217.435794,4236.922973,4223.58964,4208.717846,4216.410153,4213.846051,4202.051179,4225.640922,4204.102461,4218.974256,4214.358871
124,0,4229.743486,4220.512717,4230.256307,4221.025538,4212.307589,4230.769127,4214.871692,4217.435794,4214.871692,4218.974256,4224.615281,4201.538359,4217.435794,4213.846051
125,0,4233.33323,4228.717845,4231.794768,4230.256307,4210.256307,4230.256307,4215.897333,4226.153743,4216.922974,4221.538358,4230.769127,4211.281948,4227.692204,4216.922974
126,0,4235.897332,4234.358871,4234.871691,4232.820409,4216.922974,4228.205025,4217.435794,4236.410153,4219.487076,4224.615281,4233.84605,4219.487076,4232.820409,4223.07682
127,0,4234.358871,4229.743486,4232.307589,4221.025538,4207.692205,4229.230666,4217.948615,4233.33323,4217.948615,4223.07682,4219.487076,4211.794769,4224.615281,4216.922974
128,0,4229.743486,4226.153743,4229.230666,4216.410153,4215.384512,4230.769127,4215.384512,4227.179384,4215.897333,4215.897333,4212.307589,4206.666564,4219.999897,4213.33323
0,0,4232.307589,4233.33323,4233.33323,4228.717845,4239.487076,4232.307589,4217.948615,4233.33323,4218.974256,4219.999897,4226.153743,4214.358871,4229.743486,4223.07682
1,0,4234.871691,4238.974255,4234.358871,4228.717845,4242.563999,4228.205025,4222.051179,4233.84605,4218.974256,4209.230666,4228.717845,4216.922974,4237.435794,4227.179384
2,0,4229.230666,4227.692204,4225.128102,4213.846051,4222.563999,4222.563999,4213.33323,4218.461435,4213.33323,4187.692205,4216.922974,4210.769128,4225.128102,4216.922974
3,0,4230.256307,4228.205025,4222.563999,4221.025538,4202.051179,4222.563999,4202.564,4216.922974,4214.871692,4224.102461,4222.051179,4210.769128,4216.922974,4212.82041
4,0,4235.897332,4243.58964,4232.307589,4235.384512,4210.256307,4220.512717,4204.102461,4232.820409,4221.025538,4268.205024,4233.33323,4217.948615,4227.692204,4220.512717
5,0,4233.84605,4236.410153,4231.281948,4225.128102,4238.461435,4224.615281,4210.769128,4234.358871,4217.948615,4233.84605,4224.102461,4217.435794,4233.33323,4221.025538
6,0,4229.743486,4219.487076,4219.487076,4215.384512,4239.999896,4233.33323,4213.846051,4226.153743,4213.846051,4198.974256,4218.974256,4209.743487,4233.33323,4217.435794
7,0,4229.743486,4225.640922,4215.897333,4217.948615,4229.230666,4230.256307,4214.871692,4229.230666,4215.897333,4214.358871,4226.153743,4201.538359,4229.230666,4215.897333
8,0,4230.769127,4235.897332,4219.999897,4219.999897,4232.307589,4223.58964,4214.871692,4232.307589,4216.922974,4221.538358,4222.563999,4201.025538,4222.051179,4211.281948
9,0,4231.794768,4232.820409,4219.487076,4224.102461,4221.538358,4228.717845,4214.871692,4230.256307,4218.461435,4219.487076,4218.461435,4207.692205,4223.58964,4209.743487
10,0,4228.205025,4230.769127,4217.435794,4225.640922,4214.871692,4232.307589,4214.871692,4228.205025,4219.487076,4229.230666,4225.640922,4211.281948,4231.281948,4214.358871
11,0,4226.153743,4230.256307,4218.974256,4218.974256,4241.025537,4231.794768,4216.410153,4228.205025,4217.948615,4233.84605,4230.769127,4211.281948,4228.205025,4217.948615
12,0,4231.281948,4230.256307,4219.999897,4216.922974,4244.615281,4231.281948,4216.922974,4232.307589,4217.948615,4234.871691,4228.717845,4212.82041,4228.717845,4217.948615
13,0,4234.358871,4233.84605,4219.999897,4223.07682,4220.512717,4222.563999,4206.666564,4227.692204,4217.435794,4226.666563,4221.538358,4213.33323,4237.435794,4216.922974
14,0,4229.230666,4232.307589,4224.102461,4227.692204,4217.435794,4212.82041,4195.897333,4214.871692,4213.33323,4206.666564,4216.922974,4211.281948,4231.794768,4216.410153
15,0,4230.256307,4230.256307,4231.281948,4231.794768,4217.948615,4215.897333,4204.102461,4219.999897,4213.846051,4211.794769,4228.205025,4214.871692,4228.717845,4221.025538
16,0,4241.025537,4233.84605,4234.871691,4231.281948,4222.563999,4227.692204,4220.512717,4236.410153,4221.025538,4235.384512,4238.461435,4221.025538,4236.922973,4225.128102
17,0,4241.025537,4234.358871,4233.84605,4223.07682,4244.615281,4228.717845,4217.948615,4232.307589,4219.999897,4239.487076,4229.743486,4218.461435,4231.794768,4216.922974
18,0,4231.794768,4232.820409,4231.281948,4217.948615,4237.948614,4219.487076,4206.153743,4214.358871,4208.717846,4214.358871,4215.897333,4214.871692,4218.461435,4209.230666
19,0,4228.717845,4230.256307,4228.205025,4222.563999,4207.179384,4221.025538,4209.743487,4211.281948,4206.153743,4193.333231,4212.82041,4214.358871,4215.384512,4212.82041
20,0,4233.84605,4232.820409,4228.717845,4227.692204,4211.794769,4229.743486,4219.999897,4224.102461,4216.410153,4218.974256,4222.563999,4215.384512,4221.538358,4216.410153
21,0,4244.10246,4238.974255,4232.307589,4227.179384,4238.461435,4227.692204,4219.487076,4235.897332,4222.563999,4245.640922,4232.307589,4215.384512,4230.769127,4216.410153
22,0,4246.666563,4238.461435,4235.897332,4229.230666,4241.538358,4226.666563,4215.384512,4233.33323,4219.487076,4225.640922,4231.794768,4216.922974,4236.410153,4217.948615
23,0,4235.384512,4231.794768,4230.769127,4227.179384,4224.615281,4229.230666,4214.358871,4222.563999,4216.410153,4210.769128,4222.563999,4213.846051,4231.281948,4211.281948
24,0,4226.153743,4229.743486,4219.487076,4220.512717,4221.538358,4221.538358,4207.692205,4214.358871,4213.846051,4214.871692,4210.256307,4204.615282,4221.538358,4200.512718
25,0,4230.256307,4233.33323,4221.025538,4222.051179,4230.256307,4216.410153,4200.512718,4210.769128,4214.871692,4206.666564,4212.307589,4202.564,4217.435794,4206.666564
26,0,4230.769127,4231.281948,4229.230666,4224.102461,4222.563999,4218.974256,4198.974256,4208.717846,4212.307589,4209.743487,4220.512717,4207.692205,4212.82041,4217.435794
27,0,4230.769127,4229.743486,4227.692204,4217.948615,4215.897333,4217.435794,4204.102461,4208.717846,4208.205025,4232.820409,4217.435794,4209.230666,4216.410153,4212.307589
28,0,4236.922973,4232.820409,4227.692204,4219.999897,4231.281948,4215.384512,4213.33323,4215.897333,4212.82041,4238.974255,4218.461435,4213.846051,4229.743486,4211.794769
29,0,4234.358871,4233.33323,4232.307589,4227.692204,4238.974255,4217.948615,4213.846051,4218.461435,4218.461435,4223.07682,4229.230666,4217.435794,4233.84605,4218.461435
30,0,4233.33323,4232.307589,4230.256307,4227.179384,4230.256307,4222.563999,4212.307589,4216.410153,4216.410153,4210.769128,4229.743486,4216.410153,4235.384512,4217.435794
31,0,4244.10246,4240.512717,4232.307589,4229.230666,4237.435794,4232.307589,4222.563999,4226.666563,4216.922974,4219.999897,4227.179384,4224.615281,4245.640922,4222.051179
32,0,4252.307588,4253.84605,4244.10246,4235.897332,4235.897332,4238.974255,4226.666563,4238.974255,4228.717845,4234.871691,4239.487076,4237.435794,4251.794768,4234.358871
33,0,4251.281947,4250.769127,4248.205024,4237.435794,4211.281948,4233.33323,4215.897333,4234.871691,4232.307589,4236.922973,4245.128101,4234.871691,4250.256306,4230.769127
34,0,4248.205024,4234.358871,4239.487076,4234.871691,4213.846051,4227.692204,4214.358871,4226.666563,4223.07682,4238.974255,4233.84605,4222.563999,4244.615281,4218.461435
35,0,4239.999896,4231.794768,4231.281948,4230.769127,4246.153742,4229.743486,4220.512717,4229.743486,4216.410153,4248.205024,4229.743486,4217.948615,4233.33323,4213.846051
36,0,4234.358871,4242.563999,4233.84605,4230.769127,4258.461434,4232.820409,4218.974256,4233.33323,4218.461435,4245.128101,4231.794768,4220.512717,4227.179384,4214.358871
37,0,4234.358871,4239.999896,4235.897332,4232.307589,4233.84605,4230.769127,4215.897333,4228.717845,4217.948615,4218.461435,4225.640922,4219.487076,4230.256307,4213.846051
38,0,4232.820409,4231.794768,4232.307589,4230.769127,4214.358871,4229.230666,4216.410153,4226.666563,4215.897333,4207.692205,4223.07682,4215.897333,4234.871691,4213.846051
39,0,4232.820409,4233.33323,4232.820409,4230.769127,4224.615281,4230.769127,4215.384512,4234.358871,4221.538358,4235.384512,4230.769127,4216.922974,4235.384512,4213.846051
40,0,4235.384512,4234.358871,4233.84605,4230.769127,4239.487076,4228.717845,4215.897333,4233.33323,4219.487076,4247.179383,4230.769127,4216.922974,4229.230666,4213.33323
41,0,4235.384512,4233.33323,4232.307589,4230.769127,4232.820409,4226.153743,4217.435794,4222.563999,4215.897333,4221.025538,4226.666563,4216.410153,4232.820409,4215.384512
42,0,4233.33323,4234.871691,4229.743486,4228.205025,4226.153743,4231.281948,4215.897333,4219.999897,4223.07682,4213.846051,4220.512717,4216.410153,4243.58964,4213.846051
43,0,4232.307589,4234.358871,4226.153743,4222.563999,4238.461435,4231.281948,4214.358871,4223.58964,4225.640922,4238.461435,4217.435794,4212.82041,4237.435794,4208.205025
44,0,4231.281948,4232.307589,4227.179384,4222.051179,4235.897332,4218.974256,4213.846051,4219.999897,4218.461435,4234.871691,4226.153743,4212.82041,4227.692204,4210.256307
45,0,4230.769127,4230.769127,4227.692204,4227.692204,4214.358871,4213.33323,4213.33323,4213.846051,4212.307589,4208.205025,4231.281948,4215.384512,4229.230666,4215.897333
46,0,4230.769127,4231.794768,4222.563999,4227.692204,4220.512717,4224.102461,4215.384512,4219.999897,4215.897333,4212.82041,4225.640922,4215.384512,4230.256307,4216.410153
47,0,4229.230666,4232.307589,4222.051179,4226.153743,4236.922973,4234.358871,4218.461435,4231.281948,4228.717845,4238.461435,4226.153743,4216.410153,4230.256307,4215.384512
48,0,4232.307589,4233.33323,4228.717845,4230.256307,4232.307589,4233.84605,4218.461435,4233.33323,4232.820409,4237.948614,4230.769127,4219.487076,4234.871691,4217.435794
49,0,4238.461435,4237.435794,4231.794768,4232.820409,4238.461435,4230.769127,4217.435794,4230.256307,4220.512717,4228.205025,4228.205025,4217.948615,4233.33323,4217.948615
50,0,4237.948614,4245.128101,4232.307589,4231.794768,4251.281947,4231.794768,4216.922974,4228.717845,4213.33323,4237.435794,4225.128102,4216.410153,4225.640922,4217.948615
51,0,4234.358871,4246.153742,4230.769127,4231.794768,4229.230666,4233.33323,4215.897333,4221.538358,4217.948615,4231.794768,4223.07682,4216.410153,4220.512717,4216.922974
52,0,4235.384512,4237.948614,4227.179384,4230.769127,4213.846051,4232.307589,4215.897333,4216.410153,4216.922974,4216.410153,4217.948615,4214.358871,4217.948615,4214.871692
53,0,4233.84605,4233.84605,4228.717845,4229.743486,4241.538358,4232.820409,4218.461435,4225.640922,4217.435794,4219.999897,4217.435794,4213.846051,4215.897333,4215.384512
54,0,4234.358871,4239.487076,4231.794768,4232.307589,4255.897332,4236.410153,4226.153743,4233.33323,4223.58964,4223.07682,4223.58964,4217.435794,4217.948615,4217.435794
55,0,4241.538358,4249.743486,4232.307589,4234.871691,4234.871691,4236.410153,4229.743486,4231.794768,4223.07682,4218.461435,4227.179384,4224.102461,4227.179384,4219.487076
56,0,4239.999896,4244.10246,4230.256307,4231.794768,4226.666563,4233.33323,4222.051179,4226.666563,4218.461435,4212.82041,4219.999897,4224.102461,4232.307589,4217.435794
57,0,4230.769127,4233.33323,4229.743486,4228.205025,4234.358871,4233.84605,4216.922974,4221.538358,4217.948615,4212.307589,4216.410153,4218.461435,4228.717845,4213.846051
58,0,4232.307589,4237.948614,4231.794768,4229.230666,4222.051179,4229.743486,4217.435794,4218.461435,4219.487076,4222.563999,4221.025538,4216.922974,4223.07682,4215.897333
59,0,4234.358871,4241.538358,4226.666563,4229.743486,4204.102461,4222.051179,4209.230666,4217.435794,4218.974256,4228.205025,4217.435794,4218.974256,4214.871692,4216.410153
60,0,4223.58964,4230.769127,4217.435794,4229.230666,4221.538358,4223.07682,4205.640923,4216.922974,4214.358871,4215.384512,4211.794769,4213.33323,4207.692205,4204.615282
61,0,4215.384512,4225.128102,4216.922974,4227.692204,4248.205024,4226.153743,4215.384512,4215.897333,4211.281948,4209.230666,4214.358871,4203.589641,4211.794769,4195.384513
62,0,4224.102461,4230.769127,4217.948615,4225.640922,4237.948614,4223.58964,4215.384512,4215.897333,4215.897333,4222.051179,4214.358871,4203.07682,4220.512717,4204.615282
63,0,4232.307589,4232.820409,4218.461435,4230.769127,4227.692204,4224.102461,4213.33323,4222.563999,4223.58964,4232.820409,4216.922974,4208.717846,4215.384512,4213.846051
64,0,4222.563999,4232.307589,4218.974256,4231.281948,4234.358871,4231.281948,4224.615281,4233.84605,4221.538358,4228.717845,4214.871692,4207.179384,4203.589641,4205.640923
65,0,4212.307589,4230.256307,4214.871692,4221.538358,4217.435794,4227.692204,4227.179384,4232.307589,4214.871692,4217.435794,4204.615282,4199.487077,4206.153743,4195.897333
66,0,4215.897333,4224.102461,4212.82041,4219.999897,4208.717846,4218.974256,4214.358871,4219.999897,4213.846051,4207.179384,4204.615282,4198.974256,4215.897333,4198.461436
67,0,4218.461435,4224.102461,4216.410153,4224.615281,4234.871691,4222.051179,4210.769128,4213.33323,4214.871692,4204.615282,4205.640923,4201.025538,4210.256307,4200.512718
68,0,4216.922974,4232.820409,4215.384512,4219.999897,4243.076819,4230.256307,4214.871692,4211.794769,4214.358871,4219.487076,4200.512718,4198.461436,4203.589641,4196.410154
69,0,4221.025538,4235.897332,4211.794769,4217.435794,4229.743486,4231.794768,4213.846051,4214.358871,4217.435794,4235.384512,4205.640923,4195.897333,4214.358871,4197.948615
70,0,4228.717845,4232.820409,4215.384512,4225.128102,4232.307589,4228.717845,4214.871692,4216.922974,4219.999897,4219.999897,4218.461435,4198.974256,4225.128102,4207.692205
71,0,4239.487076,4239.487076,4222.563999,4231.794768,4231.794768,4233.84605,4218.461435,4218.974256,4218.461435,4206.666564,4224.615281,4210.256307,4231.794768,4221.538358
72,0,4249.230665,4250.256306,4227.179384,4232.307589,4228.717845,4234.358871,4218.461435,4222.051179,4218.461435,4228.717845,4225.128102,4215.897333,4241.025537,4230.769127
73,0,4249.230665,4246.153742,4225.640922,4231.281948,4227.179384,4223.07682,4215.384512,4222.563999,4219.487076,4229.230666,4226.666563,4213.846051,4248.717845,4233.84605
74,0,4252.820409,4241.025537,4225.640922,4228.717845,4212.307589,4216.922974,4212.307589,4219.487076,4217.948615,4196.410154,4228.205025,4214.358871,4253.333229,4238.974255
75,0,4268.205024,4250.769127,4228.205025,4230.256307,4214.358871,4220.512717,4209.230666,4218.974256,4216.410153,4204.102461,4229.230666,4218.461435,4256.410152,4249.230665
76,0,4287.179382,4261.025537,4233.33323,4239.487076,4234.358871,4220.512717,4203.589641,4219.999897,4219.487076,4242.051178,4229.230666,4223.58964,4264.61528,4260.512716
77,0,4304.102459,4266.153742,4237.435794,4247.179383,4238.461435,4215.384512,4202.564,4210.256307,4220.512717,4240.512717,4234.871691,4228.717845,4279.999895,4272.820408
78,0,4313.846048,4268.205024,4237.948614,4246.153742,4226.153743,4222.563999,4204.102461,4202.564,4214.871692,4222.051179,4237.435794,4225.128102,4278.974254,4279.999895
79,0,4314.871689,4268.205024,4237.948614,4243.58964,4217.948615,4233.33323,4202.051179,4208.205025,4212.82041,4224.615281,4229.743486,4218.974256,4263.076819,4281.025536
80,0,4321.025535,4271.281947,4244.10246,4244.10246,4226.153743,4229.230666,4210.256307,4215.384512,4214.871692,4216.922974,4229.230666,4226.153743,4265.128101,4285.1281
81,0,4331.281945,4275.897331,4248.717845,4246.666563,4234.871691,4220.512717,4215.384512,4213.846051,4213.33323,4202.051179,4240.512717,4234.871691,4283.589639,4294.87169
82,0,4328.717843,4275.897331,4247.692204,4251.794768,4219.999897,4215.897333,4202.051179,4207.179384,4211.794769,4220.512717,4249.743486,4232.307589,4285.1281,4297.948613
83,0,4321.538356,4278.974254,4247.692204,4253.84605,4213.846051,4213.33323,4200.512718,4209.743487,4217.948615,4247.692204,4246.153742,4229.743486,4279.487075,4289.230664
84,0,4313.846048,4282.051177,4245.128101,4247.179383,4244.10246,4221.025538,4217.435794,4217.948615,4222.051179,4242.563999,4234.358871,4231.794768,4276.922972,4279.487075
85,0,4301.538356,4270.769126,4243.58964,4242.563999,4251.281947,4228.205025,4219.487076,4218.974256,4218.461435,4225.128102,4228.717845,4229.230666,4270.769126,4273.846049
86,0,4295.38451,4263.589639,4244.615281,4245.640922,4228.717845,4224.102461,4212.82041,4217.948615,4213.846051,4224.615281,4232.307589,4223.58964,4268.717844,4271.794767
87,0,4286.666562,4261.538357,4233.33323,4241.538358,4223.58964,4221.025538,4214.871692,4216.410153,4213.846051,4214.871692,4229.743486,4216.922974,4258.974255,4260.512716
88,0,4266.666562,4246.666563,4216.410153,4231.794768,4224.615281,4222.051179,4209.743487,4206.666564,4214.871692,4204.615282,4217.948615,4206.666564,4234.871691,4238.461435
89,0,4250.256306,4230.769127,4212.307589,4227.179384,4222.563999,4223.07682,4204.615282,4198.974256,4214.358871,4216.410153,4210.769128,4199.487077,4225.128102,4227.179384
90,0,4246.666563,4231.281948,4215.384512,4227.692204,4228.205025,4227.179384,4212.82041,4207.692205,4213.846051,4222.563999,4212.82041,4199.487077,4230.769127,4228.205025
91,0,4246.153742,4238.461435,4220.512717,4228.717845,4235.897332,4231.281948,4216.410153,4215.897333,4217.435794,4217.435794,4216.410153,4203.589641,4230.256307,4223.07682
92,0,4243.58964,4232.820409,4223.58964,4229.743486,4228.205025,4224.615281,4210.769128,4215.897333,4218.461435,4218.461435,4212.307589,4205.128102,4228.205025,4215.897333
93,0,4243.58964,4228.205025,4222.563999,4228.205025,4216.410153,4218.461435,4210.769128,4215.384512,4218.974256,4208.717846,4213.33323,4207.179384,4232.820409,4218.461435
94,0,4245.128101,4238.461435,4225.640922,4227.179384,4223.58964,4219.487076,4216.922974,4217.435794,4225.128102,4199.487077,4225.640922,4213.33323,4234.871691,4223.07682
95,0,4246.666563,4246.666563,4231.281948,4232.820409,4233.84605,4225.640922,4215.897333,4225.128102,4229.230666,4226.666563,4231.281948,4217.435794,4232.820409,4226.153743
96,0,4245.640922,4239.487076,4228.205025,4234.871691,4232.307589,4230.769127,4215.384512,4230.256307,4229.743486,4244.10246,4228.717845,4216.410153,4230.256307,4227.179384
97,0,4244.615281,4232.307589,4225.128102,4232.820409,4224.615281,4227.692204,4216.922974,4228.205025,4227.179384,4220.512717,4227.179384,4215.384512,4229.230666,4221.025538
98,0,4237.435794,4231.281948,4224.615281,4229.743486,4217.435794,4226.666563,4216.922974,4227.692204,4220.512717,4213.33323,4221.538358,4214.358871,4230.769127,4214.871692
99,0,4230.769127,4238.461435,4225.640922,4231.794768,4208.717846,4232.307589,4223.58964,4229.743486,4219.999897,4232.307589,4216.922974,4211.794769,4233.33323,4216.410153
100,0,4241.025537,4247.692204,4231.281948,4239.999896,4220.512717,4236.922973,4234.358871,4228.717845,4229.230666,4227.692204,4226.666563,4214.358871,4233.84605,4222.051179
101,0,4249.743486,4244.615281,4232.820409,4242.051178,4243.076819,4234.871691,4231.794768,4232.820409,4234.358871,4208.717846,4235.384512,4217.948615,4230.769127,4223.58964
102,0,4240.512717,4238.974255,4230.769127,4235.897332,4242.051178,4232.307589,4227.692204,4241.025537,4232.820409,4225.128102,4231.281948,4216.922974,4229.743486,4220.512717
103,0,4232.307589,4244.615281,4229.743486,4233.84605,4232.820409,4232.820409,4231.794768,4238.461435,4232.307589,4245.128101,4221.538358,4213.33323,4227.692204,4214.871692
104,0,4231.794768,4240.512717,4221.538358,4232.307589,4225.640922,4231.281948,4225.128102,4229.230666,4229.230666,4219.999897,4213.846051,4205.128102,4217.435794,4205.640923
105,0,4229.230666,4229.743486,4216.410153,4228.205025,4217.435794,4229.230666,4214.871692,4229.230666,4228.717845,4197.948615,4213.846051,4199.999897,4212.82041,4201.025538
106,0,4230.769127,4233.33323,4222.051179,4231.794768,4214.358871,4231.281948,4221.025538,4232.307589,4231.281948,4203.07682,4217.435794,4203.07682,4215.384512,4204.102461
107,0,4228.205025,4230.256307,4220.512717,4232.307589,4216.410153,4234.871691,4227.179384,4223.58964,4226.153743,4199.487077,4215.384512,4203.07682,4206.153743,4203.07682
108,0,4218.461435,4221.538358,4214.871692,4224.615281,4221.025538,4232.820409,4224.102461,4221.025538,4223.58964,4203.589641,4214.358871,4199.487077,4198.974256,4201.538359
109,0,4220.512717,4227.179384,4216.922974,4226.666563,4230.256307,4229.743486,4220.512717,4231.281948,4229.230666,4215.384512,4215.384512,4202.051179,4206.153743,4202.051179
110,0,4228.205025,4226.153743,4219.487076,4231.281948,4227.692204,4230.769127,4217.948615,4234.871691,4229.743486,4202.564,4213.33323,4203.589641,4215.384512,4200.512718
111,0,4224.615281,4214.358871,4217.435794,4225.128102,4206.666564,4231.794768,4220.512717,4225.640922,4224.615281,4201.025538,4213.846051,4203.07682,4217.948615,4207.692205
112,0,4217.948615,4217.435794,4217.435794,4224.102461,4206.153743,4228.717845,4228.717845,4227.179384,4227.179384,4223.58964,4218.974256,4204.615282,4215.897333,4218.974256
113,0,4218.974256,4232.307589,4218.461435,4230.769127,4218.461435,4230.769127,4235.384512,4243.076819,4232.820409,4216.410153,4218.974256,4204.615282,4214.871692,4219.999897
114,0,4218.461435,4230.769127,4218.461435,4226.666563,4220.512717,4237.948614,4232.307589,4242.051178,4229.230666,4194.358872,4212.82041,4201.025538,4215.897333,4214.871692
115,0,4215.384512,4219.999897,4215.897333,4220.512717,4226.666563,4235.897332,4222.051179,4228.717845,4226.666563,4204.615282,4214.358871,4198.461436,4214.358871,4214.358871
116,0,4216.922974,4222.563999,4215.384512,4226.153743,4228.205025,4228.205025,4213.33323,4227.179384,4230.769127,4221.538358,4220.512717,4200.512718,4211.794769,4212.82041
117,0,4218.461435,4230.256307,4218.974256,4230.256307,4217.435794,4228.205025,4217.435794,4230.769127,4230.769127,4216.922974,4219.487076,4202.564,4213.33323,4211.281948
118,0,4217.948615,4230.769127,4219.999897,4229.230666,4215.897333,4230.256307,4224.102461,4225.640922,4227.179384,4207.692205,4217.948615,4203.589641,4218.461435,4215.897333
119,0,4217.435794,4229.743486,4216.922974,4230.256307,4220.512717,4227.692204,4220.512717,4225.128102,4227.179384,4212.307589,4218.461435,4201.025538,4220.512717,4216.410153
120,0,4215.897333,4229.743486,4216.410153,4226.153743,4214.871692,4225.640922,4217.948615,4234.358871,4233.33323,4229.230666,4217.435794,4197.435795,4216.922974,4209.743487
121,0,4210.769128,4221.538358,4214.871692,4217.435794,4213.846051,4227.179384,4217.435794,4233.33323,4231.281948,4236.922973,4212.307589,4194.871692,4208.205025,4201.538359
122,0,4210.256307,4214.358871,4212.307589,4216.410153,4224.102461,4229.743486,4219.487076,4227.179384,4219.487076,4217.948615,4207.179384,4190.256308,4207.692205,4198.974256
123,0,4214.871692,4222.051179,4214.358871,4224.615281,4229.230666,4229.743486,4221.025538,4230.256307,4219.487076,4194.871692,4210.769128,4188.205026,4217.948615,4206.153743
124,0,4216.922974,4231.794768,4217.435794,4229.743486,4235.384512,4229.743486,4220.512717,4232.307589,4229.743486,4204.102461,4226.666563,4193.333231,4227.692204,4215.897333
125,0,4214.871692,4231.281948,4216.410153,4226.666563,4228.205025,4233.33323,4221.538358,4227.179384,4230.769127,4228.205025,4231.794768,4197.435795,4229.230666,4217.435794
126,0,4218.461435,4229.230666,4215.897333,4227.179384,4213.846051,4232.820409,4222.563999,4226.666563,4228.205025,4219.999897,4219.999897,4196.922974,4230.256307,4216.410153
127,0,4227.179384,4233.84605,4219.487076,4232.307589,4223.07682,4229.743486,4219.999897,4234.358871,4230.769127,4203.589641,4219.999897,4200.512718,4232.307589,4219.487076
128,0,4226.153743,4236.410153,4219.487076,4232.307589,4238.461435,4230.769127,4219.487076,4236.410153,4231.281948,4220.512717,4232.820409,4204.102461,4233.84605,4218.461435
0,0,4217.435794,4233.84605,4216.410153,4229.230666,4223.58964,4230.769127,4223.07682,4231.281948,4231.281948,4232.820409,4231.794768,4201.538359,4231.794768,4215.897333
1,0,4215.384512,4233.33323,4215.897333,4230.769127,4209.230666,4229.230666,4221.538358,4233.33323,4229.743486,4217.948615,4219.487076,4201.025538,4226.153743,4216.922974
2,0,4218.461435,4232.820409,4217.948615,4231.281948,4226.666563,4232.820409,4218.461435,4234.358871,4219.999897,4210.256307,4214.358871,4201.538359,4222.051179,4214.358871
3,0,4216.410153,4232.307589,4217.435794,4229.230666,4233.84605,4232.307589,4216.410153,4222.051179,4221.538358,4214.871692,4217.435794,4199.999897,4222.051179,4214.358871
4,0,4216.410153,4234.871691,4216.410153,4230.769127,4222.051179,4230.256307,4220.512717,4219.487076,4231.281948,4215.384512,4223.07682,4199.999897,4219.999897,4217.948615
5,0,4224.615281,4238.974255,4223.58964,4233.84605,4228.717845,4238.974255,4232.307589,4233.33323,4230.769127,4222.563999,4227.179384,4203.07682,4216.922974,4216.922974
6,0,4228.717845,4246.666563,4230.769127,4233.33323,4237.948614,4243.076819,4230.769127,4237.435794,4232.820409,4240.512717,4229.230666,4205.640923,4224.102461,4215.384512
7,0,4221.538358,4248.205024,4224.615281,4232.307589,4230.256307,4233.84605,4221.538358,4227.179384,4233.84605,4231.281948,4229.230666,4203.589641,4230.769127,4215.897333
8,0,4215.897333,4232.820409,4215.897333,4230.256307,4230.769127,4229.743486,4226.153743,4226.153743,4222.051179,4209.230666,4229.743486,4202.051179,4228.717845,4216.922974
9,0,4216.922974,4219.487076,4216.922974,4226.153743,4231.281948,4234.871691,4234.358871,4233.33323,4220.512717,4220.512717,4226.153743,4201.538359,4221.538358,4214.358871
10,0,4214.358871,4224.102461,4219.487076,4226.153743,4211.281948,4235.384512,4228.205025,4227.692204,4231.794768,4234.358871,4214.871692,4200.512718,4213.33323,4206.153743
11,0,4221.025538,4234.358871,4222.051179,4230.769127,4214.871692,4232.820409,4223.58964,4217.948615,4231.281948,4223.58964,4215.384512,4201.538359,4216.410153,4206.666564
12,0,4231.794768,4234.871691,4228.205025,4232.820409,4243.076819,4230.256307,4225.640922,4223.07682,4227.692204,4224.102461,4227.692204,4205.640923,4229.230666,4216.922974
13,0,4228.205025,4232.820409,4230.256307,4232.307589,4246.666563,4230.256307,4224.102461,4233.33323,4231.281948,4227.179384,4227.179384,4209.230666,4233.84605,4220.512717
14,0,4225.640922,4232.820409,4227.692204,4231.794768,4225.128102,4232.820409,4224.615281,4228.717845,4230.769127,4208.205025,4225.640922,4213.33323,4229.230666,4217.948615
15,0,4229.230666,4234.871691,4229.743486,4231.794768,4215.384512,4232.307589,4226.666563,4223.58964,4230.769127,4208.205025,4232.307589,4214.871692,4226.153743,4217.435794
16,0,4222.563999,4235.384512,4231.794768,4231.794768,4221.538358,4230.769127,4221.025538,4225.640922,4233.84605,4238.974255,4224.102461,4207.692205,4222.563999,4211.794769
17,0,4215.384512,4229.743486,4228.205025,4231.281948,4228.205025,4232.820409,4215.384512,4221.025538,4229.230666,4242.563999,4209.743487,4201.025538,4218.461435,4204.615282
18,0,4216.410153,4225.640922,4224.615281,4229.743486,4231.281948,4231.281948,4220.512717,4215.384512,4225.640922,4214.871692,4215.897333,4201.538359,4212.82041,4203.589641
19,0,4218.974256,4231.281948,4227.179384,4229.230666,4225.128102,4227.179384,4226.666563,4222.051179,4228.717845,4199.487077,4224.102461,4208.205025,4209.230666,4207.179384
20,0,4220.512717,4236.410153,4228.717845,4228.717845,4222.563999,4226.153743,4224.615281,4230.256307,4231.281948,4221.025538,4219.999897,4213.846051,4214.358871,4209.743487
21,0,4218.461435,4231.281948,4222.051179,4227.179384,4226.666563,4229.230666,4225.640922,4226.153743,4230.769127,4250.256306,4214.871692,4206.666564,4219.999897,4205.128102
22,0,4213.846051,4229.230666,4215.384512,4228.205025,4220.512717,4231.281948,4225.640922,4218.974256,4230.769127,4239.487076,4216.410153,4196.922974,4214.871692,4198.461436
23,0,4215.897333,4233.33323,4220.512717,4230.769127,4212.307589,4229.743486,4220.512717,4219.487076,4231.281948,4216.410153,4214.871692,4205.128102,4213.846051,4201.025538
24,0,4222.563999,4233.84605,4229.230666,4233.33323,4221.025538,4228.717845,4223.07682,4219.487076,4228.205025,4218.974256,4213.33323,4216.410153,4229.230666,4210.769128
25,0,4225.128102,4233.33323,4230.256307,4233.33323,4235.384512,4230.256307,4227.692204,4220.512717,4227.692204,4224.102461,4223.58964,4216.410153,4235.897332,4210.769128
26,0,4219.487076,4234.358871,4227.179384,4230.256307,4237.435794,4231.281948,4225.640922,4223.58964,4233.33323,4230.256307,4227.179384,4212.82041,4218.461435,4204.102461
27,0,4219.487076,4231.281948,4227.179384,4230.256307,4229.230666,4230.256307,4224.615281,4223.58964,4234.358871,4245.640922,4220.512717,4213.33323,4214.358871,4205.128102
28,0,4230.769127,4231.281948,4232.307589,4233.84605,4219.999897,4231.794768,4231.281948,4227.692204,4231.281948,4235.897332,4226.153743,4223.07682,4228.717845,4215.897333
29,0,4235.384512,4236.922973,4234.358871,4235.897332,4228.717845,4233.33323,4234.358871,4234.358871,4230.256307,4210.769128,4231.794768,4230.256307,4228.717845,4220.512717
30,0,4230.256307,4236.922973,4231.281948,4233.84605,4243.58964,4234.358871,4228.717845,4230.256307,4229.230666,4218.974256,4218.461435,4221.025538,4223.58964,4213.33323
31,0,4228.717845,4234.871691,4231.281948,4231.794768,4229.743486,4233.84605,4221.025538,4224.102461,4231.281948,4242.051178,4212.82041,4212.307589,4232.307589,4213.33323
32,0,4227.692204,4236.922973,4233.33323,4232.307589,4211.281948,4225.640922,4222.563999,4225.128102,4233.33323,4231.794768,4228.205025,4217.435794,4229.230666,4214.871692
33,0,4222.051179,4233.33323,4229.743486,4232.820409,4217.435794,4219.487076,4229.230666,4223.58964,4231.794768,4218.461435,4232.820409,4216.922974,4211.281948,4205.640923
34,0,4221.538358,4228.205025,4226.666563,4230.769127,4222.563999,4224.615281,4224.102461,4216.922974,4229.230666,4238.974255,4221.538358,4210.769128,4211.794769,4202.564
35,0,4229.743486,4231.281948,4231.281948,4230.256307,4218.461435,4230.256307,4219.999897,4216.410153,4230.256307,4252.820409,4217.435794,4214.871692,4227.692204,4214.358871
36,0,4233.33323,4234.871691,4236.410153,4232.820409,4213.846051,4226.666563,4226.153743,4218.974256,4229.743486,4229.743486,4224.615281,4221.538358,4233.84605,4219.487076
37,0,4230.256307,4233.33323,4235.384512,4233.84605,4213.846051,4225.640922,4227.692204,4216.410153,4229.743486,4215.384512,4231.794768,4217.948615,4230.256307,4213.33323
38,0,4226.153743,4232.820409,4233.33323,4231.794768,4227.692204,4232.820409,4229.743486,4216.922974,4231.794768,4219.999897,4226.153743,4213.846051,4225.640922,4210.256307
39,0,4224.615281,4232.307589,4231.281948,4226.153743,4234.358871,4230.256307,4228.717845,4223.07682,4232.307589,4214.871692,4221.538358,4216.410153,4221.538358,4208.205025
40,0,4218.461435,4228.205025,4228.205025,4223.07682,4215.384512,4223.07682,4220.512717,4224.102461,4232.307589,4225.128102,4224.102461,4216.410153,4215.897333,4200.512718
41,0,4213.33323,4229.230666,4227.692204,4227.692204,4202.564,4225.128102,4221.025538,4214.358871,4228.717845,4251.281947,4223.07682,4213.33323,4217.435794,4198.974256
42,0,4223.07682,4234.871691,4229.743486,4232.820409,4218.461435,4230.256307,4229.230666,4214.358871,4229.230666,4255.384511,4219.999897,4218.461435,4230.769127,4209.230666
43,0,4231.794768,4235.384512,4231.281948,4232.307589,4224.615281,4228.205025,4226.153743,4228.205025,4239.999896,4243.076819,4225.640922,4225.128102,4235.897332,4217.948615
44,0,4227.692204,4234.871691,4229.230666,4230.256307,4217.435794,4224.615281,4224.615281,4231.794768,4242.051178,4233.84605,4234.358871,4222.563999,4228.205025,4213.33323
45,0,4218.974256,4236.922973,4221.538358,4231.281948,4223.07682,4229.743486,4231.794768,4223.07682,4232.307589,4233.84605,4228.205025,4216.410153,4224.102461,4205.128102
46,0,4216.922974,4232.307589,4217.435794,4228.717845,4224.102461,4235.384512,4225.640922,4216.410153,4227.692204,4232.820409,4217.948615,4210.256307,4220.512717,4202.564
47,0,4223.58964,4231.794768,4223.07682,4228.205025,4223.07682,4230.256307,4215.384512,4216.410153,4229.743486,4228.205025,4220.512717,4209.230666,4217.948615,4207.179384
48,0,4228.205025,4238.974255,4229.743486,4231.281948,4225.128102,4216.410153,4215.897333,4217.435794,4230.769127,4237.948614,4227.179384,4214.871692,4228.717845,4214.871692
49,0,4223.07682,4239.999896,4227.692204,4231.281948,4222.563999,4212.82041,4218.974256,4219.487076,4233.33323,4249.230665,4228.717845,4218.974256,4235.897332,4214.871692
50,0,4217.435794,4231.794768,4225.640922,4227.179384,4221.538358,4225.128102,4223.07682,4225.128102,4232.307589,4234.358871,4227.179384,4216.410153,4229.743486,4211.281948
51,0,4219.999897,4229.743486,4223.58964,4226.153743,4222.563999,4231.281948,4223.07682,4225.640922,4231.794768,4230.769127,4220.512717,4214.871692,4229.230666,4211.794769
52,0,4218.461435,4227.692204,4217.435794,4223.58964,4213.846051,4222.051179,4216.410153,4218.974256,4230.769127,4238.461435,4215.384512,4215.897333,4226.153743,4208.717846
53,0,4212.307589,4217.435794,4214.358871,4218.461435,4208.205025,4212.307589,4212.82041,4214.358871,4222.051179,4215.897333,4221.538358,4214.871692,4213.33323,4201.538359
54,0,4212.82041,4215.897333,4217.948615,4219.999897,4226.153743,4216.922974,4216.922974,4216.922974,4223.07682,4213.33323,4224.615281,4214.358871,4212.82041,4200.512718
55,0,4215.384512,4223.58964,4218.461435,4220.512717,4226.666563,4228.205025,4219.487076,4218.461435,4233.84605,4240.512717,4217.435794,4214.358871,4218.461435,4201.538359
56,0,4215.897333,4222.051179,4216.922974,4218.974256,4204.615282,4226.153743,4217.948615,4218.461435,4232.820409,4238.461435,4214.871692,4212.307589,4217.435794,4201.025538
57,0,4213.846051,4215.897333,4216.922974,4223.07682,4205.640923,4218.974256,4217.948615,4219.487076,4228.205025,4224.615281,4213.846051,4210.256307,4216.922974,4201.025538
58,0,4213.846051,4216.922974,4217.435794,4223.58964,4221.538358,4220.512717,4217.948615,4217.948615,4231.794768,4223.07682,4211.794769,4205.128102,4215.384512,4199.999897
59,0,4214.358871,4219.487076,4217.435794,4217.435794,4221.025538,4219.999897,4214.871692,4216.410153,4232.820409,4218.461435,4215.897333,4203.07682,4213.846051,4201.025538
60,0,4216.922974,4219.999897,4218.461435,4217.948615,4211.281948,4215.897333,4217.435794,4218.974256,4228.717845,4212.82041,4219.999897,4210.256307,4217.435794,4203.589641
61,0,4222.563999,4218.974256,4218.974256,4221.538358,4210.769128,4222.563999,4223.58964,4221.538358,4227.692204,4223.58964,4217.948615,4212.307589,4220.512717,4204.615282
62,0,4221.025538,4218.461435,4216.410153,4221.538358,4212.82041,4230.256307,4220.512717,4217.948615,4228.717845,4243.58964,4216.410153,4201.538359,4215.897333,4204.102461
63,0,4215.384512,4221.538358,4217.435794,4223.07682,4215.897333,4227.179384,4215.897333,4216.410153,4229.230666,4249.743486,4216.922974,4204.102461,4214.871692,4204.102461
64,0,4215.384512,4222.563999,4221.025538,4222.563999,4221.538358,4230.256307,4222.563999,4219.999897,4227.179384,4224.615281,4217.948615,4216.922974,4218.461435,4204.615282
65,0,4215.897333,4219.487076,4219.487076,4218.461435,4218.974256,4230.769127,4226.153743,4226.666563,4228.205025,4205.128102,4214.871692,4210.769128,4213.33323,4203.07682
66,0,4214.871692,4221.025538,4216.410153,4218.974256,4210.256307,4219.999897,4219.999897,4231.281948,4232.307589,4228.205025,4213.846051,4199.487077,4209.230666,4199.487077
67,0,4214.871692,4216.922974,4216.922974,4219.487076,4208.717846,4214.358871,4216.922974,4224.102461,4234.871691,4234.871691,4217.948615,4202.051179,4210.769128,4198.974256
68,0,4212.82041,4209.743487,4215.897333,4217.435794,4218.461435,4218.461435,4217.948615,4214.358871,4229.230666,4215.384512,4214.871692,4204.102461,4208.205025,4199.999897
69,0,4211.281948,4216.410153,4214.871692,4217.948615,4218.974256,4218.974256,4217.435794,4213.33323,4221.025538,4221.025538,4207.179384,4202.051179,4208.205025,4200.512718
70,0,4215.384512,4223.07682,4217.435794,4220.512717,4211.281948,4216.410153,4216.922974,4215.897333,4222.051179,4229.230666,4212.307589,4202.051179,4211.794769,4203.589641
71,0,4214.358871,4214.871692,4217.435794,4217.435794,4211.794769,4214.871692,4217.435794,4214.871692,4225.128102,4216.410153,4215.897333,4202.051179,4204.102461,4203.07682
72,0,4210.769128,4211.281948,4217.435794,4217.435794,4215.384512,4214.358871,4217.948615,4213.33323,4219.487076,4213.33323,4207.179384,4203.07682,4199.999897,4197.948615
73,0,4213.33323,4216.410153,4217.435794,4219.999897,4215.384512,4217.948615,4216.410153,4213.846051,4217.435794,4215.897333,4204.615282,4203.07682,4212.82041,4202.051179
74,0,4216.922974,4218.974256,4217.435794,4220.512717,4216.410153,4217.435794,4214.358871,4219.999897,4228.717845,4210.769128,4218.974256,4205.128102,4219.999897,4211.794769
75,0,4218.461435,4218.974256,4224.102461,4224.102461,4211.794769,4214.358871,4217.435794,4233.33323,4235.897332,4227.179384,4229.743486,4213.846051,4217.948615,4215.897333
76,0,4219.487076,4218.461435,4227.179384,4231.281948,4211.281948,4221.538358,4221.025538,4233.84605,4233.33323,4237.435794,4222.563999,4219.487076,4219.487076,4212.82041
77,0,4217.948615,4220.512717,4217.948615,4230.256307,4225.128102,4229.230666,4218.974256,4219.999897,4229.743486,4215.384512,4213.846051,4211.794769,4217.435794,4205.128102
78,0,4216.922974,4226.153743,4211.794769,4224.615281,4231.281948,4225.640922,4215.897333,4212.82041,4229.743486,4213.846051,4215.897333,4203.07682,4216.922974,4197.948615
79,0,4219.487076,4229.743486,4216.922974,4227.692204,4222.563999,4220.512717,4219.487076,4222.051179,4231.794768,4229.230666,4220.512717,4208.717846,4221.025538,4206.153743
80,0,4219.999897,4226.666563,4220.512717,4229.743486,4218.974256,4218.461435,4223.07682,4230.769127,4232.307589,4226.153743,4221.538358,4218.974256,4220.512717,4217.948615
81,0,4217.435794,4221.025538,4218.461435,4219.999897,4216.410153,4219.999897,4221.538358,4225.640922,4232.820409,4228.717845,4219.999897,4214.358871,4218.461435,4214.358871
82,0,4215.384512,4217.948615,4215.384512,4215.897333,4209.743487,4222.563999,4217.948615,4217.435794,4231.281948,4231.281948,4217.948615,4201.538359,4219.487076,4207.692205
83,0,4216.410153,4218.974256,4215.384512,4222.563999,4206.666564,4220.512717,4217.948615,4221.025538,4231.281948,4225.640922,4217.948615,4205.128102,4221.025538,4210.769128
84,0,4220.512717,4224.615281,4217.948615,4229.743486,4218.974256,4215.897333,4219.487076,4226.666563,4233.84605,4239.999896,4219.999897,4212.307589,4226.153743,4217.435794
85,0,4221.538358,4226.153743,4217.435794,4225.128102,4228.205025,4216.922974,4216.922974,4222.563999,4231.794768,4240.512717,4217.948615,4207.692205,4225.128102,4216.410153
86,0,4213.33323,4222.563999,4215.384512,4219.487076,4225.128102,4217.948615,4214.358871,4215.384512,4227.692204,4212.307589,4215.384512,4203.07682,4217.948615,4207.179384
87,0,4202.051179,4216.922974,4213.33323,4216.410153,4221.025538,4215.897333,4214.871692,4213.33323,4227.692204,4214.358871,4215.384512,4201.025538,4212.307589,4198.461436
88,0,4208.205025,4213.33323,4213.33323,4214.871692,4211.794769,4214.358871,4216.922974,4213.846051,4226.666563,4234.358871,4214.358871,4201.025538,4213.846051,4197.435795
89,0,4224.615281,4219.999897,4215.897333,4220.512717,4206.153743,4215.384512,4215.897333,4217.435794,4228.205025,4235.384512,4217.435794,4207.179384,4226.153743,4208.717846
90,0,4225.640922,4227.179384,4218.461435,4226.666563,4218.461435,4216.922974,4212.82041,4216.922974,4235.384512,4231.794768,4221.025538,4208.205025,4231.281948,4214.871692
91,0,4214.871692,4219.487076,4215.897333,4221.538358,4229.743486,4217.435794,4212.82041,4207.692205,4228.717845,4224.615281,4215.897333,4199.487077,4215.897333,4207.692205
92,0,4213.846051,4212.307589,4214.358871,4216.922974,4221.025538,4218.461435,4217.948615,4204.102461,4214.871692,4213.846051,4213.846051,4198.461436,4209.230666,4203.589641
93,0,4219.999897,4223.58964,4219.487076,4220.512717,4216.410153,4218.461435,4220.512717,4213.33323,4220.512717,4220.512717,4220.512717,4204.615282,4221.025538,4211.281948
94,0,4219.999897,4233.33323,4224.615281,4222.563999,4220.512717,4213.846051,4217.435794,4220.512717,4234.358871,4235.384512,4222.051179,4205.640923,4223.07682,4215.897333
95,0,4219.487076,4226.666563,4222.051179,4219.487076,4213.33323,4211.794769,4215.897333,4222.051179,4235.384512,4236.922973,4214.871692,4203.589641,4216.922974,4211.794769
96,0,4217.948615,4217.948615,4215.897333,4216.922974,4212.307589,4217.435794,4218.461435,4213.846051,4227.692204,4226.666563,4211.281948,4202.051179,4215.384512,4206.666564
97,0,4213.33323,4216.922974,4215.384512,4215.897333,4219.999897,4217.948615,4217.948615,4205.640923,4223.07682,4223.58964,4214.358871,4202.564,4211.281948,4202.051179
98,0,4214.358871,4218.974256,4216.410153,4216.410153,4222.563999,4206.666564,4214.871692,4212.307589,4228.717845,4227.179384,4215.897333,4203.589641,4214.358871,4201.025538
99,0,4213.33323,4215.384512,4215.384512,4216.410153,4221.538358,4202.051179,4212.82041,4218.974256,4236.922973,4221.025538,4213.846051,4204.615282,4216.410153,4203.589641
100,0,4205.640923,4213.33323,4214.358871,4214.358871,4214.871692,4209.230666,4211.794769,4206.666564,4227.179384,4211.281948,4209.743487,4203.589641,4203.589641,4201.538359
101,0,4204.102461,4215.897333,4213.846051,4213.846051,4212.82041,4214.358871,4211.794769,4196.922974,4212.307589,4216.410153,4210.769128,4204.615282,4199.999897,4200.512718
102,0,4214.358871,4218.461435,4215.897333,4215.897333,4223.58964,4214.871692,4215.384512,4209.743487,4217.948615,4224.102461,4218.974256,4213.33323,4217.435794,4209.230666
103,0,4219.999897,4217.435794,4218.461435,4219.999897,4224.102461,4215.897333,4219.999897,4221.025538,4223.58964,4212.307589,4213.846051,4215.384512,4218.974256,4218.974256
104,0,4216.922974,4217.435794,4217.948615,4220.512717,4211.794769,4216.410153,4216.410153,4211.794769,4217.435794,4197.948615,4199.999897,4208.717846,4201.538359,4216.922974
105,0,4215.384512,4218.461435,4218.461435,4217.435794,4214.871692,4215.384512,4215.384512,4206.666564,4221.538358,4203.07682,4209.230666,4212.82041,4211.794769,4214.871692
106,0,4216.922974,4217.948615,4222.563999,4217.435794,4224.615281,4223.07682,4224.102461,4217.435794,4233.84605,4225.128102,4222.563999,4218.461435,4222.051179,4219.999897
107,0,4216.410153,4217.435794,4225.128102,4218.974256,4224.102461,4228.205025,4228.205025,4220.512717,4230.256307,4232.820409,4205.640923,4207.179384,4205.128102,4218.461435
108,0,4215.897333,4218.974256,4224.615281,4217.435794,4217.435794,4221.025538,4220.512717,4216.922974,4228.205025,4225.128102,4199.999897,4204.102461,4204.102461,4214.871692
109,0,4215.384512,4216.922974,4224.615281,4216.922974,4205.128102,4214.358871,4216.410153,4218.974256,4233.33323,4213.846051,4218.974256,4215.897333,4216.922974,4217.435794
110,0,4215.897333,4214.358871,4222.563999,4217.435794,4199.999897,4214.358871,4218.974256,4216.922974,4224.615281,4198.461436,4214.358871,4213.846051,4208.717846,4218.461435
111,0,4216.410153,4216.922974,4219.999897,4217.435794,4206.153743,4212.307589,4218.461435,4212.307589,4215.897333,4198.461436,4204.615282,4202.051179,4199.487077,4213.846051
112,0,4210.256307,4213.846051,4217.948615,4217.435794,4206.666564,4211.281948,4216.922974,4209.230666,4217.948615,4204.102461,4207.692205,4199.487077,4202.564,4207.692205
113,0,4204.615282,4207.179384,4216.410153,4216.410153,4209.230666,4215.897333,4217.435794,4208.205025,4220.512717,4201.538359,4209.230666,4203.07682,4203.07682,4207.179384
114,0,4208.717846,4214.358871,4218.461435,4218.461435,4220.512717,4218.461435,4218.974256,4209.743487,4225.128102,4206.153743,4213.33323,4205.640923,4206.666564,4215.897333
115,0,4207.692205,4219.487076,4218.974256,4217.948615,4218.461435,4218.461435,4218.461435,4208.717846,4230.256307,4207.179384,4212.82041,4202.564,4206.153743,4213.846051
116,0,4199.999897,4204.615282,4210.769128,4210.769128,4197.948615,4214.358871,4212.82041,4203.589641,4221.538358,4189.230667,4198.461436,4194.358872,4193.846051,4198.461436
117,0,4200.512718,4197.435795,4209.230666,4210.256307,4194.871692,4209.230666,4210.256307,4204.102461,4213.846051,4183.589641,4198.461436,4193.333231,4196.410154,4202.564
118,0,4206.153743,4210.256307,4214.358871,4215.384512,4207.692205,4210.769128,4210.769128,4208.717846,4223.58964,4199.999897,4215.384512,4199.999897,4209.230666,4218.461435
119,0,4202.051179,4211.281948,4206.666564,4207.179384,4208.205025,4213.846051,4205.640923,4204.615282,4225.128102,4205.640923,4208.717846,4192.30759,4205.640923,4210.256307
120,0,4192.82041,4201.025538,4199.999897,4196.922974,4198.974256,4209.743487,4195.897333,4193.846051,4212.82041,4203.589641,4193.846051,4181.025539,4193.846051,4196.922974
121,0,4199.999897,4205.640923,4212.307589,4206.666564,4201.025538,4208.205025,4198.461436,4200.512718,4216.410153,4203.07682,4207.692205,4192.82041,4199.487077,4207.692205
122,0,4216.410153,4218.461435,4223.07682,4217.435794,4209.230666,4215.384512,4212.307589,4214.871692,4229.743486,4201.025538,4219.999897,4207.179384,4212.82041,4221.538358
123,0,4215.384512,4217.948615,4216.922974,4212.307589,4202.051179,4214.358871,4215.384512,4210.769128,4224.102461,4207.179384,4208.205025,4200.512718,4214.358871,4217.948615
124,0,4205.640923,4212.307589,4213.846051,4209.743487,4202.564,4214.358871,4209.743487,4204.615282,4215.897333,4211.281948,4208.205025,4194.871692,4211.794769,4214.871692
125,0,4210.769128,4216.410153,4219.999897,4215.897333,4216.410153,4226.153743,4210.769128,4215.384512,4221.025538,4203.589641,4224.615281,4203.07682,4216.922974,4219.487076
126,0,4219.487076,4221.025538,4219.999897,4216.410153,4219.487076,4227.179384,4216.410153,4222.051179,4220.512717,4202.564,4221.538358,4203.589641,4217.948615,4220.512717
127,0,4214.358871,4218.974256,4216.922974,4209.743487,4212.307589,4215.384512,4216.922974,4218.974256,4221.025538,4215.897333,4210.769128,4199.487077,4212.307589,4216.922974
128,0,4203.07682,4215.897333,4215.384512,4203.589641,4214.871692,4213.33323,4209.230666,4213.846051,4227.692204,4225.640922,4211.794769,4197.948615,4210.769128,4214.358871
0,0,4199.487077,4215.384512,4214.358871,4203.589641,4216.922974,4215.384512,4201.025538,4207.179384,4223.58964,4226.153743,4212.307589,4192.82041,4212.82041,4214.358871
1,0,4209.743487,4215.897333,4213.846051,4206.666564,4205.128102,4209.743487,4203.589641,4211.281948,4217.435794,4209.743487,4209.743487,4194.358872,4215.897333,4216.410153
2,0,4211.794769,4215.384512,4214.871692,4205.640923,4199.487077,4209.743487,4213.846051,4219.487076,4219.999897,4180.512718,4208.717846,4201.025538,4217.948615,4216.922974
3,0,4202.564,4214.358871,4213.846051,4207.179384,4204.102461,4215.384512,4214.358871,4214.358871,4218.974256,4183.076821,4207.692205,4195.897333,4214.871692,4214.358871
4,0,4210.769128,4217.435794,4215.384512,4215.897333,4217.435794,4216.410153,4212.307589,4211.794769,4217.948615,4222.563999,4212.82041,4191.281949,4212.307589,4216.922974
5,0,4219.487076,4219.999897,4218.461435,4218.974256,4233.84605,4218.974256,4216.922974,4218.974256,4219.999897,4236.410153,4215.897333,4199.487077,4214.871692,4220.512717
6,0,4206.153743,4215.384512,4216.410153,4213.33323,4227.692204,4221.025538,4216.922974,4219.999897,4221.538358,4217.435794,4214.358871,4199.999897,4217.435794,4217.435794
7,0,4197.948615,4212.307589,4212.307589,4210.769128,4208.205025,4216.922974,4214.871692,4218.461435,4224.615281,4211.281948,4216.922974,4195.384513,4217.948615,4214.358871
8,0,4203.589641,4214.871692,4207.692205,4207.179384,4209.743487,4215.897333,4214.358871,4214.871692,4222.051179,4202.564,4213.846051,4193.846051,4213.846051,4216.410153
9,0,4202.051179,4213.33323,4207.179384,4199.999897,4213.846051,4213.846051,4206.153743,4205.640923,4214.358871,4184.102462,4204.102461,4192.30759,4210.256307,4217.435794
10,0,4198.974256,4212.307589,4210.769128,4203.589641,4202.564,4206.153743,4197.948615,4203.589641,4212.82041,4197.435795,4205.128102,4195.384513,4213.33323,4216.922974
11,0,4205.128102,4216.922974,4213.33323,4213.846051,4203.07682,4207.692205,4204.615282,4213.33323,4217.435794,4225.128102,4216.410153,4197.948615,4217.948615,4218.461435
12,0,4208.205025,4215.384512,4213.846051,4215.897333,4210.769128,4217.435794,4213.33323,4215.384512,4217.948615,4215.384512,4217.948615,4189.743487,4217.435794,4219.487076
13,0,4207.179384,4214.871692,4214.871692,4213.846051,4208.717846,4218.461435,4211.794769,4210.769128,4216.410153,4193.333231,4208.717846,4187.179385,4217.948615,4217.435794
14,0,4214.871692,4227.179384,4217.948615,4216.410153,4212.82041,4214.358871,4209.743487,4214.358871,4217.435794,4200.512718,4211.281948,4198.974256,4219.999897,4217.435794
15,0,4216.922974,4227.692204,4218.461435,4216.922974,4219.999897,4214.871692,4213.33323,4218.974256,4219.999897,4198.974256,4214.871692,4202.564,4218.461435,4219.487076
16,0,4205.640923,4213.33323,4216.410153,4214.358871,4217.948615,4214.871692,4212.82041,4215.384512,4219.999897,4181.538359,4205.128102,4197.435795,4211.794769,4217.948615
17,0,4199.999897,4213.33323,4213.33323,4213.846051,4217.948615,4213.846051,4206.666564,4212.82041,4217.435794,4196.922974,4199.999897,4197.948615,4202.564,4214.871692
18,0,4213.33323,4222.563999,4218.461435,4216.410153,4209.743487,4215.384512,4204.102461,4212.307589,4217.435794,4222.563999,4214.871692,4200.512718,4206.153743,4216.922974
19,0,4216.922974,4218.974256,4226.153743,4217.948615,4196.922974,4214.358871,4205.128102,4207.692205,4219.487076,4217.435794,4220.512717,4200.512718,4218.461435,4219.487076
20,0,4204.102461,4212.307589,4222.051179,4215.897333,4207.692205,4210.769128,4202.051179,4197.948615,4216.410153,4203.07682,4204.102461,4196.922974,4214.871692,4214.358871
21,0,4206.666564,4215.897333,4216.922974,4214.871692,4221.025538,4210.256307,4198.461436,4195.897333,4211.794769,4194.871692,4205.640923,4194.871692,4210.256307,4214.358871
22,0,4221.538358,4226.666563,4225.640922,4218.461435,4215.897333,4214.871692,4204.615282,4207.692205,4222.563999,4196.922974,4226.666563,4202.051179,4224.102461,4229.230666
23,0,4222.563999,4230.256307,4232.307589,4221.025538,4221.025538,4218.974256,4213.846051,4217.948615,4234.871691,4216.922974,4226.666563,4207.692205,4230.769127,4236.922973
24,0,4213.33323,4219.487076,4221.025538,4213.33323,4231.281948,4219.999897,4218.974256,4215.384512,4221.025538,4226.666563,4211.794769,4201.025538,4217.948615,4225.640922
25,0,4212.82041,4212.82041,4215.384512,4210.769128,4208.717846,4218.461435,4218.974256,4214.358871,4210.769128,4215.384512,4215.384512,4197.948615,4216.410153,4221.538358
26,0,4216.922974,4222.563999,4224.102461,4222.563999,4192.30759,4214.871692,4215.384512,4218.461435,4224.102461,4208.205025,4224.102461,4203.589641,4220.512717,4231.281948
27,0,4212.82041,4229.230666,4228.205025,4223.58964,4221.025538,4215.384512,4214.871692,4217.435794,4229.230666,4217.435794,4216.922974,4201.538359,4214.358871,4231.281948
28,0,4215.897333,4231.794768,4228.717845,4217.435794,4243.076819,4219.487076,4217.948615,4216.922974,4223.58964,4232.307589,4216.410153,4203.07682,4222.051179,4229.230666
29,0,4227.692204,4230.769127,4232.820409,4223.07682,4227.179384,4218.974256,4214.358871,4218.461435,4222.563999,4232.307589,4223.58964,4211.794769,4233.33323,4235.384512
30,0,4225.640922,4219.999897,4231.281948,4225.128102,4210.769128,4213.33323,4209.230666,4213.846051,4217.435794,4216.922974,4222.563999,4208.205025,4221.025538,4235.897332
31,0,4215.384512,4219.487076,4226.666563,4216.410153,4211.794769,4211.281948,4211.794769,4213.33323,4218.461435,4217.948615,4226.666563,4200.512718,4211.281948,4229.743486
32,0,4217.435794,4233.33323,4226.666563,4217.435794,4223.58964,4213.33323,4215.897333,4218.974256,4228.717845,4239.487076,4231.794768,4203.07682,4223.58964,4231.794768
33,0,4220.512717,4233.84605,4228.205025,4222.051179,4234.871691,4218.461435,4215.897333,4217.435794,4221.538358,4249.743486,4222.051179,4203.589641,4230.769127,4234.358871
34,0,4215.897333,4223.58964,4226.666563,4218.974256,4221.538358,4220.512717,4215.384512,4213.33323,4209.743487,4231.794768,4213.846051,4197.435795,4224.615281,4230.256307
35,0,4217.948615,4228.205025,4227.692204,4222.563999,4210.769128,4218.461435,4216.410153,4224.615281,4222.051179,4210.256307,4219.999897,4200.512718,4224.102461,4229.230666
36,0,4218.461435,4233.33323,4230.256307,4229.230666,4226.666563,4217.948615,4217.435794,4235.384512,4231.794768,4228.205025,4229.230666,4206.153743,4230.769127,4230.769127
37,0,4213.846051,4224.615281,4229.230666,4226.666563,4227.179384,4218.974256,4218.461435,4224.615281,4222.563999,4245.640922,4229.743486,4202.564,4230.769127,4229.230666
38,0,4224.615281,4227.179384,4228.717845,4226.666563,4212.307589,4217.948615,4217.435794,4211.281948,4215.897333,4227.179384,4221.538358,4205.640923,4230.256307,4233.33323
39,0,4244.615281,4245.640922,4232.307589,4230.769127,4224.102461,4216.410153,4214.358871,4217.435794,4219.487076,4219.487076,4222.051179,4215.384512,4242.563999,4247.179383
40,0,4249.743486,4248.717845,4235.897332,4229.743486,4234.358871,4214.871692,4211.794769,4217.948615,4219.999897,4226.153743,4230.769127,4212.307589,4249.230665,4256.410152
41,0,4247.692204,4239.487076,4234.358871,4227.179384,4218.974256,4212.307589,4209.230666,4202.051179,4214.871692,4216.410153,4230.769127,4205.128102,4241.025537,4257.435793
42,0,4262.563998,4244.615281,4232.307589,4229.743486,4209.743487,4214.358871,4207.692205,4201.538359,4213.846051,4210.769128,4229.743486,4213.33323,4246.153742,4267.692203
43,0,4279.487075,4252.307588,4234.871691,4232.820409,4218.461435,4217.435794,4205.640923,4216.410153,4216.922974,4214.871692,4230.256307,4220.512717,4266.666562,4282.563998
44,0,4282.051177,4252.820409,4237.948614,4232.820409,4226.153743,4212.307589,4201.025538,4213.846051,4219.487076,4210.256307,4229.743486,4216.922974,4265.640921,4285.640921
45,0,4277.948613,4249.743486,4233.33323,4231.794768,4213.33323,4206.153743,4198.461436,4198.974256,4212.82041,4225.128102,4229.743486,4214.871692,4247.692204,4279.999895
46,0,4283.076818,4251.281947,4231.281948,4230.256307,4199.999897,4199.999897,4197.435795,4195.384513,4201.538359,4236.410153,4225.128102,4214.871692,4247.692204,4282.051177
47,0,4296.410151,4261.025537,4241.538358,4232.307589,4216.410153,4197.435795,4197.435795,4200.512718,4204.615282,4211.281948,4223.07682,4216.410153,4259.487075,4292.820408
48,0,4301.538356,4266.666562,4249.743486,4235.384512,4238.974255,4206.153743,4207.179384,4202.564,4214.871692,4205.640923,4233.33323,4223.58964,4261.025537,4297.948613
49,0,4294.358869,4261.025537,4247.692204,4234.871691,4227.692204,4215.384512,4213.846051,4203.589641,4219.487076,4231.281948,4241.025537,4228.717845,4262.563998,4299.487074
50,0,4286.153741,4254.35887,4244.10246,4233.33323,4201.538359,4213.846051,4206.153743,4202.564,4218.461435,4228.205025,4233.84605,4223.07682,4263.589639,4294.87169
51,0,4279.487075,4253.333229,4247.179383,4234.358871,4212.307589,4214.871692,4205.128102,4202.051179,4217.948615,4211.794769,4228.205025,4216.922974,4252.820409,4285.640921
52,0,4270.256306,4251.794768,4249.230665,4237.435794,4237.948614,4221.025538,4217.435794,4207.692205,4216.922974,4226.666563,4232.307589,4217.948615,4247.179383,4279.487075
53,0,4259.487075,4243.58964,4239.487076,4232.820409,4230.256307,4218.461435,4218.461435,4214.871692,4216.922974,4236.922973,4229.743486,4215.384512,4250.769127,4273.333229
54,0,4250.256306,4231.281948,4228.205025,4219.999897,4214.871692,4212.307589,4212.82041,4214.871692,4214.358871,4223.07682,4213.33323,4202.051179,4240.512717,4263.589639
55,0,4241.025537,4226.153743,4229.230666,4214.358871,4221.025538,4214.871692,4214.871692,4216.410153,4215.384512,4213.33323,4209.743487,4198.974256,4226.666563,4252.820409
56,0,4235.384512,4228.205025,4233.33323,4220.512717,4222.051179,4215.384512,4215.897333,4221.538358,4223.07682,4216.922974,4229.230666,4210.256307,4228.205025,4249.230665
57,0,4231.281948,4225.640922,4228.205025,4218.461435,4213.846051,4213.846051,4216.410153,4218.974256,4227.179384,4224.102461,4237.435794,4215.897333,4233.84605,4247.179383
58,0,4230.769127,4226.153743,4228.205025,4216.410153,4222.051179,4218.461435,4221.025538,4217.435794,4227.179384,4233.84605,4231.281948,4214.358871,4238.974255,4247.179383
59,0,4235.384512,4233.33323,4232.307589,4223.58964,4234.871691,4221.025538,4220.512717,4222.051179,4225.128102,4242.051178,4227.692204,4212.82041,4237.435794,4251.281947
60,0,4230.769127,4233.33323,4223.58964,4223.07682,4237.435794,4216.410153,4215.897333,4215.897333,4219.487076,4244.10246,4217.948615,4204.102461,4222.051179,4242.563999
61,0,4223.07682,4228.717845,4220.512717,4217.435794,4225.640922,4215.384512,4216.410153,4211.281948,4218.461435,4245.128101,4213.33323,4202.051179,4214.871692,4231.281948
62,0,4228.717845,4229.743486,4233.33323,4219.487076,4207.692205,4219.999897,4221.025538,4223.07682,4221.538358,4238.461435,4221.025538,4210.769128,4221.025538,4238.461435
63,0,4231.281948,4228.205025,4233.33323,4220.512717,4215.897333,4220.512717,4219.999897,4226.153743,4218.974256,4213.33323,4221.538358,4210.256307,4222.051179,4247.179383
64,0,4217.948615,4218.974256,4217.435794,4215.384512,4232.820409,4216.922974,4216.922974,4216.922974,4216.410153,4196.922974,4215.384512,4202.051179,4218.974256,4237.435794
65,0,4211.794769,4214.871692,4214.358871,4212.307589,4228.717845,4214.871692,4218.461435,4217.948615,4223.58964,4217.948615,4217.435794,4202.051179,4219.487076,4229.743486
66,0,4214.871692,4214.871692,4218.461435,4213.33323,4213.846051,4214.871692,4217.948615,4219.487076,4228.717845,4244.615281,4219.487076,4203.07682,4216.922974,4231.794768
67,0,4209.743487,4216.410153,4216.410153,4213.33323,4205.640923,4216.410153,4215.384512,4214.358871,4228.205025,4237.948614,4213.33323,4197.435795,4216.410153,4229.743486
68,0,4209.743487,4223.58964,4223.58964,4215.384512,4207.692205,4217.948615,4217.435794,4216.410153,4228.717845,4229.230666,4218.461435,4201.025538,4218.461435,4228.717845
69,0,4219.487076,4223.07682,4231.281948,4216.922974,4214.358871,4217.435794,4219.999897,4219.999897,4228.717845,4236.922973,4229.743486,4209.743487,4218.974256,4236.922973
70,0,4218.461435,4215.384512,4223.07682,4215.384512,4216.410153,4214.871692,4216.410153,4216.922974,4223.07682,4220.512717,4223.07682,4205.640923,4218.974256,4234.871691
71,0,4205.640923,4215.897333,4214.358871,4213.846051,4214.871692,4213.846051,4213.33323,4214.358871,4217.435794,4195.384513,4211.281948,4197.948615,4210.769128,4222.051179
72,0,4204.615282,4216.922974,4215.384512,4214.358871,4220.512717,4217.435794,4215.897333,4214.358871,4218.974256,4212.82041,4215.384512,4198.974256,4205.128102,4221.025538
73,0,4213.33323,4213.846051,4216.922974,4214.358871,4217.435794,4219.999897,4218.974256,4216.410153,4224.615281,4241.538358,4219.487076,4203.589641,4213.846051,4232.307589
74,0,4209.743487,4215.897333,4214.358871,4212.82041,4211.794769,4215.897333,4219.487076,4217.948615,4228.205025,4232.307589,4213.33323,4202.564,4217.948615,4228.205025
75,0,4208.205025,4219.999897,4216.410153,4216.410153,4228.717845,4215.897333,4218.974256,4219.487076,4231.281948,4216.410153,4215.897333,4203.07682,4210.769128,4217.435794
76,0,4215.897333,4221.538358,4219.487076,4219.487076,4232.307589,4219.487076,4219.487076,4220.512717,4230.769127,4213.846051,4219.999897,4204.615282,4209.743487,4219.999897
77,0,4209.230666,4220.512717,4214.358871,4213.33323,4206.153743,4214.871692,4217.435794,4217.948615,4225.640922,4203.07682,4212.82041,4202.051179,4211.281948,4218.461435
78,0,4196.922974,4212.307589,4208.205025,4206.666564,4198.974256,4210.256307,4215.384512,4213.846051,4217.948615,4203.589641,4211.281948,4198.974256,4203.07682,4212.82041
79,0,4201.025538,4208.205025,4211.281948,4211.281948,4215.897333,4217.435794,4215.897333,4211.794769,4215.384512,4224.102461,4216.410153,4199.487077,4201.025538,4217.435794
80,0,4209.230666,4212.82041,4215.384512,4217.435794,4224.102461,4219.999897,4215.897333,4211.794769,4219.999897,4234.871691,4215.897333,4202.564,4210.256307,4219.487076
81,0,4210.769128,4219.999897,4213.846051,4216.410153,4230.769127,4213.33323,4215.384512,4214.871692,4222.051179,4235.384512,4215.897333,4203.07682,4214.358871,4218.974256
82,0,4207.692205,4223.07682,4213.846051,4214.358871,4233.33323,4213.846051,4217.435794,4217.435794,4220.512717,4228.205025,4219.487076,4201.538359,4213.846051,4221.538358
83,0,4202.051179,4220.512717,4216.410153,4215.897333,4216.922974,4220.512717,4218.461435,4214.871692,4217.435794,4216.922974,4219.999897,4202.564,4213.846051,4222.563999
84,0,4206.666564,4217.948615,4217.435794,4217.435794,4211.281948,4222.051179,4219.487076,4217.435794,4222.051179,4218.974256,4218.974256,4206.153743,4196.410154,4224.102461
85,0,4213.33323,4215.384512,4216.922974,4215.384512,4220.512717,4217.948615,4218.461435,4221.025538,4231.281948,4216.922974,4215.897333,4204.102461,4166.666565,4221.538358
86,0,4211.281948,4215.897333,4213.846051,4214.358871,4230.256307,4216.922974,4216.922974,4217.435794,4230.769127,4213.846051,4214.871692,4202.564,4164.102462,4217.435794
87,0,4211.794769,4223.58964,4213.33323,4217.948615,4246.153742,4226.153743,4225.128102,4217.435794,4225.640922,4239.999896,4221.538358,4208.205025,4174.358872,4223.07682
88,0,4215.384512,4232.307589,4215.384512,4218.974256,4242.563999,4228.205025,4231.281948,4223.58964,4224.615281,4249.743486,4227.692204,4208.717846,4163.076821,4228.205025
89,0,4213.846051,4229.230666,4215.384512,4215.384512,4225.640922,4218.461435,4221.538358,4222.563999,4229.743486,4231.281948,4226.666563,4204.102461,4152.820411,4225.128102
90,0,4211.281948,4225.640922,4212.82041,4217.435794,4226.666563,4215.384512,4211.281948,4210.256307,4229.743486,4223.58964,4222.563999,4202.564,4154.871693,4225.128102
91,0,4214.871692,4231.794768,4215.384512,4219.999897,4222.051179,4217.948615,4215.384512,4206.666564,4221.538358,4222.051179,4220.512717,4205.640923,4156.922975,4230.256307
92,0,4217.948615,4232.820409,4219.999897,4218.461435,4214.871692,4219.999897,4223.58964,4212.307589,4214.871692,4220.512717,4216.922974,4209.230666,4156.922975,4230.256307
93,0,4218.461435,4230.256307,4221.025538,4223.58964,4234.358871,4222.563999,4229.230666,4219.999897,4222.563999,4228.717845,4218.461435,4210.256307,4157.948616,4231.794768
94,0,4219.999897,4232.820409,4219.487076,4227.692204,4247.179383,4224.615281,4231.794768,4224.102461,4233.33323,4239.999896,4226.666563,4207.692205,4151.28195,4233.84605
95,0,4213.846051,4230.256307,4217.948615,4219.487076,4227.692204,4222.563999,4224.615281,4218.461435,4229.230666,4243.076819,4223.07682,4205.640923,4135.384514,4223.58964
96,0,4204.615282,4227.179384,4216.410153,4215.897333,4223.58964,4221.025538,4218.461435,4214.358871,4226.153743,4241.538358,4215.384512,4201.538359,4132.307591,4215.384512
97,0,4209.743487,4230.769127,4218.974256,4217.948615,4238.974255,4219.487076,4223.58964,4215.897333,4232.307589,4243.58964,4223.07682,4199.487077,4143.589642,4222.563999
98,0,4219.487076,4233.33323,4224.615281,4216.922974,4230.769127,4219.487076,4230.256307,4219.487076,4231.794768,4249.230665,4228.205025,4208.717846,4144.102463,4231.794768
99,0,4218.974256,4232.307589,4228.205025,4222.051179,4224.615281,4226.666563,4230.256307,4219.999897,4227.692204,4237.948614,4225.640922,4218.461435,4134.871694,4234.871691
100,0,4217.948615,4234.871691,4225.128102,4227.692204,4240.512717,4232.307589,4226.153743,4217.948615,4233.33323,4224.102461,4228.717845,4214.871692,4139.999899,4235.384512
101,0,4216.922974,4235.384512,4218.974256,4221.538358,4251.794768,4232.820409,4227.692204,4216.410153,4231.281948,4234.871691,4225.128102,4206.153743,4140.512719,4227.179384
102,0,4206.666564,4223.58964,4215.384512,4216.922974,4232.820409,4230.256307,4231.281948,4219.999897,4221.538358,4237.948614,4213.33323,4202.051179,4121.538361,4214.358871
103,0,4198.974256,4214.358871,4216.410153,4218.974256,4208.205025,4230.256307,4232.820409,4230.256307,4225.640922,4232.307589,4211.281948,4203.07682,4114.871694,4212.307589
104,0,4205.128102,4222.563999,4214.358871,4218.461435,4220.512717,4229.743486,4231.794768,4229.743486,4233.33323,4250.256306,4215.384512,4207.692205,4122.564002,4217.435794
105,0,4214.358871,4232.307589,4215.384512,4218.461435,4246.153742,4221.025538,4229.743486,4219.999897,4229.230666,4254.871691,4222.563999,4213.846051,4122.564002,4222.051179
106,0,4217.435794,4232.307589,4224.102461,4221.025538,4245.128101,4222.563999,4228.717845,4218.461435,4224.615281,4229.743486,4232.820409,4217.948615,4126.666566,4229.743486
107,0,4217.948615,4229.743486,4232.307589,4221.025538,4230.256307,4229.743486,4230.256307,4225.640922,4230.256307,4227.179384,4232.820409,4219.487076,4138.461437,4235.384512
108,0,4217.435794,4230.256307,4228.205025,4221.025538,4228.717845,4224.102461,4232.820409,4223.58964,4229.743486,4249.230665,4221.538358,4218.461435,4134.871694,4227.692204
109,0,4211.794769,4227.692204,4220.512717,4219.999897,4230.256307,4214.871692,4227.179384,4213.33323,4221.538358,4241.538358,4212.307589,4211.281948,4121.538361,4216.922974
110,0,4212.82041,4227.692204,4222.051179,4217.948615,4230.769127,4218.461435,4222.563999,4219.999897,4225.640922,4221.538358,4221.538358,4211.794769,4121.538361,4224.615281
111,0,4215.897333,4227.692204,4224.102461,4218.461435,4233.33323,4224.102461,4227.692204,4228.205025,4235.384512,4236.922973,4233.33323,4215.897333,4127.179386,4232.820409
112,0,4207.179384,4223.07682,4217.435794,4217.435794,4225.640922,4220.512717,4226.666563,4218.974256,4231.281948,4255.384511,4222.563999,4206.153743,4125.128104,4221.025538
113,0,4199.999897,4216.922974,4209.743487,4213.33323,4225.640922,4219.487076,4219.487076,4212.307589,4224.615281,4241.025537,4209.743487,4197.948615,4121.02554,4209.743487
114,0,4201.538359,4215.384512,4205.128102,4213.33323,4231.281948,4221.025538,4219.999897,4215.897333,4226.666563,4226.666563,4212.307589,4200.512718,4119.999899,4213.846051
115,0,4201.025538,4222.051179,4204.615282,4215.384512,4224.102461,4217.435794,4221.025538,4215.897333,4228.205025,4232.820409,4216.410153,4201.538359,4121.02554,4215.897333
116,0,4200.512718,4228.205025,4208.205025,4214.358871,4222.051179,4211.281948,4214.358871,4214.358871,4231.281948,4230.769127,4215.897333,4199.999897,4123.589643,4215.384512
117,0,4204.615282,4225.640922,4213.846051,4214.871692,4229.743486,4213.846051,4215.384512,4216.922974,4229.230666,4223.07682,4217.435794,4202.051179,4122.051181,4216.410153
118,0,4203.07682,4220.512717,4214.871692,4216.410153,4232.307589,4218.461435,4222.051179,4214.358871,4219.487076,4235.897332,4216.410153,4201.538359,4121.02554,4216.410153
119,0,4199.487077,4216.922974,4209.743487,4215.384512,4222.051179,4216.922974,4221.025538,4210.256307,4221.025538,4246.153742,4216.922974,4199.999897,4120.51272,4213.33323
120,0,4201.025538,4214.871692,4206.153743,4214.358871,4215.897333,4222.563999,4221.538358,4215.897333,4229.743486,4231.281948,4218.974256,4202.564,4116.922976,4211.794769
121,0,4201.538359,4216.410153,4210.256307,4214.871692,4224.102461,4227.692204,4226.153743,4227.692204,4232.820409,4223.07682,4214.358871,4204.615282,4116.922976,4214.358871
122,0,4199.999897,4217.435794,4216.410153,4215.897333,4226.666563,4220.512717,4231.281948,4230.256307,4231.281948,4240.512717,4212.82041,4204.102461,4118.461438,4216.922974
123,0,4198.461436,4212.82041,4211.794769,4213.33323,4216.922974,4214.358871,4229.743486,4219.487076,4222.051179,4251.794768,4216.922974,4199.487077,4111.794771,4211.281948
124,0,4199.999897,4212.307589,4205.128102,4211.794769,4213.846051,4216.922974,4222.563999,4213.33323,4215.384512,4236.410153,4216.922974,4197.948615,4109.743489,4209.230666
125,0,4201.538359,4214.871692,4207.692205,4214.358871,4223.58964,4220.512717,4217.435794,4216.410153,4226.666563,4216.922974,4211.281948,4202.564,4119.999899,4214.871692
126,0,4200.512718,4214.871692,4213.846051,4214.358871,4221.025538,4217.948615,4218.461435,4217.435794,4232.307589,4214.358871,4210.256307,4203.589641,4119.999899,4213.33323
127,0,4197.948615,4212.307589,4211.794769,4210.256307,4203.589641,4214.871692,4224.102461,4215.384512,4218.461435,4209.230666,4215.897333,4202.051179,4108.205028,4208.717846
128,0,4198.974256,4211.794769,4209.743487,4211.794769,4195.384513,4221.538358,4229.743486,4216.922974,4213.846051,4197.435795,4217.435794,4200.512718,4106.153746,4213.33323
0,0,4209.743487,4215.384512,4216.410153,4217.948615,4204.615282,4231.794768,4233.84605,4224.615281,4225.640922,4208.717846,4216.922974,4204.102461,4115.897335,4218.461435
1,0,4212.307589,4216.410153,4218.461435,4217.435794,4216.410153,4224.615281,4231.794768,4228.717845,4230.256307,4222.051179,4216.922974,4208.717846,4122.051181,4216.410153
2,0,4204.615282,4211.794769,4212.307589,4212.82041,4218.974256,4219.999897,4229.230666,4224.615281,4231.281948,4225.128102,4215.384512,4207.692205,4114.871694,4214.871692
3,0,4203.589641,4211.281948,4210.769128,4213.846051,4223.58964,4227.692204,4233.33323,4224.102461,4231.281948,4229.230666,4214.358871,4203.07682,4107.692207,4217.435794
4,0,4207.179384,4214.358871,4210.769128,4215.384512,4211.281948,4221.538358,4230.769127,4229.230666,4223.07682,4215.897333,4215.384512,4201.538359,4108.717848,4214.871692
5,0,4204.102461,4216.922974,4210.256307,4213.846051,4193.333231,4210.769128,4219.487076,4227.692204,4221.025538,4198.461436,4215.897333,4202.051179,4113.333233,4210.256307
6,0,4202.051179,4216.922974,4211.281948,4212.82041,4212.82041,4215.384512,4214.871692,4219.487076,4225.128102,4203.07682,4213.846051,4201.538359,4110.76913,4215.384512
7,0,4205.640923,4213.33323,4213.846051,4209.743487,4234.358871,4218.974256,4224.615281,4216.922974,4219.487076,4201.538359,4210.256307,4200.512718,4106.153746,4215.897333
8,0,4202.051179,4208.717846,4212.82041,4203.07682,4223.07682,4216.922974,4230.769127,4218.461435,4212.82041,4194.871692,4209.230666,4198.461436,4108.205028,4204.615282
9,0,4198.974256,4206.666564,4211.794769,4201.025538,4210.769128,4217.435794,4225.640922,4215.897333,4213.33323,4216.410153,4213.846051,4196.410154,4106.666566,4202.564
10,0,4205.640923,4209.743487,4215.897333,4209.230666,4215.384512,4219.487076,4225.640922,4219.999897,4219.487076,4232.307589,4218.974256,4202.564,4109.743489,4213.846051
11,0,4207.692205,4216.410153,4219.999897,4215.897333,4224.102461,4222.563999,4233.33323,4232.820409,4229.230666,4210.256307,4219.999897,4208.205025,4118.974258,4216.922974
12,0,4203.07682,4216.410153,4217.948615,4214.871692,4231.794768,4223.07682,4229.743486,4231.281948,4226.666563,4197.948615,4217.948615,4204.615282,4113.846053,4211.794769
13,0,4206.666564,4214.358871,4217.435794,4213.33323,4221.538358,4215.897333,4217.435794,4221.025538,4213.33323,4220.512717,4217.435794,4205.640923,4111.281951,4214.358871
14,0,4217.435794,4225.128102,4226.153743,4216.410153,4208.717846,4216.410153,4220.512717,4226.153743,4219.999897,4235.384512,4224.102461,4215.384512,4127.179386,4226.153743
15,0,4218.974256,4233.33323,4233.33323,4218.974256,4226.153743,4226.666563,4234.358871,4237.435794,4236.922973,4227.179384,4233.84605,4218.974256,4135.897335,4235.384512
16,0,4214.871692,4220.512717,4226.153743,4217.435794,4234.871691,4223.58964,4233.33323,4235.897332,4231.281948,4215.897333,4232.820409,4213.33323,4125.640925,4230.769127
17,0,4213.846051,4211.794769,4215.897333,4214.871692,4216.410153,4214.871692,4224.102461,4229.230666,4215.384512,4215.897333,4225.128102,4210.256307,4121.02554,4222.051179
18,0,4215.897333,4223.07682,4218.974256,4214.358871,4219.487076,4219.999897,4227.692204,4230.256307,4219.999897,4223.58964,4226.666563,4211.794769,4128.717848,4227.692204
19,0,4221.025538,4234.871691,4230.769127,4218.461435,4243.58964,4230.256307,4235.384512,4234.871691,4233.84605,4234.871691,4232.820409,4215.897333,4138.974258,4238.461435
20,0,4221.538358,4224.102461,4230.769127,4221.538358,4230.256307,4231.794768,4234.358871,4233.33323,4227.179384,4231.794768,4227.179384,4217.948615,4136.922976,4232.307589
21,0,4213.33323,4211.281948,4218.461435,4217.435794,4194.358872,4229.230666,4231.281948,4227.692204,4214.871692,4207.692205,4215.384512,4212.307589,4121.538361,4217.948615
22,0,4213.846051,4223.58964,4219.487076,4218.461435,4207.179384,4227.179384,4230.769127,4228.205025,4222.051179,4204.102461,4218.461435,4212.307589,4119.999899,4223.07682
23,0,4227.692204,4239.487076,4232.307589,4226.153743,4247.179383,4229.230666,4232.307589,4233.84605,4232.820409,4224.615281,4232.820409,4219.487076,4136.410155,4236.410153
24,0,4229.743486,4235.384512,4234.358871,4225.128102,4249.743486,4231.281948,4233.33323,4235.897332,4231.794768,4230.769127,4233.33323,4219.999897,4145.640924,4238.461435
25,0,4217.948615,4221.538358,4223.58964,4216.922974,4225.640922,4223.07682,4230.256307,4233.84605,4227.179384,4218.974256,4220.512717,4215.384512,4132.307591,4229.743486
26,0,4213.846051,4217.435794,4218.461435,4213.846051,4213.33323,4216.922974,4227.692204,4231.281948,4221.538358,4214.871692,4214.358871,4214.358871,4118.461438,4221.025538
27,0,4218.974256,4224.102461,4224.615281,4215.384512,4213.846051,4217.435794,4226.153743,4230.769127,4222.563999,4223.58964,4220.512717,4217.435794,4129.230668,4223.58964
28,0,4219.487076,4228.717845,4229.230666,4216.410153,4214.871692,4218.974256,4224.102461,4229.743486,4231.281948,4226.153743,4229.743486,4217.948615,4142.051181,4230.256307
29,0,4216.922974,4226.666563,4226.153743,4217.435794,4218.974256,4223.58964,4228.717845,4231.794768,4237.948614,4220.512717,4230.256307,4215.384512,4134.871694,4227.692204
30,0,4217.948615,4228.205025,4226.153743,4217.948615,4226.666563,4232.820409,4236.410153,4235.384512,4235.897332,4209.230666,4223.07682,4216.410153,4129.230668,4226.666563
31,0,4224.615281,4233.33323,4228.205025,4216.922974,4233.84605,4232.307589,4229.230666,4232.307589,4229.743486,4212.307589,4215.897333,4218.461435,4137.948617,4232.307589
32,0,4228.717845,4230.769127,4222.563999,4217.435794,4228.717845,4223.58964,4217.435794,4227.692204,4227.179384,4236.410153,4219.487076,4214.871692,4139.487078,4227.692204
33,0,4224.615281,4225.640922,4222.051179,4217.948615,4218.461435,4224.102461,4221.538358,4229.743486,4232.820409,4239.999896,4224.615281,4213.846051,4136.410155,4224.102461
34,0,4225.640922,4230.769127,4230.256307,4219.487076,4221.025538,4228.205025,4229.230666,4232.820409,4233.33323,4210.769128,4219.999897,4219.487076,4138.974258,4232.307589
35,0,4231.281948,4231.794768,4233.33323,4219.487076,4219.999897,4229.230666,4230.256307,4231.281948,4222.051179,4201.025538,4218.974256,4221.025538,4139.487078,4231.281948
36,0,4225.640922,4223.07682,4228.717845,4218.974256,4209.230666,4229.230666,4228.205025,4226.666563,4216.922974,4216.410153,4229.743486,4216.922974,4137.435796,4226.666563
37,0,4219.999897,4222.563999,4223.07682,4217.948615,4213.33323,4227.692204,4221.025538,4226.153743,4224.615281,4217.435794,4230.256307,4213.846051,4139.999899,4228.205025
38,0,4226.153743,4231.281948,4221.025538,4218.974256,4225.640922,4227.692204,4219.487076,4231.794768,4231.281948,4223.58964,4218.461435,4214.358871,4141.02554,4232.307589
39,0,4230.256307,4233.33323,4222.051179,4221.025538,4221.538358,4231.794768,4231.281948,4234.358871,4227.179384,4230.769127,4221.025538,4216.410153,4137.948617,4229.743486
40,0,4226.153743,4228.717845,4219.487076,4217.435794,4212.82041,4228.205025,4230.256307,4226.153743,4219.487076,4206.153743,4226.666563,4214.358871,4138.974258,4222.051179
41,0,4225.640922,4229.230666,4214.358871,4214.358871,4220.512717,4216.922974,4215.384512,4217.435794,4218.461435,4197.948615,4216.410153,4212.307589,4140.512719,4222.051179
42,0,4230.769127,4232.820409,4216.922974,4217.948615,4224.102461,4219.487076,4217.948615,4215.897333,4221.025538,4219.999897,4213.846051,4214.358871,4139.999899,4226.153743
43,0,4232.820409,4235.384512,4224.102461,4221.538358,4216.922974,4228.717845,4224.615281,4216.922974,4219.999897,4210.256307,4227.179384,4215.897333,4142.051181,4227.179384
44,0,4230.769127,4233.33323,4227.179384,4218.974256,4222.563999,4227.179384,4221.025538,4217.948615,4218.974256,4197.948615,4230.256307,4213.846051,4141.02554,4225.640922
45,0,4231.794768,4231.794768,4227.692204,4218.461435,4230.256307,4225.640922,4224.615281,4217.435794,4219.999897,4223.07682,4226.153743,4215.384512,4138.974258,4228.205025
46,0,4231.794768,4232.820409,4227.692204,4219.999897,4221.025538,4228.717845,4233.84605,4218.461435,4220.512717,4222.051179,4229.230666,4218.974256,4143.589642,4227.692204
47,0,4223.58964,4229.230666,4223.58964,4218.461435,4214.871692,4227.692204,4226.666563,4222.051179,4219.999897,4193.846051,4228.717845,4218.461435,4148.205027,4222.563999
48,0,4216.410153,4224.102461,4217.948615,4217.435794,4220.512717,4227.692204,4216.410153,4221.025538,4218.461435,4205.128102,4215.384512,4212.307589,4138.461437,4216.922974
49,0,4213.33323,4217.435794,4213.33323,4213.846051,4213.33323,4229.230666,4216.410153,4213.33323,4215.897333,4233.33323,4208.205025,4204.615282,4129.743489,4209.743487
50,0,4214.871692,4218.974256,4213.846051,4211.794769,4204.102461,4219.999897,4218.974256,4212.307589,4217.948615,4225.128102,4222.563999,4203.589641,4144.615283,4212.82041
51,0,4218.461435,4229.743486,4216.922974,4215.384512,4219.999897,4213.846051,4216.922974,4217.435794,4220.512717,4206.153743,4230.769127,4209.743487,4155.897334,4216.922974
52,0,4217.948615,4232.820409,4216.410153,4217.948615,4237.435794,4224.102461,4218.461435,4217.435794,4218.461435,4212.82041,4219.487076,4210.256307,4143.589642,4214.871692
53,0,4221.025538,4229.230666,4215.384512,4216.922974,4235.384512,4230.769127,4225.640922,4216.922974,4218.974256,4214.358871,4218.974256,4208.205025,4144.102463,4217.948615
54,0,4229.230666,4228.717845,4223.07682,4215.897333,4223.07682,4225.128102,4225.128102,4218.461435,4221.025538,4197.435795,4233.84605,4213.33323,4165.640924,4230.256307
55,0,4239.487076,4233.33323,4229.230666,4217.948615,4217.435794,4222.563999,4219.487076,4216.922974,4219.999897,4207.179384,4234.871691,4216.410153,4170.769129,4240.512717
56,0,4252.820409,4238.461435,4230.769127,4224.615281,4215.897333,4221.025538,4217.435794,4214.871692,4218.974256,4236.410153,4228.205025,4213.846051,4169.230667,4247.692204
57,0,4263.589639,4243.58964,4231.794768,4229.743486,4211.794769,4216.410153,4216.922974,4217.435794,4221.538358,4230.769127,4233.33323,4215.384512,4185.640923,4257.948614
58,0,4269.230665,4249.230665,4234.871691,4229.743486,4213.846051,4218.461435,4222.563999,4218.461435,4219.999897,4203.589641,4239.999896,4216.922974,4189.230667,4265.128101
59,0,4281.538357,4258.974255,4239.999896,4231.281948,4216.922974,4219.999897,4227.692204,4214.358871,4212.82041,4194.871692,4236.922973,4216.410153,4184.102462,4270.769126
60,0,4304.102459,4272.820408,4248.205024,4241.025537,4216.410153,4214.871692,4221.025538,4214.871692,4212.307589,4192.82041,4234.358871,4224.615281,4206.666564,4283.589639
61,0,4322.051176,4280.512716,4252.307588,4250.769127,4225.128102,4215.384512,4215.897333,4217.948615,4219.487076,4204.615282,4241.025537,4231.794768,4222.051179,4298.461433
62,0,4324.102458,4283.589639,4248.717845,4246.153742,4229.743486,4217.948615,4219.999897,4209.743487,4218.461435,4228.205025,4244.615281,4222.563999,4199.999897,4296.922972
63,0,4314.358869,4277.435793,4244.615281,4236.922973,4217.435794,4214.871692,4215.384512,4198.461436,4211.794769,4220.512717,4234.358871,4213.846051,4186.666564,4285.1281
64,0,4311.281946,4269.230665,4240.512717,4237.948614,4216.922974,4213.846051,4208.205025,4197.948615,4211.794769,4201.538359,4226.666563,4215.897333,4203.07682,4285.640921
65,0,4315.89733,4271.281947,4236.410153,4241.538358,4216.410153,4216.922974,4210.256307,4200.512718,4214.358871,4211.281948,4231.794768,4216.410153,4204.102461,4291.281946
66,0,4307.179382,4270.769126,4232.307589,4235.897332,4199.487077,4212.82041,4210.256307,4199.487077,4214.871692,4218.461435,4235.384512,4213.33323,4186.666564,4281.025536
67,0,4291.281946,4259.487075,4229.743486,4231.794768,4208.717846,4206.666564,4209.743487,4199.487077,4216.922974,4203.07682,4233.33323,4211.281948,4186.153744,4268.205024
68,0,4278.461434,4251.281947,4226.666563,4233.33323,4236.410153,4210.769128,4215.384512,4203.07682,4218.461435,4206.153743,4232.307589,4207.179384,4191.794769,4264.61528
69,0,4265.128101,4243.58964,4217.948615,4226.666563,4224.102461,4216.410153,4217.948615,4204.615282,4218.461435,4219.999897,4228.717845,4200.512718,4187.179385,4256.410152
70,0,4257.948614,4233.84605,4214.358871,4217.948615,4197.948615,4214.871692,4213.846051,4203.589641,4218.974256,4213.33323,4226.153743,4201.025538,4181.025539,4247.179383
71,0,4259.999896,4239.487076,4224.102461,4224.102461,4206.153743,4214.871692,4216.922974,4203.07682,4215.384512,4204.102461,4230.769127,4209.743487,4184.102462,4247.179383
72,0,4256.922973,4246.153742,4231.281948,4230.769127,4221.025538,4216.922974,4222.563999,4208.205025,4215.897333,4209.743487,4232.307589,4216.410153,4189.230667,4243.076819
73,0,4244.615281,4233.33323,4224.102461,4222.563999,4214.871692,4214.871692,4222.563999,4216.922974,4225.128102,4224.102461,4228.717845,4214.358871,4184.102462,4234.871691
74,0,4235.897332,4226.153743,4216.922974,4215.384512,4210.769128,4216.922974,4223.58964,4220.512717,4224.102461,4224.615281,4228.717845,4210.769128,4174.358872,4228.717845
75,0,4229.743486,4230.256307,4215.384512,4218.461435,4221.538358,4217.948615,4221.538358,4213.33323,4215.384512,4206.666564,4229.743486,4203.589641,4166.153744,4221.538358
76,0,4225.128102,4228.717845,4212.82041,4218.461435,4223.58964,4216.922974,4216.410153,4211.281948,4220.512717,4202.051179,4225.640922,4196.922974,4167.692206,4215.897333
77,0,4226.153743,4229.743486,4214.871692,4218.974256,4218.974256,4225.128102,4224.615281,4228.205025,4232.307589,4219.999897,4228.717845,4203.07682,4175.384513,4219.999897
78,0,4223.58964,4234.358871,4219.487076,4220.512717,4224.615281,4227.179384,4234.871691,4236.922973,4233.84605,4236.922973,4233.84605,4209.743487,4176.410154,4221.538358
79,0,4213.846051,4226.153743,4211.794769,4216.410153,4220.512717,4219.999897,4229.230666,4218.974256,4223.58964,4235.384512,4221.025538,4201.025538,4167.179385,4210.256307
80,0,4209.230666,4222.563999,4206.666564,4215.384512,4212.307589,4221.538358,4226.153743,4210.769128,4218.974256,4211.794769,4211.281948,4194.871692,4164.615283,4205.640923
81,0,4215.384512,4230.256307,4214.358871,4219.487076,4221.538358,4224.102461,4230.256307,4226.666563,4230.769127,4199.487077,4225.128102,4202.564,4171.79477,4214.358871
82,0,4216.410153,4232.820409,4217.435794,4221.025538,4227.179384,4217.948615,4228.205025,4234.358871,4235.384512,4223.07682,4231.281948,4207.179384,4171.281949,4214.871692
83,0,4209.230666,4227.179384,4212.82041,4217.435794,4216.922974,4217.948615,4228.717845,4226.153743,4222.051179,4246.153742,4216.922974,4202.051179,4166.666565,4203.07682
84,0,4208.717846,4226.666563,4213.33323,4216.410153,4217.948615,4220.512717,4233.33323,4219.999897,4217.948615,4232.820409,4214.358871,4199.999897,4168.205026,4200.512718
85,0,4210.256307,4230.769127,4216.922974,4219.487076,4227.692204,4214.871692,4231.281948,4218.461435,4230.256307,4213.33323,4224.102461,4202.051179,4167.179385,4207.179384
86,0,4203.589641,4224.615281,4215.897333,4219.999897,4218.974256,4221.025538,4226.153743,4217.948615,4230.769127,4206.666564,4214.871692,4202.051179,4158.974257,4202.564
87,0,4197.948615,4215.897333,4213.33323,4216.410153,4208.717846,4228.717845,4229.230666,4217.948615,4220.512717,4199.999897,4204.102461,4199.487077,4151.28195,4190.256308
88,0,4197.435795,4214.871692,4210.769128,4214.871692,4221.025538,4224.102461,4234.358871,4217.948615,4223.07682,4207.692205,4211.794769,4198.461436,4152.820411,4189.743487
89,0,4201.025538,4217.435794,4211.281948,4216.922974,4236.410153,4221.025538,4233.84605,4221.025538,4232.820409,4231.281948,4219.999897,4199.999897,4155.897334,4200.512718
90,0,4208.205025,4219.487076,4216.410153,4218.974256,4231.281948,4228.205025,4233.33323,4228.717845,4232.307589,4238.974255,4218.461435,4202.564,4156.922975,4203.589641
91,0,4207.692205,4227.179384,4217.948615,4218.974256,4218.974256,4231.281948,4234.358871,4231.281948,4228.717845,4224.615281,4215.897333,4203.589641,4156.922975,4198.461436
92,0,4201.025538,4236.410153,4217.435794,4218.461435,4214.871692,4222.051179,4234.871691,4231.794768,4233.84605,4217.435794,4218.461435,4204.615282,4155.897334,4200.512718
93,0,4200.512718,4228.205025,4215.384512,4216.410153,4218.974256,4213.33323,4230.256307,4230.256307,4230.769127,4216.410153,4212.82041,4202.564,4156.410155,4196.922974
94,0,4198.461436,4214.871692,4211.281948,4213.846051,4232.820409,4218.974256,4224.615281,4221.538358,4218.461435,4210.256307,4201.538359,4197.948615,4150.769129,4188.205026
95,0,4198.461436,4220.512717,4212.82041,4215.384512,4238.974255,4228.717845,4226.666563,4214.871692,4219.999897,4219.487076,4209.743487,4199.999897,4146.153745,4194.871692
96,0,4203.07682,4228.205025,4213.33323,4218.461435,4224.102461,4224.102461,4226.666563,4216.922974,4227.692204,4221.025538,4224.615281,4202.051179,4160.512719,4204.102461
97,0,4202.564,4221.025538,4211.281948,4216.410153,4218.974256,4214.871692,4222.563999,4221.538358,4231.281948,4213.846051,4219.999897,4199.999897,4174.358872,4204.102461
98,0,4201.538359,4214.871692,4210.256307,4212.82041,4217.435794,4217.948615,4222.563999,4222.563999,4229.743486,4225.640922,4213.846051,4199.487077,4162.564001,4200.512718
99,0,4199.487077,4217.435794,4207.179384,4213.846051,4201.025538,4220.512717,4222.051179,4218.974256,4221.025538,4228.717845,4214.871692,4197.435795,4144.615283,4193.333231
100,0,4190.256308,4214.871692,4199.999897,4214.358871,4205.640923,4216.922974,4216.410153,4213.846051,4214.871692,4218.974256,4206.153743,4193.846051,4142.564001,4184.615282
101,0,4188.717846,4212.82041,4202.051179,4210.256307,4232.820409,4215.384512,4217.948615,4215.897333,4214.358871,4213.33323,4206.666564,4196.922974,4149.743488,4187.692205
102,0,4197.948615,4219.487076,4207.179384,4208.205025,4239.487076,4217.435794,4222.563999,4224.102461,4217.435794,4198.461436,4220.512717,4202.051179,4156.410155,4199.487077
103,0,4199.487077,4216.410153,4207.179384,4212.82041,4229.230666,4217.948615,4217.948615,4223.58964,4222.563999,4195.897333,4216.410153,4201.025538,4153.846052,4199.487077
104,0,4187.179385,4206.153743,4205.128102,4212.82041,4215.897333,4215.384512,4216.410153,4216.410153,4221.538358,4224.615281,4199.999897,4194.358872,4140.512719,4186.153744
105,0,4183.076821,4205.640923,4202.051179,4207.179384,4206.153743,4213.33323,4219.487076,4213.846051,4214.358871,4240.512717,4198.974256,4193.333231,4142.564001,4181.025539
106,0,4191.281949,4213.33323,4202.051179,4209.743487,4222.051179,4214.871692,4218.974256,4217.948615,4214.358871,4227.692204,4209.743487,4199.999897,4156.922975,4194.358872
107,0,4191.281949,4215.897333,4202.051179,4212.307589,4232.820409,4215.897333,4216.410153,4218.461435,4216.922974,4211.794769,4208.205025,4196.922974,4153.846052,4198.974256
108,0,4188.205026,4216.922974,4202.051179,4211.794769,4217.948615,4215.897333,4217.435794,4212.307589,4213.33323,4192.30759,4206.153743,4189.230667,4147.692206,4193.333231
109,0,4195.897333,4218.461435,4202.564,4213.846051,4222.051179,4215.897333,4217.948615,4212.82041,4216.410153,4197.435795,4214.871692,4195.897333,4154.358873,4195.897333
110,0,4201.025538,4215.897333,4203.589641,4214.871692,4234.871691,4213.846051,4214.358871,4214.358871,4222.563999,4228.205025,4216.410153,4202.564,4156.410155,4199.487077
111,0,4203.589641,4219.487076,4209.230666,4213.846051,4225.640922,4213.33323,4218.974256,4215.384512,4216.410153,4230.256307,4213.846051,4202.564,4160.512719,4205.128102
112,0,4213.846051,4233.84605,4218.974256,4219.487076,4227.179384,4218.461435,4234.871691,4224.615281,4216.410153,4233.33323,4227.692204,4212.82041,4174.358872,4217.435794
113,0,4214.871692,4237.435794,4217.948615,4224.615281,4246.666563,4222.051179,4235.897332,4232.820409,4226.666563,4251.281947,4234.871691,4217.948615,4170.256308,4217.948615
114,0,4202.051179,4223.07682,4204.102461,4218.974256,4244.10246,4218.461435,4222.563999,4226.153743,4225.128102,4231.794768,4219.487076,4205.128102,4154.871693,4204.102461
115,0,4192.82041,4212.82041,4197.435795,4212.307589,4229.230666,4214.871692,4222.051179,4215.897333,4214.358871,4208.717846,4210.769128,4195.897333,4152.307591,4196.410154
116,0,4190.769128,4217.948615,4199.999897,4213.33323,4232.820409,4217.435794,4231.281948,4216.410153,4213.846051,4226.666563,4214.871692,4196.922974,4154.871693,4196.922974
117,0,4196.922974,4220.512717,4201.025538,4216.922974,4236.410153,4228.205025,4234.358871,4225.128102,4219.999897,4227.179384,4212.82041,4199.487077,4154.871693,4199.999897
118,0,4200.512718,4214.358871,4201.538359,4216.922974,4229.743486,4230.256307,4233.33323,4230.769127,4217.435794,4207.692205,4205.640923,4197.948615,4154.871693,4201.025538
119,0,4199.999897,4218.974256,4206.666564,4216.410153,4233.33323,4222.563999,4232.307589,4232.307589,4218.461435,4232.307589,4211.281948,4198.461436,4162.564001,4202.564
120,0,4208.205025,4235.897332,4213.846051,4219.999897,4243.076819,4219.999897,4232.307589,4235.384512,4226.666563,4256.410152,4224.102461,4207.179384,4184.615282,4213.846051
121,0,4212.82041,4234.358871,4212.82041,4219.999897,4232.307589,4218.461435,4230.769127,4233.33323,4222.051179,4235.384512,4223.58964,4210.256307,4189.230667,4217.948615
122,0,4200.512718,4216.410153,4208.205025,4212.82041,4215.384512,4218.974256,4230.256307,4230.256307,4215.897333,4224.102461,4215.897333,4201.538359,4165.128103,4206.153743
123,0,4197.948615,4217.435794,4212.82041,4212.82041,4216.410153,4223.58964,4234.358871,4237.948614,4227.179384,4235.897332,4217.435794,4201.538359,4156.922975,4204.102461
124,0,4212.307589,4231.794768,4217.948615,4221.025538,4227.179384,4221.025538,4238.461435,4241.025537,4231.794768,4237.435794,4217.948615,4212.307589,4169.743488,4215.897333
125,0,4217.435794,4232.820409,4216.410153,4220.512717,4234.871691,4220.512717,4235.384512,4230.256307,4222.051179,4229.230666,4217.948615,4216.410153,4177.435795,4219.999897
126,0,4216.410153,4226.666563,4217.435794,4213.846051,4234.358871,4227.179384,4233.33323,4234.358871,4227.179384,4233.84605,4226.666563,4216.410153,4182.05118,4217.948615
127,0,4216.922974,4218.461435,4219.999897,4214.871692,4221.025538,4223.07682,4236.410153,4247.179383,4236.410153,4238.974255,4226.153743,4216.922974,4185.640923,4217.435794
128,0,4208.205025,4213.846051,4216.922974,4218.461435,4212.307589,4215.384512,4233.33323,4237.948614,4221.538358,4230.256307,4214.871692,4212.82041,4173.846052,4215.897333
0,0,4204.615282,4220.512717,4214.871692,4218.974256,4224.102461,4217.948615,4230.256307,4230.256307,4212.82041,4237.948614,4218.461435,4210.769128,4165.128103,4214.871692
1,0,4213.846051,4223.58964,4217.435794,4219.999897,4239.487076,4223.07682,4231.794768,4244.10246,4226.666563,4247.179383,4232.307589,4214.871692,4176.922975,4216.922974
2,0,4216.922974,4222.051179,4217.948615,4219.487076,4237.948614,4226.666563,4233.84605,4246.153742,4232.820409,4232.307589,4230.256307,4216.922974,4183.589641,4215.897333
3,0,4214.358871,4230.769127,4218.461435,4217.435794,4236.922973,4228.717845,4235.384512,4233.84605,4227.692204,4234.871691,4216.410153,4213.33323,4176.922975,4215.384512
4,0,4213.846051,4231.281948,4218.974256,4217.435794,4234.871691,4225.640922,4236.410153,4231.794768,4224.615281,4251.794768,4212.307589,4207.179384,4170.256308,4214.358871
5,0,4204.615282,4215.384512,4212.307589,4217.435794,4222.563999,4221.538358,4233.84605,4231.794768,4219.487076,4233.84605,4215.384512,4199.487077,4167.179385,4206.153743
6,0,4197.948615,4211.794769,4207.179384,4215.897333,4224.102461,4217.948615,4231.794768,4226.666563,4214.358871,4213.846051,4217.435794,4198.974256,4167.179385,4199.487077
7,0,4201.538359,4218.974256,4212.82041,4215.384512,4225.640922,4217.435794,4233.33323,4232.307589,4222.563999,4216.410153,4217.948615,4204.615282,4172.30759,4203.07682
8,0,4200.512718,4217.948615,4213.33323,4215.897333,4213.33323,4219.487076,4233.33323,4231.794768,4229.230666,4204.615282,4218.974256,4203.07682,4171.79477,4204.615282
9,0,4197.435795,4214.358871,4208.205025,4215.384512,4222.051179,4219.487076,4233.84605,4221.538358,4219.487076,4202.051179,4217.435794,4198.461436,4164.615283,4199.999897
10,0,4194.871692,4215.897333,4209.743487,4215.897333,4235.897332,4219.487076,4235.384512,4222.563999,4214.358871,4227.179384,4210.769128,4197.948615,4167.179385,4199.999897
11,0,4189.230667,4216.922974,4207.692205,4215.897333,4216.410153,4218.461435,4234.358871,4228.717845,4217.948615,4238.974255,4208.717846,4198.461436,4174.358872,4200.512718
12,0,4188.205026,4210.769128,4200.512718,4213.33323,4201.538359,4216.922974,4234.358871,4229.230666,4221.538358,4228.717845,4213.33323,4195.384513,4167.179385,4194.358872
13,0,4197.948615,4214.871692,4209.230666,4212.82041,4213.33323,4220.512717,4236.410153,4231.281948,4225.640922,4211.281948,4219.999897,4199.487077,4165.640924,4198.974256
14,0,4206.153743,4227.179384,4219.487076,4217.948615,4216.410153,4226.153743,4235.897332,4231.794768,4223.58964,4200.512718,4224.102461,4209.743487,4181.025539,4214.358871
15,0,4204.102461,4225.128102,4209.230666,4217.948615,4218.461435,4226.153743,4233.33323,4227.179384,4216.410153,4207.179384,4218.974256,4208.205025,4186.666564,4211.794769
16,0,4202.564,4223.07682,4207.179384,4213.846051,4233.33323,4222.051179,4233.84605,4229.230666,4225.640922,4219.487076,4213.33323,4203.07682,4182.564,4204.615282
17,0,4204.615282,4229.230666,4217.948615,4215.384512,4233.33323,4217.948615,4234.871691,4232.820409,4232.307589,4219.999897,4219.999897,4204.102461,4182.564,4208.717846
18,0,4199.487077,4220.512717,4212.307589,4216.410153,4210.256307,4218.974256,4233.33323,4228.717845,4219.487076,4203.589641,4225.128102,4201.025538,4176.922975,4204.615282
19,0,4196.922974,4214.358871,4205.128102,4214.358871,4202.051179,4222.051179,4233.33323,4227.692204,4217.948615,4196.922974,4219.487076,4197.948615,4174.871693,4202.051179
20,0,4207.179384,4228.205025,4215.897333,4217.435794,4216.410153,4220.512717,4236.410153,4233.33323,4227.179384,4223.07682,4215.384512,4204.102461,4188.717846,4214.358871
21,0,4208.717846,4227.179384,4215.897333,4218.461435,4220.512717,4225.640922,4235.384512,4231.281948,4220.512717,4237.435794,4217.948615,4200.512718,4186.153744,4212.307589
22,0,4197.948615,4212.82041,4201.025538,4213.33323,4215.384512,4230.769127,4232.820409,4219.487076,4212.307589,4217.948615,4212.82041,4186.666564,4171.281949,4196.410154
23,0,4199.487077,4215.384512,4203.589641,4212.82041,4217.948615,4222.563999,4232.307589,4221.025538,4217.948615,4207.179384,4202.564,4190.256308,4179.487077,4198.974256
24,0,4204.102461,4219.487076,4213.846051,4215.897333,4223.07682,4215.384512,4232.820409,4230.256307,4219.487076,4207.179384,4205.128102,4199.999897,4187.692205,4205.128102
25,0,4201.538359,4219.487076,4213.33323,4216.410153,4218.974256,4218.974256,4232.820409,4230.256307,4217.435794,4202.051179,4217.948615,4198.974256,4179.999898,4202.051179
26,0,4202.051179,4225.128102,4209.230666,4215.384512,4216.410153,4219.487076,4233.33323,4226.153743,4220.512717,4210.769128,4219.487076,4197.435795,4183.076821,4203.589641
27,0,4203.589641,4222.563999,4209.230666,4214.871692,4222.051179,4215.897333,4231.281948,4224.615281,4219.999897,4217.948615,4210.256307,4194.358872,4192.30759,4199.999897
28,0,4203.589641,4221.538358,4211.794769,4216.922974,4217.435794,4217.435794,4229.743486,4228.717845,4221.538358,4212.82041,4213.33323,4194.358872,4193.846051,4199.999897
29,0,4204.615282,4228.205025,4208.205025,4216.922974,4206.153743,4217.948615,4230.769127,4229.743486,4220.512717,4213.33323,4218.974256,4199.999897,4193.333231,4209.230666
30,0,4200.512718,4225.128102,4202.051179,4213.33323,4206.153743,4216.410153,4229.230666,4220.512717,4212.82041,4203.589641,4210.769128,4199.487077,4188.717846,4209.230666
31,0,4202.564,4223.07682,4207.179384,4214.358871,4217.948615,4214.358871,4226.153743,4218.461435,4219.999897,4203.589641,4210.769128,4196.410154,4184.102462,4204.615282
32,0,4214.871692,4233.84605,4217.948615,4219.999897,4228.717845,4217.435794,4229.230666,4232.820409,4231.794768,4228.205025,4225.128102,4203.589641,4192.82041,4210.769128
33,0,4221.025538,4235.897332,4221.025538,4221.538358,4227.179384,4222.563999,4233.33323,4240.512717,4223.58964,4228.717845,4231.794768,4208.717846,4204.102461,4217.948615
34,0,4216.410153,4228.205025,4217.948615,4217.948615,4219.487076,4217.435794,4230.256307,4229.230666,4213.846051,4210.769128,4225.640922,4208.205025,4204.102461,4218.974256
35,0,4215.384512,4230.256307,4217.948615,4219.487076,4212.307589,4221.538358,4229.743486,4225.128102,4222.051179,4214.871692,4226.666563,4212.82041,4201.538359,4222.563999
36,0,4218.461435,4231.794768,4221.025538,4220.512717,4202.051179,4232.820409,4237.948614,4241.538358,4230.769127,4222.051179,4232.307589,4212.82041,4200.512718,4222.563999
37,0,4217.435794,4228.717845,4223.07682,4217.435794,4203.07682,4223.58964,4238.461435,4251.281947,4226.153743,4219.487076,4230.256307,4205.640923,4199.999897,4217.435794
38,0,4217.435794,4228.717845,4218.974256,4221.025538,4227.692204,4218.461435,4231.281948,4239.487076,4224.102461,4227.692204,4224.102461,4203.07682,4208.717846,4218.461435
39,0,4219.999897,4232.307589,4217.948615,4227.692204,4240.512717,4229.743486,4232.307589,4229.743486,4232.820409,4234.871691,4218.461435,4204.102461,4214.358871,4220.512717
40,0,4219.487076,4234.871691,4220.512717,4223.07682,4219.487076,4226.153743,4233.84605,4232.820409,4232.307589,4225.128102,4222.563999,4203.589641,4209.230666,4221.025538
41,0,4214.358871,4230.256307,4217.435794,4215.897333,4210.256307,4211.794769,4223.58964,4232.307589,4218.461435,4214.358871,4228.717845,4202.564,4205.640923,4218.461435
42,0,4211.794769,4225.128102,4214.871692,4217.948615,4218.461435,4215.897333,4219.999897,4231.281948,4222.563999,4213.846051,4230.256307,4204.102461,4205.128102,4217.435794
43,0,4215.384512,4227.692204,4217.948615,4220.512717,4206.666564,4220.512717,4228.717845,4233.33323,4230.769127,4217.435794,4228.717845,4205.128102,4204.102461,4218.461435
44,0,4213.846051,4227.179384,4217.435794,4217.435794,4188.205026,4219.487076,4232.307589,4230.256307,4222.563999,4219.487076,4222.051179,4202.564,4204.102461,4217.435794
45,0,4204.102461,4217.948615,4211.281948,4216.922974,4198.974256,4222.563999,4229.743486,4228.717845,4217.948615,4216.410153,4211.281948,4198.974256,4203.07682,4212.307589
46,0,4204.102461,4216.922974,4209.743487,4214.871692,4227.692204,4220.512717,4231.281948,4231.281948,4223.58964,4209.743487,4212.307589,4196.922974,4198.461436,4213.33323
47,0,4215.897333,4229.230666,4218.461435,4218.974256,4234.871691,4217.948615,4236.922973,4233.84605,4219.999897,4210.769128,4224.615281,4200.512718,4198.974256,4218.974256
48,0,4219.999897,4232.820409,4222.051179,4225.640922,4219.487076,4219.487076,4233.33323,4231.281948,4216.410153,4229.230666,4223.07682,4203.589641,4207.179384,4220.512717
49,0,4212.307589,4228.205025,4216.922974,4221.025538,4214.871692,4216.410153,4227.692204,4227.179384,4223.58964,4233.84605,4214.871692,4202.564,4212.307589,4219.999897
50,0,4213.33323,4230.256307,4216.922974,4221.538358,4213.33323,4216.410153,4229.743486,4229.230666,4228.717845,4215.384512,4222.051179,4202.051179,4212.82041,4227.179384
51,0,4219.487076,4235.384512,4220.512717,4227.692204,4202.051179,4224.102461,4234.871691,4234.358871,4231.281948,4212.307589,4233.84605,4204.615282,4217.435794,4234.358871
52,0,4217.948615,4234.358871,4215.897333,4223.07682,4202.564,4225.128102,4230.256307,4233.84605,4229.743486,4221.538358,4233.33323,4204.102461,4221.538358,4229.743486
53,0,4213.846051,4228.205025,4213.33323,4220.512717,4217.948615,4224.102461,4224.102461,4229.230666,4221.025538,4212.82041,4229.230666,4202.564,4214.871692,4219.487076
54,0,4212.82041,4227.179384,4217.435794,4225.128102,4222.563999,4227.692204,4227.692204,4224.102461,4217.948615,4204.615282,4229.230666,4202.564,4211.281948,4217.435794
55,0,4214.358871,4231.794768,4217.435794,4223.07682,4215.384512,4223.58964,4229.743486,4226.666563,4220.512717,4216.922974,4226.666563,4201.025538,4219.487076,4218.974256
56,0,4213.846051,4226.666563,4212.82041,4217.948615,4216.922974,4214.871692,4221.538358,4227.179384,4221.538358,4222.051179,4221.538358,4198.974256,4215.384512,4217.435794
57,0,4211.281948,4218.461435,4211.794769,4219.487076,4216.410153,4213.33323,4216.410153,4220.512717,4216.922974,4212.82041,4218.974256,4197.435795,4198.974256,4214.358871
58,0,4212.82041,4225.128102,4214.358871,4219.487076,4203.07682,4222.051179,4222.563999,4222.051179,4218.461435,4219.999897,4222.563999,4199.487077,4204.615282,4217.435794
59,0,4216.922974,4231.794768,4217.435794,4220.512717,4203.07682,4228.717845,4230.769127,4232.820409,4224.102461,4227.179384,4230.256307,4203.07682,4221.538358,4220.512717
60,0,4214.358871,4228.205025,4218.461435,4219.487076,4215.384512,4226.153743,4231.281948,4234.358871,4227.692204,4216.922974,4233.33323,4203.589641,4219.999897,4218.461435
61,0,4212.307589,4229.743486,4216.922974,4217.435794,4217.435794,4223.58964,4228.205025,4231.281948,4225.640922,4218.461435,4230.256307,4203.07682,4216.922974,4218.974256
62,0,4211.794769,4231.281948,4216.410153,4219.487076,4214.871692,4227.179384,4221.538358,4231.794768,4221.025538,4236.410153,4227.179384,4202.051179,4219.999897,4222.051179
63,0,4205.128102,4218.974256,4212.82041,4217.948615,4218.461435,4222.563999,4215.384512,4227.692204,4219.999897,4232.307589,4226.153743,4198.461436,4208.717846,4217.435794
64,0,4201.025538,4213.846051,4212.307589,4215.897333,4213.846051,4215.897333,4223.07682,4230.769127,4222.051179,4212.82041,4228.205025,4198.461436,4198.461436,4212.82041
65,0,4205.128102,4219.999897,4217.948615,4217.948615,4211.794769,4218.974256,4230.769127,4233.84605,4221.025538,4218.461435,4230.769127,4200.512718,4205.128102,4218.461435
66,0,4203.07682,4218.461435,4212.82041,4216.410153,4215.897333,4218.461435,4219.999897,4220.512717,4215.897333,4225.640922,4218.974256,4187.692205,4204.615282,4212.307589
67,0,4198.974256,4215.384512,4205.640923,4213.846051,4202.564,4213.33323,4210.769128,4210.256307,4212.82041,4195.384513,4208.717846,4180.512718,4198.974256,4198.974256
68,0,4201.538359,4218.974256,4213.33323,4215.897333,4193.846051,4214.871692,4217.435794,4215.384512,4215.897333,4178.461436,4215.384512,4194.358872,4201.538359,4206.153743
69,0,4201.538359,4219.487076,4216.922974,4216.922974,4208.717846,4219.487076,4218.461435,4216.922974,4216.922974,4207.179384,4214.871692,4195.384513,4201.538359,4215.384512
70,0,4198.974256,4217.948615,4209.743487,4214.871692,4213.846051,4218.974256,4212.82041,4211.281948,4215.384512,4222.563999,4208.717846,4184.102462,4201.538359,4211.281948
71,0,4202.051179,4223.07682,4212.307589,4219.487076,4209.230666,4217.948615,4220.512717,4214.358871,4216.922974,4219.999897,4215.384512,4188.205026,4205.640923,4212.82041
72,0,4208.205025,4226.666563,4219.999897,4226.666563,4217.435794,4222.563999,4228.717845,4219.999897,4221.538358,4229.743486,4222.563999,4198.461436,4204.102461,4217.948615
73,0,4207.179384,4228.717845,4215.897333,4223.07682,4218.974256,4220.512717,4221.025538,4217.948615,4221.538358,4224.102461,4221.025538,4195.384513,4200.512718,4213.846051
74,0,4203.07682,4232.307589,4212.82041,4217.948615,4209.743487,4214.871692,4214.358871,4215.897333,4219.999897,4202.564,4221.025538,4190.769128,4204.615282,4210.769128
75,0,4203.07682,4226.666563,4215.897333,4219.487076,4209.743487,4217.435794,4217.948615,4216.922974,4219.487076,4202.564,4215.384512,4191.281949,4211.281948,4210.256307
76,0,4202.564,4223.07682,4212.82041,4219.999897,4211.794769,4219.999897,4220.512717,4215.897333,4216.410153,4208.205025,4207.692205,4188.205026,4213.33323,4203.07682
77,0,4199.999897,4226.153743,4209.743487,4216.922974,4213.33323,4215.384512,4217.948615,4214.871692,4215.384512,4210.256307,4214.358871,4186.153744,4211.281948,4204.615282
78,0,4199.999897,4221.538358,4210.769128,4215.384512,4218.461435,4215.897333,4218.461435,4218.461435,4219.999897,4228.717845,4221.025538,4192.30759,4208.717846,4213.33323
79,0,4203.589641,4215.384512,4208.205025,4216.410153,4219.999897,4218.461435,4217.948615,4219.487076,4222.051179,4235.384512,4220.512717,4198.461436,4205.128102,4214.871692
80,0,4203.07682,4214.358871,4203.589641,4216.922974,4212.307589,4216.410153,4215.897333,4212.307589,4216.922974,4218.974256,4215.384512,4198.461436,4200.512718,4212.82041
81,0,4201.025538,4215.897333,4209.743487,4217.435794,4202.051179,4214.871692,4217.948615,4209.230666,4214.358871,4209.230666,4211.794769,4197.948615,4203.07682,4213.33323
82,0,4204.615282,4223.07682,4220.512717,4219.999897,4207.692205,4215.384512,4221.025538,4215.384512,4219.487076,4212.82041,4223.58964,4202.051179,4212.307589,4215.384512
83,0,4215.897333,4233.33323,4221.538358,4230.256307,4229.230666,4214.871692,4218.974256,4218.974256,4222.051179,4223.58964,4234.358871,4204.102461,4216.410153,4216.922974
84,0,4214.358871,4226.666563,4217.948615,4231.794768,4236.410153,4215.897333,4214.358871,4214.358871,4216.410153,4233.33323,4221.538358,4202.051179,4214.871692,4217.948615
85,0,4201.538359,4217.435794,4216.410153,4222.563999,4225.128102,4217.948615,4221.025538,4213.33323,4214.871692,4229.230666,4210.256307,4201.538359,4212.82041,4216.410153
86,0,4204.615282,4225.640922,4215.897333,4223.07682,4217.435794,4219.487076,4230.769127,4218.461435,4225.640922,4214.358871,4221.538358,4200.512718,4212.82041,4214.871692
87,0,4216.410153,4232.820409,4217.435794,4230.769127,4215.384512,4216.922974,4226.153743,4218.974256,4229.743486,4213.846051,4229.743486,4201.538359,4214.358871,4216.410153
88,0,4218.974256,4230.256307,4225.128102,4232.820409,4220.512717,4218.461435,4224.102461,4218.461435,4219.487076,4224.102461,4229.743486,4210.769128,4215.897333,4222.051179
89,0,4217.435794,4228.205025,4229.230666,4231.794768,4232.307589,4222.051179,4229.230666,4217.435794,4213.33323,4224.615281,4230.256307,4214.871692,4218.461435,4225.128102
90,0,4215.897333,4228.717845,4222.563999,4230.769127,4232.820409,4219.999897,4223.07682,4212.82041,4214.871692,4213.846051,4222.563999,4204.102461,4217.435794,4219.487076
91,0,4215.897333,4228.205025,4222.051179,4230.256307,4226.153743,4222.563999,4217.435794,4214.358871,4219.487076,4213.33323,4215.897333,4202.051179,4218.974256,4216.922974
92,0,4219.487076,4229.743486,4229.230666,4232.307589,4227.692204,4228.717845,4229.230666,4221.025538,4223.58964,4227.179384,4221.538358,4212.307589,4224.102461,4219.487076
93,0,4217.948615,4232.307589,4229.230666,4233.33323,4230.256307,4223.58964,4230.769127,4217.948615,4220.512717,4226.153743,4227.692204,4209.230666,4220.512717,4218.461435
94,0,4212.307589,4229.743486,4226.666563,4230.769127,4229.743486,4215.897333,4218.974256,4210.256307,4214.358871,4215.384512,4228.205025,4200.512718,4214.871692,4222.051179
95,0,4215.384512,4229.743486,4228.205025,4231.281948,4233.84605,4218.974256,4222.051179,4213.846051,4217.435794,4217.948615,4228.717845,4203.589641,4215.897333,4229.230666
96,0,4217.948615,4231.281948,4228.717845,4231.794768,4234.871691,4219.999897,4230.256307,4221.025538,4223.58964,4215.384512,4224.102461,4207.692205,4218.974256,4223.58964
97,0,4215.384512,4230.256307,4227.179384,4231.281948,4224.615281,4218.461435,4225.128102,4217.948615,4218.974256,4216.410153,4218.461435,4204.615282,4218.461435,4215.384512
98,0,4215.384512,4229.230666,4220.512717,4231.794768,4226.666563,4229.743486,4222.563999,4212.82041,4217.435794,4237.948614,4219.999897,4204.102461,4216.410153,4219.487076
99,0,4217.435794,4230.769127,4217.948615,4231.794768,4246.153742,4233.33323,4230.256307,4215.384512,4225.128102,4245.640922,4229.743486,4209.230666,4219.487076,4228.205025
100,0,4217.948615,4234.358871,4225.640922,4233.33323,4244.10246,4221.025538,4232.820409,4218.461435,4225.640922,4233.33323,4231.281948,4210.256307,4227.179384,4230.769127
101,0,4216.922974,4234.358871,4224.102461,4232.307589,4228.717845,4215.897333,4225.128102,4212.82041,4218.461435,4224.102461,4221.025538,4203.07682,4224.615281,4223.07682
102,0,4213.846051,4229.230666,4214.358871,4224.615281,4231.281948,4220.512717,4220.512717,4208.205025,4216.410153,4215.384512,4222.051179,4203.589641,4218.974256,4215.384512
103,0,4212.307589,4225.128102,4220.512717,4222.563999,4236.922973,4221.025538,4222.563999,4214.358871,4218.461435,4206.666564,4235.384512,4214.358871,4226.666563,4219.999897
104,0,4214.871692,4227.179384,4231.794768,4231.794768,4234.358871,4217.948615,4225.640922,4218.461435,4217.948615,4210.769128,4234.871691,4216.922974,4232.820409,4230.256307
105,0,4218.461435,4232.820409,4233.33323,4231.794768,4237.948614,4217.948615,4228.205025,4215.897333,4225.128102,4228.717845,4229.230666,4214.871692,4234.358871,4232.307589
106,0,4218.974256,4229.230666,4229.743486,4220.512717,4240.512717,4218.461435,4226.153743,4217.435794,4230.769127,4244.10246,4233.84605,4220.512717,4233.33323,4226.666563
107,0,4208.205025,4217.435794,4221.538358,4218.461435,4233.33323,4215.897333,4218.974256,4216.922974,4219.487076,4227.692204,4226.153743,4215.897333,4221.538358,4219.487076
108,0,4198.461436,4213.846051,4213.846051,4219.487076,4218.974256,4212.307589,4213.33323,4205.640923,4211.281948,4196.410154,4212.307589,4202.564,4212.307589,4214.358871
109,0,4206.666564,4222.563999,4216.410153,4216.922974,4212.82041,4212.307589,4215.384512,4198.461436,4216.922974,4202.051179,4216.410153,4204.615282,4219.999897,4216.410153
110,0,4214.358871,4226.153743,4219.999897,4224.615281,4229.230666,4215.384512,4219.487076,4207.692205,4221.025538,4217.435794,4222.051179,4214.871692,4227.692204,4220.512717
111,0,4206.153743,4219.999897,4216.922974,4229.743486,4242.051178,4214.871692,4217.948615,4214.871692,4217.948615,4211.281948,4218.461435,4212.82041,4223.07682,4220.512717
112,0,4198.461436,4218.461435,4215.384512,4220.512717,4231.794768,4212.82041,4215.897333,4205.640923,4215.897333,4207.692205,4217.948615,4202.564,4216.410153,4215.897333
113,0,4204.615282,4223.58964,4215.384512,4218.974256,4226.666563,4214.358871,4216.922974,4199.487077,4216.922974,4217.948615,4222.563999,4199.999897,4222.051179,4214.358871
114,0,4212.82041,4228.205025,4215.384512,4229.230666,4233.33323,4215.897333,4217.435794,4208.205025,4219.999897,4224.102461,4228.717845,4207.179384,4233.84605,4221.025538
115,0,4217.948615,4234.358871,4225.128102,4233.84605,4237.435794,4216.410153,4224.102461,4216.922974,4221.538358,4220.512717,4231.794768,4214.358871,4231.281948,4226.153743
116,0,4214.358871,4231.281948,4229.230666,4230.256307,4232.820409,4217.948615,4230.769127,4217.948615,4219.487076,4219.999897,4221.025538,4215.384512,4223.58964,4222.563999
117,0,4207.179384,4218.974256,4220.512717,4228.205025,4229.743486,4218.974256,4223.58964,4211.281948,4216.410153,4215.897333,4214.871692,4211.794769,4225.640922,4215.384512
118,0,4212.307589,4222.051179,4221.025538,4227.692204,4242.051178,4217.948615,4219.999897,4206.666564,4215.897333,4211.794769,4225.128102,4214.358871,4229.743486,4216.922974
119,0,4221.025538,4236.410153,4226.666563,4231.794768,4250.769127,4216.410153,4226.153743,4213.33323,4218.461435,4222.051179,4227.692204,4215.897333,4230.769127,4226.666563
120,0,4216.922974,4233.84605,4222.051179,4232.820409,4236.922973,4216.410153,4224.102461,4216.410153,4222.051179,4229.743486,4218.461435,4210.769128,4227.692204,4226.153743
121,0,4202.564,4216.922974,4214.358871,4221.538358,4223.07682,4214.871692,4216.922974,4203.589641,4216.410153,4211.281948,4210.256307,4202.051179,4209.743487,4213.33323
122,0,4196.922974,4210.769128,4212.307589,4213.33323,4225.128102,4213.33323,4216.410153,4195.384513,4206.666564,4193.333231,4208.717846,4196.922974,4195.384513,4205.128102
123,0,4207.179384,4218.974256,4216.410153,4223.07682,4230.769127,4213.33323,4217.435794,4200.512718,4214.871692,4207.692205,4212.82041,4203.07682,4206.153743,4212.82041
124,0,4217.948615,4230.769127,4225.640922,4233.84605,4238.461435,4214.358871,4217.435794,4203.07682,4225.640922,4219.999897,4220.512717,4213.33323,4224.615281,4225.640922
125,0,4219.999897,4236.922973,4231.281948,4234.358871,4244.615281,4213.846051,4218.974256,4207.692205,4220.512717,4221.025538,4225.128102,4217.435794,4231.794768,4232.307589
126,0,4220.512717,4234.358871,4231.281948,4232.820409,4242.563999,4213.846051,4220.512717,4214.358871,4216.922974,4226.666563,4226.153743,4215.897333,4231.794768,4231.794768
127,0,4222.051179,4230.256307,4232.307589,4232.820409,4246.153742,4216.410153,4218.461435,4210.769128,4219.999897,4226.153743,4227.179384,4214.871692,4232.307589,4228.717845
128,0,4221.538358,4231.794768,4228.205025,4232.820409,4251.281947,4220.512717,4216.922974,4206.153743,4217.948615,4215.384512,4232.307589,4215.897333,4234.358871,4228.717845
0,0,4221.025538,4235.897332,4226.153743,4233.33323,4243.076819,4222.051179,4222.051179,4214.358871,4218.974256,4213.33323,4232.820409,4214.871692,4234.871691,4231.281948
1,0,4216.922974,4232.307589,4228.205025,4231.281948,4234.871691,4219.999897,4228.717845,4218.461435,4223.07682,4221.025538,4220.512717,4207.692205,4233.84605,4231.281948
2,0,4215.384512,4228.717845,4224.615281,4228.717845,4245.640922,4219.487076,4229.743486,4213.846051,4220.512717,4232.820409,4219.999897,4202.051179,4234.871691,4230.769127
3,0,4217.948615,4232.307589,4219.487076,4230.256307,4253.333229,4221.025538,4228.717845,4213.846051,4218.461435,4236.410153,4230.256307,4204.102461,4234.871691,4228.205025
4,0,4215.897333,4232.307589,4217.435794,4231.281948,4238.974255,4221.025538,4219.999897,4208.717846,4217.948615,4212.307589,4224.102461,4203.589641,4231.794768,4223.07682
5,0,4210.769128,4229.743486,4214.871692,4229.230666,4229.743486,4214.358871,4206.666564,4196.410154,4214.871692,4202.051179,4217.435794,4197.948615,4229.743486,4224.102461
6,0,4217.948615,4231.794768,4215.897333,4227.692204,4231.794768,4205.640923,4201.025538,4195.897333,4217.948615,4228.205025,4227.692204,4201.025538,4231.794768,4232.307589
7,0,4227.692204,4232.820409,4219.999897,4229.743486,4227.692204,4207.179384,4203.589641,4200.512718,4222.563999,4237.948614,4230.769127,4210.769128,4243.076819,4235.384512
8,0,4224.102461,4230.769127,4219.999897,4230.769127,4235.384512,4214.871692,4208.717846,4199.999897,4218.974256,4221.025538,4220.512717,4211.794769,4250.256306,4229.743486
9,0,4216.410153,4232.820409,4216.922974,4229.743486,4244.615281,4216.922974,4208.717846,4199.999897,4217.435794,4228.717845,4219.487076,4204.615282,4238.974255,4226.666563
10,0,4218.461435,4233.84605,4216.922974,4230.769127,4239.999896,4212.307589,4202.564,4196.410154,4218.461435,4235.897332,4228.717845,4201.025538,4230.769127,4229.743486
11,0,4223.58964,4233.84605,4223.58964,4230.769127,4245.128101,4215.897333,4202.051179,4191.281949,4215.897333,4214.358871,4233.84605,4203.589641,4242.051178,4231.794768
12,0,4227.692204,4234.871691,4226.153743,4229.743486,4248.205024,4215.897333,4204.102461,4196.410154,4215.384512,4216.410153,4227.692204,4203.07682,4245.640922,4229.230666
13,0,4229.743486,4235.384512,4225.640922,4232.307589,4231.281948,4205.640923,4202.564,4203.589641,4219.487076,4233.33323,4222.051179,4202.564,4243.076819,4230.769127
14,0,4224.102461,4232.820409,4226.153743,4231.794768,4228.717845,4204.615282,4206.153743,4202.051179,4220.512717,4225.128102,4219.487076,4205.128102,4243.58964,4230.256307
15,0,4212.82041,4230.256307,4222.563999,4227.692204,4235.384512,4214.358871,4212.307589,4201.025538,4216.410153,4213.846051,4211.281948,4202.564,4234.358871,4219.999897
16,0,4216.410153,4231.281948,4218.974256,4230.256307,4229.743486,4215.897333,4213.33323,4209.743487,4216.410153,4213.33323,4217.435794,4201.538359,4231.794768,4223.58964
17,0,4226.153743,4228.717845,4219.999897,4233.33323,4238.461435,4210.769128,4214.358871,4216.922974,4221.538358,4213.33323,4234.871691,4210.769128,4250.769127,4236.922973
18,0,4224.615281,4217.948615,4222.051179,4224.102461,4246.666563,4212.82041,4215.897333,4214.358871,4221.538358,4231.794768,4235.384512,4215.897333,4262.051178,4237.948614
19,0,4218.974256,4211.281948,4224.615281,4217.435794,4230.769127,4215.897333,4216.410153,4210.256307,4219.999897,4254.871691,4224.615281,4209.743487,4259.487075,4232.820409
20,0,4218.461435,4218.974256,4229.230666,4225.128102,4228.717845,4216.410153,4218.974256,4214.871692,4219.999897,4236.922973,4231.794768,4209.230666,4266.666562,4233.84605
21,0,4219.487076,4221.538358,4226.153743,4229.230666,4237.435794,4217.948615,4221.538358,4219.999897,4218.461435,4212.82041,4237.948614,4215.384512,4264.10246,4235.384512
22,0,4216.922974,4207.179384,4219.487076,4219.999897,4221.025538,4217.435794,4219.999897,4218.974256,4224.102461,4216.410153,4222.051179,4208.205025,4245.640922,4229.743486
23,0,4210.769128,4195.897333,4217.948615,4213.33323,4207.692205,4218.461435,4217.948615,4216.922974,4229.230666,4216.410153,4216.410153,4197.435795,4242.563999,4218.974256
24,0,4205.128102,4201.538359,4215.384512,4213.846051,4225.640922,4219.999897,4220.512717,4216.922974,4222.051179,4211.281948,4221.025538,4197.435795,4251.794768,4213.846051
25,0,4206.153743,4210.256307,4214.871692,4213.33323,4238.461435,4218.461435,4224.102461,4219.487076,4215.897333,4216.922974,4216.922974,4199.487077,4248.717845,4215.384512
26,0,4212.307589,4211.794769,4222.563999,4214.871692,4228.205025,4216.410153,4221.538358,4219.487076,4218.974256,4215.897333,4217.435794,4197.948615,4239.999896,4218.974256
27,0,4219.487076,4216.410153,4230.256307,4218.974256,4217.948615,4217.435794,4217.948615,4217.948615,4220.512717,4211.794769,4228.717845,4205.640923,4247.179383,4226.666563
28,0,4221.025538,4216.922974,4230.256307,4218.974256,4221.538358,4219.487076,4219.487076,4218.461435,4219.999897,4215.384512,4230.769127,4214.871692,4254.35887,4233.33323
29,0,4219.487076,4211.281948,4228.717845,4221.025538,4221.538358,4217.948615,4218.974256,4220.512717,4222.051179,4216.410153,4228.205025,4216.410153,4259.487075,4231.281948
30,0,4224.102461,4214.358871,4232.820409,4226.153743,4216.922974,4214.871692,4216.410153,4218.974256,4221.025538,4213.846051,4234.871691,4216.410153,4264.61528,4229.743486
31,0,4226.666563,4219.999897,4231.794768,4222.563999,4225.128102,4215.384512,4219.999897,4223.07682,4219.999897,4215.897333,4232.820409,4217.435794,4248.717845,4232.307589
32,0,4218.974256,4211.281948,4224.615281,4215.897333,4242.051178,4218.974256,4222.563999,4231.794768,4219.999897,4212.82041,4219.999897,4215.384512,4234.871691,4231.281948
33,0,4214.358871,4202.564,4221.538358,4217.435794,4234.358871,4218.461435,4219.487076,4227.179384,4216.922974,4206.666564,4215.897333,4210.769128,4246.666563,4224.102461
34,0,4216.410153,4203.589641,4222.051179,4218.974256,4208.205025,4213.33323,4216.410153,4215.897333,4216.922974,4195.384513,4218.461435,4211.794769,4252.820409,4217.948615
35,0,4214.358871,4201.025538,4218.974256,4216.922974,4212.307589,4212.307589,4216.922974,4222.051179,4219.999897,4194.871692,4218.461435,4214.358871,4244.10246,4217.435794
36,0,4210.769128,4202.051179,4218.461435,4218.974256,4232.820409,4219.487076,4218.461435,4231.794768,4221.025538,4221.538358,4219.999897,4209.230666,4248.717845,4219.999897
