title:JTA                                                                             , recorded:03.07.20 12.43.29, sampling:128, subject:JTA                                                                             , labels:COUNTER INTERPOLATED AF3 F7 F3 FC5 T7 P7 O1 O2 P8 T8 FC6 F4 F8 AF4,, units:emotiv,,,,,,,,,
88,0,4186.153744,4216.410153,4203.589641,4256.922973,4205.640923,4252.307588,4236.410153,4226.666563,4259.999896,4206.153743,4224.615281,4185.640923,4211.281948,4179.487077
89,0,4176.410154,4208.205025,4198.461436,4230.769127,4196.410154,4247.179383,4219.999897,4213.846051,4243.58964,4201.538359,4215.384512,4173.846052,4207.692205,4172.30759
90,0,4163.076821,4195.384513,4194.358872,4207.179384,4197.435795,4234.358871,4207.692205,4197.435795,4234.358871,4204.615282,4203.07682,4163.076821,4196.922974,4163.589642
91,0,4177.948616,4207.179384,4201.025538,4214.358871,4205.128102,4235.384512,4213.846051,4205.640923,4248.717845,4218.461435,4215.384512,4177.948616,4202.051179,4176.410154
92,0,4188.205026,4215.384512,4201.025538,4231.281948,4202.564,4244.615281,4215.897333,4217.435794,4253.84605,4222.051179,4221.538358,4184.615282,4210.256307,4188.205026
93,0,4184.615282,4212.82041,4195.897333,4235.384512,4198.461436,4243.58964,4213.846051,4213.846051,4238.974255,4214.358871,4214.358871,4172.30759,4211.281948,4187.692205
94,0,4188.717846,4211.794769,4200.512718,4238.974255,4200.512718,4242.563999,4215.897333,4210.769128,4238.974255,4206.153743,4215.384512,4174.358872,4208.205025,4188.205026
95,0,4188.205026,4205.128102,4207.179384,4246.153742,4208.205025,4246.153742,4218.974256,4215.384512,4246.666563,4201.538359,4217.435794,4186.153744,4203.589641,4188.717846
96,0,4182.564,4205.640923,4206.666564,4247.179383,4197.948615,4242.563999,4218.974256,4215.897333,4238.974255,4194.871692,4212.307589,4187.692205,4201.025538,4187.692205
97,0,4191.281949,4216.410153,4204.102461,4250.256306,4176.922975,4241.025537,4219.487076,4215.384512,4232.820409,4196.922974,4210.256307,4188.717846,4202.564,4187.179385
98,0,4198.974256,4217.948615,4205.128102,4247.179383,4188.717846,4249.230665,4226.666563,4225.128102,4246.666563,4206.153743,4213.33323,4196.410154,4203.07682,4188.205026
99,0,4190.256308,4211.794769,4206.666564,4233.33323,4215.897333,4251.794768,4233.84605,4236.922973,4261.025537,4208.205025,4214.871692,4199.487077,4202.564,4187.692205
100,0,4191.794769,4214.358871,4213.33323,4238.461435,4212.307589,4251.794768,4237.435794,4245.128101,4260.512716,4209.230666,4221.538358,4203.07682,4211.281948,4189.230667
101,0,4198.974256,4216.410153,4218.974256,4251.794768,4189.743487,4250.256306,4233.84605,4237.948614,4250.769127,4219.999897,4226.153743,4207.692205,4217.948615,4188.717846
102,0,4190.256308,4211.794769,4215.384512,4241.025537,4194.358872,4240.512717,4221.025538,4221.538358,4244.615281,4219.487076,4214.358871,4202.564,4207.692205,4186.666564
103,0,4190.256308,4209.743487,4213.33323,4227.179384,4208.717846,4233.84605,4214.871692,4216.410153,4245.640922,4206.153743,4203.07682,4199.487077,4201.538359,4192.82041
104,0,4196.922974,4204.615282,4212.82041,4230.769127,4194.871692,4234.871691,4219.487076,4216.410153,4235.384512,4195.897333,4197.948615,4195.384513,4199.487077,4193.333231
105,0,4188.717846,4199.999897,4203.07682,4233.33323,4182.564,4234.358871,4218.461435,4211.794769,4227.179384,4185.640923,4187.692205,4185.128103,4186.153744,4177.948616
106,0,4179.999898,4197.948615,4197.435795,4233.84605,4195.897333,4236.410153,4214.358871,4210.256307,4236.410153,4179.487077,4181.025539,4178.974257,4178.461436,4166.153744
107,0,4184.102462,4199.999897,4207.692205,4238.974255,4209.230666,4244.615281,4218.974256,4214.871692,4235.384512,4186.153744,4189.743487,4184.615282,4188.717846,4173.333231
108,0,4192.82041,4207.692205,4215.384512,4246.666563,4201.538359,4246.666563,4220.512717,4214.871692,4234.358871,4200.512718,4205.128102,4196.410154,4201.025538,4186.666564
109,0,4198.974256,4215.384512,4215.897333,4250.256306,4198.974256,4242.563999,4216.922974,4215.384512,4248.205024,4223.07682,4222.051179,4210.769128,4211.281948,4195.897333
110,0,4200.512718,4215.897333,4219.999897,4247.692204,4205.640923,4244.615281,4223.58964,4223.07682,4254.871691,4235.897332,4231.281948,4220.512717,4219.999897,4203.07682
111,0,4204.615282,4214.871692,4223.58964,4255.384511,4205.128102,4249.230665,4233.84605,4230.769127,4247.179383,4232.307589,4232.820409,4218.461435,4225.640922,4204.102461
112,0,4216.410153,4218.461435,4225.640922,4275.384511,4206.153743,4251.281947,4234.871691,4233.84605,4248.717845,4228.205025,4236.410153,4216.410153,4232.820409,4207.179384
113,0,4218.461435,4220.512717,4223.58964,4281.538357,4208.717846,4250.769127,4232.820409,4235.897332,4258.974255,4225.128102,4231.281948,4217.435794,4229.743486,4214.358871
114,0,4209.230666,4218.461435,4219.487076,4277.948613,4210.769128,4252.307588,4231.281948,4237.435794,4257.948614,4219.999897,4218.461435,4213.33323,4216.410153,4212.307589
115,0,4202.051179,4216.410153,4215.384512,4281.025536,4201.025538,4249.230665,4223.58964,4227.179384,4239.999896,4200.512718,4215.384512,4203.589641,4205.128102,4202.564
116,0,4198.461436,4214.871692,4211.794769,4279.999895,4185.640923,4236.922973,4213.846051,4213.846051,4223.07682,4176.410154,4214.358871,4201.025538,4200.512718,4196.922974
117,0,4202.051179,4215.897333,4218.974256,4284.61528,4189.230667,4235.897332,4213.846051,4212.307589,4229.743486,4184.615282,4216.922974,4212.307589,4205.640923,4203.07682
118,0,4208.717846,4217.948615,4229.230666,4299.487074,4202.051179,4247.692204,4222.051179,4214.871692,4235.384512,4205.640923,4226.153743,4222.563999,4214.358871,4208.205025
119,0,4212.307589,4217.435794,4226.153743,4297.435792,4207.692205,4252.307588,4231.281948,4213.846051,4228.717845,4201.025538,4225.128102,4215.897333,4215.897333,4206.666564
120,0,4213.33323,4215.897333,4215.384512,4275.897331,4205.128102,4248.205024,4228.717845,4216.410153,4237.948614,4199.999897,4217.435794,4202.564,4215.384512,4204.615282
121,0,4205.128102,4215.384512,4213.33323,4265.640921,4208.717846,4248.717845,4219.487076,4224.102461,4248.205024,4217.435794,4220.512717,4197.948615,4218.461435,4207.692205
122,0,4197.435795,4213.33323,4213.846051,4263.076819,4204.615282,4250.256306,4225.128102,4230.769127,4249.743486,4223.07682,4229.230666,4202.564,4218.974256,4206.666564
123,0,4205.640923,4212.307589,4212.307589,4253.333229,4195.384513,4247.179383,4235.384512,4234.871691,4258.461434,4227.692204,4233.84605,4206.153743,4218.974256,4201.025538
124,0,4217.435794,4216.922974,4213.846051,4245.128101,4206.153743,4244.615281,4227.692204,4233.84605,4261.538357,4234.871691,4232.820409,4207.179384,4219.487076,4206.666564
125,0,4211.794769,4214.358871,4216.922974,4242.563999,4215.384512,4244.615281,4221.025538,4230.256307,4248.717845,4226.153743,4222.563999,4210.256307,4218.974256,4214.871692
126,0,4204.615282,4204.615282,4216.922974,4252.307588,4205.128102,4246.153742,4227.179384,4230.769127,4247.179383,4210.256307,4214.871692,4210.256307,4215.897333,4213.33323
127,0,4211.281948,4209.743487,4214.871692,4272.820408,4199.487077,4246.666563,4230.256307,4230.256307,4256.922973,4207.692205,4223.58964,4209.230666,4212.82041,4211.794769
128,0,4216.410153,4216.410153,4215.384512,4286.666562,4198.974256,4246.153742,4228.205025,4223.58964,4250.256306,4204.102461,4229.743486,4211.281948,4214.871692,4210.256307
0,0,4212.307589,4209.743487,4216.922974,4281.538357,4191.794769,4245.128101,4228.205025,4214.358871,4234.871691,4184.102462,4217.435794,4213.33323,4214.871692,4207.692205
1,0,4211.794769,4207.692205,4213.33323,4271.281947,4196.922974,4245.128101,4228.205025,4213.33323,4229.230666,4179.487077,4210.769128,4212.82041,4211.281948,4211.281948
2,0,4217.948615,4218.461435,4215.384512,4273.846049,4207.179384,4246.666563,4229.230666,4220.512717,4234.871691,4205.128102,4225.128102,4213.33323,4213.846051,4223.58964
3,0,4217.435794,4218.461435,4224.102461,4282.051177,4199.487077,4246.153742,4230.769127,4227.692204,4247.179383,4222.051179,4234.358871,4217.948615,4221.025538,4227.179384
4,0,4214.871692,4213.33323,4228.717845,4273.846049,4205.128102,4247.692204,4231.281948,4233.84605,4257.948614,4222.563999,4231.281948,4219.999897,4226.666563,4225.128102
5,0,4224.102461,4216.410153,4229.230666,4249.743486,4218.461435,4250.769127,4235.384512,4236.410153,4258.461434,4232.307589,4232.307589,4219.487076,4231.281948,4229.230666
6,0,4231.794768,4216.922974,4226.666563,4241.538358,4206.666564,4248.205024,4233.33323,4233.33323,4249.230665,4235.897332,4234.358871,4219.487076,4234.871691,4231.281948
7,0,4231.281948,4215.384512,4222.563999,4246.666563,4201.025538,4247.692204,4229.743486,4234.358871,4248.717845,4222.051179,4235.384512,4219.999897,4236.410153,4230.256307
8,0,4229.230666,4213.33323,4219.487076,4239.487076,4218.974256,4247.692204,4233.84605,4235.384512,4253.84605,4216.410153,4232.307589,4218.461435,4231.794768,4231.794768
9,0,4222.563999,4205.640923,4215.384512,4225.128102,4223.07682,4237.948614,4229.743486,4223.58964,4243.076819,4207.692205,4218.974256,4210.256307,4217.435794,4227.692204
10,0,4215.384512,4199.487077,4215.897333,4214.358871,4215.384512,4230.256307,4217.435794,4214.358871,4230.769127,4197.948615,4212.307589,4209.743487,4212.82041,4217.435794
11,0,4214.871692,4199.999897,4218.974256,4202.051179,4217.948615,4232.307589,4213.846051,4212.307589,4229.743486,4201.538359,4218.974256,4213.33323,4217.435794,4215.384512
12,0,4211.281948,4197.435795,4217.435794,4187.179385,4213.846051,4230.769127,4214.358871,4204.102461,4228.205025,4202.051179,4216.922974,4208.205025,4207.179384,4216.410153
13,0,4206.153743,4196.410154,4212.82041,4181.025539,4212.307589,4229.743486,4213.33323,4200.512718,4227.692204,4198.461436,4213.33323,4204.615282,4202.051179,4212.82041
14,0,4214.871692,4201.538359,4216.410153,4189.743487,4221.538358,4233.84605,4214.871692,4205.128102,4230.769127,4201.538359,4223.07682,4208.717846,4215.897333,4216.922974
15,0,4223.07682,4202.564,4220.512717,4197.435795,4222.051179,4232.820409,4214.871692,4205.640923,4229.743486,4204.615282,4225.128102,4209.743487,4215.384512,4223.58964
16,0,4216.922974,4198.974256,4217.435794,4194.358872,4222.563999,4230.256307,4213.33323,4209.230666,4230.769127,4195.384513,4215.897333,4201.025538,4201.025538,4210.769128
17,0,4212.82041,4202.051179,4212.82041,4203.589641,4230.769127,4231.794768,4216.922974,4217.948615,4235.384512,4194.871692,4215.384512,4199.487077,4206.153743,4206.153743
18,0,4216.922974,4209.230666,4214.871692,4221.025538,4225.128102,4231.794768,4217.948615,4219.487076,4231.281948,4212.307589,4222.563999,4206.666564,4221.025538,4224.102461
19,0,4215.384512,4205.640923,4216.922974,4211.281948,4206.153743,4226.666563,4215.384512,4215.897333,4228.205025,4222.563999,4220.512717,4207.692205,4213.33323,4225.128102
20,0,4207.179384,4195.384513,4211.794769,4191.281949,4204.615282,4224.102461,4216.410153,4218.974256,4233.84605,4214.358871,4215.897333,4201.025538,4199.487077,4207.179384
21,0,4206.666564,4202.564,4212.307589,4191.794769,4217.948615,4230.769127,4217.948615,4227.179384,4236.410153,4206.153743,4219.487076,4200.512718,4209.230666,4208.205025
22,0,4214.871692,4215.384512,4215.384512,4199.487077,4223.58964,4233.84605,4215.897333,4227.179384,4231.794768,4203.07682,4214.871692,4203.07682,4216.410153,4214.358871
23,0,4220.512717,4211.794769,4211.281948,4204.615282,4216.410153,4226.153743,4215.897333,4216.410153,4228.205025,4198.461436,4209.230666,4201.538359,4207.179384,4210.256307
24,0,4241.538358,4218.974256,4215.384512,4225.640922,4203.589641,4226.153743,4215.384512,4216.410153,4226.153743,4199.999897,4219.999897,4211.281948,4219.999897,4235.897332
25,0,4290.256305,4242.563999,4235.384512,4257.435793,4199.487077,4230.256307,4208.205025,4216.922974,4223.07682,4205.640923,4230.256307,4231.281948,4243.076819,4288.205023
26,0,4353.333227,4260.512716,4256.922973,4275.384511,4194.358872,4221.025538,4198.974256,4203.589641,4218.974256,4199.999897,4236.922973,4249.743486,4252.820409,4348.717842
27,0,4425.640917,4279.999895,4277.435793,4288.717844,4188.205026,4215.897333,4202.564,4196.410154,4210.256307,4194.871692,4259.999896,4278.461434,4284.61528,4432.307584
28,0,4502.051172,4297.948613,4297.948613,4306.666561,4189.743487,4221.025538,4213.846051,4202.564,4210.256307,4200.512718,4286.666562,4314.358869,4328.717843,4518.974248
29,0,4557.948606,4304.102459,4309.230664,4311.281946,4190.769128,4221.025538,4210.769128,4203.589641,4216.410153,4196.922974,4293.846049,4332.307586,4334.871689,4565.640914
30,0,4588.717837,4304.615279,4312.307587,4299.487074,4187.179385,4217.435794,4201.538359,4200.512718,4213.33323,4189.230667,4298.461433,4335.89733,4329.230663,4587.692196
31,0,4608.717836,4303.589638,4316.922971,4296.922972,4184.102462,4216.410153,4204.615282,4210.256307,4217.435794,4196.410154,4310.769125,4347.692201,4347.179381,4617.435785
32,0,4613.846041,4300.512715,4323.589638,4301.025536,4186.666564,4216.922974,4214.871692,4225.640922,4231.794768,4208.205025,4311.794766,4360.512714,4355.384509,4626.666554
33,0,4599.999888,4298.461433,4323.076817,4294.358869,4186.666564,4220.512717,4217.948615,4226.153743,4224.615281,4204.102461,4304.615279,4355.384509,4340.512714,4604.615272
34,0,4570.769119,4290.769126,4311.281946,4287.692203,4183.589641,4219.487076,4210.256307,4214.871692,4206.153743,4192.30759,4294.87169,4336.922971,4322.563997,4576.922965
35,0,4535.384504,4275.897331,4293.333228,4286.666562,4172.30759,4213.846051,4201.538359,4205.640923,4213.33323,4185.128103,4277.435793,4322.051176,4309.743484,4543.076812
36,0,4504.615274,4265.128101,4281.538357,4292.307587,4161.025539,4212.307589,4198.461436,4204.102461,4223.58964,4182.564,4267.179383,4312.307587,4295.38451,4502.563992
37,0,4478.461429,4261.538357,4282.051177,4293.333228,4175.897334,4217.948615,4201.538359,4207.179384,4216.410153,4188.717846,4271.794767,4298.974254,4283.076818,4473.846044
38,0,4450.769122,4261.025537,4280.512716,4284.61528,4199.487077,4224.615281,4209.230666,4213.33323,4212.307589,4187.179385,4270.256306,4291.281946,4282.051177,4454.871686
39,0,4423.076815,4256.410152,4269.743485,4277.948613,4202.051179,4228.717845,4215.384512,4223.07682,4224.615281,4181.025539,4259.487075,4292.307587,4277.948613,4424.102456
40,0,4397.94861,4246.153742,4261.538357,4271.281947,4197.948615,4230.256307,4215.384512,4227.692204,4237.435794,4194.358872,4262.051178,4284.102459,4269.230665,4391.281944
41,0,4365.640919,4238.461435,4257.435793,4251.281947,4197.948615,4227.692204,4214.871692,4222.051179,4228.205025,4209.230666,4264.61528,4269.230665,4263.076819,4366.66656
42,0,4330.256304,4229.230666,4250.256306,4226.153743,4191.794769,4224.615281,4214.871692,4217.435794,4213.846051,4201.538359,4253.333229,4261.025537,4255.897332,4342.563996
43,0,4310.256305,4221.025538,4242.051178,4222.563999,4190.256308,4227.179384,4212.82041,4220.512717,4223.58964,4196.922974,4245.128101,4251.794768,4250.256306,4316.410151
44,0,4295.38451,4218.461435,4236.410153,4237.948614,4201.025538,4230.769127,4212.307589,4218.461435,4237.435794,4206.666564,4238.974255,4236.922973,4244.615281,4286.666562
45,0,4270.769126,4215.897333,4229.743486,4249.743486,4201.538359,4225.128102,4215.384512,4216.922974,4229.743486,4204.102461,4234.358871,4226.153743,4236.410153,4265.640921
46,0,4248.717845,4214.871692,4223.07682,4251.794768,4193.846051,4221.538358,4216.410153,4223.58964,4223.07682,4198.461436,4231.281948,4217.435794,4230.769127,4251.281947
47,0,4235.384512,4212.82041,4215.384512,4249.230665,4201.025538,4230.256307,4216.410153,4224.102461,4231.794768,4205.640923,4221.538358,4207.179384,4229.230666,4229.230666
48,0,4221.025538,4205.640923,4204.615282,4241.025537,4203.07682,4232.307589,4215.384512,4216.922974,4231.794768,4204.102461,4210.769128,4195.384513,4222.051179,4207.692205
49,0,4198.974256,4197.948615,4192.82041,4225.128102,4185.128103,4219.999897,4213.33323,4214.871692,4216.410153,4189.230667,4201.025538,4182.564,4211.281948,4193.333231
50,0,4182.564,4193.333231,4191.281949,4219.999897,4188.205026,4214.358871,4209.743487,4213.33323,4206.666564,4185.640923,4200.512718,4178.461436,4210.256307,4183.589641
51,0,4186.666564,4193.846051,4197.948615,4229.230666,4215.897333,4225.128102,4209.743487,4212.307589,4219.999897,4201.538359,4206.153743,4181.025539,4214.358871,4181.025539
52,0,4196.922974,4200.512718,4201.538359,4233.84605,4218.974256,4232.307589,4215.384512,4220.512717,4231.281948,4203.07682,4211.281948,4181.025539,4218.461435,4182.564
53,0,4192.30759,4207.179384,4206.666564,4232.307589,4204.102461,4231.794768,4218.974256,4231.281948,4224.615281,4189.743487,4215.897333,4183.076821,4217.948615,4181.025539
54,0,4184.615282,4203.07682,4210.256307,4232.820409,4205.128102,4229.230666,4215.897333,4231.794768,4219.487076,4193.333231,4219.999897,4186.153744,4214.871692,4184.615282
55,0,4185.640923,4202.051179,4206.666564,4236.410153,4198.974256,4227.179384,4213.846051,4230.769127,4227.692204,4210.256307,4217.948615,4187.179385,4215.897333,4188.717846
56,0,4187.692205,4210.769128,4208.205025,4238.974255,4190.256308,4227.179384,4217.948615,4233.84605,4236.410153,4219.999897,4217.948615,4189.230667,4217.435794,4184.102462
57,0,4184.615282,4211.281948,4211.794769,4234.871691,4204.615282,4228.717845,4219.999897,4232.307589,4228.717845,4214.871692,4223.07682,4190.769128,4216.410153,4177.948616
58,0,4174.358872,4196.922974,4204.102461,4217.948615,4210.256307,4227.179384,4216.922974,4229.743486,4224.615281,4204.615282,4216.410153,4184.615282,4215.897333,4175.897334
59,0,4161.53836,4184.102462,4189.743487,4202.564,4201.538359,4226.153743,4214.871692,4229.230666,4230.256307,4202.051179,4204.102461,4173.333231,4212.307589,4166.153744
60,0,4157.948616,4185.640923,4184.615282,4204.102461,4209.230666,4232.307589,4217.435794,4224.615281,4226.666563,4204.102461,4203.589641,4171.79477,4213.33323,4154.871693
61,0,4148.717847,4183.589641,4186.153744,4201.538359,4212.307589,4233.84605,4217.435794,4223.58964,4217.948615,4199.999897,4206.666564,4175.384513,4215.384512,4152.820411
62,0,4136.922976,4170.769129,4183.589641,4184.615282,4188.205026,4222.563999,4214.358871,4225.640922,4216.922974,4196.922974,4205.128102,4172.30759,4205.128102,4151.79477
63,0,4144.102463,4167.179385,4184.615282,4181.025539,4187.179385,4218.974256,4215.897333,4222.051179,4219.487076,4201.025538,4203.07682,4169.230667,4200.512718,4149.743488
64,0,4150.769129,4172.30759,4192.30759,4183.589641,4216.410153,4227.179384,4218.461435,4218.461435,4215.897333,4195.384513,4197.948615,4172.820411,4203.589641,4151.28195
65,0,4138.461437,4169.743488,4191.794769,4168.205026,4225.128102,4223.58964,4215.897333,4217.948615,4214.358871,4184.615282,4187.179385,4173.846052,4192.30759,4147.179386
66,0,4130.256309,4164.102462,4185.128103,4150.769129,4212.82041,4212.307589,4213.33323,4217.435794,4212.82041,4186.153744,4184.102462,4169.230667,4183.589641,4134.358873
67,0,4140.512719,4168.205026,4188.205026,4154.871693,4213.846051,4218.974256,4213.846051,4221.025538,4216.410153,4188.205026,4188.205026,4168.205026,4194.871692,4134.871694
68,0,4143.589642,4173.333231,4191.794769,4165.640924,4222.051179,4230.769127,4214.871692,4231.794768,4225.640922,4191.794769,4193.333231,4172.820411,4201.025538,4142.051181
69,0,4136.410155,4171.281949,4189.230667,4168.717847,4212.307589,4222.051179,4214.358871,4232.307589,4224.615281,4200.512718,4196.922974,4173.333231,4197.435795,4138.461437
70,0,4137.948617,4170.256308,4186.153744,4165.640924,4204.615282,4216.922974,4215.384512,4222.563999,4212.307589,4197.435795,4195.384513,4172.30759,4198.461436,4138.974258
71,0,4142.051181,4173.846052,4186.153744,4167.179385,4213.846051,4226.666563,4217.435794,4216.922974,4204.615282,4187.692205,4194.358872,4172.30759,4199.999897,4144.615283
72,0,4135.897335,4173.333231,4189.230667,4166.666565,4219.487076,4224.615281,4215.897333,4213.846051,4207.179384,4181.538359,4193.333231,4167.692206,4196.922974,4141.53836
73,0,4137.948617,4174.358872,4197.435795,4152.820411,4217.435794,4215.384512,4214.358871,4212.82041,4213.846051,4173.333231,4191.281949,4171.281949,4195.897333,4143.076822
74,0,4151.28195,4184.102462,4201.538359,4141.53836,4221.538358,4219.487076,4215.384512,4215.897333,4216.410153,4180.512718,4192.30759,4181.538359,4200.512718,4151.79477
75,0,4145.640924,4182.564,4193.333231,4136.922976,4215.897333,4215.897333,4208.205025,4211.794769,4208.717846,4198.461436,4191.281949,4177.435795,4196.922974,4147.692206
76,0,4135.384514,4172.30759,4181.025539,4134.871694,4201.538359,4204.615282,4197.435795,4197.435795,4194.871692,4189.230667,4185.640923,4165.640924,4187.692205,4134.871694
77,0,4145.640924,4178.461436,4183.589641,4155.384514,4210.256307,4211.794769,4198.461436,4194.358872,4196.922974,4176.410154,4189.743487,4167.692206,4193.333231,4134.871694
78,0,4157.435796,4193.333231,4196.410154,4187.179385,4224.102461,4222.051179,4205.128102,4210.256307,4213.33323,4193.846051,4203.07682,4176.922975,4205.640923,4148.717847
79,0,4157.948616,4198.461436,4196.410154,4193.846051,4217.948615,4216.922974,4202.564,4215.897333,4218.461435,4205.128102,4203.07682,4182.564,4205.640923,4158.974257
80,0,4158.461437,4200.512718,4191.281949,4187.179385,4209.230666,4216.922974,4199.999897,4212.82041,4216.410153,4198.974256,4202.564,4186.153744,4205.640923,4158.974257
81,0,4160.512719,4199.999897,4195.897333,4183.589641,4216.922974,4229.230666,4207.692205,4223.58964,4226.666563,4208.717846,4213.846051,4190.256308,4215.897333,4157.435796
82,0,4168.205026,4199.487077,4201.538359,4181.025539,4226.666563,4231.794768,4218.461435,4234.358871,4232.820409,4222.051179,4216.922974,4194.358872,4216.922974,4161.53836
83,0,4171.281949,4199.487077,4202.051179,4182.05118,4217.948615,4220.512717,4216.922974,4228.717845,4224.615281,4212.307589,4207.692205,4192.82041,4206.153743,4161.53836
84,0,4157.948616,4191.281949,4196.410154,4184.615282,4208.205025,4212.307589,4206.153743,4213.33323,4210.256307,4192.30759,4196.922974,4181.025539,4194.871692,4150.769129
85,0,4150.256309,4184.615282,4189.230667,4191.281949,4210.769128,4211.794769,4199.487077,4205.640923,4203.07682,4181.025539,4190.256308,4173.333231,4189.230667,4141.53836
86,0,4152.820411,4183.589641,4185.128103,4207.692205,4205.640923,4211.281948,4198.461436,4199.487077,4196.922974,4174.871693,4185.128103,4171.79477,4183.589641,4137.435796
87,0,4148.717847,4184.102462,4187.692205,4218.974256,4198.461436,4212.82041,4197.948615,4190.769128,4191.794769,4172.820411,4181.025539,4171.79477,4179.999898,4137.435796
88,0,4152.820411,4190.769128,4197.435795,4221.025538,4206.153743,4216.922974,4199.487077,4189.230667,4197.435795,4182.564,4183.076821,4175.897334,4189.230667,4144.615283
89,0,4167.692206,4197.948615,4204.102461,4222.051179,4208.717846,4215.384512,4200.512718,4189.230667,4201.538359,4187.692205,4191.281949,4183.589641,4197.948615,4153.333232
90,0,4175.897334,4198.461436,4203.589641,4219.487076,4202.051179,4215.897333,4199.487077,4190.769128,4200.512718,4185.128103,4199.487077,4188.205026,4201.538359,4156.410155
91,0,4175.897334,4199.487077,4200.512718,4217.948615,4197.435795,4216.410153,4201.538359,4200.512718,4205.128102,4189.230667,4201.538359,4186.666564,4206.666564,4156.922975
92,0,4179.487077,4206.153743,4201.538359,4224.615281,4198.974256,4216.922974,4204.102461,4214.358871,4218.461435,4203.589641,4210.256307,4190.769128,4214.871692,4159.487078
93,0,4187.692205,4213.846051,4210.256307,4229.230666,4219.487076,4226.153743,4204.102461,4221.538358,4226.666563,4218.461435,4228.717845,4201.025538,4227.692204,4167.179385
94,0,4191.281949,4219.487076,4217.948615,4218.461435,4237.948614,4229.743486,4202.051179,4220.512717,4222.563999,4224.615281,4232.307589,4206.666564,4234.358871,4176.410154
95,0,4186.666564,4220.512717,4210.769128,4206.666564,4227.179384,4223.58964,4200.512718,4219.999897,4221.025538,4221.025538,4220.512717,4202.564,4225.640922,4179.999898
96,0,4184.615282,4213.846051,4198.974256,4207.179384,4208.205025,4223.07682,4202.564,4223.58964,4231.281948,4218.461435,4215.897333,4194.871692,4217.435794,4167.179385
97,0,4182.05118,4206.153743,4199.487077,4207.692205,4208.717846,4229.230666,4203.589641,4230.256307,4235.384512,4222.563999,4215.897333,4189.743487,4214.871692,4147.179386
98,0,4172.30759,4199.999897,4198.461436,4204.615282,4217.435794,4230.769127,4201.025538,4223.07682,4218.974256,4206.153743,4197.948615,4178.461436,4199.999897,4138.461437
99,0,4166.666565,4194.871692,4190.256308,4205.640923,4222.563999,4225.128102,4200.512718,4202.051179,4201.538359,4169.743488,4174.358872,4165.128103,4179.999898,4137.948617
100,0,4169.230667,4194.871692,4188.717846,4198.461436,4218.974256,4218.974256,4200.512718,4186.666564,4193.846051,4163.589642,4174.871693,4162.564001,4178.461436,4127.692207
101,0,4163.076821,4192.30759,4189.743487,4182.564,4213.846051,4216.922974,4194.358872,4182.05118,4190.256308,4183.589641,4180.512718,4165.640924,4181.538359,4117.435797
102,0,4158.974257,4191.281949,4189.743487,4184.615282,4220.512717,4219.999897,4195.897333,4189.230667,4197.435795,4188.205026,4182.564,4170.256308,4182.564,4129.743489
103,0,4166.153744,4191.794769,4189.743487,4201.538359,4216.410153,4218.461435,4199.999897,4195.897333,4201.025538,4179.999898,4185.640923,4172.820411,4185.128103,4140.512719
104,0,4167.692206,4187.692205,4184.615282,4203.07682,4200.512718,4215.897333,4192.82041,4194.358872,4198.461436,4181.538359,4182.05118,4166.666565,4184.615282,4128.205027
105,0,4164.615283,4188.205026,4184.102462,4195.897333,4209.230666,4223.07682,4190.769128,4198.461436,4207.179384,4190.769128,4185.128103,4168.717847,4190.256308,4127.692207
106,0,4173.333231,4199.999897,4195.384513,4195.897333,4230.769127,4229.230666,4201.025538,4212.82041,4219.487076,4204.615282,4207.692205,4183.076821,4209.743487,4149.743488
107,0,4185.640923,4208.205025,4207.179384,4199.487077,4226.153743,4223.58964,4205.128102,4225.640922,4223.58964,4215.384512,4220.512717,4190.256308,4221.025538,4159.999898
108,0,4185.640923,4204.102461,4207.692205,4198.974256,4214.358871,4217.435794,4201.538359,4230.769127,4230.256307,4218.461435,4210.769128,4191.281949,4218.461435,4154.871693
109,0,4182.05118,4202.564,4206.666564,4196.922974,4222.563999,4219.487076,4203.589641,4234.871691,4235.897332,4220.512717,4211.794769,4194.871692,4217.948615,4155.384514
110,0,4184.615282,4205.128102,4202.051179,4202.051179,4225.640922,4220.512717,4203.589641,4235.384512,4226.153743,4211.794769,4219.999897,4190.769128,4218.461435,4157.435796
111,0,4184.615282,4200.512718,4195.384513,4212.307589,4212.307589,4216.922974,4198.974256,4231.281948,4216.410153,4205.128102,4211.794769,4185.640923,4213.33323,4152.307591
112,0,4183.589641,4199.999897,4198.974256,4210.769128,4206.153743,4215.384512,4200.512718,4230.256307,4217.948615,4210.769128,4209.743487,4193.846051,4215.897333,4151.79477
113,0,4188.717846,4211.281948,4206.666564,4203.07682,4222.051179,4224.615281,4206.153743,4229.230666,4219.999897,4208.205025,4216.922974,4198.974256,4221.025538,4153.333232
114,0,4185.640923,4217.435794,4205.128102,4199.487077,4234.358871,4231.281948,4206.666564,4221.538358,4212.82041,4199.999897,4206.666564,4192.30759,4215.384512,4148.205027
115,0,4172.820411,4202.051179,4197.435795,4184.102462,4221.025538,4222.563999,4201.538359,4216.922974,4204.615282,4196.922974,4188.205026,4181.538359,4203.589641,4135.897335
116,0,4163.076821,4184.615282,4186.666564,4169.743488,4208.717846,4212.307589,4197.948615,4214.358871,4199.487077,4187.179385,4182.05118,4173.333231,4192.30759,4124.102463
117,0,4158.461437,4183.589641,4182.564,4179.487077,4215.897333,4215.384512,4193.846051,4205.128102,4204.102461,4181.538359,4181.025539,4167.179385,4185.128103,4117.948617
118,0,4161.53836,4190.256308,4190.256308,4184.615282,4213.846051,4217.435794,4189.230667,4202.564,4206.153743,4193.333231,4177.435795,4164.615283,4186.153744,4117.435797
119,0,4170.256308,4195.897333,4199.999897,4168.205026,4209.743487,4212.82041,4187.179385,4211.794769,4202.051179,4201.025538,4185.640923,4175.384513,4193.333231,4127.692207
120,0,4174.358872,4200.512718,4201.538359,4165.640924,4225.128102,4214.871692,4188.205026,4216.410153,4207.179384,4201.538359,4199.999897,4186.666564,4198.461436,4140.512719
121,0,4173.333231,4202.564,4198.974256,4178.461436,4229.743486,4216.410153,4189.743487,4215.384512,4212.82041,4203.07682,4203.07682,4183.589641,4200.512718,4140.512719
122,0,4174.871693,4202.051179,4198.461436,4186.666564,4217.435794,4209.230666,4193.333231,4216.410153,4206.153743,4203.589641,4200.512718,4175.384513,4199.999897,4136.410155
123,0,4180.512718,4201.025538,4197.948615,4191.281949,4215.897333,4201.538359,4198.461436,4216.922974,4204.615282,4208.717846,4205.640923,4180.512718,4198.461436,4142.051181
124,0,4187.692205,4207.179384,4201.538359,4191.794769,4219.999897,4202.564,4202.051179,4218.974256,4217.435794,4217.435794,4217.435794,4193.333231,4202.564,4152.820411
125,0,4190.256308,4212.82041,4208.205025,4189.230667,4216.922974,4203.589641,4202.051179,4221.538358,4222.051179,4220.512717,4217.435794,4196.410154,4207.179384,4158.974257
126,0,4186.666564,4206.153743,4207.179384,4188.717846,4209.743487,4199.999897,4198.974256,4217.948615,4209.743487,4216.922974,4208.205025,4187.692205,4204.102461,4150.256309
127,0,4184.102462,4198.974256,4200.512718,4191.281949,4200.512718,4198.974256,4195.897333,4214.358871,4204.615282,4211.794769,4200.512718,4178.461436,4200.512718,4137.948617
128,0,4186.153744,4208.205025,4198.974256,4189.743487,4199.999897,4200.512718,4194.871692,4215.897333,4213.846051,4214.871692,4202.564,4182.564,4206.666564,4146.153745
0,0,4187.179385,4217.948615,4204.102461,4176.410154,4216.922974,4201.538359,4197.435795,4217.435794,4215.897333,4217.435794,4211.281948,4188.717846,4219.487076,4156.922975
1,0,4184.102462,4209.743487,4199.999897,4161.025539,4228.717845,4201.025538,4198.974256,4214.871692,4207.692205,4206.666564,4209.230666,4185.640923,4217.435794,4150.769129
2,0,4183.589641,4199.999897,4189.743487,4161.025539,4222.563999,4201.025538,4198.461436,4213.846051,4206.153743,4202.051179,4196.922974,4181.025539,4203.589641,4144.102463
3,0,4186.153744,4205.640923,4189.743487,4170.256308,4215.384512,4202.564,4201.538359,4215.384512,4206.666564,4213.33323,4196.922974,4182.05118,4204.615282,4150.256309
4,0,4186.666564,4211.281948,4197.435795,4173.333231,4217.948615,4202.051179,4206.153743,4217.948615,4208.205025,4216.922974,4209.230666,4186.153744,4217.948615,4157.948616
5,0,4184.102462,4204.102461,4199.999897,4169.230667,4211.281948,4199.999897,4203.589641,4219.487076,4213.33323,4214.358871,4209.230666,4188.717846,4219.487076,4154.358873
6,0,4181.025539,4197.435795,4192.30759,4165.128103,4203.07682,4198.461436,4200.512718,4216.410153,4210.769128,4214.358871,4199.487077,4188.205026,4209.743487,4145.128104
7,0,4183.589641,4199.487077,4191.281949,4185.128103,4212.307589,4199.999897,4208.717846,4219.487076,4211.281948,4210.769128,4199.999897,4187.179385,4203.07682,4145.640924
8,0,4188.717846,4203.07682,4198.974256,4226.666563,4221.025538,4207.179384,4219.487076,4229.230666,4216.410153,4210.256307,4207.179384,4189.230667,4203.589641,4152.820411
9,0,4185.640923,4200.512718,4201.538359,4241.025537,4212.82041,4214.871692,4219.487076,4231.281948,4214.358871,4216.410153,4207.692205,4188.205026,4204.102461,4155.384514
10,0,4181.538359,4199.999897,4198.974256,4220.512717,4213.846051,4215.897333,4216.410153,4228.205025,4212.307589,4218.461435,4198.461436,4186.666564,4199.999897,4152.820411
11,0,4189.743487,4206.666564,4199.999897,4214.358871,4221.025538,4214.358871,4216.922974,4228.717845,4216.410153,4215.897333,4201.025538,4192.30759,4206.153743,4153.846052
12,0,4199.999897,4211.794769,4204.615282,4228.205025,4211.281948,4214.871692,4216.410153,4230.769127,4216.410153,4212.82041,4213.33323,4201.538359,4217.948615,4165.128103
13,0,4203.07682,4214.358871,4207.179384,4232.820409,4205.128102,4216.922974,4215.897333,4229.743486,4221.025538,4214.871692,4212.307589,4201.538359,4212.82041,4168.717847
14,0,4198.974256,4213.846051,4205.640923,4223.07682,4215.897333,4215.384512,4216.410153,4223.58964,4219.487076,4219.487076,4207.692205,4191.281949,4201.025538,4155.384514
15,0,4190.256308,4207.179384,4201.538359,4209.743487,4222.051179,4208.717846,4213.33323,4214.871692,4205.128102,4218.974256,4210.256307,4181.538359,4199.487077,4148.205027
16,0,4187.692205,4201.538359,4202.051179,4206.153743,4222.051179,4204.102461,4211.794769,4213.33323,4206.153743,4216.410153,4206.666564,4177.948616,4200.512718,4155.897334
17,0,4190.769128,4202.564,4202.564,4225.128102,4216.922974,4205.128102,4212.307589,4217.948615,4220.512717,4219.999897,4198.974256,4179.487077,4197.435795,4157.435796
18,0,4192.30759,4205.128102,4198.974256,4250.256306,4199.487077,4208.205025,4213.846051,4223.07682,4221.025538,4218.974256,4201.538359,4182.05118,4194.871692,4154.871693
19,0,4196.922974,4210.256307,4202.564,4252.820409,4197.948615,4212.307589,4215.897333,4230.256307,4214.358871,4217.435794,4210.769128,4184.615282,4200.512718,4162.05118
20,0,4208.205025,4216.922974,4215.384512,4246.153742,4220.512717,4217.435794,4218.974256,4236.922973,4218.461435,4223.58964,4218.974256,4193.333231,4214.871692,4174.871693
21,0,4211.281948,4218.461435,4216.410153,4249.230665,4222.563999,4215.897333,4215.897333,4236.410153,4216.410153,4222.563999,4221.025538,4195.897333,4213.846051,4177.948616
22,0,4210.256307,4216.410153,4204.615282,4246.666563,4202.564,4207.692205,4206.666564,4225.640922,4208.205025,4212.82041,4210.769128,4186.153744,4203.07682,4173.846052
23,0,4223.58964,4215.384512,4201.025538,4239.487076,4196.922974,4201.025538,4201.025538,4216.410153,4212.82041,4212.307589,4209.743487,4186.153744,4214.871692,4189.230667
24,0,4259.487075,4226.666563,4213.846051,4239.487076,4201.025538,4199.487077,4199.999897,4217.948615,4219.487076,4218.461435,4224.615281,4207.692205,4235.384512,4230.256307
25,0,4318.974253,4254.871691,4234.358871,4245.640922,4204.102461,4203.589641,4202.564,4221.538358,4217.435794,4219.487076,4236.410153,4233.33323,4244.10246,4280.512716
26,0,4382.563995,4276.410152,4252.307588,4258.974255,4199.487077,4201.538359,4200.512718,4215.384512,4212.307589,4212.307589,4241.025537,4247.179383,4253.333229,4333.333227
27,0,4433.333225,4288.205023,4260.512716,4273.846049,4185.128103,4190.256308,4189.743487,4201.538359,4198.974256,4201.538359,4241.538358,4254.871691,4263.589639,4386.153739
28,0,4472.820403,4297.435792,4266.666562,4277.948613,4186.666564,4189.230667,4183.589641,4195.384513,4185.640923,4203.589641,4252.307588,4270.769126,4275.897331,4432.307584
29,0,4506.153736,4297.948613,4282.563998,4277.948613,4205.128102,4200.512718,4192.82041,4206.153743,4194.871692,4217.948615,4272.307588,4297.435792,4296.410151,4472.820403
30,0,4526.666556,4296.410151,4296.410151,4279.487075,4206.153743,4200.512718,4201.025538,4216.922974,4207.179384,4217.948615,4281.025536,4313.333228,4308.717843,4497.948608
31,0,4532.307581,4296.410151,4296.410151,4279.487075,4191.281949,4195.384513,4197.948615,4213.846051,4203.07682,4206.153743,4276.410152,4314.358869,4303.589638,4502.563992
32,0,4529.230658,4288.205023,4292.820408,4278.974254,4194.871692,4200.512718,4192.30759,4212.307589,4199.487077,4203.589641,4273.846049,4313.846048,4298.974254,4498.461428
33,0,4520.51271,4278.974254,4288.205023,4271.281947,4206.666564,4203.07682,4185.640923,4212.82041,4195.897333,4203.07682,4270.256306,4308.717843,4296.922972,4486.666557
34,0,4505.128095,4281.025536,4280.512716,4260.512716,4200.512718,4197.948615,4181.538359,4210.769128,4190.769128,4199.999897,4260.512716,4295.897331,4285.640921,4464.102455
35,0,4482.051172,4280.512716,4278.974254,4266.666562,4201.538359,4200.512718,4190.256308,4212.82041,4201.538359,4208.205025,4258.974255,4286.666562,4277.435793,4441.538353
36,0,4454.358865,4271.794767,4279.999895,4277.435793,4215.384512,4207.179384,4202.051179,4217.435794,4209.230666,4219.999897,4265.640921,4285.1281,4281.025536,4420.512712
37,0,4424.615276,4261.025537,4266.666562,4269.230665,4215.897333,4207.692205,4204.102461,4222.051179,4205.128102,4218.461435,4263.589639,4279.487075,4279.999895,4393.333226
38,0,4390.256303,4249.743486,4252.820409,4249.743486,4209.230666,4209.230666,4203.07682,4229.230666,4209.743487,4212.307589,4250.256306,4265.128101,4268.717844,4358.461432
39,0,4359.487073,4236.922973,4247.179383,4246.666563,4211.281948,4215.384512,4205.128102,4232.820409,4211.281948,4213.846051,4235.897332,4251.794768,4256.410152,4323.589638
40,0,4336.922971,4228.717845,4238.974255,4259.487075,4207.179384,4217.435794,4204.615282,4229.230666,4201.538359,4217.435794,4228.205025,4239.487076,4248.205024,4300.512715
41,0,4315.89733,4227.179384,4230.769127,4258.974255,4203.589641,4214.871692,4204.102461,4231.794768,4210.769128,4215.897333,4225.128102,4231.281948,4244.10246,4283.589639
42,0,4295.38451,4224.615281,4230.256307,4238.461435,4216.922974,4214.871692,4206.153743,4233.84605,4224.102461,4217.948615,4227.692204,4226.153743,4239.487076,4267.179383
43,0,4279.999895,4219.487076,4226.666563,4225.640922,4221.538358,4212.307589,4203.589641,4222.051179,4204.615282,4217.948615,4229.230666,4221.538358,4235.897332,4259.487075
44,0,4267.179383,4215.384512,4218.461435,4227.692204,4211.281948,4206.666564,4200.512718,4212.307589,4189.743487,4208.205025,4219.487076,4215.897333,4228.205025,4246.153742
45,0,4251.794768,4212.82041,4213.846051,4234.871691,4213.33323,4214.871692,4205.128102,4223.07682,4211.281948,4207.179384,4212.82041,4214.358871,4220.512717,4226.153743
46,0,4241.025537,4213.33323,4212.82041,4238.461435,4223.07682,4225.640922,4212.307589,4233.33323,4218.461435,4215.897333,4220.512717,4215.384512,4222.051179,4222.563999
47,0,4231.281948,4217.435794,4212.82041,4230.256307,4220.512717,4223.58964,4215.897333,4228.717845,4203.07682,4215.384512,4225.128102,4216.922974,4227.692204,4219.487076
48,0,4219.999897,4215.897333,4214.871692,4218.974256,4212.307589,4216.410153,4213.33323,4228.717845,4209.743487,4213.33323,4215.897333,4214.358871,4222.563999,4200.512718
49,0,4215.897333,4207.179384,4213.33323,4221.025538,4215.897333,4214.871692,4207.179384,4232.820409,4221.538358,4218.461435,4213.33323,4204.615282,4217.435794,4197.435795
50,0,4214.871692,4202.564,4208.205025,4221.025538,4213.846051,4214.358871,4201.025538,4228.717845,4210.769128,4217.948615,4223.07682,4201.538359,4221.538358,4204.615282
51,0,4202.051179,4201.538359,4202.564,4208.205025,4201.538359,4214.358871,4198.974256,4225.128102,4209.230666,4210.769128,4219.999897,4203.589641,4221.538358,4191.281949
52,0,4187.179385,4200.512718,4203.589641,4193.846051,4206.666564,4217.948615,4207.179384,4230.769127,4217.948615,4216.922974,4207.692205,4202.051179,4217.435794,4175.384513
53,0,4183.589641,4201.025538,4206.666564,4187.692205,4217.948615,4217.948615,4214.871692,4234.871691,4218.461435,4229.743486,4212.82041,4198.974256,4217.435794,4172.820411
54,0,4183.076821,4199.999897,4197.435795,4187.179385,4220.512717,4216.922974,4216.410153,4234.871691,4223.58964,4236.410153,4224.615281,4195.384513,4218.974256,4168.205026
55,0,4173.333231,4191.281949,4185.128103,4179.999898,4213.33323,4217.948615,4214.871692,4233.84605,4224.615281,4229.743486,4216.922974,4186.666564,4215.897333,4156.922975
56,0,4155.384514,4181.025539,4181.025539,4165.640924,4201.538359,4213.846051,4208.205025,4228.717845,4212.307589,4212.82041,4198.461436,4172.30759,4203.589641,4144.615283
57,0,4147.692206,4180.512718,4183.589641,4162.05118,4202.564,4211.794769,4205.128102,4226.666563,4210.256307,4206.153743,4197.948615,4169.743488,4197.948615,4141.02554
58,0,4152.820411,4185.128103,4186.153744,4171.281949,4214.358871,4215.897333,4211.281948,4230.769127,4216.410153,4216.410153,4206.153743,4179.999898,4204.615282,4148.717847
59,0,4149.743488,4182.564,4184.615282,4174.358872,4216.922974,4216.410153,4215.384512,4232.307589,4216.922974,4223.07682,4199.487077,4179.999898,4207.179384,4144.615283
60,0,4142.051181,4182.05118,4181.538359,4167.179385,4214.871692,4216.922974,4214.871692,4230.769127,4217.948615,4215.897333,4195.384513,4172.30759,4199.999897,4138.461437
61,0,4149.743488,4190.256308,4184.102462,4170.769129,4219.487076,4221.025538,4218.974256,4233.33323,4220.512717,4214.358871,4205.640923,4175.897334,4197.948615,4146.153745
62,0,4157.435796,4196.410154,4189.230667,4183.076821,4219.487076,4218.974256,4214.358871,4232.307589,4216.410153,4217.948615,4204.102461,4178.974257,4201.538359,4148.205027
63,0,4154.871693,4198.974256,4189.743487,4188.717846,4218.974256,4215.897333,4205.640923,4227.692204,4210.256307,4220.512717,4194.358872,4177.948616,4203.07682,4143.589642
64,0,4154.358873,4203.589641,4188.205026,4184.615282,4221.538358,4218.974256,4211.281948,4229.743486,4220.512717,4227.692204,4198.974256,4177.948616,4203.589641,4139.487078
65,0,4153.846052,4202.564,4185.128103,4182.05118,4216.410153,4218.974256,4215.384512,4232.307589,4230.769127,4228.205025,4205.640923,4172.30759,4199.999897,4136.410155
66,0,4151.79477,4200.512718,4188.717846,4187.179385,4215.897333,4216.410153,4210.769128,4230.256307,4223.07682,4224.615281,4203.589641,4172.30759,4198.974256,4141.53836
67,0,4156.922975,4205.128102,4199.487077,4193.846051,4215.897333,4217.948615,4211.281948,4232.820409,4218.461435,4232.820409,4201.025538,4183.589641,4211.281948,4156.410155
68,0,4158.461437,4204.615282,4196.922974,4186.666564,4212.82041,4215.384512,4209.230666,4229.230666,4220.512717,4232.820409,4203.589641,4186.153744,4215.897333,4154.871693
69,0,4151.28195,4201.538359,4188.717846,4174.871693,4219.999897,4212.307589,4201.025538,4217.948615,4216.410153,4219.487076,4208.717846,4181.538359,4206.666564,4142.564001
70,0,4153.333232,4206.153743,4191.794769,4183.589641,4232.820409,4215.897333,4201.025538,4216.410153,4212.82041,4217.948615,4209.743487,4182.05118,4206.153743,4141.53836
71,0,4158.974257,4208.717846,4193.333231,4190.256308,4232.307589,4218.461435,4204.615282,4214.871692,4209.743487,4215.897333,4197.435795,4180.512718,4206.666564,4144.615283
72,0,4148.717847,4199.487077,4185.128103,4162.564001,4214.871692,4208.205025,4199.487077,4203.07682,4196.922974,4199.999897,4184.102462,4169.230667,4189.743487,4140.512719
73,0,4134.871694,4190.769128,4178.974257,4128.717848,4212.307589,4198.461436,4194.358872,4204.615282,4194.358872,4194.358872,4183.076821,4153.333232,4180.512718,4128.717848
74,0,4132.307591,4194.871692,4183.076821,4140.512719,4230.256307,4207.692205,4197.948615,4215.897333,4209.230666,4208.205025,4186.666564,4152.307591,4192.30759,4126.153745
75,0,4139.999899,4199.999897,4188.205026,4170.769129,4237.435794,4217.948615,4202.564,4219.487076,4217.948615,4219.487076,4189.230667,4167.179385,4199.999897,4135.897335
76,0,4148.717847,4200.512718,4186.153744,4172.30759,4228.717845,4213.33323,4206.153743,4223.07682,4213.846051,4214.871692,4191.794769,4174.358872,4197.948615,4142.564001
77,0,4156.922975,4202.051179,4184.102462,4156.922975,4227.179384,4212.307589,4214.358871,4232.307589,4215.384512,4204.102461,4197.435795,4171.79477,4200.512718,4138.974258
78,0,4154.871693,4196.922974,4186.153744,4153.333232,4234.358871,4217.948615,4216.922974,4229.743486,4221.538358,4202.564,4203.589641,4171.281949,4204.615282,4137.948617
79,0,4150.256309,4193.333231,4187.179385,4157.948616,4230.769127,4214.358871,4209.230666,4220.512717,4213.846051,4203.589641,4200.512718,4172.820411,4204.102461,4151.28195
80,0,4153.333232,4197.948615,4188.205026,4152.307591,4226.666563,4203.589641,4202.564,4218.974256,4205.128102,4188.205026,4188.717846,4177.435795,4201.538359,4160.512719
81,0,4151.79477,4194.358872,4190.769128,4135.384514,4231.794768,4197.948615,4196.410154,4214.358871,4201.538359,4185.128103,4187.179385,4183.589641,4198.461436,4150.256309
82,0,4145.640924,4184.615282,4187.692205,4130.76913,4237.948614,4199.487077,4192.30759,4205.640923,4198.974256,4201.538359,4197.435795,4184.102462,4197.435795,4142.051181
83,0,4150.256309,4191.794769,4191.281949,4149.230668,4236.410153,4202.564,4197.948615,4210.769128,4207.692205,4200.512718,4201.025538,4184.615282,4197.435795,4153.846052
84,0,4155.897334,4198.974256,4197.435795,4159.487078,4223.58964,4202.564,4205.128102,4219.487076,4210.256307,4190.256308,4196.410154,4187.692205,4190.256308,4154.358873
85,0,4150.769129,4191.281949,4190.256308,4146.153745,4215.384512,4207.692205,4205.640923,4216.922974,4200.512718,4196.922974,4195.897333,4187.179385,4182.564,4137.435796
86,0,4151.28195,4186.666564,4184.615282,4152.307591,4226.666563,4216.410153,4207.179384,4218.974256,4208.205025,4204.615282,4198.974256,4185.640923,4187.179385,4143.076822
87,0,4156.922975,4186.153744,4189.743487,4187.179385,4236.410153,4217.948615,4211.281948,4229.743486,4224.615281,4200.512718,4199.487077,4184.615282,4195.897333,4156.922975
88,0,4153.333232,4189.743487,4195.897333,4213.33323,4223.58964,4216.410153,4214.358871,4231.281948,4220.512717,4204.615282,4200.512718,4187.692205,4198.974256,4156.922975
89,0,4157.435796,4198.974256,4200.512718,4217.948615,4215.384512,4221.025538,4219.487076,4230.769127,4214.358871,4204.615282,4202.051179,4198.974256,4199.487077,4161.53836
90,0,4167.692206,4201.538359,4201.538359,4217.948615,4225.128102,4222.563999,4218.974256,4231.794768,4214.358871,4189.230667,4202.564,4201.025538,4193.846051,4167.179385
91,0,4168.205026,4197.948615,4197.435795,4222.051179,4218.974256,4217.435794,4209.230666,4228.717845,4210.256307,4186.666564,4197.948615,4189.743487,4186.153744,4155.897334
92,0,4164.102462,4196.410154,4198.461436,4225.640922,4209.743487,4217.948615,4208.205025,4226.153743,4211.794769,4199.487077,4197.435795,4189.743487,4187.179385,4150.769129
93,0,4168.205026,4201.025538,4204.615282,4229.230666,4224.102461,4226.666563,4215.384512,4231.281948,4217.435794,4206.153743,4205.640923,4201.538359,4196.410154,4162.564001
94,0,4174.358872,4208.717846,4206.666564,4230.256307,4228.717845,4233.33323,4215.384512,4231.794768,4217.948615,4202.051179,4206.153743,4203.07682,4202.564,4169.743488
95,0,4173.846052,4209.230666,4203.589641,4233.33323,4213.846051,4232.307589,4212.307589,4220.512717,4211.281948,4201.025538,4202.564,4198.461436,4196.922974,4171.79477
96,0,4171.281949,4203.07682,4202.564,4237.948614,4214.871692,4230.256307,4216.922974,4216.922974,4207.179384,4198.974256,4206.153743,4198.461436,4193.333231,4169.743488
97,0,4170.769129,4206.153743,4204.615282,4235.384512,4221.025538,4231.281948,4217.435794,4228.205025,4211.281948,4193.846051,4202.564,4196.410154,4197.948615,4162.564001
98,0,4175.384513,4216.410153,4204.615282,4229.743486,4216.410153,4233.84605,4213.846051,4236.410153,4225.128102,4203.589641,4197.948615,4195.384513,4200.512718,4164.615283
99,0,4180.512718,4217.435794,4203.07682,4235.384512,4217.948615,4236.410153,4215.384512,4234.871691,4233.33323,4221.025538,4207.179384,4196.922974,4198.974256,4173.846052
100,0,4177.435795,4207.179384,4201.538359,4239.487076,4220.512717,4234.358871,4214.871692,4232.820409,4220.512717,4216.922974,4210.769128,4189.230667,4197.948615,4165.640924
101,0,4169.743488,4197.435795,4197.948615,4223.58964,4213.846051,4231.794768,4211.281948,4230.256307,4210.256307,4198.974256,4198.974256,4180.512718,4196.922974,4151.28195
102,0,4166.153744,4202.051179,4195.384513,4214.871692,4213.33323,4237.948614,4212.82041,4229.743486,4218.974256,4202.051179,4194.358872,4183.076821,4195.897333,4158.461437
103,0,4169.230667,4213.33323,4199.999897,4235.897332,4216.922974,4246.666563,4216.410153,4233.84605,4221.538358,4216.410153,4202.051179,4188.205026,4199.487077,4170.769129
104,0,4179.487077,4216.922974,4210.256307,4250.256306,4217.948615,4248.717845,4217.435794,4234.871691,4218.974256,4214.871692,4211.794769,4192.30759,4208.717846,4173.333231
105,0,4189.743487,4217.948615,4215.384512,4235.384512,4217.435794,4246.666563,4216.922974,4232.820409,4227.692204,4212.82041,4217.435794,4198.974256,4213.33323,4181.025539
106,0,4186.153744,4217.435794,4213.33323,4231.794768,4214.871692,4245.640922,4215.384512,4229.743486,4225.640922,4218.461435,4210.769128,4202.564,4206.666564,4186.153744
107,0,4185.640923,4215.384512,4213.846051,4265.128101,4214.358871,4245.128101,4217.948615,4229.743486,4214.871692,4217.948615,4207.179384,4205.128102,4205.128102,4176.922975
108,0,4197.948615,4224.615281,4221.025538,4297.948613,4213.846051,4247.179383,4223.07682,4233.33323,4218.974256,4218.461435,4221.025538,4209.230666,4217.435794,4176.410154
109,0,4198.461436,4229.230666,4220.512717,4289.230664,4205.640923,4246.153742,4219.487076,4232.307589,4221.025538,4221.538358,4219.487076,4206.666564,4219.999897,4188.717846
110,0,4185.128103,4218.974256,4207.692205,4258.461434,4198.461436,4242.563999,4212.82041,4228.717845,4212.82041,4212.82041,4206.153743,4198.461436,4211.794769,4189.230667
111,0,4183.076821,4215.897333,4205.640923,4253.84605,4200.512718,4244.615281,4214.358871,4230.256307,4214.358871,4207.692205,4209.743487,4199.999897,4214.358871,4183.076821
112,0,4188.717846,4221.025538,4214.358871,4262.051178,4209.230666,4248.205024,4218.461435,4232.820409,4217.435794,4219.487076,4219.487076,4209.230666,4219.999897,4184.615282
113,0,4188.205026,4219.487076,4218.461435,4254.871691,4219.487076,4246.153742,4218.974256,4231.281948,4214.358871,4218.461435,4216.922974,4212.307589,4217.948615,4188.205026
114,0,4185.640923,4216.922974,4213.846051,4239.999896,4219.487076,4245.128101,4218.974256,4231.794768,4219.999897,4201.025538,4214.358871,4205.128102,4215.897333,4183.076821
115,0,4187.692205,4217.435794,4209.230666,4233.84605,4211.794769,4243.076819,4217.948615,4229.743486,4218.974256,4205.128102,4217.435794,4197.435795,4215.897333,4180.512718
116,0,4188.717846,4217.435794,4210.256307,4232.307589,4214.871692,4238.461435,4219.487076,4222.051179,4207.179384,4220.512717,4211.281948,4199.487077,4214.871692,4186.666564
117,0,4189.743487,4217.435794,4213.846051,4228.205025,4216.922974,4237.435794,4220.512717,4219.487076,4203.07682,4215.384512,4204.102461,4204.102461,4213.846051,4186.153744
118,0,4194.358872,4216.410153,4216.922974,4230.256307,4208.205025,4236.410153,4215.897333,4219.999897,4213.33323,4207.692205,4204.615282,4202.564,4210.256307,4181.538359
119,0,4197.435795,4216.922974,4216.410153,4243.076819,4211.794769,4233.33323,4213.846051,4216.922974,4216.922974,4210.769128,4208.717846,4199.487077,4205.640923,4186.666564
120,0,4189.230667,4219.999897,4215.384512,4251.794768,4217.948615,4232.820409,4215.897333,4216.410153,4206.666564,4208.717846,4211.794769,4198.461436,4205.128102,4191.794769
121,0,4183.076821,4217.948615,4212.82041,4244.615281,4209.743487,4232.820409,4214.358871,4217.435794,4195.897333,4200.512718,4205.128102,4194.358872,4203.589641,4184.615282
122,0,4187.179385,4214.358871,4211.281948,4237.948614,4204.615282,4231.281948,4211.794769,4215.897333,4200.512718,4196.922974,4199.487077,4193.333231,4196.922974,4179.487077
123,0,4188.205026,4213.846051,4214.358871,4242.563999,4203.07682,4229.743486,4213.33323,4220.512717,4216.410153,4203.589641,4206.153743,4197.948615,4198.461436,4181.538359
124,0,4189.743487,4215.384512,4216.410153,4247.692204,4203.589641,4235.384512,4216.922974,4227.179384,4221.025538,4215.897333,4214.871692,4200.512718,4203.07682,4183.589641
125,0,4200.512718,4222.051179,4216.922974,4251.794768,4212.82041,4241.025537,4216.410153,4227.692204,4213.33323,4217.435794,4213.846051,4202.051179,4201.538359,4185.128103
126,0,4202.564,4224.102461,4215.897333,4247.692204,4218.974256,4239.999896,4217.948615,4230.256307,4213.846051,4207.692205,4212.307589,4210.256307,4206.153743,4191.281949
127,0,4194.871692,4217.435794,4214.871692,4244.615281,4217.948615,4237.948614,4224.102461,4231.281948,4219.487076,4201.025538,4215.384512,4212.307589,4212.307589,4199.487077
128,0,4198.974256,4216.922974,4216.410153,4257.948614,4224.615281,4243.58964,4225.640922,4224.615281,4216.922974,4208.717846,4219.999897,4209.743487,4214.358871,4205.640923
0,0,4199.999897,4219.999897,4218.461435,4266.153742,4216.410153,4241.538358,4218.461435,4217.948615,4207.692205,4212.307589,4218.974256,4206.666564,4215.897333,4197.948615
1,0,4192.30759,4216.410153,4214.871692,4251.281947,4201.538359,4232.820409,4214.358871,4215.897333,4206.666564,4204.615282,4207.692205,4200.512718,4211.281948,4185.128103
2,0,4197.948615,4224.102461,4218.461435,4245.640922,4222.051179,4237.435794,4217.948615,4217.948615,4214.871692,4207.179384,4209.230666,4207.179384,4210.256307,4193.333231
3,0,4207.692205,4233.84605,4225.128102,4257.948614,4236.410153,4240.512717,4217.435794,4219.999897,4217.435794,4215.384512,4219.487076,4217.948615,4217.948615,4203.07682
4,0,4199.487077,4228.717845,4219.487076,4254.871691,4218.461435,4232.820409,4214.871692,4215.897333,4213.33323,4211.281948,4212.82041,4208.205025,4216.922974,4189.743487
5,0,4196.922974,4227.692204,4215.384512,4241.538358,4218.974256,4231.794768,4216.922974,4217.435794,4217.435794,4208.205025,4208.205025,4201.538359,4212.307589,4186.153744
6,0,4204.102461,4232.307589,4221.538358,4236.410153,4232.820409,4234.871691,4217.948615,4222.051179,4216.410153,4215.897333,4212.82041,4209.230666,4213.33323,4197.435795
7,0,4198.461436,4221.538358,4218.974256,4230.256307,4218.461435,4232.307589,4213.33323,4217.435794,4206.666564,4217.435794,4207.692205,4205.640923,4205.640923,4189.743487
8,0,4191.794769,4211.794769,4212.307589,4232.307589,4208.717846,4228.717845,4211.794769,4219.487076,4207.692205,4211.794769,4205.640923,4201.025538,4200.512718,4183.589641
9,0,4201.538359,4225.128102,4225.128102,4249.743486,4229.230666,4234.871691,4222.563999,4231.281948,4217.435794,4216.410153,4217.948615,4217.435794,4214.358871,4202.051179
10,0,4208.717846,4234.358871,4233.33323,4249.743486,4237.435794,4242.051178,4229.230666,4234.358871,4219.999897,4223.07682,4219.999897,4226.153743,4221.025538,4209.230666
11,0,4202.564,4224.615281,4223.07682,4233.84605,4225.640922,4238.974255,4222.051179,4228.717845,4215.897333,4221.538358,4217.435794,4213.33323,4212.82041,4193.846051
12,0,4195.384513,4213.33323,4213.33323,4228.205025,4219.487076,4229.743486,4214.358871,4221.025538,4208.205025,4217.435794,4214.358871,4202.564,4204.615282,4184.615282
13,0,4195.897333,4214.358871,4216.410153,4228.205025,4217.948615,4228.205025,4217.435794,4216.410153,4208.205025,4216.922974,4206.153743,4204.615282,4202.564,4196.410154
14,0,4199.999897,4226.153743,4224.615281,4233.84605,4217.435794,4233.84605,4224.102461,4224.615281,4215.897333,4213.33323,4208.205025,4210.256307,4206.666564,4203.589641
15,0,4201.025538,4227.692204,4222.051179,4249.230665,4222.563999,4235.897332,4222.051179,4226.666563,4215.384512,4215.897333,4216.410153,4206.153743,4207.179384,4191.794769
16,0,4196.922974,4218.974256,4212.82041,4253.84605,4227.692204,4232.820409,4214.871692,4214.358871,4212.307589,4227.692204,4214.871692,4200.512718,4201.538359,4190.769128
17,0,4197.948615,4219.487076,4211.794769,4246.666563,4224.102461,4232.307589,4215.897333,4212.307589,4213.33323,4226.666563,4212.82041,4207.692205,4199.999897,4203.589641
18,0,4202.564,4224.615281,4216.922974,4248.205024,4219.487076,4234.871691,4221.025538,4216.922974,4205.640923,4213.846051,4213.33323,4215.384512,4202.051179,4202.051179
19,0,4202.564,4218.461435,4216.410153,4248.205024,4218.461435,4234.358871,4219.487076,4216.410153,4201.538359,4215.897333,4213.846051,4212.82041,4202.564,4194.358872
20,0,4197.435795,4214.871692,4213.846051,4241.538358,4212.82041,4230.769127,4214.871692,4224.102461,4215.384512,4227.179384,4217.435794,4210.769128,4202.051179,4197.948615
21,0,4197.435795,4224.615281,4216.922974,4244.10246,4213.846051,4230.256307,4214.358871,4232.820409,4222.563999,4232.307589,4221.025538,4214.871692,4202.564,4208.717846
22,0,4207.692205,4233.84605,4221.025538,4247.692204,4227.692204,4231.794768,4214.358871,4229.230666,4216.410153,4232.820409,4217.435794,4218.974256,4204.102461,4214.358871
23,0,4211.794769,4231.794768,4219.999897,4235.384512,4231.281948,4230.769127,4213.33323,4223.07682,4217.948615,4230.769127,4213.846051,4217.948615,4202.564,4206.666564
24,0,4203.07682,4222.051179,4214.358871,4222.563999,4223.07682,4231.281948,4213.33323,4218.974256,4221.025538,4228.717845,4215.897333,4213.846051,4197.948615,4195.384513
25,0,4197.435795,4223.58964,4214.358871,4230.256307,4215.897333,4234.358871,4215.384512,4217.948615,4215.384512,4231.281948,4218.461435,4212.82041,4198.974256,4201.025538
26,0,4203.07682,4232.307589,4216.410153,4242.563999,4214.358871,4235.384512,4217.435794,4220.512717,4213.33323,4233.33323,4214.871692,4215.897333,4203.07682,4211.281948
27,0,4207.692205,4226.666563,4212.82041,4247.692204,4220.512717,4233.33323,4214.871692,4219.487076,4214.871692,4221.538358,4209.743487,4212.307589,4201.025538,4204.102461
28,0,4206.666564,4226.153743,4211.794769,4259.999896,4226.666563,4233.84605,4216.922974,4214.358871,4214.358871,4212.82041,4212.82041,4208.717846,4199.487077,4198.461436
29,0,4207.179384,4231.794768,4217.948615,4271.281947,4224.102461,4236.922973,4224.102461,4215.384512,4214.871692,4227.179384,4216.922974,4215.384512,4204.615282,4209.230666
30,0,4201.538359,4220.512717,4215.384512,4262.563998,4217.948615,4234.358871,4222.563999,4216.410153,4206.666564,4223.58964,4208.205025,4211.794769,4199.487077,4211.281948
31,0,4188.717846,4204.615282,4204.102461,4253.333229,4204.615282,4226.153743,4213.33323,4210.769128,4195.384513,4200.512718,4196.922974,4198.461436,4183.589641,4195.384513
32,0,4189.230667,4212.82041,4205.128102,4263.076819,4199.999897,4228.717845,4214.358871,4213.33323,4203.07682,4207.692205,4201.538359,4202.564,4180.512718,4197.948615
33,0,4210.256307,4226.153743,4215.897333,4272.820408,4223.07682,4243.076819,4225.640922,4228.205025,4218.974256,4230.769127,4215.384512,4216.922974,4191.281949,4218.461435
34,0,4217.948615,4223.58964,4217.435794,4263.589639,4237.435794,4244.10246,4227.692204,4234.871691,4218.461435,4235.897332,4220.512717,4223.58964,4198.461436,4218.974256
35,0,4204.615282,4215.897333,4214.871692,4249.230665,4222.051179,4232.820409,4218.974256,4229.743486,4213.33323,4232.820409,4214.358871,4226.153743,4197.435795,4210.769128
36,0,4197.948615,4214.871692,4215.897333,4249.743486,4215.384512,4232.307589,4216.410153,4230.256307,4213.33323,4234.871691,4218.974256,4230.256307,4197.948615,4222.051179
37,0,4202.564,4217.948615,4210.256307,4251.281947,4222.563999,4236.410153,4219.999897,4235.897332,4217.435794,4239.487076,4232.307589,4228.205025,4199.999897,4229.743486
38,0,4205.640923,4218.461435,4203.589641,4238.461435,4215.897333,4231.794768,4218.974256,4235.897332,4228.717845,4243.58964,4227.179384,4223.58964,4200.512718,4217.435794
39,0,4204.615282,4216.922974,4209.230666,4228.205025,4210.769128,4229.743486,4216.922974,4235.897332,4234.358871,4239.487076,4212.307589,4220.512717,4199.487077,4208.717846
40,0,4198.974256,4216.922974,4213.33323,4228.717845,4221.538358,4232.307589,4216.922974,4232.307589,4215.897333,4232.307589,4212.82041,4217.435794,4198.461436,4214.871692
41,0,4194.871692,4215.897333,4209.743487,4225.128102,4229.230666,4228.717845,4214.358871,4218.974256,4198.461436,4223.58964,4217.435794,4214.358871,4196.922974,4219.487076
42,0,4205.128102,4217.435794,4212.82041,4217.435794,4228.717845,4227.692204,4213.33323,4213.33323,4205.128102,4211.281948,4214.871692,4214.871692,4197.948615,4213.846051
43,0,4217.948615,4223.58964,4221.025538,4217.435794,4229.743486,4232.307589,4216.922974,4217.948615,4215.384512,4212.307589,4217.435794,4224.102461,4201.538359,4214.358871
44,0,4219.999897,4232.307589,4223.07682,4217.435794,4232.307589,4228.717845,4217.435794,4217.435794,4212.307589,4217.435794,4218.974256,4231.794768,4203.07682,4225.640922
45,0,4215.897333,4230.256307,4221.025538,4205.128102,4230.256307,4218.974256,4210.256307,4212.82041,4209.743487,4207.692205,4215.897333,4226.666563,4199.999897,4227.179384
46,0,4208.205025,4221.025538,4215.897333,4187.692205,4227.179384,4216.410153,4205.640923,4214.358871,4215.384512,4198.974256,4214.871692,4215.897333,4197.435795,4216.922974
47,0,4204.615282,4221.025538,4216.410153,4183.589641,4236.922973,4218.461435,4212.82041,4216.410153,4221.538358,4211.281948,4217.948615,4219.487076,4198.974256,4214.358871
48,0,4213.846051,4224.102461,4226.666563,4186.153744,4248.717845,4218.974256,4218.974256,4215.384512,4219.487076,4218.974256,4227.179384,4233.84605,4202.051179,4222.051179
49,0,4219.487076,4218.974256,4225.640922,4184.102462,4245.128101,4218.974256,4214.871692,4214.871692,4210.769128,4195.897333,4227.692204,4230.256307,4201.538359,4219.999897
50,0,4210.769128,4211.794769,4213.33323,4190.256308,4231.794768,4216.922974,4210.769128,4214.358871,4205.640923,4185.640923,4209.743487,4214.871692,4196.922974,4214.358871
51,0,4201.538359,4213.846051,4212.307589,4202.051179,4223.07682,4213.846051,4211.794769,4212.82041,4210.256307,4208.205025,4201.025538,4213.33323,4191.794769,4212.82041
52,0,4198.461436,4214.871692,4215.897333,4190.769128,4228.205025,4214.358871,4212.307589,4213.846051,4216.922974,4214.871692,4210.769128,4216.922974,4188.205026,4207.179384
53,0,4199.487077,4207.179384,4209.743487,4167.692206,4230.256307,4214.871692,4209.230666,4215.897333,4211.794769,4198.974256,4207.179384,4212.82041,4186.666564,4198.461436
54,0,4201.538359,4202.051179,4202.564,4163.589642,4222.051179,4213.846051,4205.128102,4211.794769,4201.538359,4197.948615,4204.102461,4212.82041,4187.179385,4197.948615
55,0,4198.974256,4203.589641,4201.025538,4169.743488,4224.615281,4214.871692,4203.07682,4202.564,4201.025538,4206.153743,4216.922974,4211.794769,4190.769128,4205.640923
56,0,4196.922974,4201.025538,4202.051179,4167.692206,4234.871691,4215.384512,4201.538359,4201.025538,4201.538359,4202.564,4214.358871,4205.640923,4191.281949,4206.153743
57,0,4197.948615,4199.999897,4204.615282,4165.128103,4234.358871,4217.435794,4203.07682,4210.769128,4206.153743,4200.512718,4203.07682,4208.717846,4186.153744,4197.435795
58,0,4201.025538,4206.666564,4203.589641,4171.79477,4233.84605,4219.487076,4205.640923,4216.922974,4212.307589,4202.564,4209.743487,4213.846051,4185.640923,4196.922974
59,0,4203.589641,4206.666564,4201.025538,4180.512718,4232.307589,4215.384512,4200.512718,4212.82041,4207.692205,4208.717846,4218.974256,4211.794769,4191.281949,4211.794769
60,0,4202.564,4207.179384,4207.179384,4192.30759,4219.487076,4214.358871,4198.461436,4211.794769,4204.102461,4214.358871,4215.897333,4214.871692,4197.435795,4218.974256
61,0,4201.025538,4215.384512,4213.846051,4203.589641,4225.640922,4225.128102,4207.692205,4217.435794,4214.871692,4216.922974,4216.410153,4218.461435,4200.512718,4203.07682
62,0,4199.487077,4216.922974,4210.256307,4202.051179,4237.948614,4233.33323,4212.307589,4216.922974,4224.102461,4219.487076,4218.974256,4214.358871,4201.025538,4194.871692
63,0,4201.025538,4214.871692,4208.717846,4202.051179,4225.640922,4225.128102,4206.153743,4212.82041,4217.435794,4215.384512,4218.461435,4212.82041,4198.974256,4208.717846
64,0,4208.205025,4216.922974,4213.33323,4210.256307,4216.410153,4217.435794,4202.564,4212.82041,4205.128102,4206.666564,4216.410153,4216.922974,4197.948615,4212.307589
65,0,4210.256307,4216.922974,4215.897333,4209.230666,4216.922974,4218.974256,4210.256307,4212.307589,4202.051179,4200.512718,4216.922974,4219.487076,4199.487077,4207.692205
66,0,4205.128102,4212.82041,4212.82041,4201.025538,4212.307589,4221.025538,4214.358871,4211.281948,4213.846051,4201.538359,4220.512717,4218.974256,4198.974256,4212.307589
67,0,4201.538359,4210.769128,4208.205025,4201.538359,4214.871692,4218.461435,4206.666564,4214.358871,4221.025538,4209.743487,4212.82041,4215.897333,4195.897333,4209.230666
68,0,4199.999897,4208.717846,4203.07682,4201.025538,4216.922974,4216.410153,4206.153743,4214.358871,4207.692205,4214.871692,4205.640923,4214.871692,4196.922974,4199.999897
69,0,4197.948615,4204.615282,4202.051179,4193.333231,4212.307589,4225.128102,4215.897333,4207.692205,4197.948615,4206.666564,4209.743487,4211.794769,4197.435795,4199.999897
70,0,4198.461436,4204.102461,4199.487077,4187.692205,4218.974256,4229.743486,4217.435794,4207.692205,4201.025538,4191.281949,4213.33323,4203.589641,4196.410154,4199.487077
71,0,4200.512718,4211.794769,4194.871692,4185.128103,4218.974256,4222.051179,4210.769128,4214.871692,4212.82041,4196.410154,4214.358871,4202.564,4207.692205,4193.846051
72,0,4195.384513,4214.871692,4194.871692,4184.102462,4201.025538,4220.512717,4210.769128,4217.948615,4228.205025,4224.615281,4217.435794,4203.07682,4215.897333,4198.974256
73,0,4191.281949,4211.281948,4197.948615,4187.692205,4205.128102,4228.717845,4211.281948,4216.922974,4226.666563,4235.384512,4216.410153,4201.025538,4207.692205,4209.230666
74,0,4197.948615,4212.307589,4195.897333,4188.717846,4224.615281,4229.230666,4206.153743,4218.974256,4213.33323,4221.025538,4211.281948,4204.615282,4205.128102,4202.564
75,0,4205.128102,4216.410153,4193.846051,4183.589641,4219.999897,4219.999897,4205.128102,4218.461435,4211.794769,4214.871692,4214.358871,4206.153743,4209.743487,4187.692205
76,0,4202.564,4210.256307,4198.461436,4185.128103,4211.281948,4219.487076,4208.717846,4215.384512,4217.948615,4219.999897,4217.435794,4202.564,4204.615282,4190.769128
77,0,4198.461436,4204.102461,4201.025538,4199.999897,4217.435794,4227.179384,4207.692205,4216.410153,4217.948615,4218.461435,4210.769128,4203.589641,4199.999897,4206.666564
78,0,4201.025538,4209.743487,4199.999897,4208.205025,4216.410153,4229.230666,4202.564,4217.948615,4216.922974,4216.410153,4202.051179,4205.128102,4205.128102,4206.666564
79,0,4198.461436,4214.871692,4199.487077,4198.974256,4210.256307,4221.025538,4202.051179,4214.871692,4212.82041,4213.33323,4201.025538,4202.051179,4203.07682,4196.922974
80,0,4194.358872,4210.256307,4199.487077,4190.769128,4215.897333,4217.435794,4202.564,4213.33323,4207.692205,4205.640923,4200.512718,4198.974256,4198.461436,4199.487077
81,0,4196.410154,4203.589641,4197.948615,4187.692205,4216.922974,4218.461435,4205.640923,4215.384512,4209.230666,4207.179384,4194.871692,4190.769128,4198.974256,4197.435795
82,0,4199.999897,4206.153743,4194.871692,4182.564,4215.897333,4219.999897,4211.794769,4211.794769,4212.307589,4209.743487,4188.717846,4182.564,4194.358872,4187.179385
83,0,4202.564,4214.358871,4194.358872,4187.692205,4223.07682,4229.230666,4210.769128,4205.128102,4213.33323,4205.128102,4188.717846,4185.640923,4192.30759,4190.256308
84,0,4199.999897,4212.82041,4196.410154,4200.512718,4223.07682,4230.769127,4205.640923,4199.487077,4214.871692,4207.179384,4190.769128,4186.666564,4196.922974,4193.846051
85,0,4197.435795,4203.589641,4198.974256,4201.025538,4215.897333,4219.999897,4209.230666,4201.538359,4215.384512,4221.538358,4195.897333,4185.640923,4201.538359,4193.333231
86,0,4198.974256,4200.512718,4201.025538,4196.410154,4218.974256,4222.051179,4215.384512,4210.769128,4219.999897,4231.794768,4206.153743,4191.281949,4202.051179,4198.461436
87,0,4199.999897,4207.179384,4200.512718,4205.640923,4217.948615,4231.794768,4215.384512,4217.435794,4228.717845,4229.230666,4208.205025,4195.897333,4200.512718,4200.512718
88,0,4202.564,4212.82041,4201.538359,4222.563999,4203.589641,4228.205025,4215.384512,4222.563999,4229.230666,4232.307589,4207.692205,4199.999897,4202.051179,4197.435795
89,0,4207.692205,4212.307589,4204.102461,4231.794768,4205.128102,4224.615281,4218.461435,4230.256307,4233.84605,4248.205024,4217.435794,4206.153743,4210.256307,4211.281948
90,0,4203.589641,4206.666564,4205.640923,4229.230666,4217.435794,4223.58964,4219.487076,4232.307589,4238.974255,4248.717845,4220.512717,4206.153743,4216.410153,4221.025538
91,0,4199.487077,4206.666564,4208.205025,4229.230666,4212.307589,4217.948615,4216.410153,4225.640922,4224.615281,4234.358871,4214.871692,4203.589641,4212.307589,4211.794769
92,0,4214.358871,4216.410153,4215.897333,4242.563999,4207.692205,4221.025538,4221.538358,4225.640922,4218.461435,4237.948614,4221.538358,4209.230666,4214.358871,4211.281948
93,0,4226.153743,4222.051179,4217.435794,4255.384511,4219.487076,4234.871691,4228.717845,4233.33323,4231.281948,4252.820409,4233.84605,4214.358871,4226.153743,4219.487076
94,0,4217.948615,4219.487076,4214.358871,4261.538357,4213.33323,4232.820409,4222.563999,4232.820409,4235.384512,4250.769127,4230.769127,4215.897333,4226.666563,4220.512717
95,0,4213.846051,4217.435794,4214.871692,4274.35887,4193.333231,4221.025538,4216.410153,4230.256307,4226.153743,4239.999896,4219.999897,4213.33323,4216.410153,4218.461435
96,0,4218.974256,4219.487076,4216.922974,4283.589639,4202.564,4222.563999,4218.974256,4228.205025,4221.025538,4233.84605,4212.82041,4205.128102,4211.794769,4217.435794
97,0,4218.974256,4218.974256,4217.948615,4273.846049,4219.999897,4227.692204,4219.999897,4222.051179,4219.487076,4233.33323,4213.846051,4204.102461,4215.897333,4218.974256
98,0,4219.487076,4219.487076,4217.435794,4262.051178,4215.897333,4225.128102,4216.410153,4215.897333,4215.897333,4229.230666,4214.871692,4212.307589,4215.384512,4215.897333
99,0,4225.128102,4224.102461,4217.435794,4261.538357,4213.33323,4226.153743,4217.435794,4217.948615,4217.948615,4222.563999,4214.358871,4214.871692,4213.846051,4210.769128
100,0,4229.230666,4228.205025,4217.948615,4267.179383,4218.461435,4228.717845,4217.435794,4223.58964,4224.102461,4230.256307,4222.051179,4213.846051,4224.102461,4223.58964
101,0,4229.743486,4227.179384,4217.435794,4269.230665,4206.153743,4220.512717,4215.897333,4230.769127,4225.640922,4251.794768,4233.33323,4216.410153,4233.84605,4235.897332
102,0,4232.307589,4226.153743,4217.435794,4262.563998,4197.435795,4214.358871,4216.922974,4231.281948,4221.538358,4253.84605,4235.384512,4217.435794,4232.307589,4221.538358
103,0,4232.307589,4226.153743,4216.410153,4249.743486,4213.33323,4218.461435,4213.846051,4219.487076,4216.922974,4236.410153,4228.205025,4217.435794,4228.717845,4211.794769
104,0,4229.743486,4227.179384,4216.922974,4244.10246,4225.128102,4219.999897,4206.666564,4211.794769,4215.897333,4235.897332,4231.281948,4221.025538,4235.897332,4236.410153
105,0,4234.358871,4231.281948,4221.538358,4250.256306,4217.435794,4217.948615,4204.615282,4219.999897,4217.948615,4251.281947,4243.076819,4225.128102,4243.076819,4254.35887
106,0,4234.871691,4230.256307,4219.999897,4251.794768,4213.846051,4215.384512,4204.615282,4216.922974,4215.897333,4247.692204,4237.948614,4216.410153,4238.461435,4235.897332
107,0,4231.794768,4228.717845,4216.922974,4249.230665,4214.358871,4213.846051,4200.512718,4203.07682,4205.640923,4232.307589,4228.205025,4205.640923,4233.33323,4218.461435
108,0,4233.33323,4228.717845,4217.948615,4249.230665,4202.564,4213.33323,4200.512718,4205.640923,4205.128102,4230.256307,4224.102461,4207.179384,4228.717845,4222.563999
109,0,4230.769127,4219.999897,4216.410153,4247.692204,4202.051179,4212.82041,4208.205025,4217.948615,4218.974256,4233.84605,4219.999897,4208.717846,4218.974256,4223.07682
110,0,4227.692204,4215.897333,4213.33323,4244.615281,4216.922974,4214.871692,4214.358871,4219.487076,4221.538358,4231.281948,4220.512717,4209.743487,4213.33323,4218.974256
111,0,4230.256307,4221.025538,4215.897333,4248.205024,4216.410153,4214.358871,4211.281948,4214.358871,4210.256307,4232.820409,4224.615281,4214.358871,4219.487076,4225.640922
112,0,4231.794768,4222.563999,4217.948615,4249.743486,4213.33323,4212.82041,4211.794769,4215.384512,4208.717846,4234.358871,4218.461435,4214.871692,4215.897333,4229.743486
113,0,4232.307589,4220.512717,4217.948615,4232.820409,4216.410153,4214.871692,4215.897333,4217.435794,4214.358871,4233.33323,4214.871692,4212.307589,4202.051179,4222.563999
114,0,4231.281948,4216.922974,4213.846051,4214.871692,4204.615282,4210.769128,4206.153743,4210.769128,4216.922974,4234.358871,4214.871692,4206.153743,4199.999897,4215.897333
115,0,4230.256307,4214.358871,4210.769128,4222.563999,4202.564,4207.692205,4199.487077,4202.564,4215.897333,4233.33323,4213.33323,4200.512718,4202.564,4215.384512
116,0,4233.84605,4219.487076,4216.410153,4239.487076,4226.153743,4215.897333,4210.256307,4206.153743,4209.743487,4230.769127,4221.538358,4210.256307,4202.051179,4220.512717
117,0,4236.410153,4221.538358,4221.025538,4237.435794,4226.666563,4215.384512,4213.846051,4214.358871,4207.179384,4233.33323,4219.999897,4218.461435,4201.538359,4223.07682
118,0,4230.256307,4213.846051,4215.897333,4219.487076,4211.794769,4203.589641,4204.102461,4211.281948,4208.205025,4228.205025,4206.666564,4205.128102,4198.974256,4214.871692
119,0,4223.07682,4212.82041,4212.82041,4196.922974,4217.948615,4200.512718,4199.999897,4203.589641,4206.153743,4217.948615,4208.717846,4195.384513,4191.794769,4212.307589
120,0,4223.07682,4212.307589,4214.358871,4184.615282,4218.974256,4202.564,4204.102461,4201.025538,4202.564,4217.948615,4210.769128,4201.025538,4187.179385,4216.922974
121,0,4223.58964,4203.589641,4214.871692,4191.794769,4212.307589,4206.666564,4212.82041,4202.564,4202.564,4224.102461,4201.025538,4203.07682,4186.153744,4207.179384
122,0,4222.051179,4203.589641,4214.871692,4193.333231,4225.640922,4216.922974,4216.410153,4207.692205,4205.128102,4227.692204,4197.948615,4195.384513,4187.179385,4194.358872
123,0,4217.948615,4211.794769,4211.794769,4178.974257,4235.897332,4215.897333,4207.692205,4212.307589,4203.589641,4227.692204,4201.025538,4190.256308,4187.179385,4205.128102
124,0,4214.358871,4213.846051,4209.743487,4175.897334,4228.717845,4207.692205,4204.102461,4210.769128,4201.025538,4222.051179,4203.07682,4194.871692,4187.179385,4220.512717
125,0,4222.563999,4213.33323,4213.33323,4196.922974,4223.07682,4210.256307,4213.846051,4215.384512,4210.256307,4213.846051,4210.769128,4202.564,4192.82041,4217.948615
126,0,4230.769127,4216.410153,4216.922974,4217.948615,4218.461435,4219.487076,4218.461435,4228.205025,4222.051179,4224.102461,4217.435794,4203.07682,4201.025538,4213.846051
127,0,4229.230666,4217.435794,4217.435794,4217.948615,4213.846051,4220.512717,4217.948615,4228.717845,4222.563999,4239.487076,4216.410153,4201.538359,4202.051179,4217.435794
128,0,4229.230666,4216.922974,4219.487076,4214.358871,4225.640922,4219.999897,4219.999897,4220.512717,4214.871692,4236.410153,4212.82041,4204.102461,4200.512718,4221.025538
0,0,4230.769127,4217.435794,4218.461435,4226.666563,4234.358871,4216.922974,4216.410153,4215.897333,4209.230666,4228.205025,4209.230666,4204.615282,4195.897333,4218.974256
1,0,4223.07682,4213.846051,4212.82041,4237.948614,4222.563999,4211.281948,4208.205025,4205.128102,4199.999897,4221.025538,4205.640923,4199.999897,4187.692205,4209.230666
2,0,4214.871692,4211.794769,4211.281948,4234.871691,4212.307589,4212.307589,4210.256307,4198.461436,4193.846051,4214.358871,4203.07682,4198.461436,4186.666564,4206.153743
3,0,4218.461435,4215.384512,4212.307589,4231.794768,4214.358871,4217.435794,4217.948615,4209.230666,4209.230666,4222.051179,4199.487077,4200.512718,4189.230667,4217.435794
4,0,4226.153743,4214.358871,4211.281948,4230.769127,4215.897333,4217.435794,4219.999897,4212.82041,4216.410153,4229.230666,4196.922974,4198.461436,4185.640923,4217.948615
5,0,4229.743486,4209.743487,4211.794769,4227.179384,4216.410153,4215.897333,4218.974256,4206.153743,4205.128102,4216.922974,4202.051179,4195.897333,4187.179385,4203.589641
6,0,4231.794768,4215.384512,4215.384512,4233.33323,4223.58964,4217.435794,4219.487076,4213.33323,4218.974256,4221.025538,4215.384512,4201.538359,4198.974256,4208.205025
7,0,4235.897332,4223.58964,4216.922974,4250.769127,4226.153743,4218.461435,4218.974256,4229.743486,4252.820409,4249.230665,4230.256307,4208.717846,4210.769128,4229.743486
8,0,4243.58964,4224.102461,4216.922974,4260.512716,4222.051179,4217.435794,4219.487076,4232.820409,4261.538357,4259.487075,4230.769127,4213.33323,4215.384512,4234.358871
9,0,4245.128101,4224.615281,4222.051179,4256.410152,4218.461435,4217.435794,4216.922974,4226.153743,4251.794768,4245.128101,4221.025538,4214.358871,4212.307589,4228.717845
10,0,4239.999896,4222.563999,4219.487076,4249.743486,4214.871692,4217.435794,4207.179384,4213.846051,4244.10246,4235.384512,4218.461435,4206.153743,4205.128102,4232.307589
11,0,4235.384512,4216.410153,4207.179384,4245.128101,4216.410153,4217.948615,4202.051179,4204.102461,4237.948614,4231.794768,4219.487076,4198.974256,4202.051179,4230.256307
12,0,4230.769127,4216.410153,4204.615282,4247.692204,4224.102461,4217.435794,4210.256307,4209.743487,4246.153742,4227.692204,4216.410153,4201.025538,4202.564,4219.487076
13,0,4228.205025,4217.435794,4210.256307,4251.794768,4229.230666,4216.922974,4216.410153,4213.846051,4249.743486,4228.717845,4214.871692,4200.512718,4202.564,4213.33323
14,0,4230.256307,4214.358871,4211.794769,4239.999896,4223.07682,4218.461435,4210.256307,4206.153743,4231.794768,4232.820409,4211.794769,4197.948615,4201.025538,4217.435794
15,0,4231.281948,4214.358871,4208.205025,4225.640922,4210.256307,4217.435794,4202.564,4205.640923,4233.33323,4239.999896,4204.615282,4199.999897,4199.999897,4222.563999
16,0,4222.563999,4208.205025,4202.564,4231.794768,4203.07682,4210.769128,4202.051179,4208.717846,4251.281947,4241.025537,4204.102461,4192.82041,4194.358872,4212.307589
17,0,4215.384512,4198.461436,4201.538359,4237.948614,4212.82041,4210.769128,4202.051179,4202.051179,4248.205024,4234.358871,4211.281948,4184.102462,4191.281949,4202.564
18,0,4222.051179,4204.102461,4203.589641,4231.794768,4227.692204,4216.410153,4199.999897,4204.615282,4241.025537,4231.794768,4215.897333,4190.769128,4197.435795,4208.717846
19,0,4230.769127,4214.871692,4205.128102,4238.461435,4226.666563,4216.922974,4205.640923,4220.512717,4250.256306,4240.512717,4216.410153,4201.025538,4202.051179,4216.410153
20,0,4235.384512,4217.435794,4211.281948,4259.487075,4214.871692,4217.435794,4216.410153,4225.640922,4263.589639,4253.333229,4225.128102,4208.205025,4206.666564,4222.051179
21,0,4234.871691,4214.871692,4217.435794,4267.692203,4205.128102,4218.461435,4218.974256,4220.512717,4260.512716,4254.871691,4233.33323,4213.846051,4213.846051,4231.794768
22,0,4230.256307,4210.769128,4212.82041,4259.487075,4205.128102,4214.358871,4214.358871,4214.871692,4245.640922,4243.076819,4225.640922,4212.307589,4211.794769,4234.358871
23,0,4233.84605,4214.871692,4213.846051,4245.640922,4216.410153,4214.871692,4216.410153,4215.384512,4239.999896,4235.384512,4222.051179,4214.358871,4207.692205,4233.84605
24,0,4236.922973,4217.948615,4220.512717,4231.281948,4223.07682,4220.512717,4221.538358,4215.897333,4247.692204,4236.922973,4224.102461,4215.384512,4209.230666,4229.743486
25,0,4224.102461,4201.025538,4213.846051,4226.153743,4211.794769,4212.82041,4216.410153,4204.615282,4238.461435,4228.205025,4208.205025,4203.589641,4198.974256,4214.871692
26,0,4212.82041,4188.717846,4202.564,4230.769127,4198.974256,4199.487077,4205.640923,4194.358872,4213.846051,4210.769128,4193.846051,4194.871692,4186.153744,4210.769128
27,0,4215.897333,4196.922974,4199.999897,4234.358871,4195.897333,4199.487077,4199.999897,4197.948615,4215.897333,4213.846051,4196.922974,4195.897333,4192.30759,4216.922974
28,0,4218.974256,4199.999897,4201.538359,4234.871691,4199.999897,4201.538359,4200.512718,4202.564,4235.897332,4234.358871,4202.564,4193.846051,4200.512718,4212.307589
29,0,4217.435794,4196.922974,4202.051179,4229.743486,4210.256307,4201.538359,4206.666564,4202.051179,4235.897332,4230.256307,4208.205025,4192.82041,4198.974256,4214.358871
30,0,4216.922974,4195.384513,4199.487077,4215.384512,4207.692205,4207.179384,4211.794769,4205.640923,4229.743486,4212.307589,4207.692205,4189.743487,4197.948615,4218.974256
31,0,4214.871692,4188.717846,4195.384513,4212.307589,4196.922974,4213.33323,4210.256307,4212.307589,4237.948614,4222.051179,4197.948615,4182.564,4198.461436,4207.692205
32,0,4210.769128,4191.281949,4195.897333,4227.179384,4203.589641,4215.384512,4211.281948,4216.922974,4248.205024,4248.205024,4205.128102,4190.256308,4199.487077,4203.07682
33,0,4212.307589,4204.102461,4202.564,4236.922973,4218.461435,4218.974256,4218.974256,4220.512717,4250.256306,4254.871691,4217.948615,4203.589641,4203.07682,4215.384512
34,0,4221.538358,4202.051179,4203.07682,4241.538358,4210.769128,4221.025538,4221.025538,4219.487076,4244.615281,4240.512717,4204.615282,4202.051179,4204.102461,4221.025538
35,0,4230.256307,4197.948615,4199.999897,4253.333229,4201.025538,4217.948615,4217.435794,4214.871692,4237.948614,4234.358871,4197.435795,4196.922974,4201.538359,4214.871692
36,0,4230.769127,4209.230666,4207.179384,4267.179383,4199.487077,4215.897333,4217.435794,4214.871692,4238.974255,4238.974255,4212.307589,4202.564,4207.179384,4217.948615
37,0,4230.256307,4214.871692,4215.897333,4267.179383,4188.717846,4217.435794,4220.512717,4216.922974,4236.922973,4241.025537,4217.435794,4207.179384,4213.33323,4228.717845
38,0,4229.743486,4204.615282,4214.871692,4256.922973,4187.692205,4215.897333,4218.461435,4210.769128,4227.692204,4227.692204,4211.281948,4201.538359,4211.281948,4230.769127
39,0,4229.230666,4204.615282,4215.384512,4245.128101,4198.461436,4214.871692,4215.897333,4209.230666,4227.179384,4214.871692,4212.82041,4203.589641,4211.794769,4227.692204
40,0,4235.384512,4219.999897,4222.563999,4236.922973,4206.666564,4218.461435,4225.128102,4215.897333,4231.281948,4228.717845,4215.384512,4214.358871,4215.384512,4227.692204
41,0,4234.358871,4216.922974,4219.487076,4232.307589,4203.07682,4221.025538,4229.743486,4220.512717,4233.84605,4243.076819,4208.205025,4207.692205,4208.717846,4223.58964
42,0,4216.410153,4197.948615,4203.589641,4218.974256,4187.692205,4214.358871,4217.435794,4218.461435,4239.487076,4236.410153,4202.051179,4185.640923,4199.999897,4211.281948
43,0,4213.33323,4201.025538,4197.435795,4208.717846,4186.666564,4210.769128,4211.794769,4219.487076,4245.640922,4236.410153,4204.102461,4182.564,4203.589641,4209.743487
44,0,4238.974255,4216.922974,4210.256307,4219.999897,4211.281948,4216.410153,4219.999897,4224.102461,4248.717845,4251.281947,4217.435794,4199.999897,4218.461435,4229.743486
45,0,4261.025537,4221.538358,4219.487076,4232.820409,4223.07682,4219.999897,4223.07682,4223.58964,4253.333229,4256.922973,4232.307589,4211.794769,4232.307589,4251.794768
46,0,4268.205024,4223.58964,4219.487076,4230.769127,4209.743487,4219.487076,4219.487076,4221.025538,4251.281947,4251.281947,4233.33323,4215.384512,4234.358871,4259.999896
47,0,4282.051177,4232.820409,4226.153743,4228.205025,4203.07682,4217.948615,4216.922974,4214.871692,4231.794768,4247.692204,4229.743486,4218.974256,4239.487076,4269.230665
48,0,4302.051177,4232.307589,4239.999896,4231.281948,4199.999897,4213.846051,4216.410153,4203.07682,4219.487076,4247.179383,4231.794768,4225.128102,4245.640922,4288.717844
49,0,4314.358869,4232.820409,4248.205024,4240.512717,4197.435795,4212.307589,4215.897333,4203.589641,4228.205025,4239.999896,4234.358871,4237.948614,4246.666563,4307.179382
50,0,4318.461433,4241.025537,4250.256306,4254.871691,4197.948615,4217.435794,4216.410153,4217.948615,4236.922973,4235.897332,4244.10246,4250.769127,4256.410152,4317.948612
51,0,4312.307587,4238.461435,4248.717845,4255.897332,4198.974256,4218.974256,4223.58964,4222.051179,4233.33323,4248.205024,4250.256306,4244.615281,4255.897332,4308.717843
52,0,4303.589638,4233.33323,4244.615281,4248.717845,4215.384512,4217.435794,4229.230666,4214.871692,4231.281948,4261.538357,4244.615281,4233.33323,4237.948614,4292.307587
53,0,4318.461433,4244.615281,4248.205024,4267.692203,4224.102461,4219.999897,4223.58964,4216.922974,4233.33323,4256.410152,4252.307588,4246.666563,4254.871691,4315.89733
54,0,4363.076816,4268.717844,4259.999896,4294.87169,4205.640923,4219.487076,4216.410153,4218.974256,4231.794768,4249.230665,4267.179383,4266.666562,4287.692203,4371.281944
55,0,4416.922969,4286.153741,4271.281947,4298.974254,4196.410154,4217.435794,4216.922974,4215.384512,4233.33323,4248.205024,4259.487075,4270.769126,4274.87169,4412.307584
56,0,4468.205019,4297.435792,4284.61528,4302.051177,4207.179384,4214.358871,4217.435794,4215.384512,4231.794768,4241.538358,4262.051178,4284.61528,4265.128101,4458.461429
57,0,4514.871684,4299.487074,4296.410151,4309.743484,4202.564,4210.769128,4213.846051,4216.410153,4230.256307,4241.538358,4286.666562,4313.333228,4302.051177,4517.948607
58,0,4536.922966,4288.717844,4298.974254,4302.051177,4189.230667,4213.33323,4212.82041,4214.358871,4239.487076,4251.794768,4288.205023,4325.64092,4319.999894,4545.128094
59,0,4518.974248,4279.999895,4292.820408,4293.333228,4183.589641,4212.82041,4213.846051,4205.128102,4228.717845,4236.922973,4277.435793,4315.89733,4302.563997,4532.820402
60,0,4488.205018,4282.563998,4288.205023,4297.948613,4189.230667,4208.717846,4216.410153,4199.487077,4198.461436,4213.846051,4278.974254,4307.179382,4291.281946,4507.692197
61,0,4469.23066,4282.051177,4285.1281,4289.230664,4205.640923,4214.871692,4221.025538,4206.153743,4205.640923,4226.666563,4273.846049,4301.538356,4286.153741,4472.307583
62,0,4444.615276,4265.128101,4273.333229,4267.692203,4215.384512,4223.58964,4222.051179,4215.897333,4242.563999,4255.897332,4265.128101,4290.769126,4276.922972,4434.871686
63,0,4410.256302,4252.307588,4256.922973,4261.538357,4213.33323,4219.487076,4218.461435,4213.846051,4241.025537,4251.794768,4261.025537,4276.922972,4268.205024,4407.179379
64,0,4376.92297,4247.179383,4247.179383,4256.922973,4206.153743,4215.897333,4215.384512,4204.102461,4217.435794,4229.230666,4245.640922,4262.563998,4257.435793,4375.384508
65,0,4347.692201,4235.897332,4240.512717,4242.051178,4199.487077,4218.461435,4209.230666,4199.999897,4219.999897,4221.538358,4231.794768,4244.10246,4243.076819,4341.025535
66,0,4325.64092,4222.563999,4229.743486,4229.743486,4205.640923,4212.307589,4200.512718,4197.948615,4216.922974,4219.487076,4231.794768,4226.666563,4233.33323,4322.563997
67,0,4310.256305,4216.922974,4226.153743,4228.205025,4219.487076,4204.615282,4201.538359,4197.948615,4202.051179,4221.025538,4231.794768,4224.102461,4231.794768,4310.769125
68,0,4297.435792,4218.461435,4233.84605,4232.307589,4221.025538,4206.666564,4207.179384,4202.564,4217.435794,4228.205025,4230.769127,4234.871691,4236.410153,4298.974254
69,0,4279.999895,4213.33323,4230.769127,4230.769127,4203.07682,4206.666564,4204.102461,4203.07682,4238.461435,4234.358871,4223.07682,4235.384512,4229.230666,4284.61528
70,0,4262.563998,4203.589641,4217.435794,4227.692204,4192.30759,4198.974256,4205.128102,4197.435795,4221.538358,4227.179384,4204.615282,4216.410153,4216.410153,4264.10246
71,0,4246.153742,4199.487077,4213.33323,4230.769127,4198.461436,4198.974256,4213.33323,4195.897333,4205.128102,4206.666564,4197.948615,4201.025538,4212.307589,4242.563999
72,0,4234.871691,4197.948615,4213.33323,4232.820409,4207.179384,4210.769128,4216.922974,4202.564,4220.512717,4206.666564,4200.512718,4202.051179,4201.538359,4228.205025
73,0,4231.281948,4196.410154,4207.179384,4229.743486,4203.589641,4218.461435,4216.410153,4209.743487,4229.230666,4212.307589,4199.487077,4198.974256,4189.743487,4218.974256
74,0,4227.179384,4194.871692,4202.564,4235.897332,4193.333231,4217.948615,4217.948615,4214.871692,4215.384512,4199.999897,4196.410154,4188.717846,4194.358872,4208.205025
75,0,4217.435794,4194.871692,4203.589641,4250.256306,4192.30759,4215.384512,4223.07682,4217.948615,4212.82041,4208.717846,4198.461436,4190.256308,4202.564,4204.615282
76,0,4209.743487,4195.384513,4207.179384,4251.794768,4205.128102,4215.384512,4226.666563,4217.948615,4228.205025,4236.410153,4206.153743,4200.512718,4204.615282,4211.794769
77,0,4212.82041,4202.564,4213.846051,4244.615281,4218.461435,4218.461435,4222.563999,4217.948615,4238.461435,4237.435794,4213.846051,4203.589641,4212.82041,4214.358871
78,0,4217.435794,4206.666564,4215.897333,4246.666563,4214.871692,4214.871692,4214.358871,4214.871692,4228.717845,4227.692204,4207.179384,4198.974256,4214.871692,4204.615282
79,0,4217.948615,4204.102461,4211.281948,4252.820409,4206.666564,4213.33323,4219.999897,4212.82041,4215.897333,4230.769127,4203.07682,4198.461436,4205.128102,4203.589641
80,0,4214.358871,4205.128102,4213.846051,4248.205024,4212.82041,4226.153743,4234.358871,4218.461435,4221.025538,4223.58964,4210.769128,4197.948615,4203.07682,4207.692205
81,0,4202.051179,4203.589641,4212.82041,4230.256307,4215.384512,4230.256307,4228.717845,4218.974256,4227.179384,4211.281948,4206.666564,4189.230667,4198.461436,4190.256308
82,0,4195.897333,4199.999897,4202.051179,4214.871692,4215.384512,4221.025538,4219.999897,4216.410153,4226.666563,4221.025538,4196.410154,4181.025539,4194.358872,4180.512718
83,0,4197.435795,4205.640923,4202.051179,4215.384512,4221.025538,4222.051179,4228.205025,4225.128102,4238.461435,4231.794768,4201.025538,4182.564,4205.640923,4198.974256
84,0,4199.487077,4214.358871,4213.33323,4217.435794,4228.205025,4232.820409,4233.84605,4232.820409,4250.769127,4235.897332,4207.179384,4194.358872,4215.897333,4207.179384
85,0,4208.205025,4215.384512,4217.948615,4211.281948,4231.281948,4235.897332,4230.256307,4232.307589,4251.794768,4254.35887,4214.871692,4204.102461,4221.538358,4198.461436
86,0,4214.871692,4217.435794,4215.384512,4212.82041,4227.692204,4234.358871,4231.794768,4238.974255,4251.281947,4265.640921,4231.281948,4207.179384,4229.743486,4206.666564
87,0,4208.717846,4217.435794,4213.33323,4219.487076,4228.717845,4234.871691,4234.358871,4244.615281,4251.281947,4247.179383,4227.692204,4205.640923,4225.640922,4215.384512
88,0,4201.025538,4205.640923,4210.769128,4207.692205,4232.820409,4231.281948,4229.230666,4236.410153,4244.615281,4233.84605,4208.717846,4198.974256,4214.358871,4199.487077
89,0,4201.025538,4199.487077,4204.615282,4194.358872,4234.358871,4227.692204,4228.205025,4227.179384,4235.384512,4239.487076,4205.640923,4188.717846,4210.769128,4186.153744
90,0,4200.512718,4203.07682,4199.487077,4205.640923,4233.84605,4229.230666,4232.307589,4222.051179,4230.769127,4229.230666,4208.205025,4181.538359,4207.179384,4186.153744
91,0,4195.384513,4202.051179,4198.461436,4216.922974,4230.256307,4233.84605,4232.307589,4222.051179,4229.743486,4217.948615,4201.538359,4181.538359,4201.025538,4183.589641
92,0,4185.640923,4200.512718,4197.948615,4214.871692,4225.640922,4234.871691,4232.307589,4227.692204,4231.794768,4228.205025,4193.333231,4181.538359,4201.538359,4179.999898
93,0,4180.512718,4205.128102,4195.897333,4215.384512,4227.179384,4232.307589,4232.307589,4230.256307,4239.487076,4237.948614,4198.974256,4181.538359,4207.179384,4182.564
94,0,4184.102462,4205.640923,4197.435795,4207.179384,4229.230666,4231.281948,4222.563999,4230.256307,4251.281947,4242.051178,4209.743487,4182.05118,4213.846051,4185.128103
95,0,4184.102462,4203.07682,4197.435795,4188.717846,4226.153743,4229.743486,4213.846051,4232.820409,4254.871691,4256.410152,4209.743487,4183.076821,4216.922974,4179.487077
96,0,4186.666564,4208.205025,4198.974256,4184.102462,4229.743486,4228.205025,4223.07682,4231.281948,4250.256306,4259.487075,4204.615282,4183.589641,4215.897333,4180.512718
97,0,4190.769128,4213.846051,4201.538359,4189.230667,4233.33323,4228.717845,4232.307589,4229.743486,4247.179383,4250.256306,4214.358871,4186.153744,4217.948615,4194.358872
98,0,4186.666564,4215.384512,4197.948615,4187.179385,4230.769127,4233.33323,4229.743486,4235.384512,4253.333229,4254.35887,4222.563999,4190.256308,4220.512717,4195.384513
99,0,4184.102462,4213.33323,4193.333231,4185.640923,4238.974255,4235.897332,4229.743486,4235.897332,4254.35887,4250.769127,4208.717846,4184.615282,4216.922974,4184.615282
100,0,4187.692205,4207.692205,4194.871692,4185.640923,4248.717845,4230.769127,4231.281948,4224.615281,4236.922973,4228.717845,4194.871692,4171.79477,4206.153743,4185.640923
101,0,4187.179385,4200.512718,4198.974256,4185.128103,4247.692204,4227.692204,4230.769127,4222.563999,4226.153743,4225.128102,4196.410154,4172.30759,4197.435795,4187.179385
102,0,4179.487077,4198.461436,4196.410154,4185.128103,4238.974255,4230.256307,4231.281948,4230.256307,4233.33323,4234.871691,4195.897333,4177.948616,4194.358872,4170.256308
103,0,4169.743488,4196.922974,4189.230667,4189.230667,4220.512717,4230.769127,4232.820409,4229.743486,4234.358871,4221.538358,4189.230667,4172.820411,4187.179385,4161.025539
104,0,4171.281949,4195.897333,4192.82041,4195.897333,4211.281948,4230.256307,4232.307589,4224.102461,4225.128102,4208.717846,4194.871692,4172.820411,4188.717846,4178.974257
105,0,4180.512718,4201.025538,4204.102461,4194.358872,4230.256307,4227.692204,4229.743486,4223.07682,4227.692204,4225.640922,4211.794769,4185.128103,4207.179384,4191.281949
106,0,4190.256308,4205.128102,4208.717846,4191.281949,4251.281947,4225.640922,4229.230666,4227.179384,4242.563999,4241.538358,4217.948615,4191.281949,4218.461435,4191.281949
107,0,4197.948615,4202.564,4203.07682,4196.410154,4246.153742,4227.179384,4231.281948,4230.769127,4249.230665,4243.076819,4214.871692,4187.692205,4213.33323,4194.358872
108,0,4195.384513,4201.538359,4201.025538,4198.461436,4237.948614,4229.743486,4230.256307,4232.307589,4246.153742,4246.666563,4213.846051,4187.179385,4211.281948,4193.846051
109,0,4185.128103,4201.025538,4206.666564,4194.871692,4235.897332,4229.230666,4229.230666,4231.281948,4245.640922,4241.025537,4214.358871,4187.692205,4213.846051,4188.205026
110,0,4190.769128,4201.538359,4211.794769,4200.512718,4226.666563,4231.794768,4233.84605,4231.281948,4251.794768,4231.281948,4213.33323,4188.205026,4212.82041,4196.410154
111,0,4205.640923,4209.230666,4208.717846,4205.640923,4230.769127,4233.84605,4235.897332,4231.281948,4242.563999,4242.563999,4210.769128,4187.179385,4213.33323,4203.589641
112,0,4199.999897,4216.410153,4199.487077,4199.999897,4245.128101,4231.281948,4227.179384,4229.743486,4231.794768,4253.333229,4208.205025,4181.538359,4214.358871,4188.717846
113,0,4186.666564,4215.384512,4199.487077,4198.974256,4244.10246,4232.307589,4224.102461,4230.769127,4241.538358,4246.666563,4211.281948,4181.538359,4215.384512,4187.692205
114,0,4189.743487,4214.871692,4206.153743,4208.717846,4237.435794,4233.33323,4229.230666,4231.794768,4245.640922,4247.692204,4216.922974,4187.692205,4216.922974,4204.615282
115,0,4200.512718,4216.410153,4209.743487,4217.948615,4229.743486,4230.256307,4229.230666,4230.256307,4226.666563,4249.230665,4216.922974,4194.358872,4218.461435,4201.025538
116,0,4201.025538,4214.358871,4212.307589,4217.435794,4218.974256,4228.205025,4226.153743,4227.692204,4222.563999,4232.820409,4214.358871,4199.487077,4217.435794,4196.922974
117,0,4199.999897,4213.846051,4217.435794,4214.358871,4225.128102,4230.256307,4227.692204,4230.256307,4243.076819,4234.358871,4216.922974,4202.051179,4216.410153,4214.871692
118,0,4204.615282,4215.384512,4214.871692,4216.410153,4245.128101,4232.307589,4228.717845,4232.307589,4243.58964,4250.769127,4215.897333,4199.999897,4217.948615,4221.538358
119,0,4201.538359,4214.358871,4208.205025,4216.922974,4246.666563,4234.871691,4229.230666,4228.717845,4228.717845,4250.256306,4210.769128,4198.461436,4217.435794,4202.564
120,0,4203.589641,4216.922974,4213.846051,4218.974256,4233.84605,4236.410153,4231.281948,4228.205025,4233.84605,4247.179383,4214.358871,4201.025538,4215.897333,4197.435795
121,0,4212.82041,4219.487076,4221.025538,4213.33323,4228.205025,4230.256307,4230.256307,4231.794768,4245.640922,4248.205024,4217.948615,4202.051179,4213.846051,4207.692205
122,0,4208.205025,4215.384512,4218.974256,4203.07682,4237.948614,4227.692204,4230.256307,4235.897332,4244.615281,4248.717845,4207.692205,4199.999897,4212.307589,4206.666564
123,0,4199.487077,4212.82041,4217.435794,4204.102461,4251.794768,4234.871691,4233.84605,4239.487076,4238.974255,4248.717845,4200.512718,4198.974256,4213.33323,4198.461436
124,0,4201.538359,4213.846051,4218.974256,4196.410154,4250.769127,4235.897332,4235.384512,4236.922973,4235.897332,4239.999896,4204.615282,4198.461436,4215.384512,4205.640923
125,0,4203.07682,4208.205025,4217.948615,4179.487077,4246.666563,4231.281948,4230.256307,4230.256307,4233.84605,4236.410153,4207.179384,4199.999897,4215.897333,4215.384512
126,0,4201.538359,4201.025538,4216.410153,4186.153744,4245.128101,4231.281948,4222.051179,4228.205025,4232.820409,4249.230665,4203.589641,4198.974256,4214.358871,4206.666564
127,0,4201.025538,4204.102461,4216.410153,4210.769128,4229.743486,4228.205025,4220.512717,4228.205025,4227.179384,4250.256306,4202.051179,4192.30759,4213.33323,4195.897333
128,0,4195.384513,4206.153743,4217.435794,4219.487076,4227.692204,4225.128102,4228.717845,4229.743486,4227.692204,4241.025537,4201.538359,4188.205026,4215.384512,4197.435795
0,0,4197.435795,4205.640923,4216.922974,4219.999897,4242.563999,4228.717845,4229.743486,4231.281948,4231.794768,4242.563999,4199.487077,4191.794769,4215.384512,4202.564
1,0,4197.435795,4201.538359,4212.82041,4218.974256,4238.461435,4228.717845,4222.051179,4230.256307,4230.769127,4248.205024,4199.487077,4199.487077,4209.230666,4199.487077
2,0,4178.974257,4184.102462,4207.692205,4203.589641,4228.717845,4225.640922,4222.563999,4231.281948,4233.84605,4244.615281,4198.974256,4197.948615,4199.487077,4188.205026
3,0,4186.666564,4190.256308,4209.743487,4196.410154,4234.871691,4229.743486,4223.07682,4228.205025,4231.281948,4235.897332,4195.897333,4193.846051,4197.435795,4190.256308
4,0,4230.256307,4225.640922,4221.025538,4206.666564,4231.281948,4229.230666,4216.410153,4218.461435,4227.692204,4233.33323,4195.897333,4197.435795,4203.07682,4215.384512
5,0,4252.820409,4239.487076,4229.743486,4215.897333,4227.179384,4219.487076,4212.307589,4214.871692,4229.743486,4237.435794,4202.051179,4201.025538,4207.179384,4231.281948
6,0,4252.307588,4235.897332,4229.743486,4221.538358,4241.025537,4217.435794,4213.846051,4216.922974,4223.58964,4232.307589,4199.487077,4198.461436,4199.487077,4226.153743
7,0,4262.563998,4247.692204,4228.717845,4234.358871,4234.871691,4219.487076,4214.358871,4216.410153,4225.128102,4227.692204,4190.769128,4199.999897,4186.153744,4229.230666
8,0,4274.35887,4255.384511,4232.820409,4244.615281,4212.307589,4218.461435,4214.358871,4217.435794,4233.33323,4237.435794,4187.692205,4212.307589,4181.538359,4236.922973
9,0,4273.846049,4247.692204,4235.897332,4243.58964,4217.948615,4218.974256,4216.922974,4215.897333,4209.743487,4227.692204,4190.769128,4215.897333,4182.564,4232.820409
10,0,4268.717844,4247.179383,4232.820409,4243.58964,4232.820409,4215.897333,4216.410153,4213.33323,4193.333231,4206.666564,4191.794769,4207.179384,4182.564,4229.230666
11,0,4265.640921,4248.205024,4230.769127,4247.179383,4228.717845,4213.33323,4217.948615,4222.563999,4224.102461,4219.999897,4187.692205,4203.589641,4182.564,4232.307589
12,0,4258.974255,4245.128101,4231.281948,4248.205024,4218.461435,4217.435794,4224.102461,4229.743486,4232.820409,4241.025537,4189.230667,4204.615282,4182.05118,4230.769127
13,0,4252.820409,4243.58964,4232.307589,4246.153742,4212.307589,4222.563999,4226.153743,4227.179384,4210.769128,4235.897332,4189.230667,4202.564,4178.461436,4218.461435
14,0,4255.897332,4247.179383,4231.281948,4247.179383,4220.512717,4220.512717,4218.461435,4225.128102,4217.948615,4234.358871,4183.076821,4201.025538,4179.487077,4212.307589
15,0,4258.461434,4246.666563,4228.717845,4244.615281,4229.230666,4216.410153,4214.358871,4223.58964,4238.461435,4246.153742,4189.743487,4203.589641,4184.615282,4218.461435
16,0,4248.717845,4233.84605,4228.717845,4235.384512,4221.025538,4215.897333,4216.922974,4221.025538,4236.922973,4249.743486,4201.538359,4203.589641,4179.487077,4221.025538
17,0,4242.051178,4234.358871,4231.794768,4234.358871,4213.846051,4222.563999,4217.435794,4221.538358,4223.58964,4243.076819,4195.384513,4202.564,4170.256308,4216.410153
18,0,4245.640922,4242.051178,4229.230666,4236.922973,4202.051179,4223.58964,4215.897333,4225.640922,4221.538358,4236.410153,4186.153744,4198.974256,4169.230667,4212.82041
19,0,4246.666563,4232.820409,4224.102461,4230.769127,4182.05118,4215.384512,4213.33323,4227.692204,4227.692204,4234.871691,4186.153744,4195.384513,4169.230667,4214.358871
20,0,4248.205024,4232.307589,4226.666563,4227.179384,4183.589641,4218.461435,4213.33323,4223.58964,4231.281948,4246.666563,4185.128103,4197.948615,4170.256308,4217.948615
21,0,4249.743486,4247.179383,4232.307589,4236.410153,4192.82041,4228.717845,4218.974256,4217.948615,4229.743486,4249.743486,4193.846051,4200.512718,4182.05118,4218.974256
22,0,4245.640922,4244.10246,4235.384512,4238.461435,4183.589641,4225.640922,4219.999897,4217.435794,4220.512717,4230.256307,4201.025538,4199.487077,4187.179385,4217.435794
23,0,4239.487076,4229.743486,4227.179384,4219.487076,4176.922975,4216.410153,4214.358871,4218.461435,4213.846051,4229.230666,4189.743487,4199.999897,4174.871693,4215.384512
24,0,4234.358871,4230.769127,4218.974256,4201.025538,4181.538359,4215.897333,4213.33323,4216.922974,4226.153743,4251.281947,4188.717846,4201.025538,4170.256308,4213.846051
25,0,4235.897332,4231.794768,4222.051179,4201.538359,4191.794769,4219.999897,4217.948615,4217.948615,4234.358871,4252.307588,4203.589641,4202.564,4186.153744,4215.897333
26,0,4233.84605,4222.563999,4221.025538,4201.538359,4199.999897,4218.974256,4218.974256,4218.461435,4215.897333,4232.820409,4198.461436,4197.948615,4189.230667,4213.33323
27,0,4219.999897,4215.384512,4213.33323,4183.076821,4189.743487,4214.871692,4215.897333,4213.846051,4205.640923,4227.692204,4184.102462,4188.205026,4173.846052,4203.589641
28,0,4210.256307,4211.281948,4210.769128,4166.153744,4184.102462,4212.82041,4214.871692,4212.307589,4219.487076,4231.281948,4183.589641,4184.102462,4167.692206,4195.897333
29,0,4214.358871,4210.256307,4209.743487,4165.640924,4193.333231,4214.871692,4217.435794,4218.461435,4232.820409,4233.84605,4184.102462,4186.153744,4172.30759,4193.333231
30,0,4218.974256,4213.33323,4206.153743,4166.153744,4193.846051,4216.922974,4216.922974,4222.563999,4229.230666,4236.922973,4183.589641,4185.128103,4172.820411,4197.435795
31,0,4219.487076,4212.307589,4209.743487,4166.666565,4192.82041,4212.82041,4209.230666,4217.948615,4214.358871,4227.692204,4187.692205,4185.128103,4174.871693,4201.025538
32,0,4215.897333,4204.102461,4215.897333,4166.153744,4199.487077,4203.589641,4201.538359,4212.82041,4214.358871,4220.512717,4187.179385,4186.666564,4178.974257,4194.871692
33,0,4204.102461,4198.461436,4210.769128,4159.487078,4199.487077,4199.999897,4199.487077,4213.33323,4222.051179,4223.07682,4180.512718,4183.076821,4171.281949,4187.692205
34,0,4204.102461,4203.07682,4205.128102,4154.871693,4198.974256,4202.051179,4200.512718,4211.794769,4209.743487,4222.563999,4173.846052,4182.564,4168.717847,4190.256308
35,0,4212.82041,4203.07682,4201.538359,4153.333232,4196.410154,4203.589641,4199.487077,4203.589641,4190.769128,4210.256307,4171.281949,4181.538359,4174.358872,4189.743487
36,0,4207.692205,4198.461436,4197.435795,4148.717847,4186.666564,4204.102461,4201.538359,4202.564,4208.717846,4208.205025,4175.897334,4175.384513,4171.79477,4183.076821
37,0,4203.07682,4205.128102,4202.564,4147.692206,4191.281949,4204.615282,4204.102461,4209.743487,4230.256307,4227.179384,4179.999898,4179.999898,4173.846052,4188.717846
38,0,4213.846051,4214.871692,4211.794769,4148.205027,4212.307589,4202.564,4204.102461,4206.153743,4208.717846,4235.384512,4180.512718,4185.128103,4181.538359,4199.487077
39,0,4221.025538,4210.256307,4209.230666,4138.974258,4215.897333,4204.102461,4202.051179,4198.461436,4187.692205,4221.538358,4182.05118,4177.435795,4180.512718,4199.999897
40,0,4211.794769,4200.512718,4201.025538,4134.871694,4200.512718,4209.230666,4201.538359,4204.102461,4202.564,4212.307589,4183.589641,4174.871693,4175.897334,4194.871692
41,0,4202.564,4198.461436,4205.128102,4151.79477,4198.974256,4211.794769,4207.692205,4216.410153,4218.974256,4223.58964,4190.256308,4182.05118,4180.512718,4196.410154
42,0,4206.666564,4203.07682,4213.846051,4175.897334,4208.717846,4214.871692,4214.871692,4218.461435,4216.410153,4235.897332,4199.999897,4187.179385,4193.333231,4203.07682
43,0,4218.974256,4210.256307,4216.922974,4187.179385,4204.102461,4214.871692,4217.435794,4217.948615,4214.871692,4236.922973,4200.512718,4195.384513,4199.487077,4205.640923
44,0,4218.974256,4209.743487,4212.82041,4178.974257,4196.922974,4207.692205,4212.82041,4218.974256,4218.461435,4224.615281,4189.230667,4196.922974,4191.794769,4201.538359
45,0,4211.281948,4201.538359,4203.589641,4157.948616,4199.999897,4199.487077,4203.07682,4215.897333,4216.922974,4218.461435,4182.05118,4185.640923,4183.589641,4198.974256
46,0,4217.435794,4201.538359,4207.692205,4149.743488,4201.025538,4202.051179,4198.974256,4212.307589,4212.307589,4229.230666,4188.717846,4185.640923,4191.281949,4203.07682
47,0,4222.051179,4205.640923,4216.410153,4169.743488,4197.435795,4208.717846,4202.051179,4213.33323,4209.743487,4235.897332,4202.051179,4195.384513,4203.589641,4203.07682
48,0,4215.897333,4205.640923,4212.307589,4191.281949,4198.974256,4206.666564,4203.07682,4217.948615,4221.025538,4231.281948,4203.589641,4193.333231,4206.153743,4205.640923
49,0,4201.025538,4202.051179,4202.564,4181.538359,4202.051179,4201.025538,4198.974256,4213.846051,4223.07682,4214.358871,4185.128103,4179.487077,4188.717846,4199.999897
50,0,4194.358872,4197.435795,4199.487077,4169.743488,4201.538359,4201.538359,4199.999897,4206.666564,4201.025538,4203.589641,4176.922975,4174.358872,4176.922975,4188.205026
51,0,4209.230666,4198.461436,4201.538359,4180.512718,4198.974256,4205.128102,4206.153743,4210.769128,4198.461436,4224.102461,4198.461436,4190.769128,4206.153743,4208.717846
52,0,4218.974256,4200.512718,4204.102461,4176.922975,4199.999897,4203.589641,4206.153743,4217.948615,4220.512717,4242.051178,4216.922974,4207.692205,4236.410153,4237.948614
53,0,4207.179384,4192.82041,4198.461436,4152.307591,4202.564,4201.538359,4199.487077,4209.230666,4214.871692,4224.102461,4203.07682,4200.512718,4225.128102,4222.563999
54,0,4194.871692,4184.102462,4192.30759,4145.128104,4205.128102,4202.051179,4198.461436,4200.512718,4194.358872,4210.256307,4186.153744,4186.153744,4208.717846,4197.435795
55,0,4193.846051,4185.640923,4198.461436,4153.846052,4205.640923,4201.025538,4203.07682,4209.743487,4207.692205,4217.435794,4197.435795,4194.358872,4215.384512,4209.230666
56,0,4198.461436,4188.717846,4205.128102,4161.53836,4197.948615,4206.153743,4204.615282,4217.435794,4223.07682,4220.512717,4210.256307,4204.102461,4222.563999,4218.461435
57,0,4202.051179,4187.692205,4202.564,4169.230667,4191.794769,4210.769128,4202.564,4209.230666,4208.205025,4216.922974,4199.487077,4193.333231,4219.487076,4205.640923
58,0,4198.461436,4184.615282,4197.435795,4167.692206,4199.999897,4205.640923,4201.538359,4199.487077,4194.871692,4216.410153,4190.256308,4184.102462,4212.82041,4203.589641
59,0,4195.384513,4185.128103,4200.512718,4166.153744,4210.769128,4206.153743,4202.564,4202.564,4198.974256,4217.948615,4199.999897,4193.846051,4214.871692,4217.435794
60,0,4199.487077,4188.205026,4204.615282,4168.717847,4207.179384,4213.33323,4204.102461,4205.640923,4203.07682,4216.410153,4205.640923,4205.128102,4219.999897,4217.948615
61,0,4194.871692,4182.05118,4201.538359,4159.999898,4196.922974,4207.692205,4203.589641,4202.051179,4203.589641,4219.999897,4197.948615,4198.974256,4216.922974,4204.102461
62,0,4186.666564,4171.79477,4195.384513,4156.410155,4198.974256,4197.948615,4202.051179,4205.640923,4207.179384,4214.358871,4194.871692,4186.666564,4211.794769,4205.640923
63,0,4189.743487,4175.384513,4194.871692,4175.897334,4203.589641,4208.717846,4206.666564,4211.794769,4205.128102,4197.948615,4198.974256,4184.102462,4212.307589,4214.358871
64,0,4199.487077,4184.102462,4197.948615,4188.717846,4203.589641,4218.974256,4214.358871,4214.358871,4203.589641,4210.769128,4199.999897,4195.897333,4212.82041,4213.846051
65,0,4200.512718,4179.999898,4202.564,4177.948616,4204.102461,4209.743487,4212.307589,4215.384512,4210.256307,4236.922973,4203.07682,4202.564,4216.410153,4210.256307
66,0,4189.230667,4169.230667,4196.922974,4164.615283,4195.384513,4199.999897,4199.999897,4207.179384,4209.743487,4227.179384,4203.589641,4189.230667,4214.871692,4206.153743
67,0,4179.487077,4166.153744,4189.230667,4158.974257,4191.794769,4200.512718,4196.922974,4197.435795,4197.435795,4207.692205,4194.871692,4178.974257,4203.589641,4200.512718
68,0,4186.666564,4168.717847,4196.410154,4151.79477,4209.743487,4205.640923,4208.717846,4206.666564,4199.999897,4212.307589,4195.384513,4190.769128,4203.07682,4202.564
69,0,4194.358872,4168.717847,4204.615282,4146.666565,4216.922974,4205.128102,4212.82041,4213.846051,4212.307589,4211.281948,4198.974256,4198.974256,4212.307589,4206.666564
70,0,4189.230667,4166.153744,4199.487077,4157.948616,4203.07682,4201.025538,4206.666564,4199.999897,4201.025538,4198.974256,4196.410154,4190.256308,4213.33323,4202.051179
71,0,4183.076821,4164.615283,4194.358872,4169.230667,4197.435795,4199.999897,4205.128102,4199.999897,4195.897333,4204.615282,4197.948615,4187.692205,4211.794769,4204.102461
72,0,4184.615282,4166.153744,4196.922974,4168.205026,4202.051179,4201.538359,4209.230666,4212.307589,4212.82041,4214.871692,4196.410154,4193.846051,4209.230666,4205.640923
73,0,4191.794769,4169.743488,4201.538359,4168.717847,4208.717846,4203.07682,4211.281948,4206.666564,4210.769128,4215.897333,4193.846051,4191.281949,4204.615282,4198.461436
74,0,4194.871692,4169.230667,4201.538359,4170.769129,4212.82041,4201.538359,4210.769128,4204.102461,4198.461436,4215.897333,4198.974256,4182.564,4205.128102,4202.564
75,0,4190.256308,4166.153744,4197.948615,4159.487078,4204.102461,4198.974256,4213.846051,4215.384512,4206.153743,4210.769128,4203.07682,4187.179385,4211.794769,4213.33323
76,0,4187.692205,4168.205026,4198.974256,4152.820411,4199.999897,4206.666564,4214.358871,4221.025538,4220.512717,4209.230666,4202.051179,4199.487077,4215.897333,4213.33323
77,0,4191.281949,4165.128103,4203.07682,4159.487078,4201.538359,4212.82041,4209.230666,4218.461435,4225.128102,4225.640922,4201.025538,4198.461436,4212.307589,4211.281948
78,0,4189.230667,4157.948616,4196.410154,4167.179385,4192.82041,4205.128102,4201.538359,4212.307589,4217.948615,4230.769127,4193.846051,4189.230667,4207.692205,4212.82041
79,0,4186.666564,4162.564001,4190.769128,4175.384513,4195.897333,4200.512718,4203.589641,4206.666564,4203.589641,4217.435794,4194.358872,4191.794769,4212.307589,4213.33323
80,0,4198.974256,4172.30759,4198.461436,4184.615282,4205.640923,4203.07682,4215.897333,4211.281948,4202.564,4218.461435,4213.33323,4203.589641,4220.512717,4219.999897
81,0,4205.128102,4171.79477,4204.102461,4187.179385,4200.512718,4202.564,4215.384512,4215.897333,4217.948615,4226.666563,4216.410153,4204.102461,4219.487076,4225.128102
82,0,4196.410154,4167.692206,4199.999897,4180.512718,4198.461436,4200.512718,4205.128102,4204.615282,4215.897333,4220.512717,4202.051179,4196.922974,4214.871692,4212.82041
83,0,4195.897333,4167.692206,4197.948615,4176.922975,4199.487077,4200.512718,4201.538359,4199.487077,4202.051179,4212.82041,4196.410154,4195.384513,4213.33323,4205.128102
84,0,4209.743487,4169.743488,4203.589641,4185.128103,4193.846051,4199.487077,4204.615282,4198.974256,4198.461436,4205.128102,4199.487077,4199.487077,4212.307589,4217.435794
85,0,4215.897333,4176.410154,4205.128102,4192.82041,4195.897333,4199.999897,4202.051179,4191.794769,4194.358872,4197.948615,4202.564,4197.948615,4215.384512,4231.794768
86,0,4213.33323,4180.512718,4203.07682,4187.179385,4204.102461,4201.025538,4201.025538,4190.769128,4188.717846,4201.538359,4201.025538,4193.333231,4218.461435,4234.358871
87,0,4219.487076,4180.512718,4204.615282,4185.640923,4203.07682,4202.051179,4203.07682,4197.948615,4191.794769,4202.051179,4197.435795,4194.871692,4217.435794,4233.33323
88,0,4246.153742,4193.846051,4212.82041,4204.615282,4199.487077,4202.564,4198.974256,4198.461436,4198.461436,4201.025538,4205.128102,4204.615282,4226.153743,4250.769127
89,0,4282.563998,4212.307589,4227.179384,4218.974256,4202.564,4200.512718,4197.948615,4196.922974,4199.487077,4208.205025,4219.999897,4220.512717,4238.974255,4282.563998
90,0,4319.487074,4221.025538,4237.948614,4216.410153,4195.384513,4198.974256,4201.538359,4199.999897,4200.512718,4214.871692,4225.640922,4234.871691,4247.179383,4317.948612
91,0,4371.281944,4238.461435,4252.820409,4223.07682,4183.076821,4199.487077,4199.999897,4200.512718,4203.589641,4219.487076,4236.410153,4251.794768,4269.743485,4374.358867
92,0,4430.256302,4256.922973,4272.820408,4243.58964,4191.281949,4199.487077,4198.461436,4198.461436,4201.025538,4212.82041,4262.051178,4278.461434,4307.692202,4444.102455
93,0,4463.076814,4254.871691,4282.051177,4251.281947,4205.128102,4198.461436,4201.538359,4196.922974,4195.897333,4198.461436,4269.230665,4294.358869,4318.974253,4484.615275
94,0,4483.589634,4255.897332,4284.61528,4247.692204,4201.025538,4197.948615,4201.025538,4197.948615,4198.461436,4207.179384,4263.076819,4299.999895,4309.743484,4499.99989
95,0,4517.435787,4269.230665,4293.846049,4252.820409,4193.333231,4198.461436,4199.999897,4203.07682,4207.179384,4227.179384,4279.999895,4319.999894,4329.230663,4532.307581
96,0,4538.461427,4270.256306,4301.538356,4256.410152,4194.358872,4199.999897,4202.564,4201.538359,4203.589641,4225.128102,4294.87169,4333.333227,4352.820406,4563.589632
97,0,4531.28194,4263.076819,4295.38451,4247.692204,4188.717846,4199.999897,4198.974256,4191.281949,4187.692205,4215.897333,4283.076818,4319.487074,4339.487073,4560.512709
98,0,4517.948607,4258.461434,4284.102459,4232.820409,4183.076821,4196.922974,4191.281949,4185.128103,4185.128103,4215.897333,4271.794767,4308.205023,4323.589638,4543.076812
99,0,4512.307582,4257.435793,4283.076818,4226.666563,4195.897333,4193.846051,4188.205026,4184.102462,4186.666564,4207.179384,4269.743485,4310.769125,4327.179381,4536.410145
100,0,4514.358864,4265.128101,4294.358869,4233.84605,4206.666564,4193.333231,4189.230667,4182.05118,4184.102462,4201.538359,4262.051178,4311.794766,4322.563997,4534.358863
101,0,4507.692197,4264.10246,4294.87169,4237.435794,4205.128102,4201.538359,4194.358872,4184.102462,4195.384513,4212.82041,4257.435793,4305.64092,4308.717843,4522.051171
102,0,4486.666557,4247.692204,4279.999895,4224.102461,4199.999897,4203.589641,4198.461436,4188.717846,4197.948615,4212.82041,4261.025537,4298.974254,4308.717843,4499.487069
103,0,4477.948608,4245.128101,4274.87169,4221.538358,4193.846051,4189.743487,4196.922974,4186.666564,4178.461436,4197.948615,4262.051178,4295.38451,4313.333228,4481.538352
104,0,4477.435788,4253.333229,4279.999895,4235.897332,4191.794769,4186.153744,4195.384513,4184.102462,4180.512718,4198.461436,4257.948614,4294.87169,4310.769125,4474.871685
105,0,4455.384506,4246.666563,4275.384511,4232.820409,4208.205025,4199.999897,4198.974256,4191.281949,4203.07682,4215.384512,4256.410152,4292.820408,4308.717843,4461.538352
106,0,4428.20502,4235.384512,4268.205024,4217.435794,4221.538358,4205.128102,4202.051179,4198.974256,4195.897333,4213.33323,4263.076819,4284.102459,4313.846048,4437.435789
107,0,4409.743482,4234.358871,4261.538357,4214.358871,4207.179384,4198.461436,4200.512718,4197.948615,4182.564,4198.974256,4258.461434,4271.794767,4306.666561,4410.256302
108,0,4386.153739,4229.743486,4253.84605,4216.410153,4195.897333,4197.948615,4198.974256,4194.871692,4191.281949,4206.666564,4236.410153,4259.999896,4284.102459,4383.076816
109,0,4369.743483,4224.102461,4255.384511,4216.922974,4196.410154,4201.025538,4198.461436,4198.974256,4192.82041,4219.999897,4226.153743,4252.307588,4274.35887,4368.717842
110,0,4371.794765,4228.717845,4258.461434,4215.384512,4194.358872,4197.948615,4192.82041,4198.974256,4187.692205,4218.461435,4231.281948,4248.205024,4278.461434,4366.153739
111,0,4373.846047,4235.384512,4251.794768,4206.666564,4203.589641,4195.384513,4183.589641,4189.743487,4190.256308,4215.897333,4231.794768,4247.692204,4279.487075,4362.051175
112,0,4355.897329,4230.769127,4246.153742,4199.999897,4217.948615,4196.410154,4185.128103,4184.102462,4187.179385,4216.922974,4226.666563,4248.205024,4285.640921,4353.333227
113,0,4335.89733,4221.025538,4243.58964,4199.999897,4214.871692,4197.948615,4196.410154,4186.153744,4182.564,4216.922974,4229.230666,4242.051178,4294.358869,4343.589637
114,0,4324.102458,4214.358871,4234.358871,4190.256308,4204.102461,4198.974256,4200.512718,4192.82041,4193.846051,4224.615281,4233.33323,4232.820409,4285.640921,4326.15374
115,0,4311.281946,4215.384512,4229.743486,4178.461436,4205.640923,4199.999897,4201.025538,4200.512718,4202.051179,4231.794768,4229.743486,4230.256307,4274.87169,4304.615279
116,0,4294.358869,4216.410153,4235.897332,4181.025539,4203.589641,4199.999897,4206.153743,4211.281948,4209.230666,4239.999896,4229.230666,4233.84605,4278.974254,4294.358869
117,0,4277.435793,4205.640923,4233.33323,4179.999898,4198.974256,4199.487077,4206.153743,4216.922974,4215.384512,4244.10246,4234.358871,4231.794768,4282.051177,4289.743485
118,0,4259.999896,4195.384513,4224.102461,4171.281949,4202.051179,4201.025538,4198.974256,4214.358871,4205.640923,4237.435794,4233.84605,4225.128102,4274.87169,4273.846049
119,0,4248.205024,4197.435795,4225.128102,4168.717847,4203.07682,4199.999897,4202.564,4214.358871,4206.666564,4240.512717,4228.717845,4230.256307,4273.846049,4258.461434
120,0,4247.692204,4202.564,4230.256307,4169.230667,4202.051179,4202.051179,4212.82041,4218.461435,4212.82041,4251.281947,4231.794768,4236.410153,4279.999895,4260.512716
121,0,4238.974255,4200.512718,4222.563999,4170.769129,4200.512718,4210.769128,4209.743487,4217.435794,4206.153743,4248.717845,4234.871691,4226.666563,4273.333229,4252.307588
122,0,4218.461435,4197.435795,4213.846051,4174.871693,4191.281949,4214.871692,4202.051179,4210.769128,4205.128102,4241.025537,4226.153743,4207.692205,4262.563998,4231.281948
123,0,4216.922974,4200.512718,4219.999897,4177.948616,4187.692205,4214.358871,4209.230666,4213.846051,4216.922974,4245.128101,4221.025538,4202.564,4266.666562,4231.281948
124,0,4214.358871,4199.999897,4218.974256,4174.871693,4197.435795,4216.410153,4215.384512,4219.487076,4213.846051,4242.051178,4221.538358,4207.179384,4264.61528,4227.179384
125,0,4190.256308,4190.256308,4205.128102,4164.102462,4201.538359,4216.410153,4208.717846,4217.948615,4213.33323,4229.230666,4216.410153,4199.999897,4248.717845,4203.07682
126,0,4179.487077,4183.589641,4204.615282,4157.948616,4203.589641,4215.384512,4210.256307,4224.615281,4224.615281,4233.33323,4217.948615,4189.230667,4246.666563,4191.281949
127,0,4180.512718,4185.640923,4208.205025,4165.128103,4204.102461,4215.897333,4217.435794,4229.743486,4213.846051,4246.666563,4221.025538,4186.153744,4252.307588,4191.794769
128,0,4168.717847,4184.102462,4201.538359,4173.333231,4199.999897,4215.384512,4215.897333,4219.487076,4193.333231,4246.666563,4202.564,4185.640923,4246.666563,4179.487077
0,0,4164.102462,4181.538359,4199.999897,4174.871693,4202.051179,4214.358871,4215.384512,4220.512717,4201.538359,4244.10246,4180.512718,4187.179385,4244.10246,4170.769129
1,0,4166.666565,4185.640923,4206.153743,4172.30759,4203.07682,4215.897333,4218.461435,4236.410153,4221.025538,4252.307588,4177.435795,4186.666564,4243.076819,4172.30759
2,0,4150.256309,4181.538359,4198.974256,4161.53836,4198.461436,4214.358871,4215.384512,4234.358871,4215.384512,4248.205024,4176.922975,4178.461436,4233.33323,4163.076821
3,0,4134.871694,4174.358872,4186.153744,4157.435796,4201.538359,4215.897333,4213.33323,4217.435794,4193.846051,4229.743486,4171.281949,4169.230667,4226.666563,4149.743488
4,0,4133.333232,4175.897334,4182.05118,4165.640924,4203.589641,4216.922974,4210.769128,4213.33323,4198.974256,4226.666563,4168.205026,4167.179385,4228.205025,4149.230668
5,0,4132.820412,4176.410154,4184.102462,4167.692206,4205.128102,4218.974256,4209.230666,4218.974256,4219.999897,4242.051178,4174.358872,4168.717847,4231.281948,4152.307591
6,0,4138.974258,4179.487077,4189.230667,4165.128103,4215.384512,4226.153743,4215.384512,4216.410153,4213.33323,4244.615281,4185.640923,4167.179385,4234.871691,4150.769129
7,0,4142.051181,4183.076821,4188.717846,4168.205026,4217.948615,4226.153743,4212.307589,4202.564,4191.794769,4229.743486,4182.564,4156.922975,4230.769127,4151.79477
8,0,4134.871694,4177.435795,4185.640923,4170.769129,4212.307589,4216.922974,4205.128102,4201.538359,4195.384513,4229.230666,4169.230667,4152.820411,4219.487076,4148.205027
9,0,4134.871694,4169.743488,4187.179385,4171.79477,4205.640923,4215.384512,4212.307589,4215.897333,4209.230666,4228.205025,4171.79477,4164.615283,4217.948615,4138.974258
10,0,4135.897335,4167.179385,4185.640923,4165.640924,4193.846051,4216.922974,4218.461435,4217.948615,4201.025538,4216.922974,4174.358872,4168.205026,4218.461435,4137.948617
11,0,4136.410155,4169.743488,4183.076821,4160.512719,4197.948615,4213.846051,4212.82041,4211.281948,4192.82041,4229.743486,4172.30759,4161.53836,4216.410153,4150.256309
