title:JTA                                                                             , recorded:03.07.20 12.50.38, sampling:128, subject:JTA                                                                             , labels:COUNTER INTERPOLATED AF3 F7 F3 FC5 T7 P7 O1 O2 P8 T8 FC6 F4 F8 AF4,, units:emotiv,,,,,,,,,
91,0,4247.179383,4218.974256,4228.717845,4260.512716,4201.538359,4224.102461,4217.948615,4228.205025,4219.487076,4228.205025,4228.717845,4219.999897,4221.025538,4228.717845
92,0,4252.820409,4221.538358,4230.769127,4267.179383,4203.07682,4227.179384,4221.025538,4232.820409,4224.615281,4234.871691,4241.025537,4232.307589,4231.281948,4230.256307
93,0,4259.487075,4231.281948,4241.025537,4267.179383,4205.128102,4216.410153,4218.974256,4232.307589,4217.435794,4236.410153,4246.666563,4238.461435,4237.948614,4248.205024
94,0,4263.076819,4234.358871,4241.538358,4271.794767,4202.051179,4219.487076,4218.461435,4227.692204,4211.281948,4234.358871,4244.10246,4230.769127,4237.435794,4261.025537
95,0,4263.589639,4231.281948,4235.897332,4276.410152,4204.615282,4234.358871,4217.948615,4228.205025,4216.922974,4234.871691,4244.10246,4228.717845,4234.871691,4251.794768
96,0,4254.35887,4225.640922,4229.743486,4267.692203,4206.666564,4232.820409,4218.461435,4230.256307,4227.179384,4234.358871,4233.84605,4224.615281,4232.820409,4232.820409
97,0,4244.615281,4219.999897,4218.974256,4259.487075,4199.999897,4227.692204,4226.153743,4231.281948,4232.307589,4235.384512,4225.128102,4216.922974,4230.256307,4235.897332
98,0,4247.692204,4219.487076,4213.33323,4261.538357,4195.384513,4233.33323,4233.84605,4232.820409,4228.717845,4234.871691,4230.769127,4213.846051,4225.640922,4241.025537
99,0,4246.666563,4217.435794,4212.82041,4264.10246,4200.512718,4236.410153,4234.871691,4232.307589,4218.461435,4228.717845,4224.615281,4202.051179,4215.897333,4229.230666
100,0,4237.435794,4216.410153,4211.794769,4261.538357,4204.102461,4233.33323,4232.307589,4233.33323,4216.922974,4224.102461,4213.33323,4196.922974,4212.82041,4221.538358
101,0,4249.743486,4225.128102,4215.897333,4263.076819,4203.07682,4228.717845,4230.256307,4235.384512,4221.538358,4227.692204,4226.153743,4210.769128,4225.128102,4227.179384
102,0,4265.128101,4233.33323,4225.128102,4270.256306,4202.051179,4227.692204,4229.743486,4232.820409,4221.025538,4233.84605,4236.922973,4217.435794,4233.33323,4236.410153
103,0,4261.538357,4234.871691,4228.717845,4276.410152,4204.102461,4230.256307,4230.256307,4231.794768,4223.58964,4235.897332,4234.358871,4219.487076,4231.794768,4244.10246
104,0,4261.538357,4236.410153,4230.769127,4279.999895,4203.589641,4226.666563,4229.230666,4234.871691,4231.281948,4232.820409,4239.999896,4232.307589,4233.84605,4253.333229
105,0,4266.666562,4236.410153,4232.820409,4278.461434,4198.974256,4222.563999,4226.153743,4235.384512,4233.33323,4234.358871,4247.692204,4236.410153,4236.922973,4251.281947
106,0,4263.589639,4232.307589,4229.743486,4276.922972,4199.487077,4225.640922,4225.640922,4231.281948,4229.230666,4237.435794,4246.153742,4230.256307,4233.33323,4245.128101
107,0,4263.589639,4232.307589,4229.230666,4275.897331,4205.640923,4231.794768,4227.692204,4232.307589,4228.205025,4235.897332,4244.615281,4231.281948,4234.871691,4246.153742
108,0,4263.076819,4233.84605,4231.794768,4270.256306,4207.179384,4232.820409,4230.256307,4239.487076,4229.230666,4236.410153,4244.615281,4234.358871,4240.512717,4248.205024
109,0,4253.333229,4229.230666,4230.769127,4262.051178,4203.589641,4230.769127,4231.794768,4242.563999,4231.794768,4239.487076,4243.076819,4230.769127,4237.435794,4249.230665
110,0,4253.84605,4225.640922,4229.230666,4259.999896,4202.564,4230.256307,4231.794768,4243.58964,4233.33323,4235.384512,4246.666563,4232.820409,4234.358871,4248.205024
111,0,4264.61528,4230.769127,4234.358871,4264.10246,4204.102461,4228.717845,4229.743486,4242.563999,4230.256307,4230.256307,4249.230665,4235.384512,4235.897332,4247.179383
112,0,4263.076819,4233.33323,4232.820409,4265.640921,4203.07682,4226.153743,4229.230666,4238.461435,4229.743486,4233.84605,4243.58964,4226.153743,4236.410153,4242.051178
113,0,4250.769127,4220.512717,4218.461435,4258.461434,4199.999897,4223.58964,4231.281948,4233.84605,4226.153743,4233.33323,4233.33323,4213.846051,4229.743486,4230.256307
114,0,4244.10246,4212.82041,4210.769128,4256.410152,4198.974256,4221.025538,4231.281948,4231.794768,4222.051179,4228.205025,4226.666563,4212.82041,4225.640922,4229.743486
115,0,4252.820409,4226.153743,4223.07682,4269.743485,4206.153743,4222.051179,4228.717845,4233.84605,4229.230666,4232.820409,4232.820409,4222.563999,4235.384512,4248.717845
116,0,4265.128101,4234.871691,4233.33323,4281.538357,4215.384512,4229.230666,4230.256307,4235.384512,4233.84605,4235.384512,4240.512717,4227.692204,4242.051178,4260.512716
117,0,4272.820408,4232.307589,4229.230666,4278.974254,4214.871692,4234.871691,4233.33323,4234.358871,4223.58964,4232.820409,4243.076819,4225.128102,4238.461435,4254.871691
118,0,4288.717844,4236.410153,4229.230666,4275.384511,4207.179384,4228.205025,4230.769127,4228.205025,4212.307589,4229.230666,4245.640922,4226.666563,4243.076819,4269.230665
119,0,4319.999894,4244.615281,4241.538358,4279.999895,4202.051179,4216.922974,4227.692204,4227.692204,4213.33323,4223.07682,4249.743486,4238.461435,4256.922973,4308.205023
120,0,4370.256303,4261.538357,4258.974255,4288.717844,4201.025538,4215.897333,4230.769127,4232.820409,4216.410153,4219.999897,4259.487075,4258.461434,4267.179383,4354.871688
121,0,4441.025532,4290.769126,4282.051177,4294.358869,4202.051179,4218.461435,4234.358871,4233.84605,4216.410153,4226.666563,4279.999895,4282.051177,4287.179382,4422.051174
122,0,4506.666556,4306.666561,4300.512715,4297.948613,4209.230666,4220.512717,4234.358871,4237.435794,4224.102461,4232.307589,4296.922972,4303.589638,4310.769125,4484.102454
123,0,4554.871683,4307.692202,4311.281946,4304.615279,4216.410153,4223.07682,4234.358871,4246.666563,4234.358871,4234.358871,4299.999895,4319.999894,4316.410151,4517.435787
124,0,4600.512708,4315.89733,4322.563997,4312.820407,4216.922974,4224.102461,4237.435794,4247.692204,4236.410153,4235.384512,4300.512715,4332.307586,4314.871689,4560.512709
125,0,4630.256297,4325.128099,4331.281945,4311.794766,4214.358871,4216.922974,4232.820409,4233.33323,4221.538358,4226.153743,4299.487074,4339.999894,4315.89733,4590.256298
126,0,4641.025528,4327.179381,4327.692202,4309.230664,4214.871692,4211.794769,4218.974256,4217.948615,4201.538359,4214.358871,4291.794767,4334.871689,4310.769125,4577.948606
127,0,4647.179374,4329.230663,4329.230663,4313.846048,4211.794769,4212.307589,4213.846051,4214.358871,4198.461436,4208.205025,4283.076818,4322.051176,4300.512715,4579.999888
128,0,4632.307579,4319.999894,4331.794766,4307.179382,4205.128102,4208.205025,4218.461435,4216.410153,4204.102461,4202.564,4273.333229,4311.794766,4292.820408,4589.230657
0,0,4602.05117,4306.666561,4316.410151,4296.922972,4196.410154,4201.025538,4215.384512,4215.897333,4200.512718,4204.102461,4270.256306,4302.051177,4290.769126,4565.128093
1,0,4591.281939,4308.717843,4306.666561,4304.102459,4195.384513,4204.102461,4213.33323,4221.025538,4201.025538,4210.769128,4287.179382,4293.846049,4294.358869,4549.743478
2,0,4579.999888,4312.820407,4311.281946,4311.281946,4210.256307,4213.846051,4224.102461,4239.487076,4219.487076,4218.461435,4301.538356,4294.87169,4300.512715,4554.871683
3,0,4543.589632,4303.589638,4305.64092,4300.512715,4221.538358,4217.948615,4231.281948,4249.230665,4228.205025,4226.666563,4290.256305,4297.435792,4293.846049,4527.692197
4,0,4507.692197,4297.435792,4295.38451,4291.281946,4217.948615,4215.897333,4228.205025,4241.025537,4217.948615,4222.051179,4275.384511,4291.794767,4277.948613,4478.461429
5,0,4482.563993,4298.461433,4292.820408,4293.846049,4213.846051,4216.410153,4229.230666,4232.307589,4214.871692,4210.769128,4278.461434,4287.179382,4278.461434,4450.769122
6,0,4451.281942,4289.230664,4286.153741,4274.87169,4215.897333,4218.974256,4231.281948,4232.820409,4219.999897,4222.563999,4278.974254,4285.640921,4281.538357,4427.179379
7,0,4415.384507,4275.384511,4274.87169,4233.33323,4217.948615,4220.512717,4225.128102,4234.871691,4219.487076,4235.897332,4261.538357,4274.87169,4264.61528,4379.487072
8,0,4382.051175,4265.640921,4266.153742,4206.153743,4218.974256,4214.358871,4218.461435,4231.281948,4219.487076,4223.07682,4243.58964,4256.410152,4247.179383,4331.281945
9,0,4344.615278,4250.256306,4249.743486,4201.025538,4219.487076,4204.615282,4210.256307,4220.512717,4216.410153,4210.769128,4235.897332,4239.999896,4234.871691,4308.717843
10,0,4308.205023,4232.307589,4233.33323,4203.589641,4217.435794,4207.692205,4203.07682,4210.769128,4201.025538,4209.743487,4229.743486,4226.666563,4215.897333,4283.589639
11,0,4288.205023,4230.256307,4233.33323,4208.717846,4217.435794,4216.922974,4208.205025,4214.871692,4202.564,4211.281948,4227.692204,4218.461435,4214.358871,4251.794768
12,0,4271.281947,4236.410153,4234.871691,4215.897333,4217.948615,4217.948615,4217.948615,4228.205025,4224.102461,4214.358871,4232.307589,4218.461435,4221.538358,4238.461435
13,0,4244.10246,4231.794768,4222.051179,4218.461435,4217.948615,4214.871692,4223.58964,4238.974255,4232.307589,4216.410153,4226.153743,4213.33323,4206.153743,4221.025538
14,0,4224.615281,4219.487076,4211.281948,4217.435794,4224.615281,4216.922974,4231.281948,4245.640922,4235.897332,4223.58964,4211.794769,4204.102461,4196.922974,4194.358872
15,0,4216.922974,4214.871692,4212.307589,4215.897333,4231.281948,4226.666563,4237.435794,4248.717845,4245.640922,4233.84605,4214.358871,4204.102461,4212.307589,4182.564
16,0,4214.358871,4223.07682,4214.358871,4221.538358,4230.256307,4231.281948,4230.769127,4247.179383,4240.512717,4234.358871,4227.692204,4207.692205,4218.974256,4183.589641
17,0,4215.897333,4229.743486,4215.384512,4233.33323,4229.743486,4223.07682,4227.692204,4243.076819,4232.307589,4232.820409,4235.384512,4211.794769,4216.922974,4195.384513
18,0,4207.692205,4223.58964,4220.512717,4233.84605,4230.256307,4216.410153,4231.281948,4237.948614,4231.794768,4231.794768,4236.410153,4213.846051,4221.025538,4203.07682
19,0,4186.666564,4211.794769,4213.846051,4228.717845,4220.512717,4217.948615,4222.563999,4231.281948,4223.07682,4222.051179,4228.717845,4206.666564,4215.384512,4184.102462
20,0,4176.410154,4209.230666,4202.564,4230.769127,4213.846051,4216.410153,4213.846051,4228.205025,4211.794769,4211.281948,4216.410153,4193.846051,4202.564,4160.512719
21,0,4182.05118,4214.871692,4201.538359,4234.358871,4219.487076,4215.384512,4223.07682,4232.307589,4218.461435,4208.717846,4205.128102,4193.846051,4199.999897,4156.922975
22,0,4182.564,4216.410153,4204.102461,4236.410153,4212.82041,4219.999897,4234.871691,4233.84605,4231.794768,4217.435794,4198.461436,4199.999897,4198.974256,4151.28195
23,0,4170.256308,4213.33323,4204.102461,4236.410153,4208.717846,4218.974256,4231.794768,4232.820409,4233.33323,4230.256307,4203.07682,4195.897333,4197.435795,4146.153745
24,0,4168.717847,4215.384512,4204.102461,4232.820409,4224.102461,4218.974256,4230.256307,4239.999896,4233.84605,4232.307589,4217.435794,4192.30759,4206.666564,4162.564001
25,0,4179.487077,4214.871692,4202.051179,4239.487076,4226.666563,4224.102461,4235.384512,4251.794768,4246.666563,4230.769127,4229.743486,4196.922974,4217.948615,4173.333231
26,0,4172.820411,4205.640923,4201.025538,4230.256307,4216.922974,4223.07682,4234.871691,4249.230665,4250.256306,4235.897332,4227.179384,4201.538359,4216.410153,4162.05118
27,0,4151.28195,4198.461436,4195.897333,4179.999898,4222.051179,4216.922974,4227.179384,4235.384512,4233.33323,4234.358871,4217.435794,4200.512718,4206.153743,4152.820411
28,0,4151.79477,4198.974256,4190.256308,4145.640924,4229.743486,4215.384512,4218.974256,4232.820409,4229.743486,4228.717845,4212.307589,4201.025538,4201.025538,4159.487078
29,0,4167.692206,4199.487077,4193.846051,4161.025539,4225.128102,4215.384512,4216.922974,4236.410153,4235.384512,4232.307589,4216.410153,4197.435795,4203.589641,4171.281949
30,0,4172.30759,4201.538359,4199.999897,4178.461436,4223.58964,4215.384512,4219.999897,4234.358871,4232.307589,4234.871691,4224.102461,4191.794769,4211.794769,4170.769129
31,0,4171.79477,4204.102461,4200.512718,4177.948616,4228.717845,4218.461435,4221.025538,4235.384512,4239.487076,4233.84605,4230.256307,4207.692205,4216.410153,4156.410155
32,0,4170.769129,4204.102461,4203.07682,4182.564,4231.794768,4213.846051,4219.487076,4237.948614,4242.051178,4229.743486,4228.205025,4219.487076,4213.846051,4153.333232
33,0,4169.230667,4203.589641,4203.589641,4183.589641,4221.538358,4203.07682,4216.922974,4233.33323,4222.563999,4220.512717,4219.999897,4201.025538,4210.256307,4171.79477
34,0,4165.128103,4197.435795,4198.974256,4177.948616,4202.051179,4198.974256,4213.846051,4227.692204,4212.307589,4209.743487,4211.794769,4186.666564,4205.640923,4175.384513
35,0,4156.410155,4190.769128,4195.897333,4181.025539,4207.179384,4199.999897,4213.33323,4227.692204,4219.487076,4209.743487,4202.564,4196.410154,4200.512718,4160.512719
36,0,4153.846052,4196.410154,4197.948615,4185.640923,4229.230666,4205.128102,4215.897333,4229.743486,4218.974256,4212.307589,4204.615282,4204.615282,4199.999897,4151.79477
37,0,4159.999898,4203.07682,4198.974256,4185.640923,4228.717845,4210.769128,4217.435794,4232.820409,4220.512717,4212.82041,4216.922974,4196.922974,4202.564,4149.230668
38,0,4157.948616,4198.461436,4192.30759,4186.666564,4215.384512,4209.230666,4216.922974,4235.384512,4232.307589,4215.384512,4213.846051,4188.717846,4197.435795,4156.410155
39,0,4151.28195,4195.384513,4183.589641,4186.666564,4219.999897,4207.692205,4214.871692,4238.461435,4232.820409,4218.974256,4208.717846,4187.692205,4195.897333,4168.717847
40,0,4158.461437,4204.102461,4191.794769,4186.666564,4230.769127,4216.410153,4215.384512,4244.615281,4229.230666,4222.563999,4221.538358,4197.948615,4207.692205,4171.281949
41,0,4172.30759,4214.358871,4205.640923,4195.384513,4233.33323,4228.205025,4224.102461,4248.717845,4239.487076,4231.281948,4231.794768,4207.692205,4218.461435,4171.281949
42,0,4176.922975,4213.846051,4205.128102,4199.487077,4232.307589,4234.358871,4233.33323,4248.717845,4247.179383,4237.435794,4227.692204,4207.179384,4217.948615,4174.358872
43,0,4165.640924,4204.615282,4197.948615,4189.743487,4231.794768,4232.307589,4232.307589,4247.179383,4235.384512,4230.256307,4227.692204,4206.153743,4213.33323,4170.256308
44,0,4154.871693,4196.922974,4199.487077,4187.692205,4230.769127,4221.538358,4229.743486,4245.128101,4227.692204,4225.128102,4233.84605,4206.153743,4212.82041,4169.230667
45,0,4161.53836,4199.487077,4208.717846,4197.948615,4226.666563,4215.897333,4229.743486,4246.666563,4235.384512,4229.743486,4233.33323,4205.640923,4213.33323,4170.256308
46,0,4174.871693,4210.256307,4217.435794,4203.07682,4227.692204,4218.461435,4223.58964,4246.666563,4236.410153,4233.33323,4224.615281,4210.256307,4214.358871,4164.615283
47,0,4176.922975,4219.487076,4216.410153,4203.589641,4226.153743,4208.717846,4216.922974,4242.051178,4232.307589,4232.820409,4224.102461,4214.871692,4215.897333,4172.820411
48,0,4172.30759,4210.256307,4206.153743,4204.102461,4217.435794,4188.205026,4215.897333,4238.974255,4231.794768,4228.717845,4228.205025,4206.666564,4213.846051,4182.05118
49,0,4169.230667,4198.461436,4198.974256,4202.051179,4218.461435,4184.615282,4215.897333,4241.538358,4231.281948,4229.230666,4224.102461,4199.487077,4209.743487,4167.179385
50,0,4167.692206,4204.615282,4201.538359,4203.589641,4234.871691,4197.948615,4222.563999,4246.153742,4234.358871,4234.871691,4223.07682,4203.07682,4211.281948,4169.230667
51,0,4174.358872,4209.230666,4203.589641,4203.07682,4236.410153,4203.589641,4233.84605,4248.717845,4236.410153,4230.769127,4235.384512,4203.589641,4215.897333,4194.871692
52,0,4183.589641,4201.025538,4201.538359,4199.999897,4218.974256,4198.461436,4235.897332,4246.666563,4230.769127,4225.128102,4238.461435,4206.153743,4217.948615,4192.30759
53,0,4185.128103,4203.07682,4207.692205,4208.717846,4211.794769,4197.948615,4232.307589,4244.615281,4230.769127,4239.999896,4229.743486,4217.948615,4222.563999,4180.512718
54,0,4188.717846,4215.384512,4212.307589,4218.974256,4225.640922,4205.128102,4233.84605,4248.717845,4237.948614,4254.35887,4243.076819,4224.615281,4233.33323,4199.487077
55,0,4190.769128,4219.487076,4202.564,4215.384512,4235.897332,4201.025538,4232.307589,4248.205024,4236.922973,4246.153742,4255.897332,4216.410153,4233.84605,4207.179384
56,0,4176.922975,4211.281948,4194.871692,4211.794769,4222.563999,4186.153744,4227.692204,4237.435794,4221.025538,4227.692204,4232.307589,4206.153743,4218.974256,4184.102462
57,0,4172.30759,4206.666564,4199.487077,4217.948615,4212.82041,4184.102462,4226.153743,4230.256307,4214.871692,4217.948615,4214.871692,4203.589641,4205.640923,4179.487077
58,0,4186.666564,4207.692205,4201.538359,4218.974256,4227.179384,4191.794769,4220.512717,4231.281948,4223.07682,4216.922974,4222.563999,4205.128102,4203.07682,4193.333231
59,0,4188.717846,4210.769128,4197.948615,4216.922974,4234.871691,4192.30759,4216.922974,4231.794768,4224.102461,4217.435794,4220.512717,4199.999897,4206.153743,4188.717846
60,0,4185.128103,4219.487076,4196.410154,4225.128102,4232.307589,4194.871692,4223.58964,4229.743486,4219.999897,4222.051179,4218.461435,4196.922974,4213.33323,4182.564
61,0,4197.435795,4230.769127,4199.487077,4232.307589,4231.281948,4201.025538,4228.717845,4231.281948,4227.692204,4231.281948,4231.281948,4209.230666,4217.948615,4192.30759
62,0,4207.179384,4232.820409,4203.589641,4232.820409,4233.33323,4200.512718,4227.692204,4239.999896,4235.384512,4234.871691,4234.871691,4221.025538,4218.461435,4202.051179
63,0,4202.051179,4227.179384,4198.974256,4233.33323,4228.717845,4198.461436,4228.205025,4240.512717,4230.769127,4230.769127,4227.179384,4216.410153,4217.435794,4208.717846
64,0,4202.564,4226.666563,4194.871692,4233.33323,4219.487076,4197.435795,4231.281948,4233.33323,4229.230666,4233.84605,4234.358871,4214.358871,4217.435794,4211.281948
65,0,4214.871692,4230.769127,4199.999897,4231.794768,4226.666563,4199.999897,4231.794768,4238.461435,4233.33323,4235.897332,4247.179383,4225.640922,4223.58964,4215.384512
66,0,4226.153743,4231.794768,4204.102461,4240.512717,4249.743486,4205.128102,4234.358871,4246.153742,4232.820409,4233.84605,4252.307588,4228.717845,4234.358871,4226.666563
67,0,4226.666563,4231.281948,4202.051179,4248.205024,4253.84605,4204.102461,4236.410153,4236.410153,4227.692204,4234.871691,4250.256306,4217.948615,4235.897332,4226.153743
68,0,4223.58964,4230.769127,4194.871692,4239.487076,4235.384512,4198.974256,4229.230666,4226.153743,4217.948615,4230.256307,4238.974255,4211.281948,4228.717845,4219.487076
69,0,4224.615281,4227.179384,4189.743487,4226.666563,4228.717845,4198.974256,4221.025538,4228.717845,4216.410153,4220.512717,4228.205025,4210.769128,4225.128102,4222.563999
70,0,4237.435794,4225.640922,4200.512718,4226.153743,4232.307589,4197.948615,4227.692204,4230.769127,4227.179384,4213.846051,4229.230666,4212.82041,4225.640922,4232.820409
71,0,4278.974254,4248.205024,4221.538358,4241.025537,4232.820409,4198.461436,4233.33323,4231.794768,4234.871691,4215.384512,4239.999896,4224.615281,4230.769127,4256.922973
72,0,4336.41015,4277.435793,4231.794768,4257.948614,4232.820409,4197.435795,4222.051179,4229.230666,4225.640922,4219.999897,4247.692204,4242.563999,4252.307588,4310.256305
73,0,4380.512713,4284.102459,4238.974255,4268.717844,4229.230666,4189.230667,4212.307589,4222.563999,4214.358871,4222.051179,4258.974255,4254.35887,4275.384511,4375.384508
74,0,4422.051174,4282.051177,4254.871691,4276.922972,4231.794768,4190.769128,4217.948615,4227.179384,4224.102461,4223.07682,4275.384511,4265.640921,4283.076818,4426.666558
75,0,4466.666557,4292.820408,4268.717844,4285.1281,4228.717845,4199.999897,4220.512717,4234.871691,4236.922973,4230.256307,4281.025536,4277.435793,4290.256305,4463.076814
76,0,4494.358864,4299.999895,4276.410152,4284.61528,4217.948615,4200.512718,4217.435794,4226.666563,4228.205025,4234.871691,4281.538357,4283.076818,4298.461433,4489.230659
77,0,4511.281941,4301.025536,4281.538357,4282.563998,4220.512717,4197.435795,4215.384512,4213.846051,4210.769128,4223.58964,4278.974254,4281.025536,4292.820408,4505.640915
78,0,4516.410146,4297.435792,4276.922972,4282.051177,4226.666563,4195.384513,4215.897333,4212.82041,4209.230666,4212.307589,4278.461434,4278.974254,4286.666562,4507.179377
79,0,4505.128095,4287.179382,4268.205024,4272.820408,4224.615281,4194.871692,4217.435794,4224.102461,4219.487076,4219.999897,4287.692203,4291.281946,4297.948613,4494.358864
80,0,4494.871685,4286.153741,4268.717844,4264.61528,4226.153743,4195.384513,4217.948615,4229.230666,4219.487076,4220.512717,4290.769126,4300.512715,4300.512715,4482.051172
81,0,4477.435788,4285.1281,4265.640921,4263.589639,4220.512717,4189.230667,4216.922974,4221.025538,4206.666564,4203.07682,4276.922972,4286.153741,4282.563998,4474.871685
82,0,4462.051173,4280.512716,4263.589639,4266.153742,4207.179384,4180.512718,4215.384512,4220.512717,4210.256307,4209.743487,4271.794767,4270.769126,4275.384511,4476.922967
83,0,4463.589634,4286.153741,4275.897331,4268.205024,4209.230666,4183.589641,4218.461435,4232.820409,4234.871691,4238.974255,4285.1281,4280.512716,4287.692203,4468.717839
84,0,4441.025532,4282.563998,4274.35887,4264.61528,4214.358871,4188.205026,4219.999897,4237.948614,4238.974255,4235.897332,4286.153741,4285.1281,4287.692203,4433.846045
85,0,4385.640918,4258.461434,4246.666563,4248.717845,4206.153743,4182.564,4216.922974,4227.179384,4214.358871,4205.128102,4261.025537,4262.563998,4263.076819,4387.6922
86,0,4345.640919,4242.563999,4228.205025,4234.871691,4207.179384,4186.153744,4221.538358,4217.435794,4203.07682,4195.897333,4241.025537,4238.974255,4242.051178,4345.640919
87,0,4321.538356,4237.948614,4230.256307,4232.307589,4219.999897,4197.948615,4227.179384,4220.512717,4211.794769,4208.205025,4242.563999,4230.256307,4240.512717,4319.999894
88,0,4293.846049,4231.281948,4230.256307,4234.358871,4232.307589,4202.564,4227.179384,4232.820409,4223.58964,4223.07682,4251.281947,4227.692204,4250.256306,4311.281946
89,0,4284.102459,4238.461435,4226.666563,4239.487076,4241.538358,4209.743487,4228.717845,4238.461435,4236.922973,4235.897332,4251.281947,4222.051179,4257.948614,4297.948613
90,0,4277.435793,4244.10246,4214.358871,4240.512717,4239.999896,4216.410153,4226.666563,4232.820409,4231.794768,4234.358871,4244.10246,4214.871692,4252.307588,4271.794767
91,0,4251.281947,4232.820409,4197.948615,4228.717845,4226.666563,4207.179384,4216.922974,4229.743486,4216.410153,4226.666563,4242.563999,4209.743487,4245.128101,4257.435793
92,0,4233.84605,4228.717845,4204.102461,4222.051179,4219.487076,4198.461436,4220.512717,4232.307589,4224.102461,4229.743486,4254.871691,4217.948615,4248.205024,4261.538357
93,0,4232.820409,4236.410153,4218.461435,4229.743486,4221.025538,4202.051179,4233.33323,4237.435794,4237.435794,4237.435794,4267.692203,4231.794768,4252.307588,4257.435793
94,0,4220.512717,4235.897332,4212.82041,4232.307589,4215.897333,4202.051179,4229.230666,4236.410153,4232.820409,4237.948614,4263.076819,4229.230666,4248.205024,4237.948614
95,0,4199.487077,4231.794768,4201.025538,4223.07682,4212.82041,4198.974256,4217.435794,4231.794768,4229.743486,4234.871691,4249.743486,4214.871692,4239.487076,4213.33323
96,0,4184.615282,4228.717845,4197.435795,4218.974256,4231.281948,4200.512718,4213.846051,4234.358871,4237.435794,4231.281948,4240.512717,4202.051179,4228.205025,4194.871692
97,0,4165.128103,4218.461435,4185.128103,4218.974256,4247.179383,4201.538359,4211.794769,4230.769127,4237.435794,4228.717845,4225.128102,4185.128103,4215.384512,4178.974257
98,0,4146.666565,4213.846051,4168.205026,4214.358871,4239.487076,4210.256307,4212.307589,4217.948615,4226.153743,4229.743486,4205.128102,4164.102462,4206.153743,4157.435796
99,0,4143.589642,4217.435794,4166.666565,4214.358871,4235.897332,4216.410153,4215.384512,4216.922974,4219.487076,4230.256307,4204.102461,4168.717847,4205.128102,4138.974258
100,0,4145.640924,4218.974256,4177.948616,4221.025538,4247.179383,4212.82041,4215.897333,4227.692204,4225.128102,4228.205025,4225.128102,4191.794769,4211.794769,4144.102463
101,0,4149.230668,4223.07682,4190.256308,4218.461435,4250.256306,4213.846051,4221.538358,4233.84605,4232.307589,4231.281948,4245.128101,4201.025538,4224.615281,4169.743488
102,0,4162.05118,4233.84605,4199.487077,4215.384512,4244.615281,4213.846051,4232.820409,4235.384512,4230.769127,4239.999896,4250.769127,4207.179384,4236.410153,4184.615282
103,0,4172.30759,4238.461435,4205.128102,4226.666563,4237.435794,4201.538359,4232.307589,4236.410153,4231.281948,4249.230665,4248.717845,4217.435794,4237.435794,4190.256308
104,0,4171.281949,4235.384512,4207.692205,4230.256307,4228.717845,4190.769128,4218.974256,4234.358871,4234.871691,4251.794768,4246.666563,4210.256307,4234.871691,4196.410154
105,0,4169.230667,4235.384512,4208.205025,4221.025538,4233.33323,4193.846051,4214.358871,4237.948614,4242.563999,4249.230665,4251.794768,4200.512718,4239.999896,4195.384513
106,0,4169.230667,4236.410153,4205.640923,4219.999897,4249.743486,4200.512718,4217.435794,4247.692204,4257.948614,4256.410152,4257.948614,4208.205025,4241.538358,4181.538359
107,0,4154.871693,4234.358871,4195.897333,4222.563999,4254.871691,4211.794769,4219.487076,4250.769127,4269.230665,4270.256306,4252.307588,4208.717846,4234.358871,4165.128103
108,0,4134.871694,4228.205025,4185.128103,4216.922974,4249.743486,4227.692204,4223.58964,4247.692204,4265.128101,4259.487075,4240.512717,4198.461436,4226.666563,4162.05118
109,0,4133.846053,4219.487076,4178.974257,4209.743487,4252.820409,4237.948614,4228.717845,4246.666563,4252.820409,4233.33323,4233.84605,4195.384513,4223.07682,4165.128103
110,0,4134.871694,4215.897333,4172.30759,4204.615282,4257.948614,4237.435794,4232.307589,4245.128101,4247.179383,4237.435794,4229.230666,4183.589641,4215.384512,4155.897334
111,0,4124.102463,4214.358871,4166.666565,4198.974256,4245.640922,4228.205025,4231.794768,4238.974255,4242.563999,4252.820409,4216.922974,4169.743488,4205.128102,4136.410155
112,0,4118.974258,4205.640923,4170.769129,4198.974256,4230.769127,4219.999897,4225.640922,4230.256307,4229.230666,4233.33323,4212.307589,4174.871693,4199.999897,4134.871694
113,0,4127.692207,4198.974256,4180.512718,4200.512718,4231.794768,4212.307589,4216.922974,4224.615281,4219.487076,4208.717846,4221.538358,4183.589641,4198.974256,4148.717847
114,0,4142.564001,4209.743487,4190.256308,4201.538359,4243.58964,4205.640923,4214.871692,4226.153743,4228.717845,4221.538358,4235.384512,4194.358872,4206.153743,4161.025539
115,0,4156.922975,4223.58964,4202.051179,4204.102461,4248.205024,4203.589641,4219.999897,4232.820409,4244.615281,4246.153742,4243.58964,4211.794769,4222.051179,4175.897334
116,0,4161.025539,4223.58964,4207.179384,4206.153743,4241.025537,4203.07682,4222.563999,4238.461435,4246.153742,4249.743486,4247.179383,4216.922974,4231.281948,4186.666564
117,0,4154.358873,4217.435794,4203.07682,4205.128102,4233.33323,4200.512718,4222.563999,4243.076819,4247.179383,4246.666563,4249.743486,4211.281948,4224.102461,4182.564
118,0,4153.333232,4216.410153,4201.025538,4201.538359,4235.384512,4206.666564,4221.538358,4246.153742,4257.948614,4253.333229,4242.563999,4207.179384,4217.435794,4172.820411
119,0,4156.922975,4218.461435,4202.564,4204.102461,4237.435794,4211.794769,4218.974256,4240.512717,4258.461434,4247.692204,4232.307589,4204.615282,4218.974256,4168.717847
120,0,4162.05118,4218.461435,4196.922974,4216.922974,4231.281948,4205.128102,4216.922974,4231.281948,4244.615281,4226.666563,4230.769127,4201.538359,4217.948615,4169.743488
121,0,4155.897334,4214.871692,4187.179385,4215.384512,4229.743486,4207.692205,4215.897333,4230.769127,4243.076819,4227.179384,4233.33323,4190.769128,4212.82041,4171.79477
122,0,4131.794771,4205.128102,4184.102462,4201.538359,4234.871691,4215.897333,4216.410153,4232.820409,4245.640922,4241.538358,4227.179384,4183.076821,4204.102461,4162.564001
123,0,4122.564002,4199.487077,4184.102462,4204.615282,4235.384512,4215.384512,4222.563999,4232.307589,4236.922973,4237.948614,4220.512717,4190.256308,4199.487077,4152.820411
124,0,4135.384514,4205.640923,4184.615282,4213.33323,4231.794768,4214.871692,4232.820409,4234.871691,4228.717845,4225.640922,4219.487076,4190.256308,4198.461436,4151.79477
125,0,4140.512719,4210.256307,4189.743487,4212.307589,4227.179384,4218.974256,4236.922973,4242.051178,4229.743486,4223.58964,4212.307589,4181.538359,4197.948615,4145.128104
126,0,4141.53836,4214.871692,4202.051179,4219.487076,4225.128102,4216.922974,4234.358871,4249.743486,4244.10246,4231.794768,4215.384512,4192.30759,4204.102461,4150.769129
127,0,4161.025539,4226.666563,4211.281948,4229.743486,4232.307589,4215.897333,4233.84605,4250.256306,4259.487075,4244.615281,4235.897332,4205.128102,4216.922974,4180.512718
128,0,4178.461436,4231.794768,4208.205025,4229.230666,4235.897332,4219.487076,4228.717845,4241.025537,4257.435793,4250.256306,4249.743486,4203.589641,4221.025538,4194.871692
0,0,4169.743488,4226.153743,4199.999897,4229.230666,4227.692204,4215.384512,4221.538358,4234.358871,4248.205024,4244.615281,4240.512717,4206.666564,4217.435794,4180.512718
1,0,4153.846052,4226.666563,4199.487077,4232.820409,4232.820409,4214.871692,4224.615281,4233.84605,4247.179383,4240.512717,4228.717845,4209.230666,4216.410153,4177.435795
2,0,4150.769129,4233.33323,4204.102461,4231.281948,4253.84605,4227.179384,4233.33323,4236.410153,4250.769127,4241.025537,4231.794768,4203.07682,4217.948615,4179.999898
3,0,4161.53836,4230.256307,4199.999897,4232.307589,4259.487075,4231.794768,4234.871691,4235.384512,4246.666563,4237.435794,4233.33323,4197.435795,4217.948615,4171.79477
4,0,4158.461437,4215.897333,4187.179385,4229.743486,4242.051178,4221.025538,4231.794768,4230.769127,4232.307589,4217.435794,4226.666563,4189.230667,4208.717846,4165.128103
5,0,4139.487078,4203.589641,4179.999898,4217.435794,4224.102461,4213.846051,4230.256307,4227.692204,4224.102461,4202.564,4213.33323,4179.999898,4196.922974,4156.922975
6,0,4133.846053,4201.538359,4183.589641,4213.33323,4223.58964,4215.384512,4231.794768,4232.820409,4238.461435,4221.538358,4203.589641,4182.564,4196.922974,4152.820411
7,0,4137.948617,4202.564,4187.179385,4215.384512,4230.256307,4215.897333,4234.871691,4240.512717,4246.153742,4241.025537,4208.717846,4188.205026,4196.922974,4159.487078
8,0,4136.922976,4199.487077,4185.640923,4212.307589,4226.153743,4216.410153,4233.33323,4238.974255,4232.307589,4229.743486,4214.871692,4186.666564,4187.179385,4157.435796
9,0,4141.53836,4194.871692,4184.102462,4212.82041,4214.358871,4215.384512,4228.717845,4232.307589,4225.128102,4214.358871,4202.564,4179.999898,4181.538359,4138.461437
10,0,4151.28195,4196.922974,4182.564,4216.922974,4217.948615,4213.33323,4229.230666,4230.256307,4232.307589,4217.435794,4193.846051,4173.333231,4185.128103,4137.948617
11,0,4153.846052,4209.230666,4186.666564,4217.435794,4237.435794,4216.922974,4229.743486,4234.358871,4237.948614,4223.58964,4207.692205,4174.358872,4191.281949,4163.076821
12,0,4155.384514,4213.33323,4194.358872,4217.435794,4245.128101,4219.999897,4223.07682,4232.820409,4233.33323,4219.999897,4211.281948,4183.076821,4190.769128,4173.846052
13,0,4147.692206,4204.615282,4191.281949,4218.974256,4240.512717,4218.461435,4214.358871,4221.025538,4226.153743,4211.794769,4195.384513,4181.538359,4183.076821,4161.025539
14,0,4144.615283,4206.666564,4185.640923,4217.948615,4243.076819,4217.435794,4213.846051,4213.846051,4225.128102,4211.794769,4193.333231,4181.025539,4187.179385,4150.769129
15,0,4166.666565,4220.512717,4195.384513,4216.410153,4247.692204,4218.974256,4219.487076,4219.999897,4225.128102,4216.922974,4207.692205,4194.358872,4201.025538,4157.435796
16,0,4172.820411,4216.922974,4201.025538,4215.384512,4241.538358,4213.33323,4216.410153,4218.461435,4216.410153,4205.640923,4215.384512,4200.512718,4197.948615,4171.281949
17,0,4151.28195,4203.07682,4191.281949,4213.846051,4230.769127,4202.051179,4205.640923,4206.153743,4210.769128,4197.948615,4211.794769,4195.384513,4189.743487,4186.666564
18,0,4148.717847,4201.538359,4186.153744,4214.871692,4225.640922,4197.435795,4205.128102,4206.153743,4215.384512,4212.307589,4211.281948,4193.846051,4197.435795,4185.640923
19,0,4162.564001,4204.102461,4188.205026,4214.871692,4226.666563,4202.051179,4214.358871,4216.922974,4217.948615,4228.717845,4215.384512,4192.82041,4205.128102,4165.128103
20,0,4156.922975,4199.999897,4186.153744,4211.281948,4232.820409,4207.179384,4215.384512,4224.102461,4219.487076,4225.640922,4215.897333,4189.230667,4198.461436,4156.410155
21,0,4153.333232,4198.974256,4188.717846,4211.794769,4237.948614,4211.281948,4215.897333,4229.743486,4227.692204,4216.922974,4204.102461,4192.30759,4194.358872,4169.743488
22,0,4171.281949,4210.256307,4200.512718,4217.948615,4236.410153,4215.897333,4226.666563,4236.410153,4235.897332,4223.58964,4198.974256,4199.487077,4201.025538,4190.256308
23,0,4183.076821,4219.487076,4206.153743,4221.025538,4235.897332,4216.922974,4228.205025,4236.410153,4235.897332,4232.820409,4210.769128,4199.487077,4204.615282,4194.871692
24,0,4175.897334,4216.410153,4201.025538,4220.512717,4235.897332,4215.897333,4216.922974,4229.230666,4232.820409,4224.615281,4218.974256,4197.435795,4202.051179,4184.102462
25,0,4168.717847,4213.846051,4196.922974,4217.948615,4227.179384,4214.358871,4212.82041,4225.128102,4230.256307,4209.230666,4215.897333,4199.487077,4200.512718,4179.487077
26,0,4172.820411,4215.384512,4198.974256,4216.922974,4225.128102,4212.82041,4216.410153,4224.615281,4224.102461,4212.82041,4212.307589,4199.999897,4201.538359,4186.153744
27,0,4178.974257,4214.358871,4198.461436,4220.512717,4231.794768,4212.307589,4215.897333,4220.512717,4215.384512,4220.512717,4205.128102,4186.666564,4199.999897,4193.333231
28,0,4192.30759,4219.487076,4198.461436,4229.230666,4231.281948,4211.794769,4212.307589,4213.33323,4215.384512,4213.846051,4201.025538,4179.487077,4204.615282,4201.538359
29,0,4213.846051,4231.794768,4207.692205,4231.794768,4228.717845,4213.846051,4213.33323,4214.358871,4223.58964,4213.33323,4211.281948,4193.846051,4212.82041,4218.461435
30,0,4233.33323,4233.84605,4213.846051,4230.256307,4233.33323,4215.897333,4213.846051,4217.948615,4224.615281,4220.512717,4222.563999,4206.666564,4217.948615,4240.512717
31,0,4262.051178,4239.999896,4216.922974,4237.435794,4234.358871,4214.871692,4213.33323,4216.410153,4216.410153,4211.281948,4220.512717,4209.743487,4222.051179,4257.435793
32,0,4304.102459,4258.974255,4226.153743,4249.743486,4229.743486,4214.358871,4215.384512,4216.410153,4212.82041,4202.564,4220.512717,4222.563999,4226.666563,4282.051177
33,0,4344.615278,4269.230665,4236.922973,4250.769127,4228.717845,4216.922974,4217.435794,4218.974256,4216.922974,4215.897333,4232.307589,4243.076819,4243.076819,4334.358868
34,0,4378.974252,4271.794767,4245.128101,4249.743486,4227.179384,4213.33323,4218.974256,4221.538358,4220.512717,4224.102461,4243.076819,4252.820409,4262.563998,4382.563995
35,0,4407.179379,4278.974254,4251.281947,4257.948614,4219.999897,4204.102461,4214.871692,4220.512717,4218.461435,4218.461435,4246.153742,4254.35887,4262.563998,4393.846046
36,0,4422.051174,4282.563998,4257.435793,4265.128101,4209.230666,4200.512718,4204.615282,4216.922974,4216.410153,4212.307589,4242.563999,4252.307588,4247.692204,4402.051174
37,0,4424.615276,4284.61528,4259.487075,4268.205024,4213.33323,4201.538359,4200.512718,4213.33323,4216.410153,4201.538359,4235.897332,4248.205024,4237.435794,4409.743482
38,0,4424.102456,4283.589639,4255.897332,4252.307588,4230.256307,4201.025538,4203.589641,4206.153743,4210.769128,4194.871692,4228.205025,4247.692204,4232.820409,4387.6922
39,0,4411.794764,4270.256306,4244.615281,4208.717846,4233.84605,4199.999897,4199.487077,4197.435795,4199.999897,4203.589641,4226.666563,4243.076819,4231.794768,4367.17938
40,0,4385.640918,4262.563998,4235.897332,4182.05118,4230.769127,4200.512718,4195.897333,4194.358872,4195.897333,4205.640923,4222.563999,4232.307589,4232.820409,4367.692201
41,0,4360.512714,4262.563998,4240.512717,4188.717846,4235.384512,4201.025538,4198.974256,4196.922974,4201.025538,4198.461436,4214.358871,4228.717845,4231.281948,4353.846047
42,0,4338.974253,4252.820409,4242.051178,4188.205026,4235.897332,4200.512718,4193.846051,4198.974256,4202.051179,4205.640923,4218.461435,4233.33323,4227.692204,4321.025535
43,0,4316.410151,4246.153742,4234.871691,4179.999898,4230.769127,4198.974256,4189.743487,4200.512718,4200.512718,4215.384512,4226.666563,4233.33323,4227.179384,4296.410151
44,0,4292.820408,4244.615281,4226.666563,4186.153744,4229.743486,4201.025538,4197.435795,4207.179384,4208.717846,4208.717846,4222.563999,4229.743486,4230.256307,4287.692203
45,0,4262.051178,4233.33323,4218.974256,4187.179385,4226.153743,4203.07682,4206.153743,4214.358871,4217.435794,4207.692205,4213.846051,4222.563999,4226.153743,4274.87169
46,0,4239.487076,4225.128102,4216.410153,4182.05118,4228.205025,4201.538359,4212.82041,4218.974256,4219.999897,4224.102461,4217.948615,4215.897333,4216.410153,4253.84605
47,0,4241.538358,4234.871691,4224.615281,4191.281949,4246.153742,4208.205025,4218.461435,4225.640922,4226.153743,4236.410153,4225.640922,4225.128102,4221.538358,4244.10246
48,0,4242.051178,4240.512717,4228.205025,4204.102461,4255.384511,4217.948615,4213.846051,4225.640922,4234.871691,4233.84605,4227.179384,4231.281948,4231.281948,4237.435794
49,0,4217.435794,4231.794768,4211.794769,4199.487077,4248.717845,4217.948615,4203.07682,4219.487076,4234.871691,4227.692204,4223.07682,4217.948615,4222.051179,4223.07682
50,0,4190.256308,4219.999897,4197.948615,4186.153744,4243.076819,4214.871692,4201.538359,4213.846051,4224.615281,4223.07682,4205.640923,4198.974256,4205.128102,4208.717846
51,0,4174.871693,4204.615282,4189.743487,4183.076821,4238.461435,4213.33323,4200.512718,4203.07682,4206.153743,4206.666564,4187.179385,4183.076821,4196.410154,4195.384513
52,0,4168.205026,4201.025538,4184.615282,4184.615282,4234.358871,4212.307589,4199.999897,4192.30759,4193.846051,4189.743487,4189.230667,4176.410154,4195.897333,4181.025539
53,0,4172.30759,4215.384512,4193.333231,4187.692205,4233.33323,4214.871692,4208.717846,4197.435795,4203.07682,4191.794769,4202.051179,4188.717846,4195.897333,4181.025539
54,0,4170.769129,4214.358871,4199.999897,4189.230667,4232.820409,4214.358871,4217.948615,4208.205025,4214.871692,4207.692205,4200.512718,4198.461436,4189.230667,4187.692205
55,0,4164.615283,4200.512718,4196.410154,4187.179385,4240.512717,4210.769128,4217.435794,4213.846051,4215.897333,4212.82041,4192.82041,4196.410154,4188.205026,4181.025539
56,0,4167.692206,4206.666564,4196.922974,4191.794769,4251.794768,4214.358871,4216.922974,4225.128102,4222.563999,4214.871692,4197.435795,4205.128102,4197.948615,4172.30759
57,0,4173.846052,4220.512717,4203.07682,4199.999897,4249.230665,4212.307589,4219.487076,4234.871691,4235.897332,4227.692204,4210.256307,4216.410153,4203.07682,4174.871693
58,0,4169.743488,4217.948615,4210.769128,4199.999897,4241.538358,4204.102461,4218.461435,4238.974255,4235.897332,4234.358871,4217.948615,4215.384512,4204.102461,4184.102462
59,0,4165.640924,4214.358871,4214.871692,4198.461436,4242.563999,4208.205025,4222.051179,4243.58964,4232.820409,4235.897332,4219.487076,4216.410153,4211.281948,4191.281949
60,0,4171.79477,4217.435794,4210.769128,4201.538359,4238.461435,4216.922974,4230.256307,4246.153742,4244.10246,4230.769127,4218.974256,4220.512717,4216.410153,4190.769128
61,0,4167.179385,4217.948615,4202.051179,4201.538359,4230.256307,4216.410153,4228.205025,4241.538358,4247.692204,4223.58964,4203.589641,4205.128102,4206.153743,4174.871693
62,0,4154.871693,4214.871692,4192.82041,4199.487077,4236.922973,4216.410153,4218.461435,4228.717845,4235.897332,4223.58964,4185.128103,4183.076821,4189.230667,4156.410155
63,0,4149.743488,4208.717846,4182.564,4199.999897,4249.743486,4219.487076,4213.846051,4217.948615,4224.102461,4220.512717,4185.640923,4179.487077,4182.05118,4155.384514
64,0,4146.666565,4203.07682,4181.025539,4201.025538,4252.820409,4219.999897,4217.435794,4214.871692,4217.435794,4215.384512,4178.974257,4178.974257,4184.102462,4152.307591
65,0,4138.461437,4201.025538,4186.666564,4200.512718,4247.692204,4221.025538,4218.974256,4217.435794,4215.384512,4212.307589,4163.589642,4173.333231,4183.589641,4140.512719
66,0,4137.948617,4197.948615,4184.615282,4198.974256,4236.922973,4219.487076,4219.487076,4216.922974,4213.846051,4202.051179,4172.30759,4176.410154,4178.974257,4141.02554
67,0,4149.743488,4197.948615,4183.589641,4199.999897,4231.281948,4215.384512,4219.999897,4218.974256,4212.82041,4196.922974,4186.666564,4185.640923,4183.076821,4159.487078
68,0,4151.28195,4203.07682,4189.743487,4204.102461,4235.897332,4216.922974,4219.487076,4226.666563,4223.58964,4210.256307,4186.153744,4187.179385,4188.717846,4171.281949
69,0,4141.02554,4203.07682,4189.230667,4204.615282,4190.256308,4221.025538,4221.538358,4233.84605,4236.410153,4214.358871,4191.281949,4191.281949,4185.128103,4157.435796
70,0,4143.589642,4202.051179,4186.666564,4205.640923,4077.948618,4220.512717,4227.179384,4239.487076,4232.820409,4215.384512,4201.025538,4199.487077,4188.205026,4145.128104
71,0,4156.922975,4208.717846,4194.871692,4213.846051,4212.307589,4220.512717,4230.769127,4246.666563,4232.820409,4235.897332,4201.538359,4205.128102,4201.538359,4161.025539
72,0,4156.410155,4210.256307,4198.974256,4215.897333,4202.051179,4223.58964,4226.153743,4246.666563,4238.974255,4239.999896,4198.461436,4207.692205,4205.640923,4174.871693
73,0,4151.79477,4204.615282,4193.333231,4209.230666,4003.589646,4219.999897,4219.999897,4240.512717,4235.897332,4223.07682,4199.999897,4201.025538,4198.461436,4169.743488
74,0,4153.846052,4204.102461,4189.743487,4216.922974,5011.281929,4215.897333,4217.948615,4233.84605,4227.179384,4215.384512,4197.435795,4190.256308,4192.30759,4171.281949
75,0,4145.640924,4199.487077,4183.076821,4234.358871,7042.56393,4212.307589,4214.358871,4223.58964,4222.051179,4207.692205,4181.025539,4185.640923,4181.538359,4159.487078
76,0,4135.384514,4188.717846,4176.922975,4237.948614,7970.256215,4206.153743,4212.82041,4214.358871,4218.974256,4198.461436,4165.128103,4184.615282,4171.281949,4125.640925
77,0,4135.384514,4184.615282,4182.564,4230.769127,7668.204941,4200.512718,4210.256307,4210.256307,4208.717846,4196.922974,4164.615283,4178.974257,4171.281949,4129.743489
78,0,4135.384514,4187.692205,4184.615282,4235.384512,7570.769046,4205.640923,4204.102461,4209.230666,4199.487077,4187.179385,4172.820411,4169.743488,4174.358872,4152.307591
79,0,4131.794771,4185.128103,4175.897334,4244.10246,7615.384429,4210.256307,4202.051179,4211.281948,4204.615282,4183.589641,4175.384513,4163.589642,4172.820411,4144.102463
80,0,4132.307591,4182.564,4169.743488,4243.58964,7347.179308,4203.589641,4202.564,4212.307589,4206.666564,4195.897333,4166.666565,4163.589642,4167.179385,4132.820412
81,0,4128.717848,4181.538359,4167.179385,4239.487076,7099.999826,4204.102461,4201.025538,4212.82041,4205.640923,4202.051179,4156.410155,4165.640924,4166.153744,4130.256309
82,0,4123.589643,4185.128103,4175.384513,4237.435794,6904.102395,4213.846051,4205.640923,4221.538358,4224.615281,4203.589641,4165.640924,4169.743488,4174.358872,4125.640925
83,0,4137.948617,4194.871692,4191.794769,4239.999896,6647.692145,4218.974256,4216.410153,4232.307589,4235.897332,4218.974256,4189.230667,4180.512718,4183.589641,4137.435796
84,0,4161.025539,4199.999897,4197.435795,4245.128101,6309.230615,4222.563999,4218.974256,4237.948614,4234.871691,4234.358871,4201.025538,4191.281949,4191.281949,4152.307591
85,0,4168.717847,4201.538359,4197.948615,4248.717845,6058.974211,4231.794768,4216.410153,4242.563999,4249.230665,4230.769127,4205.128102,4194.358872,4199.487077,4157.948616
86,0,4160.512719,4204.615282,4201.025538,4243.58964,5410.256278,4234.358871,4215.384512,4235.897332,4246.666563,4220.512717,4201.538359,4193.846051,4198.461436,4168.717847
87,0,4149.743488,4203.589641,4196.922974,4226.153743,4020.512722,4229.743486,4214.358871,4218.974256,4221.025538,4215.384512,4185.640923,4193.846051,4187.692205,4164.102462
88,0,4146.666565,4198.974256,4191.794769,4215.897333,3009.230696,4232.307589,4214.871692,4215.384512,4212.82041,4212.82041,4179.487077,4190.769128,4183.589641,4150.256309
89,0,4161.025539,4201.538359,4197.948615,4223.07682,3049.743515,4234.358871,4217.948615,4219.999897,4218.461435,4209.743487,4186.666564,4185.128103,4188.205026,4160.512719
90,0,4169.230667,4205.640923,4200.512718,4230.256307,3240.512741,4233.84605,4219.999897,4216.922974,4216.922974,4213.33323,4187.179385,4184.615282,4188.205026,4160.512719
91,0,4154.358873,4201.538359,4190.769128,4224.102461,3144.615308,4234.358871,4220.512717,4214.871692,4215.897333,4214.871692,4180.512718,4185.640923,4184.615282,4139.999899
92,0,4148.717847,4198.974256,4187.692205,4219.999897,3184.102486,4234.358871,4219.999897,4217.435794,4218.974256,4205.128102,4181.025539,4185.640923,4185.640923,4147.692206
93,0,4156.922975,4201.538359,4194.871692,4219.487076,3287.179407,4227.692204,4217.435794,4221.538358,4219.999897,4205.128102,4183.076821,4182.564,4186.153744,4163.076821
94,0,4155.897334,4202.051179,4197.435795,4215.384512,3285.128125,4224.102461,4215.897333,4225.640922,4224.102461,4210.256307,4185.128103,4183.589641,4184.102462,4149.230668
95,0,4161.025539,4203.589641,4197.948615,4213.33323,3304.615304,4229.743486,4216.410153,4232.307589,4233.84605,4216.922974,4189.743487,4193.846051,4191.794769,4149.230668
96,0,4174.871693,4209.743487,4202.051179,4210.769128,3318.461457,4233.84605,4216.922974,4239.487076,4249.743486,4237.948614,4197.435795,4201.025538,4202.564,4173.846052
97,0,4175.384513,4215.897333,4199.487077,4211.794769,3331.28197,4237.948614,4223.07682,4245.640922,4262.563998,4253.84605,4208.717846,4194.358872,4203.07682,4183.076821
98,0,4169.230667,4213.846051,4189.743487,4216.410153,3350.256328,4244.615281,4230.256307,4245.640922,4255.384511,4244.615281,4212.307589,4192.82041,4203.07682,4173.846052
99,0,4167.692206,4204.102461,4187.692205,4207.692205,3345.640944,4240.512717,4226.666563,4237.435794,4230.769127,4224.615281,4196.922974,4197.435795,4198.461436,4162.564001
100,0,4167.179385,4197.948615,4195.384513,4199.487077,3347.692226,4230.256307,4221.538358,4230.769127,4216.410153,4215.897333,4184.102462,4188.205026,4189.230667,4160.512719
101,0,4167.179385,4201.025538,4200.512718,4210.256307,3374.871712,4230.769127,4229.230666,4232.307589,4223.07682,4215.897333,4186.666564,4181.025539,4191.794769,4166.666565
102,0,4169.743488,4204.615282,4199.487077,4218.461435,3398.461455,4235.384512,4231.794768,4232.307589,4226.666563,4217.435794,4186.153744,4185.128103,4197.435795,4174.358872
103,0,4174.871693,4200.512718,4198.461436,4207.179384,3397.948635,4231.794768,4219.487076,4229.230666,4224.102461,4205.128102,4182.05118,4183.589641,4189.230667,4173.333231
104,0,4181.025539,4199.487077,4199.999897,4199.487077,3401.538378,4230.769127,4214.358871,4229.230666,4226.666563,4193.846051,4190.769128,4188.717846,4188.205026,4165.640924
105,0,4184.615282,4211.281948,4202.051179,4206.153743,3414.871711,4229.743486,4218.974256,4233.84605,4233.84605,4214.358871,4204.102461,4206.153743,4202.564,4172.820411
106,0,4187.692205,4217.435794,4202.564,4212.307589,3420.512737,4222.563999,4217.435794,4232.307589,4234.871691,4234.358871,4205.640923,4209.743487,4206.666564,4192.30759
107,0,4186.666564,4211.281948,4201.025538,4207.692205,3430.769147,4215.384512,4209.743487,4224.615281,4222.051179,4222.563999,4201.538359,4198.461436,4200.512718,4196.922974
108,0,4182.564,4209.230666,4199.999897,4201.538359,3442.051198,4216.922974,4210.256307,4223.07682,4212.82041,4210.769128,4197.435795,4193.846051,4199.999897,4184.102462
109,0,4181.025539,4207.179384,4201.025538,4199.487077,3443.076839,4222.563999,4215.384512,4227.179384,4217.435794,4213.846051,4197.948615,4197.435795,4202.564,4170.256308
110,0,4181.538359,4205.128102,4200.512718,4200.512718,3455.384531,4226.153743,4216.410153,4226.666563,4220.512717,4210.769128,4201.025538,4202.564,4201.025538,4170.769129
111,0,4184.615282,4210.769128,4199.999897,4209.230666,3485.64094,4228.717845,4216.410153,4226.666563,4219.487076,4206.153743,4198.461436,4197.948615,4199.487077,4184.615282
112,0,4182.05118,4209.230666,4201.538359,4211.794769,3497.948632,4228.717845,4216.410153,4229.230666,4227.692204,4210.256307,4192.82041,4188.205026,4198.974256,4184.615282
113,0,4179.999898,4205.640923,4204.615282,4202.564,3492.307607,4227.692204,4218.461435,4228.717845,4233.33323,4211.794769,4195.384513,4189.230667,4197.948615,4174.358872
114,0,4190.256308,4214.358871,4205.128102,4205.640923,3500.512735,4228.717845,4228.205025,4235.897332,4236.922973,4220.512717,4208.205025,4201.025538,4199.487077,4179.999898
115,0,4198.461436,4221.538358,4204.615282,4214.871692,3518.461452,4232.307589,4236.922973,4246.153742,4247.692204,4235.384512,4211.794769,4212.307589,4205.128102,4189.743487
116,0,4190.256308,4215.384512,4206.666564,4207.692205,3527.692221,4236.410153,4230.769127,4239.999896,4250.256306,4232.307589,4211.281948,4211.794769,4208.717846,4188.205026
117,0,4184.615282,4211.281948,4206.153743,4196.922974,3526.15376,4227.179384,4218.461435,4230.769127,4231.281948,4214.871692,4212.82041,4204.615282,4205.128102,4188.717846
118,0,4186.666564,4212.307589,4203.589641,4199.999897,3528.205042,4217.948615,4214.358871,4229.230666,4213.33323,4211.281948,4204.102461,4205.128102,4199.999897,4184.615282
119,0,4181.538359,4214.871692,4203.589641,4209.743487,3545.128118,4224.615281,4217.948615,4228.205025,4222.051179,4219.487076,4198.461436,4207.179384,4202.564,4182.564
120,0,4180.512718,4215.897333,4204.102461,4214.358871,3560.512733,4225.128102,4218.974256,4228.717845,4232.820409,4208.717846,4209.743487,4204.102461,4204.102461,4196.410154
121,0,4194.358872,4213.33323,4206.666564,4213.846051,3564.102477,4215.384512,4216.922974,4229.230666,4219.999897,4197.948615,4215.897333,4206.153743,4202.051179,4197.948615
122,0,4203.07682,4215.384512,4212.82041,4216.922974,3570.256323,4219.999897,4224.102461,4229.743486,4214.871692,4216.410153,4209.743487,4214.871692,4206.153743,4185.640923
123,0,4198.974256,4217.435794,4213.846051,4221.025538,3581.538374,4233.33323,4234.358871,4239.999896,4238.974255,4233.84605,4213.846051,4209.743487,4212.82041,4189.743487
124,0,4196.410154,4218.461435,4211.794769,4221.538358,3590.256322,4233.33323,4234.358871,4249.743486,4249.230665,4231.281948,4218.974256,4202.051179,4212.307589,4195.897333
125,0,4202.051179,4222.563999,4216.410153,4224.615281,3599.999912,4228.717845,4233.33323,4247.179383,4239.999896,4230.256307,4216.922974,4210.256307,4214.358871,4182.05118
126,0,4203.589641,4222.563999,4216.410153,4225.640922,3606.153758,4227.692204,4234.871691,4244.10246,4244.10246,4233.84605,4214.871692,4213.33323,4219.487076,4187.179385
127,0,4201.025538,4218.974256,4214.358871,4225.128102,3616.922988,4229.743486,4234.871691,4248.205024,4254.35887,4237.435794,4220.512717,4208.205025,4219.999897,4216.922974
128,0,4201.025538,4218.974256,4215.384512,4225.640922,3627.179398,4230.769127,4235.384512,4250.769127,4252.307588,4238.461435,4226.153743,4213.33323,4217.435794,4213.33323
0,0,4196.922974,4216.410153,4211.794769,4219.487076,3622.051193,4221.538358,4228.205025,4246.153742,4245.128101,4233.84605,4225.640922,4212.82041,4215.897333,4185.128103
1,0,4190.769128,4212.82041,4207.692205,4212.82041,3628.205039,4214.358871,4215.897333,4241.538358,4243.58964,4233.33323,4226.153743,4207.692205,4217.948615,4189.743487
2,0,4187.692205,4214.358871,4209.743487,4215.897333,3650.769141,4221.538358,4221.538358,4243.076819,4245.640922,4229.743486,4221.538358,4215.384512,4220.512717,4204.102461
3,0,4188.205026,4214.871692,4214.358871,4222.051179,3659.999911,4229.743486,4233.33323,4245.640922,4246.666563,4223.07682,4213.846051,4216.410153,4218.974256,4198.461436
4,0,4192.82041,4219.487076,4217.435794,4226.666563,3664.615295,4230.769127,4231.281948,4244.615281,4245.128101,4233.84605,4225.640922,4207.692205,4218.974256,4199.999897
5,0,4202.564,4230.769127,4219.999897,4231.794768,3681.538372,4231.794768,4230.256307,4245.640922,4247.692204,4247.179383,4234.871691,4211.794769,4222.051179,4204.615282
6,0,4206.153743,4232.307589,4216.922974,4230.769127,3687.179397,4231.281948,4232.820409,4244.10246,4248.717845,4237.948614,4215.897333,4210.769128,4218.974256,4200.512718
7,0,4196.410154,4229.230666,4212.82041,4229.743486,3686.666577,4229.230666,4228.205025,4234.871691,4243.076819,4226.153743,4204.615282,4198.974256,4213.846051,4195.897333
8,0,4187.179385,4229.230666,4215.897333,4229.743486,3702.564012,4232.307589,4227.692204,4235.897332,4242.051178,4228.717845,4216.410153,4200.512718,4212.82041,4191.281949
9,0,4184.102462,4223.07682,4213.846051,4224.102461,3711.281961,4233.84605,4233.33323,4245.640922,4247.692204,4228.717845,4214.871692,4203.589641,4210.769128,4189.743487
10,0,4189.230667,4219.487076,4211.281948,4222.051179,3709.743499,4229.743486,4234.358871,4249.743486,4254.871691,4232.820409,4214.358871,4201.538359,4213.846051,4195.897333
11,0,4204.615282,4232.307589,4222.051179,4232.820409,3723.076832,4235.897332,4238.974255,4256.410152,4266.666562,4247.692204,4235.897332,4212.82041,4228.205025,4209.743487
12,0,4217.948615,4245.128101,4233.84605,4244.615281,3745.128114,4250.256306,4249.743486,4266.666562,4272.307588,4252.307588,4247.179383,4227.692204,4235.897332,4220.512717
13,0,4217.948615,4245.128101,4238.974255,4244.615281,3753.846062,4251.281947,4252.307588,4266.153742,4267.179383,4251.281947,4244.10246,4231.281948,4233.33323,4222.563999
14,0,4213.846051,4246.153742,4241.025537,4241.025537,3755.897344,4241.538358,4239.999896,4254.35887,4258.461434,4250.769127,4245.640922,4229.743486,4233.84605,4217.435794
15,0,4215.897333,4250.769127,4237.948614,4244.10246,3765.128113,4239.487076,4233.33323,4245.128101,4253.333229,4239.999896,4242.051178,4222.563999,4236.410153,4217.948615
16,0,4216.922974,4248.205024,4231.281948,4245.640922,3765.640934,4242.563999,4237.948614,4243.58964,4256.410152,4236.922973,4233.84605,4216.922974,4232.307589,4221.538358
17,0,4216.410153,4248.717845,4233.84605,4243.076819,3756.922985,4236.922973,4236.410153,4247.179383,4256.410152,4246.666563,4230.769127,4221.538358,4227.692204,4215.897333
18,0,4224.102461,4257.948614,4243.076819,4245.640922,3766.666575,4230.256307,4231.794768,4245.640922,4251.794768,4249.230665,4232.820409,4230.769127,4234.358871,4217.948615
19,0,4241.025537,4265.128101,4254.35887,4250.256306,3791.794779,4237.948614,4241.025537,4246.666563,4258.974255,4253.333229,4248.717845,4240.512717,4246.666563,4236.410153
20,0,4246.666563,4264.10246,4258.461434,4249.230665,3803.589651,4249.743486,4250.769127,4259.487075,4270.256306,4265.640921,4267.692203,4247.692204,4254.35887,4255.384511
21,0,4235.897332,4259.487075,4248.205024,4246.153742,3799.487087,4246.666563,4248.205024,4265.640921,4268.717844,4262.051178,4262.051178,4246.153742,4249.230665,4254.35887
22,0,4230.769127,4252.820409,4241.538358,4248.717845,3797.948625,4236.410153,4244.10246,4262.563998,4263.076819,4252.307588,4245.640922,4239.999896,4237.435794,4232.307589
23,0,4233.33323,4247.179383,4247.179383,4246.666563,3807.692215,4234.871691,4246.666563,4260.512716,4264.61528,4262.051178,4243.076819,4237.435794,4231.794768,4218.461435
24,0,4233.33323,4248.717845,4249.230665,4236.410153,3818.461445,4238.974255,4249.743486,4259.999896,4267.692203,4264.61528,4249.743486,4235.897332,4235.384512,4232.307589
25,0,4230.256307,4245.128101,4240.512717,4228.717845,3817.948625,4235.897332,4241.538358,4250.769127,4264.10246,4251.794768,4250.769127,4231.281948,4236.922973,4242.563999
26,0,4222.563999,4234.358871,4231.794768,4228.717845,3816.922984,4230.256307,4228.205025,4236.922973,4251.281947,4245.640922,4236.410153,4222.051179,4226.153743,4221.025538
27,0,4215.897333,4232.820409,4227.179384,4232.820409,3817.948625,4230.256307,4227.179384,4234.358871,4243.58964,4237.948614,4215.897333,4214.871692,4216.922974,4195.897333
28,0,4211.281948,4236.410153,4219.999897,4231.794768,3818.461445,4232.307589,4225.640922,4233.33323,4237.435794,4222.051179,4211.281948,4210.256307,4214.871692,4195.897333
29,0,4212.82041,4234.358871,4218.974256,4228.717845,3831.794778,4229.743486,4215.384512,4218.974256,4226.153743,4219.999897,4220.512717,4207.179384,4214.358871,4212.307589
30,0,4227.179384,4235.897332,4227.179384,4233.84605,3848.205034,4228.717845,4217.948615,4214.358871,4228.717845,4234.358871,4227.179384,4212.82041,4213.846051,4217.435794
31,0,4233.33323,4245.128101,4229.743486,4245.640922,3850.256316,4230.769127,4230.256307,4226.666563,4236.410153,4234.871691,4228.205025,4219.999897,4216.410153,4205.640923
32,0,4220.512717,4244.10246,4227.179384,4248.717845,3854.871701,4231.794768,4231.281948,4234.871691,4235.384512,4228.205025,4229.230666,4217.435794,4223.58964,4211.281948
33,0,4224.102461,4234.358871,4230.769127,4238.974255,3866.666572,4233.33323,4230.256307,4241.025537,4242.051178,4239.487076,4233.84605,4212.82041,4228.205025,4232.820409
34,0,4234.358871,4231.794768,4228.205025,4230.769127,3864.10247,4226.666563,4234.358871,4250.769127,4252.820409,4247.179383,4235.384512,4217.948615,4222.051179,4227.692204
35,0,4224.102461,4235.384512,4223.07682,4234.358871,3858.461444,4216.922974,4231.281948,4247.179383,4249.743486,4244.615281,4230.256307,4228.717845,4217.435794,4211.794769
36,0,4217.435794,4236.410153,4231.281948,4243.58964,3869.743495,4221.025538,4228.205025,4242.563999,4245.640922,4245.640922,4230.769127,4233.33323,4225.128102,4216.410153
37,0,4221.025538,4232.820409,4232.307589,4243.076819,3880.512726,4226.666563,4230.769127,4243.076819,4249.743486,4242.563999,4234.871691,4223.07682,4228.205025,4220.512717
38,0,4217.435794,4232.307589,4217.948615,4241.538358,3875.384521,4221.538358,4226.666563,4238.461435,4255.384511,4233.33323,4233.33323,4213.33323,4219.487076,4217.435794
39,0,4212.82041,4232.820409,4213.846051,4248.205024,3876.922982,4215.897333,4217.435794,4231.794768,4249.230665,4231.794768,4222.563999,4213.846051,4213.846051,4212.82041
40,0,4215.384512,4231.281948,4222.563999,4251.281947,3897.948623,4215.897333,4214.358871,4224.615281,4232.820409,4232.820409,4215.897333,4210.256307,4211.794769,4204.102461
41,0,4224.102461,4235.897332,4229.230666,4249.743486,3914.871699,4222.051179,4219.487076,4219.487076,4228.717845,4228.717845,4220.512717,4210.769128,4217.948615,4205.128102
42,0,4235.384512,4248.205024,4236.410153,4256.922973,3919.999904,4231.794768,4223.58964,4220.512717,4235.897332,4231.281948,4232.820409,4229.230666,4230.769127,4225.640922
43,0,4235.897332,4250.769127,4243.076819,4261.025537,3924.615289,4232.820409,4223.07682,4217.948615,4231.794768,4233.33323,4242.051178,4237.948614,4236.410153,4230.256307
44,0,4232.307589,4238.461435,4235.384512,4252.307588,3924.615289,4227.692204,4225.128102,4214.358871,4223.58964,4227.692204,4239.999896,4223.58964,4231.794768,4224.102461
45,0,4231.794768,4230.769127,4224.615281,4246.153742,3926.15375,4228.717845,4226.666563,4223.07682,4230.256307,4227.692204,4230.769127,4212.307589,4227.692204,4226.666563
46,0,4219.487076,4233.33323,4226.153743,4248.717845,3927.179391,4225.128102,4222.051179,4230.769127,4236.922973,4232.820409,4225.640922,4217.948615,4224.615281,4219.487076
47,0,4212.82041,4234.871691,4232.307589,4251.794768,3923.589648,4216.410153,4215.897333,4228.205025,4233.84605,4235.384512,4235.384512,4227.179384,4227.692204,4218.974256
48,0,4227.179384,4231.794768,4232.307589,4247.692204,3930.256314,4216.410153,4216.922974,4228.717845,4234.871691,4231.281948,4246.153742,4228.205025,4231.281948,4232.820409
49,0,4236.922973,4230.769127,4233.33323,4248.205024,3945.640929,4224.615281,4226.153743,4236.922973,4248.205024,4234.358871,4251.281947,4237.435794,4231.281948,4224.102461
50,0,4234.871691,4234.871691,4235.384512,4256.922973,3951.794775,4230.256307,4232.307589,4243.58964,4262.563998,4252.820409,4251.794768,4249.230665,4236.922973,4213.846051
51,0,4227.179384,4230.256307,4232.307589,4233.84605,3954.358878,4226.153743,4227.692204,4241.025537,4254.871691,4252.820409,4240.512717,4238.461435,4232.820409,4227.179384
52,0,4217.435794,4219.999897,4228.205025,4185.128103,3962.051185,4219.999897,4219.999897,4232.820409,4235.897332,4232.820409,4228.717845,4213.846051,4217.435794,4228.717845
53,0,4219.487076,4222.563999,4230.769127,4168.717847,3969.743493,4215.897333,4213.846051,4226.153743,4230.256307,4225.640922,4228.717845,4212.307589,4215.384512,4221.538358
54,0,4233.84605,4232.820409,4233.84605,4176.922975,3970.256313,4206.666564,4204.102461,4221.025538,4228.205025,4225.640922,4233.84605,4229.230666,4222.051179,4226.153743
55,0,4237.435794,4233.33323,4234.871691,4175.897334,3969.743493,4197.948615,4198.461436,4216.410153,4218.974256,4216.410153,4229.743486,4235.897332,4219.999897,4221.538358
56,0,4232.820409,4231.281948,4235.897332,4177.435795,3971.794775,4199.999897,4202.564,4215.384512,4213.846051,4215.384512,4231.794768,4232.307589,4216.922974,4218.974256
57,0,4233.84605,4232.307589,4233.84605,4182.564,3972.307595,4202.051179,4202.051179,4212.82041,4215.897333,4217.948615,4232.820409,4223.07682,4217.435794,4228.205025
58,0,4231.281948,4229.743486,4228.717845,4179.487077,3977.4358,4199.487077,4200.512718,4209.230666,4213.33323,4200.512718,4222.051179,4214.358871,4214.358871,4228.205025
59,0,4223.58964,4226.666563,4231.281948,4183.589641,3990.256313,4201.025538,4204.102461,4207.179384,4215.384512,4195.384513,4219.487076,4214.871692,4213.846051,4224.615281
60,0,4217.948615,4221.538358,4231.281948,4188.205026,3991.281954,4203.07682,4203.589641,4203.589641,4221.538358,4211.281948,4224.102461,4218.461435,4213.33323,4221.538358
61,0,4218.461435,4214.871692,4217.435794,4184.102462,3985.640928,4198.974256,4199.999897,4201.025538,4215.897333,4210.256307,4217.435794,4210.256307,4206.666564,4213.33323
62,0,4224.615281,4217.948615,4211.794769,4189.230667,3989.743492,4196.410154,4200.512718,4204.615282,4207.179384,4198.461436,4207.692205,4199.487077,4198.461436,4214.871692
63,0,4235.384512,4229.230666,4225.128102,4198.461436,3991.794774,4199.999897,4203.589641,4210.769128,4205.640923,4199.999897,4215.897333,4205.640923,4197.948615,4221.538358
64,0,4250.769127,4233.84605,4233.84605,4200.512718,3991.794774,4204.615282,4210.256307,4213.33323,4207.179384,4206.666564,4226.666563,4216.410153,4210.256307,4232.307589
65,0,4268.717844,4228.717845,4228.717845,4196.922974,3999.999902,4204.102461,4212.82041,4215.897333,4209.230666,4200.512718,4220.512717,4215.897333,4214.358871,4252.820409
66,0,4305.64092,4237.948614,4231.794768,4205.640923,4006.153748,4202.051179,4205.640923,4215.897333,4215.384512,4198.461436,4217.948615,4223.58964,4213.33323,4288.205023
67,0,4368.717842,4266.666562,4254.871691,4224.102461,4006.153748,4202.051179,4198.974256,4209.230666,4218.461435,4208.205025,4237.948614,4251.281947,4241.538358,4351.281945
68,0,4430.256302,4285.640921,4275.897331,4233.33323,4005.128107,4197.948615,4200.512718,4203.07682,4212.307589,4212.307589,4257.948614,4271.281947,4273.846049,4418.46143
69,0,4470.256301,4289.230664,4284.61528,4237.948614,4003.076825,4187.692205,4199.999897,4203.07682,4207.692205,4204.615282,4261.025537,4273.333229,4271.281947,4459.999891
70,0,4502.051172,4301.025536,4298.974254,4248.205024,4008.20503,4186.153744,4198.461436,4205.640923,4212.307589,4192.82041,4265.128101,4278.974254,4261.538357,4478.461429
71,0,4526.153735,4316.410151,4317.435792,4254.35887,4014.871697,4192.82041,4199.999897,4203.07682,4214.358871,4191.794769,4267.692203,4294.358869,4270.769126,4495.384505
72,0,4533.846043,4314.871689,4317.948612,4254.871691,4011.281953,4190.256308,4193.333231,4197.948615,4204.615282,4199.999897,4262.563998,4299.999895,4270.769126,4502.051172
73,0,4530.76912,4312.820407,4306.153741,4263.076819,4015.897338,4183.589641,4184.102462,4195.897333,4197.948615,4203.589641,4264.10246,4290.256305,4263.589639,4485.128095
74,0,4515.384505,4312.820407,4299.487074,4266.666562,4030.769132,4185.640923,4182.564,4195.897333,4206.666564,4201.025538,4267.692203,4283.076818,4264.61528,4464.615275
75,0,4483.076813,4297.948613,4297.435792,4256.922973,4034.871696,4185.640923,4188.717846,4200.512718,4216.410153,4208.717846,4258.974255,4283.589639,4264.61528,4438.97425
76,0,4448.205019,4280.512716,4293.846049,4248.717845,4034.871696,4184.615282,4196.922974,4208.717846,4216.922974,4218.461435,4253.333229,4279.999895,4257.435793,4403.589636
77,0,4417.94861,4276.922972,4287.179382,4244.615281,4043.076824,4193.333231,4200.512718,4217.435794,4219.487076,4216.922974,4263.589639,4269.743485,4252.307588,4379.999893
78,0,4384.102457,4268.717844,4269.230665,4237.435794,4046.666568,4204.102461,4206.666564,4223.07682,4224.615281,4216.410153,4262.051178,4254.871691,4247.692204,4366.66656
79,0,4351.281945,4246.666563,4250.769127,4228.205025,4039.999901,4209.230666,4216.922974,4223.07682,4225.128102,4211.281948,4243.076819,4235.384512,4238.461435,4335.384509
80,0,4325.128099,4232.820409,4243.58964,4226.666563,4044.102465,4209.230666,4219.487076,4217.948615,4223.58964,4198.974256,4233.84605,4227.692204,4228.205025,4302.051177
81,0,4302.563997,4234.358871,4238.974255,4228.717845,4056.410157,4208.717846,4216.410153,4215.897333,4219.999897,4202.564,4227.692204,4231.281948,4218.461435,4288.717844
82,0,4286.153741,4229.743486,4230.256307,4226.153743,4065.128106,4209.743487,4216.922974,4218.974256,4216.922974,4218.461435,4214.871692,4222.051179,4214.358871,4272.307588
83,0,4276.410152,4219.487076,4225.640922,4225.640922,4063.589644,4207.692205,4214.358871,4216.410153,4214.358871,4217.435794,4213.846051,4211.794769,4211.281948,4250.769127
84,0,4267.179383,4221.025538,4229.230666,4230.769127,4059.999901,4204.102461,4213.846051,4211.281948,4217.435794,4207.179384,4219.999897,4213.846051,4203.589641,4246.153742
85,0,4262.563998,4229.230666,4232.820409,4233.84605,4064.102465,4200.512718,4213.846051,4210.769128,4219.999897,4200.512718,4215.897333,4214.871692,4204.615282,4244.615281
86,0,4264.10246,4229.230666,4233.33323,4231.281948,4067.692208,4200.512718,4204.615282,4209.743487,4213.33323,4198.974256,4221.025538,4220.512717,4213.846051,4232.820409
87,0,4259.487075,4229.743486,4236.922973,4234.358871,4072.820413,4209.230666,4206.153743,4213.33323,4212.82041,4208.717846,4242.051178,4231.794768,4218.974256,4234.358871
88,0,4249.743486,4233.33323,4245.128101,4242.563999,4074.358875,4216.922974,4216.410153,4216.410153,4220.512717,4213.846051,4252.307588,4234.358871,4223.07682,4252.307588
89,0,4248.717845,4231.794768,4250.256306,4246.666563,4075.897336,4214.871692,4216.410153,4218.974256,4232.820409,4217.435794,4246.153742,4241.025537,4230.256307,4249.230665
90,0,4255.897332,4233.84605,4248.205024,4247.692204,4085.640926,4214.358871,4214.871692,4227.692204,4247.179383,4240.512717,4243.58964,4250.769127,4232.307589,4232.820409
91,0,4246.666563,4233.84605,4248.205024,4243.58964,4094.871695,4217.435794,4216.922974,4234.358871,4253.333229,4257.435793,4250.769127,4236.410153,4229.743486,4238.461435
92,0,4221.538358,4222.051179,4244.10246,4234.358871,4093.846054,4212.82041,4217.948615,4231.794768,4243.076819,4244.10246,4249.743486,4216.922974,4224.615281,4234.358871
93,0,4209.230666,4215.384512,4229.743486,4231.794768,4087.692208,4210.256307,4222.563999,4230.769127,4230.256307,4229.743486,4230.256307,4217.435794,4213.846051,4196.410154
94,0,4208.205025,4216.410153,4213.33323,4235.384512,4087.692208,4216.410153,4226.153743,4231.281948,4225.128102,4219.999897,4212.307589,4212.82041,4202.564,4179.999898
95,0,4196.410154,4210.256307,4205.640923,4231.794768,4091.794772,4218.974256,4223.58964,4227.179384,4225.128102,4202.564,4209.743487,4190.769128,4198.461436,4196.922974
96,0,4180.512718,4206.153743,4205.640923,4225.128102,4092.820413,4219.487076,4225.128102,4226.153743,4229.230666,4203.589641,4213.846051,4179.999898,4196.922974,4196.410154
97,0,4179.999898,4210.769128,4203.07682,4227.179384,4087.179387,4218.974256,4223.07682,4228.205025,4233.33323,4215.384512,4212.307589,4192.82041,4197.948615,4178.461436
98,0,4182.564,4212.307589,4203.589641,4229.230666,4096.922977,4217.435794,4217.435794,4227.692204,4229.743486,4216.410153,4213.33323,4202.051179,4203.589641,4177.948616
99,0,4180.512718,4213.33323,4211.794769,4230.769127,4119.999899,4217.948615,4222.563999,4227.692204,4228.205025,4223.58964,4223.07682,4196.922974,4209.743487,4194.871692
100,0,4183.589641,4218.974256,4217.948615,4241.538358,4124.102463,4217.948615,4230.769127,4228.717845,4232.307589,4237.948614,4229.230666,4206.153743,4211.281948,4204.615282
101,0,4187.179385,4216.922974,4215.384512,4248.205024,4111.794771,4218.461435,4233.33323,4232.307589,4235.897332,4234.871691,4228.717845,4219.999897,4209.743487,4190.256308
102,0,4185.640923,4209.743487,4209.230666,4236.922973,4107.692207,4219.999897,4227.179384,4232.820409,4235.384512,4220.512717,4233.33323,4205.640923,4210.769128,4183.589641
103,0,4177.435795,4209.743487,4207.692205,4228.205025,4108.717848,4217.948615,4218.461435,4227.692204,4228.717845,4217.948615,4232.820409,4191.794769,4208.205025,4197.948615
104,0,4172.30759,4215.384512,4211.281948,4233.33323,4107.692207,4216.410153,4220.512717,4226.153743,4230.256307,4217.948615,4223.07682,4204.615282,4207.179384,4193.333231
105,0,4175.897334,4216.410153,4213.846051,4235.384512,4108.717848,4218.974256,4224.102461,4227.179384,4237.948614,4214.358871,4227.179384,4206.666564,4214.871692,4185.128103
106,0,4184.615282,4214.358871,4219.999897,4233.84605,4117.948617,4218.974256,4216.410153,4224.615281,4233.84605,4223.58964,4237.948614,4197.948615,4222.051179,4208.205025
107,0,4196.922974,4220.512717,4233.33323,4240.512717,4132.820412,4215.897333,4213.846051,4224.102461,4229.743486,4235.384512,4232.307589,4209.230666,4221.025538,4214.871692
108,0,4203.07682,4227.692204,4235.384512,4245.640922,4144.102463,4215.384512,4220.512717,4230.769127,4239.487076,4229.230666,4231.794768,4217.948615,4218.461435,4201.025538
109,0,4193.333231,4219.999897,4222.051179,4241.538358,4143.076822,4214.871692,4220.512717,4232.820409,4244.10246,4214.871692,4238.974255,4204.615282,4216.410153,4203.589641
110,0,4173.846052,4201.538359,4208.717846,4228.205025,4129.230668,4210.769128,4213.846051,4228.717845,4230.256307,4210.256307,4225.128102,4187.179385,4204.615282,4194.358872
111,0,4165.128103,4194.871692,4201.538359,4216.922974,4124.615284,4212.307589,4216.922974,4225.640922,4223.07682,4208.717846,4216.410153,4182.05118,4195.897333,4173.846052
112,0,4168.205026,4198.974256,4202.564,4217.948615,4138.974258,4216.410153,4226.666563,4231.281948,4235.897332,4202.564,4224.102461,4193.333231,4200.512718,4172.30759
113,0,4170.769129,4202.051179,4204.102461,4218.461435,4138.974258,4218.461435,4232.820409,4240.512717,4244.615281,4203.07682,4218.974256,4202.564,4201.538359,4173.846052
114,0,4163.589642,4194.871692,4199.487077,4216.410153,4124.615284,4222.051179,4232.307589,4238.974255,4237.948614,4214.358871,4209.230666,4194.358872,4196.410154,4164.102462
115,0,4156.922975,4184.615282,4197.435795,4217.435794,4132.307591,4223.07682,4227.179384,4232.820409,4233.84605,4215.897333,4214.358871,4186.666564,4190.769128,4167.692206
116,0,4164.615283,4187.692205,4200.512718,4218.461435,4146.153745,4217.435794,4219.999897,4226.666563,4229.743486,4201.538359,4216.922974,4189.743487,4186.666564,4183.589641
117,0,4173.333231,4197.435795,4199.999897,4219.999897,4143.589642,4214.871692,4215.897333,4218.974256,4219.487076,4194.358872,4211.281948,4185.128103,4190.256308,4185.128103
118,0,4176.410154,4201.025538,4200.512718,4227.179384,4149.743488,4219.487076,4213.846051,4216.410153,4218.974256,4198.974256,4214.871692,4184.615282,4198.974256,4172.820411
119,0,4182.564,4202.051179,4208.205025,4233.84605,4158.974257,4219.487076,4211.281948,4215.384512,4229.230666,4201.538359,4221.025538,4199.999897,4202.564,4170.256308
120,0,4187.179385,4203.07682,4214.358871,4233.33323,4154.358873,4215.384512,4211.281948,4212.307589,4228.717845,4201.025538,4218.974256,4205.640923,4202.051179,4186.153744
121,0,4188.205026,4202.051179,4216.410153,4231.281948,4154.358873,4216.410153,4215.897333,4221.025538,4229.743486,4196.410154,4212.307589,4198.461436,4201.538359,4193.846051
122,0,4183.589641,4195.897333,4214.871692,4229.230666,4157.948616,4218.461435,4223.07682,4234.871691,4237.435794,4200.512718,4216.410153,4196.410154,4199.999897,4182.564
123,0,4172.820411,4187.692205,4209.230666,4228.717845,4150.769129,4217.948615,4229.230666,4236.410153,4235.897332,4209.230666,4223.58964,4196.922974,4198.461436,4175.897334
124,0,4174.358872,4191.794769,4210.256307,4230.256307,4154.871693,4223.07682,4230.256307,4238.974255,4229.743486,4204.615282,4217.948615,4199.999897,4198.974256,4181.538359
125,0,4190.256308,4203.589641,4214.871692,4231.794768,4173.846052,4233.33323,4232.820409,4245.640922,4232.820409,4205.640923,4221.025538,4203.589641,4201.538359,4185.640923
126,0,4191.281949,4201.025538,4206.666564,4231.794768,4179.999898,4235.384512,4236.410153,4247.179383,4242.563999,4214.871692,4229.230666,4197.435795,4201.025538,4192.82041
127,0,4179.487077,4192.30759,4197.948615,4228.205025,4168.205026,4229.743486,4234.871691,4248.717845,4247.692204,4209.743487,4224.615281,4191.794769,4200.512718,4201.538359
128,0,4176.410154,4189.230667,4201.538359,4226.666563,4159.487078,4227.179384,4226.666563,4245.128101,4244.10246,4198.461436,4215.897333,4195.384513,4199.999897,4187.179385
0,0,4179.487077,4191.281949,4201.025538,4229.230666,4165.640924,4229.743486,4224.615281,4234.358871,4242.051178,4202.564,4216.410153,4201.025538,4200.512718,4169.230667
1,0,4178.974257,4198.974256,4204.102461,4232.820409,4174.358872,4234.871691,4232.820409,4234.871691,4243.58964,4211.794769,4224.102461,4205.640923,4207.179384,4184.615282
2,0,4182.564,4205.128102,4216.922974,4233.84605,4168.205026,4236.922973,4232.307589,4232.820409,4234.358871,4205.640923,4227.179384,4201.025538,4211.794769,4206.153743
3,0,4192.82041,4201.538359,4213.33323,4232.307589,4163.076821,4228.205025,4216.410153,4209.743487,4214.871692,4186.666564,4224.615281,4186.153744,4208.717846,4202.564
4,0,4199.487077,4199.487077,4203.589641,4231.281948,4177.948616,4217.948615,4209.230666,4194.871692,4208.717846,4177.948616,4217.948615,4183.589641,4208.717846,4190.769128
5,0,4197.948615,4207.179384,4211.794769,4232.307589,4187.179385,4215.384512,4215.384512,4209.230666,4218.461435,4191.794769,4214.871692,4193.333231,4214.358871,4190.769128
6,0,4198.974256,4215.384512,4219.999897,4233.33323,4182.05118,4216.922974,4218.974256,4226.666563,4233.84605,4209.743487,4223.07682,4200.512718,4215.897333,4204.102461
7,0,4204.102461,4216.922974,4219.999897,4234.871691,4181.025539,4214.358871,4225.640922,4232.307589,4244.615281,4214.871692,4238.461435,4210.256307,4217.435794,4216.922974
8,0,4203.589641,4216.410153,4227.179384,4235.384512,4185.640923,4213.33323,4234.871691,4239.487076,4248.205024,4218.974256,4250.256306,4219.487076,4229.230666,4219.487076
9,0,4204.102461,4220.512717,4234.358871,4235.384512,4184.615282,4223.58964,4236.922973,4249.743486,4251.281947,4229.230666,4251.794768,4219.487076,4236.922973,4216.410153
10,0,4202.564,4214.871692,4222.563999,4231.794768,4178.461436,4231.794768,4236.922973,4248.717845,4254.35887,4229.230666,4243.076819,4215.897333,4228.717845,4202.564
11,0,4189.230667,4198.461436,4203.07682,4220.512717,4179.487077,4227.692204,4231.281948,4236.922973,4243.076819,4213.846051,4224.102461,4205.128102,4213.33323,4185.128103
12,0,4182.05118,4192.30759,4198.461436,4216.410153,4187.179385,4224.615281,4218.974256,4228.205025,4231.281948,4200.512718,4215.897333,4187.179385,4206.666564,4194.358872
13,0,4175.384513,4180.512718,4199.487077,4216.922974,4189.743487,4229.743486,4222.563999,4231.281948,4240.512717,4202.564,4220.512717,4179.487077,4202.564,4194.358872
14,0,4166.666565,4168.717847,4196.922974,4215.384512,4186.153744,4233.33323,4231.794768,4232.820409,4244.10246,4201.025538,4216.410153,4185.640923,4199.487077,4172.820411
15,0,4194.358872,4197.435795,4203.07682,4226.666563,4188.717846,4228.205025,4223.07682,4221.538358,4223.58964,4191.281949,4213.33323,4186.666564,4206.666564,4194.358872
16,0,4232.820409,4234.871691,4217.435794,4242.051178,4202.564,4219.487076,4210.256307,4203.589641,4212.82041,4184.615282,4213.846051,4183.076821,4205.640923,4225.640922
17,0,4234.358871,4229.230666,4223.58964,4235.384512,4215.897333,4214.871692,4210.769128,4197.435795,4218.461435,4176.922975,4201.538359,4187.692205,4189.230667,4207.692205
18,0,4237.948614,4223.07682,4228.717845,4228.205025,4220.512717,4210.256307,4213.846051,4205.640923,4217.948615,4171.79477,4194.871692,4198.461436,4184.615282,4196.922974
19,0,4266.666562,4246.153742,4241.025537,4243.58964,4216.922974,4202.564,4214.871692,4213.846051,4215.897333,4183.076821,4211.281948,4210.769128,4203.589641,4228.205025
20,0,4272.820408,4251.281947,4244.10246,4252.307588,4220.512717,4206.153743,4217.948615,4214.871692,4218.461435,4198.974256,4224.102461,4217.435794,4214.871692,4234.358871
21,0,4255.384511,4233.84605,4235.384512,4246.666563,4228.205025,4216.922974,4217.435794,4216.922974,4217.435794,4198.974256,4216.922974,4216.410153,4206.153743,4214.871692
22,0,4245.640922,4229.743486,4229.230666,4243.076819,4225.128102,4215.384512,4216.922974,4221.025538,4222.051179,4195.384513,4216.410153,4213.33323,4201.025538,4220.512717
23,0,4238.974255,4236.922973,4222.563999,4245.640922,4228.717845,4218.461435,4216.410153,4218.974256,4229.230666,4201.538359,4229.230666,4207.179384,4205.128102,4232.307589
24,0,4231.794768,4233.84605,4217.435794,4245.128101,4234.871691,4227.692204,4216.922974,4219.487076,4225.640922,4199.487077,4222.051179,4199.999897,4205.128102,4219.487076
25,0,4232.820409,4220.512717,4218.461435,4237.435794,4224.102461,4223.58964,4218.461435,4229.230666,4224.102461,4188.717846,4207.179384,4198.974256,4196.922974,4200.512718
26,0,4233.84605,4215.897333,4216.922974,4232.307589,4221.025538,4217.435794,4217.435794,4232.820409,4234.358871,4187.692205,4210.256307,4199.999897,4190.256308,4202.564
27,0,4218.461435,4215.897333,4208.205025,4230.256307,4231.281948,4219.487076,4215.384512,4225.640922,4234.871691,4182.564,4214.871692,4196.410154,4184.615282,4200.512718
28,0,4209.230666,4213.33323,4211.281948,4230.769127,4220.512717,4217.948615,4215.384512,4221.025538,4229.230666,4176.410154,4205.128102,4194.358872,4186.153744,4190.256308
29,0,4220.512717,4213.846051,4223.58964,4232.820409,4203.07682,4214.871692,4215.897333,4221.025538,4233.33323,4189.743487,4199.999897,4196.410154,4192.82041,4194.871692
30,0,4224.102461,4217.435794,4227.179384,4233.33323,4214.358871,4216.410153,4215.384512,4217.435794,4229.743486,4197.435795,4209.743487,4196.922974,4191.794769,4203.07682
31,0,4219.999897,4219.999897,4225.128102,4234.358871,4216.410153,4213.846051,4215.384512,4215.897333,4221.538358,4190.769128,4219.487076,4201.025538,4192.30759,4197.948615
32,0,4230.256307,4220.512717,4229.230666,4236.922973,4200.512718,4212.82041,4215.384512,4219.999897,4229.230666,4198.461436,4223.58964,4207.692205,4202.564,4197.948615
33,0,4234.358871,4219.999897,4232.307589,4237.948614,4205.128102,4216.922974,4215.384512,4221.538358,4232.307589,4203.589641,4212.82041,4206.153743,4205.128102,4206.666564
34,0,4217.435794,4215.897333,4222.051179,4233.84605,4218.974256,4213.846051,4215.897333,4216.410153,4221.025538,4187.179385,4198.974256,4193.333231,4190.769128,4197.435795
35,0,4211.281948,4214.358871,4212.307589,4230.256307,4217.435794,4210.256307,4215.384512,4212.307589,4222.051179,4182.564,4205.640923,4182.05118,4182.564,4186.153744
36,0,4217.948615,4214.871692,4214.871692,4231.281948,4212.82041,4214.871692,4215.384512,4216.410153,4226.666563,4187.692205,4214.871692,4186.153744,4192.30759,4186.153744
37,0,4215.897333,4210.769128,4216.922974,4229.743486,4215.897333,4215.897333,4216.922974,4219.487076,4221.538358,4185.128103,4207.692205,4195.897333,4199.487077,4184.102462
38,0,4210.769128,4203.07682,4213.33323,4223.58964,4217.435794,4210.769128,4216.410153,4214.358871,4220.512717,4186.666564,4196.410154,4191.794769,4192.82041,4187.179385
39,0,4203.589641,4197.435795,4212.307589,4217.948615,4214.358871,4210.769128,4215.897333,4211.281948,4226.153743,4185.640923,4195.384513,4180.512718,4178.974257,4191.794769
40,0,4196.922974,4195.897333,4216.922974,4217.435794,4206.666564,4216.922974,4219.999897,4214.871692,4230.256307,4182.564,4198.974256,4182.564,4174.871693,4181.538359
41,0,4210.256307,4203.589641,4224.615281,4225.128102,4208.717846,4219.487076,4222.051179,4219.487076,4231.281948,4187.179385,4206.153743,4192.82041,4185.640923,4185.640923
42,0,4237.435794,4216.410153,4232.820409,4231.794768,4220.512717,4216.410153,4217.948615,4217.435794,4229.743486,4184.615282,4213.846051,4202.564,4205.128102,4213.846051
43,0,4248.205024,4221.025538,4242.051178,4232.307589,4212.82041,4211.281948,4215.384512,4216.410153,4229.743486,4179.487077,4221.538358,4214.871692,4214.871692,4222.051179
44,0,4249.230665,4218.461435,4246.666563,4238.461435,4206.666564,4210.769128,4219.487076,4223.07682,4234.871691,4194.871692,4230.256307,4221.538358,4216.410153,4222.563999
45,0,4248.717845,4218.461435,4239.999896,4248.205024,4223.58964,4215.897333,4221.025538,4224.615281,4233.84605,4208.717846,4226.153743,4216.410153,4214.358871,4232.820409
46,0,4242.051178,4216.922974,4232.820409,4247.692204,4235.897332,4218.974256,4218.461435,4218.461435,4226.666563,4201.538359,4212.307589,4211.794769,4205.128102,4223.58964
47,0,4234.358871,4207.692205,4235.384512,4241.538358,4229.743486,4214.871692,4215.897333,4214.358871,4228.717845,4195.897333,4209.230666,4206.666564,4201.025538,4209.230666
48,0,4229.230666,4199.999897,4236.410153,4236.922973,4223.58964,4212.82041,4216.410153,4214.871692,4230.256307,4196.922974,4214.871692,4199.487077,4204.102461,4213.846051
49,0,4230.256307,4203.07682,4232.307589,4239.999896,4218.974256,4215.897333,4215.384512,4210.769128,4222.051179,4190.769128,4212.307589,4201.025538,4202.051179,4215.897333
50,0,4235.897332,4206.153743,4233.84605,4241.538358,4215.384512,4213.846051,4212.82041,4205.128102,4213.846051,4185.128103,4201.538359,4202.564,4197.435795,4206.666564
51,0,4231.794768,4201.025538,4231.281948,4234.358871,4216.922974,4210.256307,4215.384512,4208.205025,4217.435794,4183.589641,4200.512718,4190.256308,4197.435795,4202.564
52,0,4218.974256,4198.974256,4220.512717,4230.256307,4210.769128,4208.205025,4216.922974,4213.846051,4225.640922,4182.05118,4205.640923,4181.538359,4197.948615,4199.999897
53,0,4211.281948,4202.051179,4220.512717,4214.358871,4217.948615,4205.128102,4214.871692,4212.82041,4229.743486,4192.30759,4203.589641,4190.769128,4196.922974,4197.948615
54,0,4213.33323,4208.205025,4229.230666,4173.846052,4243.076819,4209.230666,4214.871692,4214.871692,4231.794768,4197.948615,4208.205025,4203.07682,4201.538359,4202.051179
55,0,4215.384512,4210.256307,4225.128102,4149.230668,4248.205024,4213.846051,4211.794769,4217.948615,4225.128102,4186.153744,4218.461435,4203.589641,4204.615282,4204.615282
56,0,4209.743487,4204.615282,4216.410153,4158.461437,4238.974255,4205.128102,4201.538359,4206.153743,4214.871692,4179.487077,4209.743487,4195.897333,4200.512718,4198.974256
57,0,4202.051179,4200.512718,4218.461435,4166.153744,4241.025537,4197.948615,4197.948615,4195.897333,4215.384512,4188.717846,4197.435795,4189.230667,4193.846051,4196.410154
58,0,4197.435795,4203.589641,4217.435794,4164.102462,4246.666563,4210.256307,4207.692205,4205.128102,4219.487076,4188.205026,4196.922974,4184.102462,4191.794769,4195.384513
59,0,4193.846051,4201.538359,4210.769128,4165.640924,4247.179383,4216.922974,4215.384512,4213.846051,4221.538358,4181.538359,4199.487077,4184.102462,4193.333231,4196.410154
60,0,4198.974256,4199.487077,4213.33323,4168.205026,4245.128101,4210.769128,4215.384512,4211.794769,4228.205025,4194.358872,4209.743487,4189.230667,4198.974256,4204.102461
61,0,4203.589641,4200.512718,4214.871692,4168.717847,4237.435794,4211.281948,4209.743487,4209.743487,4227.692204,4202.051179,4209.230666,4189.230667,4199.487077,4197.948615
62,0,4198.974256,4202.051179,4210.256307,4172.30759,4236.410153,4214.358871,4206.153743,4211.281948,4219.999897,4193.846051,4195.384513,4185.128103,4195.897333,4190.256308
63,0,4205.128102,4211.281948,4217.435794,4183.589641,4246.666563,4213.846051,4211.794769,4215.897333,4227.692204,4199.487077,4209.743487,4189.743487,4204.615282,4207.692205
64,0,4220.512717,4219.999897,4230.256307,4190.256308,4251.794768,4214.358871,4217.435794,4222.563999,4238.974255,4207.179384,4236.922973,4205.128102,4219.999897,4228.205025
65,0,4218.461435,4216.410153,4232.820409,4186.153744,4255.897332,4216.922974,4216.922974,4224.615281,4235.384512,4198.974256,4232.307589,4218.461435,4219.999897,4225.640922
66,0,4215.897333,4213.33323,4233.33323,4187.179385,4261.025537,4216.410153,4217.435794,4222.051179,4233.84605,4202.051179,4227.179384,4219.487076,4215.384512,4221.025538
67,0,4229.230666,4222.051179,4236.410153,4196.922974,4264.10246,4216.922974,4219.487076,4219.487076,4235.897332,4221.538358,4241.538358,4214.358871,4225.128102,4234.358871
68,0,4235.384512,4230.256307,4232.307589,4201.538359,4263.589639,4217.948615,4218.974256,4219.999897,4232.820409,4221.025538,4235.384512,4215.897333,4232.307589,4240.512717
69,0,4233.84605,4224.615281,4228.717845,4203.589641,4253.333229,4216.922974,4219.487076,4220.512717,4234.358871,4206.666564,4215.384512,4219.999897,4220.512717,4226.666563
70,0,4222.563999,4212.82041,4230.769127,4202.051179,4241.025537,4213.33323,4215.897333,4213.846051,4229.230666,4197.435795,4212.82041,4210.769128,4208.717846,4211.281948
71,0,4205.128102,4211.794769,4230.769127,4198.461436,4250.769127,4211.281948,4211.281948,4208.205025,4219.487076,4194.358872,4220.512717,4201.538359,4210.769128,4215.897333
72,0,4206.153743,4214.871692,4227.692204,4201.538359,4262.563998,4212.82041,4214.358871,4212.82041,4223.07682,4198.974256,4216.922974,4197.948615,4213.33323,4223.07682
73,0,4217.435794,4208.717846,4222.051179,4207.179384,4254.871691,4214.871692,4219.487076,4215.897333,4227.692204,4193.333231,4202.051179,4190.769128,4204.615282,4202.051179
74,0,4208.205025,4202.051179,4216.922974,4197.435795,4248.717845,4212.82041,4218.461435,4214.871692,4224.102461,4182.05118,4196.410154,4185.128103,4196.922974,4183.589641
75,0,4195.897333,4200.512718,4217.435794,4184.615282,4248.205024,4210.256307,4216.922974,4218.974256,4227.692204,4192.82041,4207.692205,4186.666564,4201.538359,4198.974256
76,0,4207.179384,4206.666564,4222.563999,4192.82041,4248.717845,4212.82041,4217.435794,4221.538358,4234.871691,4205.128102,4221.025538,4193.333231,4213.33323,4222.563999
77,0,4220.512717,4215.897333,4228.717845,4204.615282,4257.948614,4215.897333,4217.435794,4217.435794,4233.84605,4203.589641,4221.538358,4200.512718,4218.461435,4218.461435
78,0,4221.025538,4217.948615,4232.307589,4203.589641,4264.10246,4215.384512,4216.922974,4217.948615,4232.307589,4202.564,4217.435794,4201.538359,4215.897333,4208.717846
79,0,4216.922974,4216.922974,4228.717845,4205.128102,4261.538357,4217.435794,4217.948615,4216.922974,4232.820409,4202.564,4216.922974,4196.922974,4213.846051,4217.948615
80,0,4217.948615,4218.461435,4225.640922,4214.358871,4265.640921,4215.897333,4214.871692,4214.358871,4229.743486,4201.538359,4211.794769,4199.999897,4215.384512,4222.563999
81,0,4227.692204,4217.948615,4231.794768,4220.512717,4259.487075,4204.615282,4205.640923,4212.307589,4223.07682,4201.025538,4215.897333,4209.230666,4217.435794,4214.871692
82,0,4233.33323,4217.435794,4232.307589,4214.358871,4244.10246,4198.974256,4199.487077,4205.128102,4213.33323,4189.230667,4227.179384,4207.692205,4217.948615,4215.384512
83,0,4228.717845,4218.974256,4226.153743,4205.128102,4254.871691,4207.692205,4202.564,4199.999897,4213.846051,4187.692205,4226.666563,4202.564,4218.461435,4226.153743
84,0,4215.384512,4215.897333,4228.717845,4205.128102,4262.051178,4211.281948,4205.640923,4205.128102,4217.948615,4202.564,4212.82041,4202.051179,4216.922974,4226.153743
85,0,4212.82041,4213.846051,4232.307589,4213.846051,4249.743486,4207.179384,4207.692205,4211.794769,4215.897333,4204.615282,4209.230666,4203.589641,4215.897333,4210.769128
86,0,4226.153743,4219.487076,4230.256307,4217.948615,4259.999896,4212.82041,4214.358871,4215.384512,4224.102461,4208.205025,4224.615281,4208.717846,4223.58964,4209.743487
87,0,4235.384512,4221.538358,4230.256307,4214.358871,4268.205024,4219.487076,4219.487076,4221.025538,4238.461435,4217.948615,4231.794768,4216.410153,4232.820409,4228.205025
88,0,4229.743486,4215.384512,4231.281948,4213.846051,4246.666563,4216.410153,4219.487076,4222.051179,4236.410153,4212.307589,4225.640922,4219.999897,4230.769127,4237.435794
89,0,4225.128102,4214.871692,4229.230666,4214.358871,4253.333229,4215.384512,4218.461435,4217.435794,4226.153743,4209.743487,4227.692204,4216.922974,4228.717845,4230.769127
90,0,4231.794768,4219.999897,4230.769127,4215.897333,4282.051177,4219.999897,4217.948615,4218.974256,4231.281948,4216.410153,4239.999896,4215.897333,4235.384512,4221.025538
91,0,4231.794768,4218.974256,4232.307589,4213.846051,4275.384511,4219.487076,4218.974256,4219.487076,4236.922973,4206.153743,4237.435794,4213.846051,4234.871691,4213.33323
92,0,4216.922974,4211.794769,4225.640922,4204.615282,4257.435793,4214.871692,4215.384512,4206.153743,4219.999897,4195.897333,4219.999897,4202.564,4218.461435,4211.281948
93,0,4209.743487,4210.256307,4221.538358,4203.07682,4259.487075,4212.82041,4212.82041,4197.435795,4203.07682,4201.025538,4213.846051,4197.435795,4213.846051,4214.871692
94,0,4224.102461,4216.922974,4227.692204,4212.307589,4264.10246,4215.384512,4215.897333,4206.153743,4208.205025,4203.07682,4215.897333,4206.666564,4222.051179,4217.435794
95,0,4242.563999,4227.692204,4231.281948,4217.948615,4263.076819,4218.974256,4216.922974,4209.743487,4217.948615,4200.512718,4217.435794,4210.769128,4223.58964,4223.58964
96,0,4259.487075,4238.974255,4232.307589,4217.435794,4262.051178,4217.948615,4212.307589,4202.564,4215.384512,4198.461436,4215.384512,4206.666564,4220.512717,4240.512717
97,0,4288.205023,4248.205024,4241.025537,4218.974256,4261.025537,4213.846051,4211.794769,4205.128102,4212.82041,4197.435795,4218.974256,4211.281948,4222.051179,4259.487075
98,0,4330.769125,4255.384511,4255.897332,4218.461435,4269.743485,4217.435794,4216.410153,4215.897333,4217.948615,4204.102461,4235.897332,4230.256307,4234.358871,4297.435792
99,0,4383.076816,4265.128101,4274.87169,4217.948615,4267.179383,4216.410153,4217.948615,4218.461435,4218.974256,4205.640923,4255.897332,4259.999896,4264.10246,4363.076816
100,0,4439.487071,4276.410152,4292.820408,4219.999897,4250.256306,4203.589641,4213.33323,4215.897333,4215.384512,4199.487077,4271.794767,4287.179382,4297.435792,4423.589635
101,0,4484.102454,4286.153741,4299.999895,4219.999897,4261.538357,4202.564,4210.256307,4213.846051,4215.384512,4205.640923,4279.999895,4297.435792,4311.794766,4463.589634
102,0,4510.76912,4291.794767,4305.1281,4217.948615,4294.87169,4216.410153,4213.846051,4213.846051,4221.025538,4218.461435,4285.640921,4297.435792,4319.487074,4508.717838
103,0,4519.999889,4290.256305,4313.846048,4219.487076,4293.846049,4221.025538,4218.461435,4219.487076,4226.153743,4220.512717,4287.692203,4298.461433,4329.743484,4541.53835
104,0,4515.384505,4278.461434,4309.230664,4215.897333,4261.025537,4211.281948,4215.384512,4214.871692,4217.948615,4212.307589,4286.153741,4295.38451,4325.128099,4531.28194
105,0,4506.666556,4267.179383,4296.410151,4201.538359,4256.922973,4208.205025,4210.256307,4204.102461,4204.615282,4205.640923,4281.538357,4289.743485,4317.435792,4510.2563
106,0,4501.538351,4266.666562,4296.410151,4192.30759,4277.948613,4214.871692,4211.281948,4206.666564,4209.230666,4195.897333,4273.846049,4286.153741,4311.794766,4494.358864
107,0,4488.717839,4266.666562,4296.922972,4195.897333,4277.435793,4212.307589,4205.640923,4209.230666,4212.82041,4183.589641,4263.589639,4275.384511,4295.897331,4471.281942
108,0,4457.948609,4261.025537,4285.640921,4193.333231,4260.512716,4200.512718,4196.922974,4198.974256,4198.974256,4183.589641,4251.281947,4262.563998,4278.974254,4440.512712
109,0,4431.794763,4258.461434,4274.35887,4173.846052,4255.897332,4199.487077,4203.589641,4199.999897,4196.922974,4192.30759,4245.640922,4256.922973,4273.333229,4410.256302
110,0,4417.435789,4256.922973,4269.743485,4157.948616,4269.230665,4210.256307,4215.897333,4217.435794,4214.871692,4203.07682,4246.153742,4255.384511,4269.230665,4382.563995
111,0,4393.333226,4248.717845,4263.589639,4148.717847,4283.076818,4213.33323,4217.948615,4221.025538,4217.948615,4203.589641,4249.230665,4246.666563,4266.153742,4361.538355
112,0,4365.640919,4244.615281,4254.871691,4139.487078,4285.640921,4212.82041,4210.769128,4212.82041,4211.281948,4198.461436,4251.281947,4236.922973,4265.640921,4336.922971
113,0,4351.281945,4247.179383,4246.666563,4135.384514,4278.461434,4214.358871,4206.666564,4214.871692,4222.051179,4206.666564,4241.025537,4230.256307,4256.922973,4305.64092
114,0,4325.64092,4239.487076,4233.33323,4131.28195,4279.487075,4214.871692,4207.692205,4216.410153,4224.615281,4216.410153,4226.153743,4219.487076,4245.640922,4288.205023
115,0,4299.487074,4231.281948,4234.871691,4130.256309,4293.333228,4217.948615,4213.846051,4209.230666,4216.922974,4210.256307,4223.58964,4219.999897,4246.153742,4276.410152
116,0,4292.307587,4233.84605,4245.128101,4133.846053,4291.794767,4220.512717,4217.948615,4203.07682,4212.307589,4194.871692,4223.58964,4230.769127,4246.153742,4255.384511
117,0,4275.384511,4231.281948,4234.871691,4130.76913,4281.538357,4218.461435,4214.871692,4199.487077,4202.051179,4189.230667,4217.948615,4222.051179,4236.410153,4227.692204
118,0,4246.153742,4218.974256,4217.948615,4115.897335,4279.999895,4216.410153,4213.33323,4198.974256,4194.871692,4185.128103,4211.794769,4200.512718,4223.07682,4208.205025
119,0,4234.358871,4211.794769,4218.461435,4103.589643,4282.051177,4217.435794,4218.461435,4204.102461,4204.615282,4178.461436,4203.589641,4193.333231,4217.435794,4214.358871
120,0,4233.33323,4214.358871,4218.461435,4096.410156,4283.589639,4212.307589,4215.384512,4206.666564,4214.871692,4186.666564,4198.461436,4198.974256,4222.051179,4217.435794
121,0,4223.58964,4213.846051,4207.179384,4075.384516,4286.666562,4202.564,4201.025538,4201.538359,4211.281948,4201.025538,4208.205025,4198.461436,4224.615281,4194.871692
122,0,4211.794769,4207.179384,4199.999897,4037.435799,4294.87169,4202.564,4202.564,4202.564,4214.358871,4205.128102,4218.974256,4195.897333,4219.487076,4177.435795
123,0,4205.128102,4199.487077,4201.538359,4022.051184,4292.307587,4204.615282,4212.307589,4206.666564,4215.384512,4199.487077,4212.307589,4195.384513,4215.897333,4181.538359
124,0,4198.461436,4201.538359,4209.230666,4065.640926,4273.333229,4202.051179,4204.615282,4205.128102,4202.564,4196.410154,4199.999897,4197.948615,4218.461435,4182.564
125,0,4189.743487,4204.615282,4215.384512,4121.538361,4257.948614,4205.128102,4202.564,4209.230666,4201.025538,4198.461436,4198.461436,4198.461436,4217.948615,4159.487078
126,0,4184.615282,4202.051179,4216.922974,4139.487078,4271.281947,4214.358871,4215.384512,4219.999897,4215.384512,4196.410154,4209.743487,4197.948615,4216.922974,4147.179386
127,0,4187.179385,4202.564,4214.358871,4139.999899,4287.692203,4216.922974,4218.974256,4221.025538,4222.563999,4200.512718,4222.051179,4199.999897,4219.999897,4177.435795
128,0,4188.717846,4205.128102,4208.205025,4148.717847,4281.025536,4214.358871,4210.769128,4213.846051,4215.897333,4207.692205,4219.999897,4198.461436,4221.538358,4192.82041
0,0,4184.615282,4204.102461,4203.07682,4156.922975,4276.410152,4217.948615,4214.358871,4212.82041,4215.384512,4207.179384,4204.102461,4188.205026,4214.871692,4156.922975
1,0,4176.410154,4194.358872,4199.999897,4150.769129,4271.794767,4220.512717,4217.435794,4212.307589,4219.487076,4199.999897,4195.384513,4175.384513,4204.615282,4126.666566
2,0,4164.102462,4186.666564,4195.897333,4138.461437,4260.512716,4216.922974,4205.640923,4203.07682,4212.82041,4194.871692,4198.461436,4168.205026,4200.512718,4138.461437
3,0,4157.948616,4191.281949,4195.897333,4144.102463,4268.717844,4214.871692,4203.589641,4205.640923,4212.307589,4198.974256,4201.025538,4179.999898,4201.538359,4151.28195
4,0,4167.692206,4200.512718,4202.051179,4159.999898,4287.179382,4216.410153,4215.897333,4223.58964,4224.615281,4201.538359,4208.205025,4199.487077,4210.769128,4153.846052
5,0,4174.871693,4200.512718,4202.051179,4159.487078,4282.563998,4216.922974,4217.948615,4227.692204,4218.974256,4195.897333,4212.82041,4198.461436,4216.410153,4153.333232
6,0,4170.256308,4198.461436,4204.615282,4159.487078,4273.333229,4221.025538,4217.435794,4223.58964,4208.717846,4205.128102,4214.871692,4192.82041,4215.897333,4156.410155
7,0,4171.281949,4203.07682,4215.384512,4168.205026,4279.999895,4229.230666,4231.281948,4233.84605,4227.179384,4229.743486,4225.640922,4201.538359,4226.666563,4163.076821
8,0,4180.512718,4203.589641,4217.435794,4173.846052,4275.897331,4229.743486,4233.84605,4234.358871,4240.512717,4233.33323,4225.128102,4206.666564,4233.33323,4160.512719
9,0,4190.256308,4207.179384,4214.358871,4180.512718,4271.281947,4227.692204,4224.102461,4222.051179,4226.153743,4219.487076,4217.435794,4202.051179,4223.58964,4170.256308
10,0,4194.358872,4217.948615,4218.461435,4189.230667,4291.794767,4231.794768,4227.179384,4227.179384,4232.307589,4228.717845,4230.256307,4204.102461,4225.640922,4189.743487
11,0,4180.512718,4215.897333,4221.025538,4188.205026,4301.025536,4234.358871,4232.820409,4236.922973,4253.333229,4238.974255,4234.358871,4208.717846,4233.33323,4170.256308
12,0,4170.769129,4204.102461,4218.461435,4186.666564,4284.102459,4232.820409,4229.230666,4231.281948,4236.410153,4217.948615,4215.384512,4205.640923,4221.025538,4145.128104
13,0,4185.128103,4203.589641,4217.948615,4196.410154,4277.435793,4226.666563,4227.179384,4223.07682,4211.281948,4207.692205,4213.33323,4205.640923,4215.384512,4163.589642
14,0,4189.743487,4204.615282,4212.82041,4202.564,4281.025536,4216.410153,4227.692204,4222.051179,4219.487076,4225.640922,4219.487076,4206.153743,4222.051179,4176.410154
15,0,4168.717847,4199.487077,4206.666564,4201.538359,4274.87169,4218.461435,4228.205025,4227.692204,4236.410153,4233.33323,4215.384512,4202.051179,4219.487076,4158.974257
16,0,4163.589642,4207.179384,4211.794769,4198.461436,4272.820408,4232.307589,4229.230666,4233.84605,4234.871691,4227.179384,4226.666563,4199.999897,4221.538358,4152.820411
17,0,4175.897334,4213.33323,4217.435794,4190.256308,4277.948613,4233.84605,4225.640922,4231.794768,4232.307589,4231.794768,4233.84605,4202.051179,4227.692204,4162.05118
18,0,4166.666565,4198.461436,4212.307589,4182.05118,4287.179382,4229.230666,4226.153743,4230.769127,4243.076819,4236.922973,4223.07682,4201.025538,4224.615281,4166.666565
19,0,4159.487078,4199.487077,4209.743487,4186.153744,4298.974254,4232.307589,4228.717845,4236.410153,4243.076819,4232.820409,4223.58964,4198.461436,4219.999897,4171.281949
20,0,4178.461436,4222.051179,4212.82041,4196.922974,4294.358869,4230.256307,4221.025538,4231.281948,4223.58964,4230.256307,4221.538358,4195.384513,4217.948615,4173.846052
21,0,4190.769128,4224.102461,4211.794769,4199.487077,4276.410152,4218.461435,4212.307589,4216.922974,4212.307589,4221.538358,4208.717846,4191.794769,4214.871692,4161.53836
22,0,4183.076821,4217.948615,4211.794769,4197.435795,4274.87169,4214.871692,4215.384512,4217.948615,4222.563999,4210.769128,4208.717846,4195.384513,4215.384512,4149.743488
23,0,4181.025539,4228.205025,4214.871692,4202.051179,4293.333228,4220.512717,4220.512717,4230.769127,4233.33323,4222.051179,4216.922974,4200.512718,4219.487076,4160.512719
24,0,4184.102462,4229.743486,4214.871692,4210.256307,4292.820408,4219.999897,4220.512717,4229.743486,4231.794768,4239.999896,4213.33323,4198.461436,4216.922974,4174.358872
25,0,4178.461436,4217.435794,4213.33323,4207.692205,4264.61528,4212.307589,4219.487076,4216.922974,4226.153743,4230.256307,4215.384512,4198.974256,4215.897333,4163.589642
26,0,4175.897334,4216.410153,4215.384512,4203.589641,4259.487075,4215.384512,4218.461435,4217.948615,4218.974256,4215.384512,4227.692204,4205.128102,4223.07682,4156.410155
27,0,4171.281949,4219.999897,4216.922974,4199.999897,4291.794767,4226.153743,4225.128102,4226.666563,4216.922974,4223.07682,4225.128102,4207.692205,4224.615281,4169.743488
28,0,4168.205026,4215.384512,4215.384512,4188.205026,4303.589638,4225.128102,4229.230666,4223.58964,4217.435794,4224.102461,4216.410153,4203.07682,4216.410153,4174.358872
29,0,4176.922975,4212.82041,4210.769128,4182.05118,4282.563998,4215.897333,4221.025538,4218.974256,4215.384512,4211.794769,4217.435794,4199.999897,4212.82041,4168.205026
30,0,4181.538359,4215.897333,4211.794769,4193.333231,4276.410152,4214.358871,4214.871692,4225.640922,4220.512717,4218.974256,4220.512717,4205.640923,4216.410153,4166.666565
31,0,4175.384513,4221.538358,4219.999897,4201.538359,4285.640921,4218.974256,4217.435794,4230.769127,4232.307589,4238.974255,4219.487076,4210.769128,4220.512717,4172.30759
32,0,4170.769129,4219.487076,4218.461435,4195.897333,4274.87169,4213.846051,4217.435794,4222.563999,4230.256307,4235.897332,4214.871692,4203.07682,4215.897333,4169.743488
33,0,4174.871693,4212.307589,4212.307589,4198.461436,4263.589639,4204.102461,4212.307589,4214.871692,4215.897333,4219.487076,4207.179384,4194.358872,4205.128102,4162.564001
34,0,4178.461436,4214.871692,4216.922974,4203.589641,4278.461434,4203.07682,4205.128102,4215.897333,4213.846051,4214.358871,4202.564,4196.410154,4203.07682,4163.589642
35,0,4174.871693,4215.384512,4217.435794,4192.30759,4283.589639,4204.615282,4199.999897,4213.846051,4215.897333,4217.435794,4198.974256,4201.025538,4204.615282,4162.05118
36,0,4168.717847,4204.615282,4209.230666,4183.076821,4265.640921,4201.025538,4206.153743,4210.256307,4214.358871,4215.897333,4191.794769,4194.358872,4200.512718,4153.846052
37,0,4166.666565,4198.461436,4213.846051,4193.846051,4266.666562,4205.640923,4213.846051,4217.435794,4223.07682,4211.281948,4207.692205,4190.256308,4206.666564,4157.435796
38,0,4172.30759,4202.051179,4221.538358,4200.512718,4286.666562,4217.948615,4216.410153,4227.692204,4226.666563,4218.461435,4229.230666,4197.948615,4219.999897,4170.769129
39,0,4179.999898,4208.205025,4216.922974,4195.897333,4281.538357,4220.512717,4222.051179,4227.692204,4214.358871,4229.230666,4222.563999,4205.128102,4219.999897,4181.538359
40,0,4187.179385,4211.281948,4215.897333,4198.461436,4271.281947,4216.922974,4230.769127,4226.666563,4215.384512,4230.769127,4215.384512,4205.640923,4216.922974,4187.692205
41,0,4183.589641,4205.128102,4215.384512,4201.025538,4277.948613,4215.384512,4229.743486,4228.717845,4231.794768,4230.769127,4217.435794,4204.615282,4218.974256,4177.948616
42,0,4171.281949,4196.410154,4205.640923,4194.358872,4281.025536,4215.384512,4222.051179,4229.230666,4230.769127,4229.743486,4211.794769,4200.512718,4211.281948,4163.589642
43,0,4169.743488,4199.487077,4201.538359,4195.384513,4280.512716,4217.435794,4218.974256,4230.769127,4227.692204,4231.281948,4210.256307,4203.589641,4207.179384,4169.230667
44,0,4177.948616,4205.128102,4208.717846,4203.589641,4283.076818,4214.358871,4217.948615,4227.692204,4233.84605,4233.33323,4216.410153,4210.769128,4212.307589,4174.358872
45,0,4182.564,4198.974256,4213.846051,4198.974256,4277.948613,4204.615282,4214.358871,4218.974256,4219.487076,4219.999897,4214.871692,4205.128102,4208.205025,4167.692206
46,0,4184.102462,4189.743487,4209.743487,4186.153744,4275.384511,4207.179384,4213.33323,4216.922974,4208.717846,4208.717846,4211.281948,4194.871692,4198.974256,4164.615283
47,0,4183.589641,4186.666564,4204.615282,4183.589641,4278.974254,4217.435794,4217.435794,4227.179384,4226.666563,4227.692204,4211.794769,4196.410154,4204.102461,4169.743488
48,0,4174.358872,4187.692205,4205.128102,4187.692205,4269.743485,4217.948615,4221.025538,4230.256307,4231.794768,4238.461435,4214.358871,4203.589641,4207.692205,4173.846052
49,0,4168.205026,4185.128103,4204.102461,4187.179385,4267.179383,4214.358871,4218.461435,4221.538358,4213.846051,4217.948615,4214.358871,4206.153743,4199.487077,4170.256308
50,0,4173.333231,4184.615282,4202.051179,4186.153744,4279.999895,4213.846051,4213.846051,4219.999897,4217.948615,4213.33323,4210.769128,4202.051179,4205.128102,4175.384513
51,0,4168.205026,4180.512718,4202.564,4184.102462,4279.999895,4216.922974,4218.974256,4227.692204,4237.948614,4232.307589,4204.102461,4193.846051,4207.179384,4178.461436
52,0,4152.307591,4173.846052,4202.564,4185.640923,4281.025536,4228.205025,4232.307589,4234.358871,4237.435794,4234.871691,4196.410154,4193.333231,4185.128103,4154.871693
53,0,4153.333232,4180.512718,4201.538359,4193.846051,4292.307587,4234.871691,4233.33323,4234.871691,4229.230666,4220.512717,4207.692205,4201.025538,4191.281949,4152.307591
54,0,4161.53836,4183.589641,4199.487077,4193.333231,4285.640921,4224.615281,4226.153743,4232.820409,4228.717845,4216.922974,4234.358871,4204.615282,4228.717845,4187.179385
55,0,4154.358873,4171.281949,4197.948615,4183.589641,4275.384511,4216.410153,4225.640922,4230.769127,4231.794768,4231.794768,4237.948614,4203.589641,4243.076819,4195.897333
56,0,4141.02554,4167.179385,4199.999897,4183.589641,4281.025536,4217.948615,4224.615281,4230.256307,4231.281948,4238.974255,4222.051179,4205.128102,4230.769127,4166.666565
57,0,4133.846053,4173.333231,4199.487077,4187.179385,4281.025536,4216.922974,4218.974256,4226.153743,4230.769127,4232.307589,4216.410153,4201.025538,4229.743486,4152.307591
58,0,4127.179386,4168.205026,4187.692205,4184.615282,4279.487075,4214.358871,4216.410153,4219.487076,4230.256307,4234.358871,4217.948615,4188.205026,4232.820409,4151.79477
59,0,4118.974258,4163.076821,4180.512718,4184.615282,4273.333229,4212.82041,4216.410153,4217.435794,4222.051179,4230.769127,4215.384512,4186.153744,4225.128102,4139.487078
60,0,4118.461438,4168.205026,4188.205026,4187.179385,4258.974255,4210.256307,4216.410153,4216.410153,4211.794769,4215.384512,4212.82041,4198.461436,4224.102461,4134.871694
61,0,4128.205027,4171.79477,4198.974256,4190.769128,4270.256306,4212.82041,4218.461435,4217.435794,4217.948615,4219.999897,4220.512717,4203.07682,4232.820409,4153.846052
62,0,4137.948617,4169.230667,4197.948615,4198.461436,4292.307587,4218.461435,4218.461435,4224.102461,4231.281948,4237.948614,4231.281948,4203.07682,4236.410153,4170.256308
63,0,4141.02554,4169.743488,4192.30759,4200.512718,4285.1281,4217.435794,4216.922974,4225.640922,4233.33323,4235.897332,4230.256307,4200.512718,4232.307589,4170.769129
64,0,4143.076822,4178.461436,4195.897333,4196.410154,4271.281947,4214.871692,4217.435794,4218.974256,4228.717845,4230.256307,4227.179384,4196.410154,4237.948614,4174.358872
65,0,4142.564001,4185.640923,4205.128102,4201.025538,4278.974254,4218.461435,4218.461435,4221.025538,4230.256307,4237.435794,4236.922973,4206.153743,4249.230665,4185.128103
66,0,4139.999899,4185.640923,4206.153743,4209.743487,4281.025536,4221.025538,4216.410153,4228.717845,4233.84605,4236.410153,4236.922973,4215.384512,4247.179383,4181.538359
67,0,4139.487078,4184.102462,4195.897333,4212.307589,4277.948613,4218.974256,4216.922974,4227.179384,4232.307589,4228.717845,4220.512717,4205.640923,4237.948614,4159.487078
68,0,4138.974258,4180.512718,4185.640923,4209.743487,4283.589639,4217.948615,4223.58964,4226.666563,4232.820409,4231.281948,4215.384512,4193.846051,4231.281948,4154.871693
69,0,4135.384514,4177.948616,4185.640923,4205.128102,4283.076818,4218.974256,4224.102461,4228.205025,4233.33323,4237.948614,4216.922974,4189.743487,4229.743486,4170.769129
70,0,4136.410155,4182.05118,4189.743487,4206.153743,4277.435793,4218.461435,4216.410153,4220.512717,4225.128102,4233.33323,4214.871692,4190.769128,4229.743486,4166.153744
71,0,4141.02554,4187.179385,4193.333231,4213.33323,4276.410152,4215.897333,4218.461435,4219.487076,4220.512717,4221.538358,4222.051179,4198.461436,4232.820409,4155.897334
72,0,4147.179386,4186.666564,4197.435795,4222.051179,4279.487075,4216.922974,4229.743486,4231.794768,4230.769127,4227.179384,4236.922973,4202.051179,4240.512717,4176.410154
73,0,4154.358873,4186.153744,4197.948615,4219.999897,4285.1281,4221.025538,4229.230666,4234.358871,4238.461435,4244.615281,4230.256307,4196.922974,4242.563999,4191.794769
74,0,4151.79477,4186.153744,4195.384513,4211.794769,4284.61528,4219.999897,4221.538358,4229.230666,4233.84605,4240.512717,4215.384512,4199.999897,4235.384512,4175.384513
75,0,4145.128104,4183.076821,4196.410154,4217.948615,4272.820408,4216.410153,4224.615281,4228.205025,4229.743486,4228.205025,4221.025538,4201.538359,4232.307589,4168.205026
76,0,4155.897334,4188.717846,4202.051179,4231.281948,4273.333229,4220.512717,4231.281948,4229.230666,4232.307589,4241.025537,4229.743486,4198.461436,4238.461435,4177.948616
77,0,4173.333231,4201.025538,4213.33323,4237.948614,4295.897331,4230.256307,4232.307589,4229.743486,4234.871691,4254.871691,4232.307589,4206.666564,4247.692204,4182.564
78,0,4169.743488,4201.025538,4217.948615,4230.769127,4295.897331,4231.281948,4227.692204,4231.281948,4232.307589,4242.051178,4237.435794,4213.33323,4250.256306,4186.666564
79,0,4152.307591,4188.717846,4206.666564,4221.025538,4274.87169,4222.051179,4221.538358,4229.230666,4228.717845,4231.794768,4229.743486,4201.025538,4240.512717,4187.692205
80,0,4148.717847,4185.128103,4193.333231,4214.871692,4274.35887,4216.410153,4219.487076,4228.717845,4232.820409,4233.33323,4212.82041,4186.153744,4229.230666,4175.897334
81,0,4154.358873,4186.666564,4198.974256,4216.410153,4281.025536,4218.974256,4219.999897,4227.692204,4229.743486,4220.512717,4218.974256,4190.769128,4232.307589,4166.153744
82,0,4152.307591,4183.076821,4209.230666,4223.58964,4272.307588,4217.948615,4221.025538,4225.640922,4217.435794,4216.922974,4235.384512,4202.564,4237.948614,4173.333231
83,0,4155.897334,4188.205026,4207.692205,4227.179384,4273.333229,4214.358871,4218.974256,4224.102461,4214.871692,4233.84605,4232.307589,4201.538359,4238.461435,4191.794769
84,0,4157.435796,4185.640923,4198.461436,4220.512717,4281.025536,4213.33323,4217.948615,4224.615281,4218.974256,4234.358871,4226.153743,4193.333231,4233.84605,4190.256308
85,0,4137.948617,4164.615283,4194.871692,4208.717846,4275.384511,4213.846051,4226.666563,4228.717845,4218.461435,4224.102461,4222.051179,4190.769128,4222.563999,4165.128103
86,0,4149.743488,4174.358872,4206.153743,4215.384512,4273.846049,4215.897333,4233.84605,4231.794768,4219.487076,4225.640922,4216.922974,4194.871692,4219.487076,4170.256308
87,0,4202.564,4214.871692,4222.563999,4235.384512,4285.1281,4219.999897,4226.153743,4224.102461,4219.487076,4223.58964,4224.102461,4202.051179,4232.307589,4214.871692
88,0,4226.153743,4228.717845,4231.281948,4239.487076,4281.538357,4219.487076,4217.435794,4216.922974,4218.461435,4218.461435,4228.205025,4205.640923,4235.897332,4238.461435
89,0,4214.871692,4217.948615,4230.769127,4231.794768,4266.153742,4215.384512,4216.922974,4216.410153,4221.538358,4218.974256,4214.358871,4203.589641,4219.999897,4216.410153
90,0,4217.435794,4217.435794,4231.281948,4230.256307,4271.281947,4214.358871,4217.948615,4218.974256,4214.871692,4211.281948,4208.717846,4207.692205,4212.307589,4195.897333
91,0,4223.07682,4221.025538,4237.435794,4234.358871,4284.102459,4216.922974,4221.538358,4223.07682,4216.410153,4214.358871,4217.948615,4213.846051,4218.974256,4205.640923
92,0,4217.948615,4218.974256,4231.281948,4231.794768,4278.974254,4216.922974,4221.538358,4222.563999,4228.717845,4231.794768,4218.974256,4208.205025,4219.999897,4215.384512
93,0,4215.897333,4215.897333,4221.538358,4222.563999,4275.897331,4216.410153,4215.384512,4214.358871,4224.102461,4233.84605,4216.922974,4198.461436,4218.974256,4212.307589
94,0,4211.794769,4209.743487,4224.615281,4215.897333,4285.640921,4213.33323,4214.871692,4214.358871,4222.051179,4225.640922,4217.948615,4200.512718,4215.384512,4211.281948
95,0,4206.666564,4204.102461,4225.128102,4215.897333,4285.640921,4206.666564,4217.435794,4217.948615,4226.666563,4222.051179,4208.717846,4202.564,4202.051179,4210.256307
96,0,4206.153743,4204.615282,4216.410153,4218.461435,4279.999895,4207.692205,4215.897333,4214.358871,4223.58964,4217.948615,4202.051179,4199.487077,4192.82041,4201.538359
97,0,4209.230666,4213.33323,4216.922974,4219.487076,4282.563998,4213.846051,4221.538358,4214.358871,4225.128102,4215.384512,4211.794769,4197.435795,4201.538359,4202.051179
98,0,4209.230666,4216.410153,4217.435794,4217.948615,4277.435793,4219.487076,4232.307589,4218.461435,4226.666563,4216.410153,4221.538358,4192.30759,4205.640923,4199.487077
99,0,4196.410154,4204.102461,4203.589641,4213.846051,4278.461434,4223.58964,4230.769127,4216.922974,4215.384512,4216.922974,4208.717846,4183.589641,4192.82041,4184.615282
100,0,4188.717846,4196.410154,4196.410154,4212.307589,4289.230664,4222.563999,4217.948615,4210.769128,4214.871692,4218.461435,4188.717846,4177.435795,4183.076821,4188.717846
101,0,4190.769128,4198.461436,4199.487077,4212.82041,4285.640921,4216.922974,4212.307589,4204.102461,4222.563999,4218.461435,4189.230667,4172.30759,4182.05118,4201.538359
102,0,4189.743487,4200.512718,4197.435795,4215.384512,4273.846049,4216.922974,4214.358871,4202.051179,4216.410153,4212.82041,4199.487077,4169.743488,4183.076821,4198.461436
103,0,4192.30759,4201.025538,4201.538359,4221.025538,4278.974254,4216.922974,4213.846051,4207.179384,4218.461435,4215.384512,4204.102461,4184.615282,4193.846051,4196.410154
104,0,4199.999897,4201.538359,4211.794769,4222.051179,4285.1281,4215.384512,4215.897333,4216.922974,4232.307589,4225.640922,4211.281948,4199.999897,4204.102461,4207.179384
105,0,4202.564,4205.640923,4215.897333,4215.384512,4283.076818,4223.07682,4223.58964,4225.640922,4231.281948,4227.692204,4224.615281,4200.512718,4202.051179,4216.410153
106,0,4212.82041,4216.922974,4214.871692,4214.358871,4291.281946,4232.820409,4235.384512,4233.33323,4230.256307,4231.794768,4228.205025,4208.205025,4207.692205,4225.128102
107,0,4223.07682,4222.563999,4219.999897,4221.025538,4297.435792,4232.820409,4242.563999,4236.410153,4241.538358,4245.640922,4226.153743,4216.922974,4220.512717,4231.281948
108,0,4210.769128,4213.846051,4225.640922,4221.538358,4282.563998,4229.743486,4239.999896,4234.871691,4246.666563,4244.615281,4229.230666,4208.717846,4214.871692,4219.999897
109,0,4201.538359,4208.205025,4223.58964,4216.410153,4273.333229,4231.794768,4239.999896,4234.358871,4246.666563,4239.999896,4227.692204,4202.051179,4203.07682,4207.179384
110,0,4209.230666,4213.846051,4218.974256,4216.410153,4287.179382,4233.84605,4241.538358,4235.384512,4248.717845,4243.076819,4219.999897,4206.153743,4203.589641,4205.640923
111,0,4208.717846,4214.358871,4215.897333,4216.922974,4297.948613,4231.794768,4236.410153,4231.794768,4238.461435,4229.743486,4216.922974,4199.487077,4204.615282,4205.640923
112,0,4196.410154,4204.102461,4213.33323,4213.846051,4285.1281,4230.769127,4231.794768,4221.538358,4224.615281,4217.435794,4212.82041,4190.769128,4198.461436,4198.974256
113,0,4189.743487,4197.435795,4211.281948,4215.897333,4273.333229,4230.769127,4231.281948,4213.846051,4224.102461,4230.256307,4204.615282,4195.897333,4194.871692,4197.948615
114,0,4190.256308,4199.999897,4212.307589,4214.358871,4283.589639,4230.256307,4231.794768,4221.025538,4229.743486,4236.922973,4207.179384,4198.974256,4197.948615,4205.128102
115,0,4186.666564,4199.999897,4214.358871,4203.589641,4293.846049,4232.307589,4233.84605,4231.281948,4235.897332,4231.281948,4216.410153,4199.487077,4200.512718,4209.230666
116,0,4180.512718,4195.384513,4212.307589,4198.974256,4284.102459,4232.820409,4233.84605,4230.769127,4242.563999,4232.307589,4216.410153,4197.948615,4198.461436,4199.487077
117,0,4189.230667,4197.435795,4211.281948,4208.717846,4287.179382,4233.84605,4234.871691,4228.717845,4241.538358,4232.820409,4225.128102,4197.435795,4207.179384,4201.025538
118,0,4202.564,4204.102461,4214.358871,4211.794769,4305.64092,4238.974255,4244.10246,4232.820409,4239.999896,4242.563999,4235.897332,4208.205025,4218.461435,4226.153743
119,0,4193.846051,4203.589641,4215.897333,4203.07682,4298.461433,4235.897332,4239.999896,4234.358871,4244.615281,4252.820409,4226.666563,4212.307589,4210.256307,4231.281948
120,0,4186.666564,4205.128102,4214.358871,4207.692205,4286.666562,4229.743486,4228.717845,4231.794768,4240.512717,4233.33323,4220.512717,4195.897333,4197.435795,4207.179384
121,0,4199.487077,4216.922974,4211.281948,4222.051179,4296.922972,4233.33323,4231.281948,4228.205025,4229.743486,4219.487076,4231.281948,4189.743487,4205.128102,4210.769128
122,0,4200.512718,4222.051179,4205.128102,4215.897333,4299.999895,4233.84605,4229.230666,4219.999897,4226.666563,4231.794768,4226.666563,4190.769128,4208.717846,4225.640922
123,0,4180.512718,4210.769128,4195.897333,4199.487077,4292.820408,4225.640922,4216.410153,4212.82041,4226.666563,4233.84605,4201.538359,4170.769129,4186.153744,4203.589641
124,0,4176.922975,4207.692205,4195.897333,4208.717846,4298.974254,4226.666563,4215.384512,4214.358871,4226.153743,4226.153743,4201.025538,4162.05118,4184.102462,4189.743487
125,0,4197.948615,4215.897333,4207.692205,4218.974256,4300.512715,4233.84605,4221.538358,4216.922974,4227.692204,4230.769127,4222.563999,4186.153744,4221.538358,4216.922974
126,0,4207.692205,4210.256307,4208.717846,4205.128102,4288.205023,4232.307589,4216.410153,4216.922974,4230.256307,4237.435794,4232.307589,4201.025538,4241.538358,4236.922973
127,0,4193.333231,4198.974256,4199.487077,4199.999897,4295.38451,4230.256307,4215.384512,4222.051179,4232.820409,4240.512717,4228.205025,4191.794769,4230.256307,4232.307589
128,0,4189.230667,4205.640923,4206.666564,4212.307589,4315.38451,4232.820409,4225.640922,4229.230666,4240.512717,4247.692204,4232.307589,4190.256308,4232.820409,4237.948614
0,0,4211.281948,4218.974256,4221.538358,4219.487076,4310.256305,4233.84605,4230.769127,4230.256307,4247.179383,4257.948614,4244.10246,4203.589641,4250.256306,4249.743486
1,0,4218.461435,4217.948615,4219.999897,4227.692204,4296.410151,4230.769127,4226.666563,4229.743486,4248.205024,4258.461434,4250.256306,4203.589641,4249.230665,4248.717845
2,0,4202.051179,4215.897333,4214.871692,4233.33323,4294.87169,4229.743486,4227.692204,4229.230666,4247.179383,4243.58964,4246.666563,4198.974256,4238.461435,4242.051178
3,0,4197.435795,4216.922974,4217.948615,4223.58964,4285.1281,4230.769127,4231.794768,4222.563999,4233.84605,4230.769127,4229.230666,4209.230666,4232.307589,4236.410153
4,0,4202.051179,4210.256307,4217.948615,4215.384512,4285.1281,4228.205025,4231.794768,4216.922974,4216.922974,4232.307589,4223.07682,4210.769128,4230.769127,4233.33323
5,0,4201.025538,4207.179384,4211.281948,4218.974256,4306.153741,4225.640922,4226.666563,4215.897333,4212.82041,4232.820409,4232.820409,4198.461436,4230.769127,4235.384512
6,0,4199.487077,4215.897333,4205.640923,4220.512717,4306.153741,4227.692204,4221.025538,4214.871692,4216.410153,4228.717845,4228.717845,4195.897333,4226.153743,4236.922973
7,0,4200.512718,4217.948615,4203.07682,4214.358871,4292.820408,4227.179384,4218.461435,4214.358871,4224.615281,4230.769127,4217.435794,4194.358872,4222.563999,4240.512717
8,0,4208.205025,4213.846051,4202.564,4209.230666,4296.410151,4221.538358,4219.487076,4214.358871,4233.84605,4235.897332,4226.666563,4188.717846,4228.717845,4248.717845
9,0,4215.384512,4216.922974,4206.666564,4207.692205,4288.205023,4218.461435,4220.512717,4216.922974,4228.205025,4232.820409,4237.948614,4195.384513,4235.384512,4243.58964
10,0,4203.07682,4210.256307,4211.281948,4204.102461,4273.846049,4215.897333,4217.948615,4212.82041,4215.384512,4219.487076,4226.153743,4202.564,4229.230666,4226.666563
11,0,4196.410154,4199.487077,4213.33323,4197.948615,4289.230664,4210.256307,4212.307589,4203.07682,4213.846051,4222.051179,4217.435794,4199.487077,4227.692204,4225.640922
12,0,4212.307589,4207.692205,4214.871692,4199.487077,4296.922972,4212.307589,4209.743487,4204.615282,4215.897333,4234.358871,4228.205025,4203.07682,4239.487076,4241.025537
13,0,4215.384512,4216.922974,4215.897333,4209.230666,4280.512716,4216.410153,4214.358871,4213.846051,4213.846051,4222.051179,4241.538358,4208.717846,4240.512717,4244.10246
