title:JTA                                                                             , recorded:03.07.20 12.46.55, sampling:128, subject:JTA                                                                             , labels:COUNTER INTERPOLATED AF3 F7 F3 FC5 T7 P7 O1 O2 P8 T8 FC6 F4 F8 AF4,, units:emotiv,,,,,,,,,
90,0,4318.461433,4225.640922,4250.256306,4206.153743,4229.743486,4231.794768,4219.487076,4227.179384,4224.615281,4229.230666,4251.794768,4258.974255,4268.717844,4330.769125
91,0,4297.948613,4215.384512,4243.076819,4199.999897,4232.820409,4230.256307,4213.846051,4221.538358,4227.692204,4216.410153,4242.051178,4244.10246,4255.384511,4323.589638
92,0,4292.820408,4214.871692,4238.974255,4206.153743,4221.025538,4223.58964,4214.871692,4223.07682,4228.205025,4222.563999,4244.10246,4243.076819,4256.922973,4328.717843
93,0,4296.410151,4216.410153,4237.948614,4217.948615,4213.846051,4215.384512,4217.435794,4228.205025,4228.205025,4233.84605,4246.153742,4247.692204,4260.512716,4320.512715
94,0,4294.358869,4211.281948,4234.871691,4213.846051,4224.102461,4218.974256,4217.948615,4226.666563,4224.615281,4220.512717,4244.10246,4245.640922,4257.948614,4307.692202
95,0,4290.769126,4207.692205,4232.307589,4204.615282,4228.717845,4229.743486,4224.615281,4230.256307,4229.743486,4208.205025,4247.692204,4246.666563,4258.974255,4308.205023
96,0,4285.640921,4213.846051,4235.384512,4206.153743,4221.025538,4228.717845,4231.281948,4238.461435,4244.10246,4228.205025,4251.281947,4250.256306,4264.61528,4314.871689
97,0,4278.461434,4212.82041,4236.922973,4207.179384,4210.769128,4219.999897,4225.128102,4236.410153,4238.974255,4239.999896,4247.692204,4248.717845,4261.025537,4311.281946
98,0,4275.384511,4203.589641,4233.33323,4202.564,4211.281948,4225.128102,4223.07682,4232.307589,4225.640922,4231.281948,4244.615281,4246.153742,4253.333229,4306.666561
99,0,4279.487075,4207.179384,4235.897332,4198.974256,4228.205025,4232.820409,4230.256307,4234.871691,4231.794768,4234.358871,4250.769127,4248.205024,4257.435793,4309.743484
100,0,4281.538357,4215.897333,4245.128101,4201.025538,4235.897332,4226.666563,4224.102461,4233.33323,4240.512717,4241.025537,4253.333229,4251.281947,4264.61528,4308.205023
101,0,4283.589639,4214.871692,4250.256306,4208.205025,4231.794768,4225.128102,4218.974256,4230.256307,4244.615281,4235.897332,4246.153742,4249.230665,4263.589639,4307.179382
102,0,4283.076818,4214.871692,4246.666563,4211.281948,4239.487076,4235.897332,4227.179384,4230.769127,4245.640922,4233.33323,4244.615281,4248.717845,4263.076819,4309.230664
103,0,4272.307588,4215.897333,4238.974255,4204.615282,4245.640922,4238.974255,4228.717845,4233.84605,4239.999896,4235.384512,4251.281947,4248.205024,4262.051178,4303.589638
104,0,4263.589639,4208.205025,4229.743486,4199.999897,4234.358871,4232.307589,4223.07682,4235.897332,4236.922973,4236.922973,4247.179383,4238.461435,4252.307588,4297.948613
105,0,4263.076819,4200.512718,4225.640922,4202.051179,4227.179384,4230.769127,4219.999897,4230.256307,4230.769127,4225.128102,4233.84605,4229.230666,4246.153742,4291.794767
106,0,4262.563998,4199.487077,4226.666563,4198.974256,4229.230666,4231.281948,4215.897333,4222.051179,4225.640922,4208.205025,4229.743486,4231.281948,4245.640922,4278.461434
107,0,4263.589639,4206.666564,4228.717845,4196.922974,4228.205025,4229.230666,4215.897333,4226.153743,4238.974255,4216.922974,4233.84605,4236.922973,4246.153742,4278.974254
108,0,4264.61528,4216.410153,4232.307589,4203.589641,4229.743486,4229.230666,4219.487076,4232.307589,4241.025537,4237.435794,4234.871691,4233.33323,4249.743486,4290.769126
109,0,4264.10246,4215.384512,4230.769127,4206.666564,4230.769127,4229.743486,4218.461435,4227.692204,4221.025538,4232.307589,4232.307589,4229.743486,4249.230665,4282.563998
110,0,4269.230665,4213.846051,4230.256307,4205.128102,4230.769127,4229.230666,4223.07682,4228.205025,4223.58964,4223.58964,4235.897332,4237.948614,4247.692204,4279.487075
111,0,4281.025536,4224.615281,4241.538358,4205.128102,4235.384512,4231.281948,4231.794768,4234.358871,4243.076819,4236.922973,4247.692204,4248.717845,4257.948614,4299.999895
112,0,4278.974254,4227.179384,4248.717845,4202.564,4233.84605,4233.84605,4228.717845,4233.33323,4239.999896,4237.948614,4249.743486,4248.717845,4265.128101,4295.897331
113,0,4267.179383,4217.435794,4239.487076,4189.230667,4229.743486,4233.33323,4222.051179,4230.256307,4226.153743,4220.512717,4235.384512,4242.563999,4255.897332,4279.999895
114,0,4264.61528,4211.794769,4230.769127,4170.256308,4231.794768,4228.205025,4216.410153,4229.230666,4229.230666,4221.025538,4231.281948,4242.563999,4245.128101,4287.692203
115,0,4272.820408,4215.897333,4238.461435,4165.640924,4241.538358,4226.666563,4216.410153,4233.33323,4243.58964,4236.410153,4238.974255,4243.076819,4247.692204,4291.281946
116,0,4273.333229,4220.512717,4245.640922,4165.128103,4245.128101,4231.281948,4225.128102,4241.025537,4238.461435,4232.820409,4240.512717,4238.461435,4253.84605,4275.897331
117,0,4257.948614,4209.743487,4235.384512,4154.871693,4237.435794,4234.358871,4228.205025,4237.948614,4218.974256,4212.307589,4233.33323,4231.281948,4242.051178,4265.128101
118,0,4247.692204,4196.922974,4223.58964,4147.692206,4231.281948,4229.230666,4218.974256,4231.281948,4221.025538,4209.743487,4224.102461,4226.153743,4226.666563,4264.61528
119,0,4251.281947,4207.179384,4225.640922,4150.769129,4234.358871,4219.999897,4213.846051,4227.692204,4226.153743,4217.435794,4223.07682,4227.179384,4237.435794,4263.589639
120,0,4250.769127,4217.948615,4231.281948,4155.897334,4236.410153,4216.922974,4215.384512,4223.07682,4216.922974,4216.410153,4231.794768,4233.84605,4254.35887,4264.10246
121,0,4245.640922,4209.230666,4229.230666,4161.53836,4233.33323,4217.948615,4213.846051,4221.025538,4216.922974,4216.410153,4232.820409,4232.307589,4246.153742,4263.076819
122,0,4247.692204,4202.051179,4225.640922,4167.692206,4232.307589,4216.922974,4212.82041,4221.538358,4230.769127,4216.922974,4224.102461,4220.512717,4233.84605,4257.435793
123,0,4251.794768,4203.589641,4223.07682,4168.717847,4226.666563,4214.358871,4211.794769,4218.974256,4229.743486,4215.897333,4217.948615,4214.871692,4234.358871,4247.692204
124,0,4245.128101,4204.615282,4222.051179,4170.256308,4220.512717,4213.33323,4205.640923,4215.897333,4218.461435,4213.33323,4214.358871,4216.410153,4229.743486,4238.974255
125,0,4236.922973,4210.256307,4227.179384,4178.974257,4227.179384,4216.410153,4206.666564,4218.974256,4222.563999,4216.922974,4219.487076,4223.58964,4231.281948,4245.128101
126,0,4240.512717,4218.461435,4231.794768,4188.717846,4225.640922,4218.461435,4213.846051,4222.563999,4233.84605,4228.717845,4229.743486,4233.33323,4242.563999,4251.794768
127,0,4247.692204,4217.435794,4230.769127,4192.82041,4216.410153,4218.461435,4215.897333,4221.538358,4229.230666,4231.281948,4227.179384,4231.794768,4245.640922,4247.692204
128,0,4244.10246,4215.897333,4228.205025,4189.743487,4226.153743,4218.974256,4207.692205,4219.487076,4223.58964,4216.922974,4222.563999,4225.128102,4242.563999,4249.230665
0,0,4243.076819,4224.615281,4228.205025,4188.205026,4239.999896,4218.974256,4202.051179,4219.487076,4227.692204,4213.33323,4226.666563,4228.205025,4243.076819,4251.794768
1,0,4255.897332,4233.33323,4232.820409,4192.30759,4237.435794,4216.410153,4208.717846,4220.512717,4225.128102,4225.640922,4230.769127,4234.871691,4244.10246,4248.205024
2,0,4261.025537,4233.33323,4235.384512,4190.256308,4232.820409,4216.410153,4210.769128,4217.435794,4220.512717,4224.102461,4228.717845,4233.33323,4244.615281,4250.769127
3,0,4251.794768,4229.743486,4232.820409,4185.128103,4233.84605,4219.487076,4202.564,4214.871692,4223.58964,4215.384512,4229.230666,4229.230666,4245.128101,4261.538357
4,0,4245.640922,4230.769127,4231.794768,4183.589641,4233.33323,4217.948615,4205.640923,4212.82041,4216.410153,4215.384512,4228.205025,4225.640922,4237.948614,4251.794768
5,0,4248.717845,4231.794768,4233.84605,4185.128103,4236.922973,4217.948615,4217.948615,4213.33323,4213.33323,4217.435794,4220.512717,4229.230666,4236.922973,4231.794768
6,0,4250.256306,4231.281948,4232.820409,4184.615282,4235.897332,4221.025538,4217.948615,4217.435794,4228.205025,4221.538358,4217.435794,4227.179384,4246.666563,4238.974255
7,0,4239.999896,4230.769127,4229.230666,4179.999898,4228.205025,4219.487076,4214.871692,4217.435794,4228.717845,4221.025538,4225.128102,4219.487076,4247.179383,4255.384511
8,0,4229.743486,4227.692204,4226.666563,4174.358872,4228.717845,4217.435794,4216.410153,4216.922974,4214.871692,4215.897333,4228.717845,4221.538358,4238.461435,4246.153742
9,0,4241.538358,4229.743486,4228.717845,4178.461436,4230.769127,4215.897333,4214.358871,4215.897333,4211.281948,4214.871692,4221.025538,4224.615281,4238.974255,4226.153743
10,0,4252.820409,4232.307589,4230.256307,4187.179385,4229.743486,4216.410153,4214.358871,4214.871692,4213.33323,4215.384512,4214.358871,4216.410153,4239.487076,4228.717845
11,0,4239.999896,4230.769127,4227.179384,4185.128103,4235.384512,4224.615281,4217.435794,4217.435794,4221.538358,4216.410153,4212.82041,4213.33323,4231.281948,4242.051178
12,0,4235.897332,4234.871691,4230.256307,4181.025539,4238.461435,4229.230666,4217.435794,4222.051179,4232.820409,4219.999897,4224.102461,4228.717845,4235.384512,4240.512717
13,0,4246.666563,4242.051178,4239.487076,4182.564,4231.281948,4220.512717,4215.897333,4219.999897,4229.743486,4219.999897,4232.307589,4238.461435,4246.666563,4232.307589
14,0,4246.153742,4242.563999,4237.948614,4179.487077,4235.384512,4215.384512,4213.846051,4214.358871,4216.922974,4222.563999,4221.538358,4230.256307,4240.512717,4228.717845
15,0,4238.974255,4240.512717,4232.820409,4175.384513,4249.743486,4221.538358,4215.384512,4213.33323,4207.692205,4215.897333,4217.435794,4219.487076,4230.769127,4231.281948
16,0,4231.794768,4236.410153,4232.307589,4171.281949,4240.512717,4223.58964,4216.922974,4213.846051,4206.153743,4197.948615,4222.051179,4215.897333,4230.769127,4233.33323
17,0,4225.128102,4230.769127,4223.58964,4165.128103,4223.58964,4216.410153,4212.82041,4211.794769,4210.769128,4202.051179,4215.897333,4213.846051,4231.794768,4228.717845
18,0,4231.281948,4237.948614,4218.461435,4167.692206,4234.358871,4214.871692,4209.743487,4210.256307,4216.922974,4220.512717,4215.897333,4214.358871,4236.410153,4226.153743
19,0,4246.153742,4253.333229,4226.153743,4177.948616,4250.769127,4225.128102,4216.922974,4214.871692,4222.051179,4222.563999,4228.717845,4220.512717,4245.640922,4234.358871
20,0,4264.10246,4262.563998,4235.384512,4183.589641,4248.717845,4235.384512,4225.640922,4222.563999,4227.692204,4225.640922,4236.410153,4227.179384,4256.410152,4257.948614
21,0,4297.948613,4275.384511,4244.10246,4191.794769,4245.640922,4235.384512,4225.640922,4224.615281,4229.743486,4233.33323,4241.538358,4239.487076,4268.205024,4292.307587
22,0,4348.205022,4295.38451,4258.974255,4206.666564,4248.205024,4233.84605,4220.512717,4224.615281,4232.307589,4229.743486,4248.717845,4258.974255,4274.35887,4335.89733
23,0,4417.94861,4314.358869,4280.512716,4218.974256,4250.769127,4232.307589,4217.948615,4227.692204,4237.948614,4236.922973,4266.666562,4285.640921,4297.435792,4405.128097
24,0,4490.2563,4326.15374,4300.512715,4227.179384,4250.256306,4224.102461,4218.974256,4233.84605,4237.435794,4252.820409,4305.1281,4317.948612,4349.230663,4490.2563
25,0,4529.743479,4328.205022,4310.256305,4227.179384,4239.999896,4214.358871,4216.410153,4230.769127,4232.307589,4245.128101,4319.999894,4335.89733,4373.333226,4542.563991
26,0,4547.692196,4326.15374,4311.794766,4219.999897,4229.230666,4211.281948,4210.769128,4216.410153,4219.487076,4227.179384,4297.435792,4329.230663,4351.794765,4552.820401
27,0,4574.871683,4329.230663,4313.846048,4216.922974,4234.871691,4215.384512,4213.33323,4212.82041,4213.846051,4228.205025,4298.974254,4330.256304,4349.743483,4573.333222
28,0,4588.205016,4330.256304,4315.89733,4216.410153,4231.281948,4217.948615,4219.487076,4222.563999,4227.179384,4241.025537,4323.076817,4347.692201,4372.820406,4601.025529
29,0,4567.692196,4317.948612,4311.794766,4204.102461,4216.410153,4209.230666,4209.743487,4214.871692,4216.410153,4232.307589,4309.743484,4343.589637,4366.153739,4587.179375
30,0,4549.743478,4306.153741,4307.179382,4193.333231,4230.769127,4205.128102,4201.025538,4204.615282,4201.025538,4212.82041,4288.205023,4326.666561,4346.66656,4556.922965
31,0,4551.79476,4311.794766,4308.717843,4200.512718,4251.794768,4217.948615,4213.846051,4216.410153,4223.07682,4221.025538,4303.076818,4327.179381,4352.820406,4557.435786
32,0,4543.076812,4312.820407,4307.179382,4202.051179,4239.487076,4217.948615,4217.435794,4222.051179,4232.820409,4234.871691,4310.256305,4327.692202,4354.358868,4558.461427
33,0,4510.76912,4298.974254,4293.333228,4186.666564,4225.640922,4203.589641,4203.589641,4210.256307,4209.230666,4220.512717,4289.743485,4311.794766,4336.41015,4530.256299
34,0,4488.205018,4301.025536,4285.1281,4185.128103,4233.33323,4207.692205,4206.666564,4209.743487,4210.769128,4208.205025,4282.563998,4302.051177,4328.717843,4501.025531
35,0,4491.794762,4315.89733,4292.307587,4202.564,4237.948614,4219.999897,4217.948615,4216.922974,4228.205025,4227.692204,4292.820408,4307.179382,4336.41015,4495.897326
36,0,4489.74348,4315.38451,4295.38451,4207.179384,4232.820409,4215.897333,4207.692205,4214.871692,4220.512717,4234.871691,4289.230664,4305.64092,4335.89733,4491.281941
37,0,4478.461429,4305.1281,4290.769126,4196.922974,4232.307589,4213.846051,4198.461436,4211.794769,4214.871692,4216.922974,4276.922972,4295.897331,4321.025535,4474.871685
38,0,4483.589634,4299.487074,4290.769126,4193.846051,4234.871691,4215.384512,4206.666564,4208.205025,4219.999897,4209.230666,4275.384511,4292.307587,4315.89733,4475.384506
39,0,4492.820403,4302.563997,4291.794767,4199.999897,4229.230666,4204.615282,4207.179384,4199.999897,4206.666564,4211.794769,4272.820408,4294.87169,4315.38451,4488.717839
40,0,4494.358864,4311.794766,4292.820408,4200.512718,4226.153743,4199.999897,4198.974256,4199.487077,4204.102461,4208.717846,4263.589639,4294.358869,4307.692202,4483.589634
41,0,4495.384505,4311.281946,4294.358869,4190.256308,4234.358871,4212.307589,4203.07682,4206.153743,4219.999897,4212.307589,4267.179383,4295.897331,4309.743484,4478.974249
42,0,4486.153736,4294.358869,4293.333228,4181.025539,4239.487076,4218.461435,4213.846051,4206.153743,4211.794769,4219.999897,4281.538357,4295.38451,4326.15374,4487.692198
43,0,4463.076814,4285.640921,4292.820408,4184.102462,4230.256307,4215.384512,4215.897333,4206.153743,4196.922974,4211.281948,4279.487075,4287.692203,4326.666561,4478.461429
44,0,4447.179378,4290.769126,4291.794767,4186.666564,4226.666563,4215.384512,4214.358871,4213.846051,4210.769128,4206.153743,4270.256306,4283.589639,4315.89733,4456.410147
45,0,4439.487071,4295.897331,4287.692203,4186.153744,4241.025537,4217.435794,4215.897333,4216.410153,4219.999897,4215.384512,4270.256306,4284.61528,4312.307587,4439.487071
46,0,4414.358866,4295.38451,4277.948613,4188.205026,4249.743486,4216.410153,4215.897333,4214.358871,4210.769128,4217.948615,4263.589639,4274.35887,4296.922972,4404.102456
47,0,4379.487072,4285.1281,4265.640921,4189.743487,4246.666563,4219.999897,4217.948615,4223.07682,4222.563999,4219.999897,4257.948614,4263.589639,4285.1281,4364.102457
48,0,4357.948611,4279.487075,4260.512716,4188.205026,4245.128101,4225.128102,4228.717845,4233.84605,4241.538358,4230.769127,4264.61528,4266.666562,4292.307587,4344.615278
49,0,4338.974253,4283.589639,4264.61528,4186.666564,4241.025537,4222.051179,4232.307589,4236.410153,4243.076819,4236.922973,4265.640921,4267.179383,4291.794767,4324.102458
50,0,4312.307587,4279.999895,4262.051178,4187.692205,4229.743486,4216.410153,4222.563999,4231.281948,4230.256307,4231.794768,4250.769127,4254.871691,4276.922972,4295.38451
51,0,4286.153741,4266.666562,4243.58964,4190.256308,4227.179384,4213.33323,4214.358871,4219.999897,4214.358871,4221.025538,4234.871691,4239.999896,4264.61528,4265.640921
52,0,4263.076819,4259.999896,4228.717845,4186.666564,4233.84605,4215.384512,4217.948615,4218.974256,4216.922974,4216.410153,4230.769127,4227.179384,4256.922973,4235.384512
53,0,4241.025537,4255.897332,4229.743486,4184.102462,4233.84605,4226.153743,4227.692204,4228.717845,4234.871691,4225.128102,4230.256307,4216.922974,4249.743486,4215.897333
54,0,4225.128102,4248.205024,4230.256307,4192.82041,4235.384512,4234.871691,4231.794768,4231.281948,4236.922973,4225.128102,4228.717845,4210.256307,4247.692204,4210.256307
55,0,4214.358871,4247.179383,4222.563999,4202.564,4247.179383,4231.794768,4229.743486,4229.230666,4227.692204,4215.384512,4228.205025,4210.256307,4245.128101,4199.487077
56,0,4198.974256,4247.692204,4217.435794,4204.102461,4249.230665,4230.256307,4231.281948,4232.307589,4229.230666,4222.563999,4225.128102,4211.794769,4238.461435,4178.461436
57,0,4180.512718,4236.410153,4215.897333,4197.948615,4236.410153,4228.205025,4230.769127,4223.07682,4224.102461,4227.179384,4218.974256,4206.666564,4231.281948,4158.461437
58,0,4167.692206,4229.230666,4212.307589,4188.717846,4227.692204,4218.461435,4224.102461,4213.846051,4209.230666,4214.358871,4213.33323,4199.999897,4227.179384,4149.230668
59,0,4168.717847,4238.461435,4215.897333,4185.128103,4236.410153,4219.999897,4226.153743,4225.640922,4219.999897,4219.999897,4214.871692,4202.051179,4230.256307,4152.307591
60,0,4169.743488,4243.076819,4219.487076,4187.692205,4245.640922,4229.743486,4234.871691,4238.461435,4236.410153,4236.410153,4219.487076,4208.717846,4235.897332,4149.743488
61,0,4155.897334,4235.897332,4207.179384,4186.666564,4241.025537,4223.07682,4228.717845,4233.33323,4232.820409,4226.153743,4213.33323,4199.487077,4229.230666,4129.743489
62,0,4135.897335,4226.153743,4192.30759,4182.564,4233.33323,4215.897333,4221.538358,4224.102461,4228.717845,4211.794769,4199.487077,4177.948616,4214.358871,4116.922976
63,0,4122.564002,4221.538358,4190.769128,4179.999898,4229.230666,4223.58964,4227.692204,4224.615281,4225.640922,4215.384512,4197.435795,4171.79477,4211.281948,4118.461438
64,0,4119.487079,4214.871692,4194.871692,4175.384513,4233.84605,4226.153743,4230.769127,4226.666563,4216.410153,4216.922974,4201.025538,4181.538359,4214.871692,4110.76913
65,0,4121.538361,4217.435794,4197.948615,4174.358872,4234.871691,4223.58964,4227.179384,4226.153743,4227.179384,4219.999897,4203.589641,4185.128103,4214.871692,4100.51272
66,0,4123.076822,4227.179384,4200.512718,4187.692205,4222.051179,4224.102461,4229.743486,4230.256307,4244.615281,4234.358871,4205.640923,4182.05118,4215.897333,4103.589643
67,0,4123.076822,4224.102461,4202.051179,4207.692205,4219.487076,4219.487076,4232.307589,4232.307589,4230.256307,4232.307589,4206.153743,4182.564,4216.410153,4108.205028
68,0,4122.051181,4221.538358,4206.666564,4223.58964,4232.820409,4220.512717,4229.230666,4227.179384,4212.82041,4218.461435,4206.666564,4186.666564,4213.33323,4109.743489
69,0,4129.230668,4231.281948,4213.846051,4232.820409,4240.512717,4231.794768,4231.794768,4226.153743,4227.179384,4226.666563,4214.358871,4194.871692,4218.974256,4118.461438
70,0,4141.53836,4238.461435,4218.461435,4236.922973,4239.999896,4234.871691,4236.922973,4239.999896,4248.205024,4247.692204,4225.128102,4203.589641,4231.794768,4129.230668
71,0,4143.589642,4238.461435,4216.410153,4237.435794,4248.205024,4231.794768,4236.410153,4249.230665,4252.307588,4252.307588,4229.743486,4206.153743,4236.410153,4131.28195
72,0,4131.28195,4233.84605,4208.205025,4230.256307,4248.205024,4234.871691,4233.33323,4238.974255,4244.10246,4239.487076,4223.07682,4198.974256,4228.205025,4118.974258
73,0,4121.538361,4221.538358,4201.025538,4220.512717,4234.871691,4232.820409,4231.281948,4228.717845,4235.384512,4230.256307,4212.82041,4188.205026,4219.999897,4105.128105
74,0,4123.076822,4213.33323,4200.512718,4223.07682,4228.205025,4229.230666,4231.281948,4229.230666,4234.871691,4232.820409,4205.640923,4184.615282,4215.384512,4107.692207
75,0,4120.51272,4216.410153,4202.051179,4228.205025,4227.179384,4229.743486,4230.769127,4224.615281,4228.205025,4229.743486,4195.384513,4181.538359,4205.640923,4108.205028
76,0,4112.307592,4213.846051,4199.999897,4228.205025,4232.307589,4229.743486,4231.281948,4215.384512,4215.384512,4217.948615,4190.256308,4178.461436,4199.999897,4095.897336
77,0,4106.666566,4206.666564,4196.410154,4228.205025,4228.717845,4230.769127,4233.33323,4218.974256,4219.999897,4213.33323,4198.461436,4179.999898,4201.025538,4097.948618
78,0,4110.25631,4207.179384,4197.435795,4228.717845,4215.384512,4230.769127,4234.358871,4227.179384,4232.307589,4219.487076,4201.538359,4181.538359,4201.538359,4105.640925
79,0,4127.692207,4215.384512,4207.179384,4233.84605,4224.102461,4229.230666,4235.384512,4229.743486,4234.358871,4231.281948,4205.640923,4190.769128,4208.717846,4103.076823
80,0,4137.435796,4222.563999,4216.410153,4249.230665,4245.640922,4232.307589,4235.384512,4230.256307,4228.717845,4236.410153,4215.897333,4200.512718,4219.487076,4111.281951
81,0,4127.692207,4218.461435,4215.897333,4250.256306,4244.10246,4233.33323,4233.84605,4228.205025,4224.615281,4226.153743,4216.410153,4191.281949,4215.897333,4124.102463
82,0,4127.692207,4215.897333,4214.358871,4233.84605,4229.743486,4232.820409,4238.974255,4227.692204,4226.666563,4226.666563,4212.307589,4184.615282,4212.307589,4122.564002
83,0,4144.102463,4227.179384,4217.948615,4234.871691,4233.84605,4241.025537,4248.205024,4239.999896,4241.538358,4243.076819,4215.897333,4201.025538,4220.512717,4121.538361
84,0,4148.205027,4235.384512,4220.512717,4247.692204,4243.076819,4249.230665,4249.230665,4248.205024,4251.794768,4237.435794,4216.922974,4203.589641,4222.051179,4125.128104
85,0,4140.512719,4234.871691,4217.435794,4246.153742,4247.692204,4243.58964,4241.538358,4237.948614,4245.640922,4221.538358,4214.358871,4187.179385,4215.897333,4123.589643
86,0,4138.461437,4230.769127,4212.82041,4242.563999,4246.153742,4236.410153,4234.871691,4228.717845,4236.922973,4228.205025,4212.82041,4185.128103,4215.384512,4121.538361
87,0,4141.53836,4223.58964,4212.307589,4246.153742,4232.820409,4237.948614,4233.33323,4230.769127,4234.871691,4240.512717,4208.205025,4191.281949,4215.384512,4122.051181
88,0,4143.589642,4218.461435,4212.307589,4239.999896,4227.179384,4237.435794,4236.410153,4228.717845,4234.871691,4235.384512,4202.051179,4189.743487,4214.871692,4123.589643
89,0,4136.410155,4217.435794,4206.666564,4229.743486,4234.871691,4231.281948,4233.84605,4217.435794,4228.205025,4227.179384,4203.589641,4184.615282,4213.33323,4122.564002
90,0,4134.358873,4213.846051,4205.128102,4227.692204,4237.435794,4229.743486,4230.769127,4215.384512,4225.640922,4225.128102,4211.794769,4185.640923,4213.33323,4118.974258
91,0,4149.743488,4213.33323,4214.358871,4234.358871,4233.33323,4234.358871,4240.512717,4223.07682,4230.256307,4226.153743,4213.33323,4191.281949,4215.897333,4127.179386
92,0,4152.307591,4217.948615,4218.461435,4242.563999,4234.358871,4236.410153,4246.666563,4225.640922,4229.743486,4229.230666,4207.179384,4192.82041,4217.435794,4134.871694
93,0,4137.435796,4215.384512,4208.205025,4238.461435,4234.358871,4232.820409,4236.922973,4224.615281,4227.692204,4225.128102,4206.666564,4187.179385,4213.846051,4123.589643
94,0,4140.512719,4214.871692,4206.153743,4231.794768,4231.281948,4232.307589,4229.743486,4224.102461,4232.307589,4222.563999,4213.846051,4182.564,4216.410153,4123.076822
95,0,4157.948616,4226.153743,4215.897333,4243.076819,4238.974255,4233.84605,4233.33323,4228.205025,4242.051178,4236.410153,4218.974256,4191.281949,4228.205025,4142.051181
96,0,4162.564001,4235.897332,4221.025538,4251.794768,4251.281947,4237.435794,4234.358871,4234.358871,4246.666563,4247.179383,4220.512717,4202.564,4235.897332,4147.179386
97,0,4159.487078,4229.230666,4215.897333,4238.461435,4237.948614,4232.307589,4229.743486,4231.281948,4244.10246,4239.999896,4219.487076,4199.487077,4234.871691,4136.922976
98,0,4156.922975,4218.461435,4209.743487,4229.743486,4212.82041,4221.538358,4225.640922,4219.487076,4239.999896,4231.794768,4218.461435,4189.230667,4230.769127,4135.897335
99,0,4152.820411,4216.922974,4207.692205,4239.999896,4223.58964,4222.051179,4225.640922,4213.33323,4232.820409,4232.307589,4216.410153,4188.717846,4223.58964,4137.435796
100,0,4150.769129,4218.461435,4211.281948,4246.666563,4248.717845,4230.769127,4230.256307,4215.897333,4222.051179,4231.794768,4214.871692,4189.743487,4220.512717,4135.897335
101,0,4153.846052,4219.487076,4214.358871,4240.512717,4241.538358,4230.256307,4232.820409,4215.897333,4214.358871,4225.640922,4214.358871,4186.153744,4226.666563,4137.948617
102,0,4157.948616,4222.563999,4208.717846,4231.281948,4232.307589,4226.666563,4233.33323,4213.846051,4216.922974,4226.153743,4216.410153,4187.692205,4230.769127,4146.666565
103,0,4165.128103,4224.102461,4210.769128,4230.769127,4244.615281,4233.33323,4234.871691,4218.974256,4222.051179,4229.743486,4219.999897,4196.922974,4231.794768,4155.897334
104,0,4164.102462,4222.563999,4216.410153,4233.33323,4243.076819,4235.384512,4232.820409,4221.538358,4222.051179,4224.615281,4218.974256,4202.051179,4230.256307,4150.256309
105,0,4156.410155,4221.025538,4208.717846,4231.281948,4231.794768,4229.230666,4228.205025,4211.794769,4214.358871,4219.487076,4212.82041,4193.846051,4222.563999,4141.53836
106,0,4159.999898,4216.922974,4203.589641,4229.743486,4235.384512,4229.230666,4227.692204,4206.153743,4214.358871,4223.58964,4211.794769,4185.640923,4223.58964,4149.743488
107,0,4167.179385,4217.435794,4211.794769,4232.307589,4233.84605,4233.84605,4231.794768,4217.948615,4237.435794,4238.974255,4225.128102,4192.82041,4235.384512,4159.487078
108,0,4172.30759,4225.640922,4218.461435,4236.922973,4228.717845,4235.384512,4232.820409,4227.179384,4251.794768,4249.230665,4233.84605,4198.974256,4237.948614,4155.897334
109,0,4175.384513,4223.58964,4215.384512,4236.922973,4234.358871,4231.794768,4232.307589,4223.07682,4242.051178,4243.58964,4224.102461,4189.230667,4233.33323,4153.333232
110,0,4166.666565,4214.358871,4213.33323,4233.84605,4232.820409,4230.256307,4232.307589,4216.922974,4229.230666,4230.256307,4214.871692,4189.743487,4230.769127,4155.384514
111,0,4158.461437,4210.769128,4216.410153,4229.743486,4232.820409,4232.307589,4233.33323,4215.897333,4222.563999,4220.512717,4219.999897,4202.051179,4227.692204,4156.922975
112,0,4166.666565,4208.717846,4216.922974,4222.051179,4243.58964,4234.358871,4233.84605,4216.922974,4223.07682,4220.512717,4219.999897,4196.410154,4223.58964,4158.974257
113,0,4169.230667,4201.025538,4212.82041,4212.307589,4242.051178,4232.820409,4232.820409,4214.871692,4219.999897,4219.999897,4202.564,4181.538359,4213.846051,4148.717847
114,0,4163.589642,4199.999897,4212.82041,4208.717846,4229.743486,4227.179384,4227.692204,4210.256307,4210.256307,4207.692205,4196.922974,4180.512718,4207.692205,4143.589642
115,0,4171.281949,4208.717846,4217.948615,4211.794769,4230.256307,4222.051179,4222.563999,4211.281948,4207.179384,4197.435795,4208.205025,4188.717846,4212.82041,4153.846052
116,0,4175.897334,4214.358871,4216.410153,4214.358871,4232.820409,4217.435794,4217.948615,4214.358871,4216.410153,4210.256307,4213.33323,4194.358872,4214.358871,4153.846052
117,0,4176.410154,4216.410153,4217.435794,4215.384512,4230.256307,4217.435794,4216.922974,4213.846051,4224.615281,4230.769127,4213.33323,4197.948615,4217.948615,4154.358873
118,0,4188.717846,4219.487076,4228.717845,4212.307589,4238.461435,4228.205025,4225.128102,4216.922974,4229.743486,4233.84605,4223.58964,4210.256307,4232.820409,4180.512718
119,0,4192.82041,4220.512717,4229.230666,4203.07682,4238.974255,4235.897332,4232.307589,4222.051179,4233.84605,4230.256307,4235.897332,4219.487076,4237.948614,4198.461436
120,0,4182.05118,4215.897333,4219.999897,4195.897333,4229.743486,4232.307589,4230.256307,4218.974256,4235.384512,4235.384512,4231.794768,4209.230666,4230.256307,4180.512718
121,0,4181.538359,4215.897333,4222.051179,4198.974256,4238.461435,4231.794768,4230.769127,4216.922974,4237.435794,4231.794768,4221.025538,4200.512718,4227.179384,4167.692206
122,0,4188.205026,4219.999897,4225.128102,4200.512718,4245.640922,4231.281948,4230.256307,4215.897333,4228.205025,4220.512717,4218.461435,4206.666564,4228.205025,4174.871693
123,0,4177.435795,4210.256307,4214.871692,4186.666564,4233.84605,4217.948615,4217.435794,4206.153743,4212.307589,4209.230666,4217.948615,4203.589641,4215.897333,4167.692206
124,0,4164.102462,4201.025538,4209.743487,4175.384513,4225.640922,4209.743487,4208.717846,4196.410154,4210.769128,4202.564,4212.307589,4193.333231,4202.564,4153.333232
125,0,4174.358872,4211.281948,4216.922974,4181.538359,4223.07682,4215.897333,4215.384512,4205.128102,4216.410153,4213.33323,4209.743487,4197.948615,4205.640923,4163.589642
126,0,4190.769128,4220.512717,4220.512717,4187.692205,4214.871692,4218.461435,4218.974256,4216.410153,4219.999897,4227.179384,4214.358871,4204.102461,4216.410153,4182.05118
127,0,4188.205026,4214.871692,4217.435794,4182.564,4218.974256,4215.897333,4216.410153,4211.794769,4226.153743,4222.051179,4214.358871,4198.461436,4215.897333,4177.435795
128,0,4180.512718,4213.33323,4213.846051,4181.538359,4233.33323,4218.461435,4215.384512,4206.666564,4230.769127,4222.051179,4210.769128,4196.922974,4211.794769,4168.205026
0,0,4183.076821,4216.922974,4214.871692,4187.179385,4234.358871,4218.974256,4215.384512,4212.82041,4228.205025,4231.281948,4212.307589,4201.538359,4213.846051,4168.205026
1,0,4186.153744,4215.384512,4216.410153,4183.589641,4230.769127,4216.922974,4214.358871,4216.410153,4223.58964,4222.051179,4213.846051,4199.999897,4216.410153,4171.281949
2,0,4185.128103,4214.871692,4212.307589,4177.948616,4230.256307,4217.948615,4214.871692,4215.384512,4227.179384,4221.025538,4214.871692,4198.461436,4218.461435,4178.461436
3,0,4182.564,4216.410153,4208.717846,4182.05118,4228.717845,4217.948615,4216.922974,4217.435794,4234.871691,4235.897332,4215.897333,4201.025538,4218.974256,4179.999898
4,0,4181.538359,4214.358871,4207.692205,4184.102462,4229.743486,4218.461435,4216.922974,4217.948615,4235.897332,4223.58964,4211.794769,4196.922974,4215.384512,4173.333231
5,0,4186.153744,4214.358871,4208.717846,4174.871693,4229.743486,4219.999897,4215.384512,4215.897333,4229.230666,4212.82041,4210.256307,4192.82041,4214.871692,4170.769129
6,0,4188.717846,4213.33323,4210.769128,4165.128103,4227.692204,4219.487076,4215.384512,4215.384512,4224.615281,4222.563999,4213.846051,4197.435795,4215.897333,4172.820411
7,0,4181.025539,4206.153743,4212.82041,4165.128103,4227.179384,4215.897333,4215.897333,4214.358871,4225.640922,4212.307589,4210.769128,4201.025538,4214.871692,4173.333231
8,0,4174.871693,4201.025538,4213.846051,4168.205026,4230.769127,4214.871692,4214.358871,4212.307589,4224.615281,4201.025538,4206.666564,4198.974256,4213.846051,4170.256308
9,0,4180.512718,4204.102461,4214.358871,4168.205026,4232.307589,4215.897333,4213.33323,4212.307589,4225.640922,4220.512717,4205.128102,4197.948615,4212.82041,4166.666565
10,0,4187.179385,4212.82041,4214.871692,4173.333231,4225.128102,4216.410153,4214.871692,4214.358871,4230.256307,4235.384512,4205.640923,4199.487077,4212.82041,4174.358872
11,0,4186.153744,4215.384512,4215.384512,4184.102462,4212.307589,4213.33323,4214.358871,4213.33323,4224.615281,4216.922974,4209.230666,4201.025538,4214.871692,4186.153744
12,0,4180.512718,4211.281948,4213.846051,4187.179385,4211.281948,4211.794769,4213.846051,4210.256307,4215.384512,4204.615282,4207.179384,4201.538359,4212.307589,4187.179385
13,0,4182.05118,4212.307589,4215.384512,4184.102462,4222.563999,4215.384512,4216.410153,4211.281948,4220.512717,4215.897333,4202.564,4199.999897,4209.230666,4187.179385
14,0,4194.358872,4219.487076,4226.153743,4188.717846,4229.230666,4218.974256,4219.487076,4214.871692,4228.717845,4224.615281,4214.871692,4205.128102,4214.871692,4196.410154
15,0,4203.589641,4221.025538,4230.769127,4190.769128,4231.794768,4218.461435,4217.948615,4215.384512,4230.769127,4228.205025,4232.307589,4216.410153,4226.153743,4205.128102
16,0,4198.461436,4218.461435,4221.538358,4184.102462,4229.743486,4218.461435,4216.922974,4214.871692,4228.205025,4227.692204,4227.692204,4215.897333,4229.743486,4198.974256
17,0,4190.256308,4216.922974,4215.384512,4185.640923,4225.640922,4218.974256,4215.897333,4212.82041,4218.974256,4221.538358,4214.358871,4203.589641,4220.512717,4187.692205
18,0,4192.30759,4215.384512,4216.410153,4192.82041,4227.179384,4217.948615,4212.82041,4205.640923,4212.307589,4217.435794,4212.307589,4197.948615,4214.871692,4188.717846
19,0,4199.487077,4215.897333,4218.461435,4197.948615,4231.794768,4217.948615,4211.794769,4201.025538,4213.33323,4212.82041,4216.410153,4203.07682,4219.487076,4198.974256
20,0,4205.640923,4217.948615,4224.102461,4200.512718,4229.743486,4218.974256,4213.33323,4203.589641,4219.487076,4216.410153,4218.974256,4210.769128,4222.051179,4203.07682
21,0,4199.487077,4219.487076,4227.179384,4201.538359,4222.051179,4217.435794,4213.846051,4206.153743,4227.692204,4232.307589,4217.435794,4214.358871,4218.974256,4195.897333
22,0,4187.692205,4216.922974,4219.999897,4198.974256,4216.922974,4214.871692,4211.794769,4203.07682,4222.563999,4231.281948,4214.358871,4208.717846,4216.410153,4185.640923
23,0,4188.205026,4207.179384,4213.33323,4197.948615,4219.999897,4214.871692,4213.846051,4200.512718,4211.281948,4218.974256,4213.33323,4201.025538,4215.384512,4182.564
24,0,4196.410154,4202.051179,4216.410153,4201.025538,4218.974256,4217.435794,4217.948615,4204.102461,4218.974256,4214.871692,4211.794769,4202.051179,4212.82041,4191.281949
25,0,4190.769128,4202.564,4213.846051,4201.025538,4204.102461,4216.410153,4215.897333,4204.102461,4216.410153,4204.615282,4204.615282,4199.999897,4205.128102,4187.179385
26,0,4183.076821,4199.999897,4204.102461,4197.948615,4202.051179,4213.846051,4211.281948,4198.974256,4195.897333,4201.025538,4198.974256,4193.846051,4197.948615,4178.974257
27,0,4192.82041,4198.461436,4205.128102,4198.974256,4221.025538,4215.384512,4215.897333,4201.025538,4204.102461,4219.487076,4201.025538,4196.410154,4200.512718,4191.281949
28,0,4192.82041,4199.487077,4212.307589,4195.897333,4226.153743,4216.922974,4214.358871,4204.615282,4224.102461,4223.07682,4202.051179,4199.999897,4205.640923,4194.871692
29,0,4183.076821,4197.435795,4213.33323,4188.717846,4216.922974,4211.794769,4202.051179,4201.538359,4214.871692,4209.743487,4200.512718,4201.025538,4202.564,4178.974257
30,0,4188.205026,4197.948615,4211.281948,4191.281949,4214.871692,4207.692205,4204.102461,4204.615282,4205.640923,4216.410153,4201.538359,4203.07682,4198.974256,4180.512718
31,0,4192.82041,4196.922974,4209.230666,4194.358872,4216.922974,4208.205025,4217.948615,4213.33323,4215.897333,4221.025538,4201.538359,4204.615282,4200.512718,4192.30759
32,0,4183.076821,4190.256308,4205.128102,4186.153744,4214.358871,4212.307589,4219.999897,4216.922974,4223.07682,4203.589641,4202.051179,4202.564,4202.564,4187.692205
33,0,4185.640923,4192.82041,4206.153743,4186.153744,4213.33323,4214.871692,4215.897333,4212.82041,4219.487076,4202.564,4203.589641,4198.974256,4201.025538,4182.564
34,0,4197.948615,4202.051179,4212.307589,4200.512718,4215.897333,4214.358871,4217.948615,4206.153743,4211.794769,4217.435794,4202.564,4196.922974,4198.461436,4187.179385
35,0,4193.846051,4202.051179,4214.871692,4205.640923,4218.974256,4215.384512,4217.435794,4201.538359,4208.205025,4213.33323,4201.025538,4196.922974,4198.461436,4190.769128
36,0,4186.666564,4196.410154,4213.33323,4201.538359,4215.897333,4217.435794,4216.410153,4200.512718,4213.33323,4202.564,4200.512718,4195.384513,4200.512718,4189.743487
37,0,4191.281949,4191.794769,4207.692205,4201.025538,4213.33323,4217.948615,4224.615281,4208.717846,4217.435794,4208.205025,4196.410154,4190.769128,4198.461436,4181.025539
38,0,4182.564,4184.102462,4201.025538,4199.999897,4210.769128,4216.922974,4226.153743,4215.384512,4212.82041,4208.717846,4187.179385,4184.615282,4188.717846,4171.281949
39,0,4170.769129,4181.538359,4198.461436,4197.948615,4204.615282,4214.871692,4217.435794,4211.281948,4214.358871,4197.435795,4183.589641,4182.05118,4181.538359,4166.666565
40,0,4177.435795,4183.076821,4198.461436,4197.948615,4206.666564,4212.82041,4213.846051,4205.640923,4216.922974,4201.025538,4185.640923,4181.538359,4181.538359,4168.205026
41,0,4186.153744,4184.102462,4199.487077,4201.025538,4217.948615,4213.846051,4216.410153,4205.640923,4207.692205,4204.615282,4184.102462,4184.102462,4183.076821,4175.384513
42,0,4187.692205,4192.82041,4207.692205,4207.692205,4227.179384,4215.384512,4215.897333,4209.743487,4208.205025,4195.384513,4189.743487,4192.82041,4189.743487,4183.076821
43,0,4197.948615,4204.615282,4218.974256,4215.897333,4227.692204,4216.410153,4212.307589,4216.410153,4219.487076,4204.615282,4207.692205,4203.589641,4203.589641,4190.256308
44,0,4207.179384,4204.615282,4218.461435,4218.974256,4222.051179,4212.82041,4205.640923,4215.897333,4220.512717,4227.179384,4215.897333,4205.128102,4208.205025,4201.025538
45,0,4197.435795,4198.461436,4206.666564,4214.871692,4215.384512,4203.589641,4197.948615,4204.615282,4209.230666,4229.230666,4206.153743,4196.410154,4197.948615,4201.538359
46,0,4187.692205,4197.948615,4198.974256,4211.281948,4215.897333,4204.102461,4200.512718,4199.999897,4204.615282,4211.794769,4198.974256,4190.769128,4191.281949,4187.179385
47,0,4191.794769,4199.487077,4201.025538,4211.281948,4217.948615,4213.33323,4209.230666,4202.564,4207.692205,4201.025538,4198.974256,4188.717846,4193.333231,4184.615282
48,0,4199.487077,4201.538359,4207.692205,4213.846051,4211.281948,4217.435794,4212.82041,4206.666564,4213.846051,4205.640923,4198.461436,4186.153744,4197.435795,4195.384513
49,0,4204.102461,4204.615282,4214.358871,4216.410153,4210.769128,4216.922974,4214.358871,4214.358871,4222.563999,4218.461435,4201.025538,4187.179385,4199.487077,4194.358872
50,0,4202.051179,4205.128102,4211.794769,4215.384512,4217.948615,4217.435794,4217.435794,4217.435794,4227.692204,4216.410153,4202.051179,4188.205026,4198.974256,4185.640923
51,0,4197.948615,4203.589641,4203.07682,4215.897333,4219.487076,4216.410153,4219.487076,4215.384512,4218.974256,4195.897333,4197.435795,4185.640923,4198.461436,4186.153744
52,0,4196.922974,4201.025538,4199.999897,4217.435794,4215.384512,4216.410153,4218.974256,4214.358871,4198.974256,4193.846051,4194.358872,4181.538359,4197.948615,4187.179385
53,0,4201.538359,4199.487077,4202.564,4216.922974,4216.410153,4218.461435,4217.948615,4211.794769,4203.07682,4212.82041,4198.461436,4180.512718,4197.435795,4186.666564
54,0,4199.487077,4198.974256,4202.051179,4215.897333,4218.461435,4214.871692,4214.871692,4204.102461,4221.025538,4215.897333,4197.435795,4179.999898,4195.897333,4190.256308
55,0,4197.435795,4198.461436,4202.051179,4215.384512,4214.358871,4212.82041,4213.846051,4200.512718,4210.256307,4205.640923,4195.384513,4187.692205,4197.435795,4194.871692
56,0,4208.717846,4198.974256,4209.230666,4215.897333,4216.922974,4214.871692,4214.358871,4202.051179,4197.435795,4203.07682,4201.025538,4199.999897,4201.538359,4199.487077
57,0,4214.871692,4199.999897,4216.410153,4215.897333,4214.358871,4210.769128,4208.205025,4205.640923,4209.743487,4210.769128,4205.128102,4198.974256,4202.051179,4203.589641
58,0,4210.769128,4199.487077,4214.871692,4211.794769,4201.025538,4200.512718,4199.999897,4206.153743,4220.512717,4216.410153,4205.128102,4195.384513,4206.153743,4207.692205
59,0,4214.358871,4200.512718,4212.307589,4207.179384,4208.205025,4200.512718,4198.461436,4207.179384,4218.461435,4221.538358,4214.871692,4206.153743,4214.871692,4214.871692
60,0,4219.487076,4202.564,4212.82041,4203.589641,4229.230666,4205.640923,4201.025538,4207.692205,4215.384512,4224.102461,4225.128102,4215.384512,4220.512717,4219.999897
61,0,4217.948615,4201.025538,4213.33323,4204.102461,4231.281948,4203.589641,4202.051179,4208.205025,4209.230666,4211.794769,4223.58964,4213.33323,4220.512717,4216.410153
62,0,4221.538358,4202.051179,4217.435794,4208.717846,4224.102461,4208.205025,4208.205025,4214.358871,4210.256307,4205.128102,4218.974256,4211.281948,4222.051179,4216.922974
63,0,4224.102461,4205.128102,4221.538358,4207.692205,4221.538358,4213.846051,4214.358871,4216.922974,4219.487076,4221.538358,4218.974256,4208.717846,4221.538358,4222.563999
64,0,4214.358871,4197.948615,4213.846051,4198.461436,4214.871692,4206.153743,4210.256307,4208.205025,4213.846051,4229.230666,4215.897333,4203.589641,4213.33323,4216.922974
65,0,4198.974256,4181.538359,4197.435795,4183.076821,4209.743487,4199.487077,4209.230666,4199.999897,4196.922974,4208.717846,4204.615282,4195.384513,4203.589641,4198.974256
66,0,4187.179385,4170.256308,4186.666564,4168.205026,4213.33323,4205.128102,4214.358871,4199.487077,4190.256308,4193.846051,4195.384513,4182.564,4192.82041,4183.589641
67,0,4189.230667,4171.79477,4190.769128,4165.128103,4215.897333,4213.33323,4216.922974,4202.564,4198.461436,4199.487077,4195.897333,4178.461436,4192.82041,4188.205026
68,0,4199.999897,4178.974257,4198.461436,4171.79477,4213.846051,4211.281948,4212.82041,4206.153743,4211.281948,4206.666564,4200.512718,4192.30759,4199.487077,4201.025538
69,0,4203.07682,4183.076821,4200.512718,4173.846052,4212.82041,4204.615282,4211.794769,4212.307589,4219.999897,4213.33323,4207.692205,4201.025538,4203.589641,4203.589641
70,0,4203.589641,4184.615282,4206.666564,4173.846052,4215.897333,4201.025538,4208.717846,4216.410153,4216.410153,4217.948615,4214.871692,4198.461436,4209.230666,4203.589641
71,0,4208.205025,4185.640923,4213.33323,4179.999898,4217.435794,4202.051179,4202.564,4218.461435,4209.230666,4212.307589,4217.435794,4205.128102,4216.922974,4209.743487
72,0,4208.205025,4184.615282,4209.743487,4179.999898,4214.358871,4198.461436,4205.640923,4220.512717,4210.256307,4205.640923,4213.33323,4215.897333,4216.410153,4217.435794
73,0,4207.179384,4176.922975,4203.589641,4170.256308,4214.871692,4198.974256,4214.871692,4220.512717,4208.205025,4205.128102,4205.640923,4209.743487,4204.102461,4214.358871
74,0,4211.281948,4168.717847,4205.640923,4166.153744,4216.410153,4211.281948,4216.410153,4214.871692,4198.974256,4201.538359,4201.538359,4197.948615,4198.974256,4206.666564
75,0,4214.871692,4166.153744,4211.281948,4169.230667,4218.461435,4214.358871,4206.153743,4203.589641,4195.897333,4199.999897,4207.179384,4199.487077,4206.153743,4206.666564
76,0,4212.82041,4170.256308,4212.82041,4166.666565,4225.640922,4204.102461,4196.410154,4198.461436,4201.538359,4209.230666,4215.897333,4203.07682,4215.384512,4214.358871
77,0,4208.717846,4172.820411,4206.666564,4161.53836,4221.538358,4198.974256,4193.333231,4197.435795,4210.256307,4207.179384,4218.461435,4202.051179,4218.461435,4218.461435
78,0,4210.256307,4170.769129,4198.974256,4159.999898,4213.33323,4202.564,4195.897333,4189.230667,4203.07682,4192.82041,4213.33323,4199.487077,4213.846051,4211.794769
79,0,4215.384512,4171.281949,4199.999897,4157.948616,4225.128102,4202.564,4199.999897,4185.640923,4186.666564,4201.538359,4205.128102,4191.281949,4207.179384,4205.128102
80,0,4216.410153,4173.846052,4202.051179,4162.05118,4234.358871,4199.999897,4199.487077,4193.333231,4185.640923,4205.128102,4197.435795,4184.615282,4200.512718,4198.974256
81,0,4213.846051,4171.79477,4199.487077,4168.717847,4223.07682,4203.589641,4201.538359,4202.051179,4196.922974,4184.615282,4195.384513,4190.769128,4200.512718,4201.538359
82,0,4215.384512,4168.205026,4204.102461,4170.256308,4215.897333,4209.230666,4209.230666,4210.769128,4205.640923,4191.794769,4205.128102,4201.025538,4209.230666,4213.846051
83,0,4216.922974,4169.230667,4212.82041,4176.410154,4219.487076,4213.33323,4213.846051,4219.999897,4216.410153,4221.025538,4219.999897,4205.640923,4219.487076,4214.358871
84,0,4215.384512,4168.205026,4212.307589,4185.128103,4218.974256,4215.897333,4214.871692,4221.025538,4222.563999,4224.102461,4218.461435,4199.487077,4218.974256,4206.666564
85,0,4207.692205,4162.564001,4204.102461,4185.640923,4217.948615,4212.82041,4215.897333,4211.281948,4209.743487,4210.256307,4203.589641,4189.230667,4207.179384,4204.102461
86,0,4198.974256,4161.025539,4200.512718,4190.256308,4217.435794,4209.743487,4212.307589,4201.025538,4198.461436,4204.102461,4198.461436,4185.128103,4199.999897,4197.435795
87,0,4201.025538,4166.153744,4206.666564,4201.538359,4219.487076,4213.846051,4210.256307,4198.974256,4201.025538,4201.538359,4199.999897,4184.102462,4200.512718,4185.640923
88,0,4216.410153,4171.79477,4215.384512,4202.564,4228.205025,4219.487076,4214.871692,4201.538359,4205.640923,4202.051179,4199.999897,4185.128103,4203.07682,4195.897333
89,0,4227.179384,4180.512718,4219.999897,4198.461436,4235.897332,4217.948615,4214.358871,4201.025538,4204.615282,4206.153743,4200.512718,4190.769128,4204.102461,4216.410153
90,0,4225.128102,4184.615282,4214.358871,4202.051179,4229.743486,4216.410153,4209.743487,4199.487077,4199.487077,4209.743487,4201.025538,4190.256308,4205.128102,4216.410153
91,0,4219.999897,4176.410154,4205.640923,4203.589641,4216.922974,4217.435794,4209.743487,4204.615282,4206.666564,4219.999897,4205.128102,4185.128103,4210.256307,4209.743487
92,0,4218.461435,4170.769129,4203.07682,4190.769128,4219.487076,4217.948615,4207.179384,4205.640923,4217.948615,4217.948615,4205.640923,4185.128103,4214.871692,4208.717846
93,0,4214.358871,4170.769129,4202.051179,4181.025539,4231.281948,4215.384512,4198.461436,4199.487077,4212.82041,4207.179384,4202.051179,4187.179385,4215.384512,4209.230666
94,0,4212.82041,4163.589642,4202.051179,4191.794769,4230.256307,4212.82041,4202.051179,4202.051179,4209.743487,4218.461435,4209.230666,4192.82041,4214.871692,4212.82041
95,0,4211.281948,4152.307591,4204.102461,4198.974256,4224.615281,4214.871692,4214.358871,4215.384512,4221.538358,4235.897332,4217.435794,4198.461436,4213.33323,4212.82041
96,0,4203.07682,4152.820411,4201.025538,4188.205026,4228.717845,4217.435794,4213.33323,4216.922974,4227.692204,4233.33323,4208.205025,4192.30759,4206.666564,4205.128102
97,0,4194.871692,4153.333232,4189.743487,4185.640923,4226.666563,4212.82041,4202.051179,4205.128102,4216.922974,4218.461435,4196.410154,4179.999898,4198.974256,4193.846051
98,0,4193.846051,4145.640924,4185.640923,4195.384513,4212.82041,4209.743487,4199.487077,4195.897333,4204.102461,4203.07682,4189.230667,4172.30759,4190.769128,4183.076821
99,0,4195.897333,4144.615283,4193.846051,4201.025538,4207.692205,4212.82041,4209.743487,4196.410154,4199.999897,4199.487077,4182.564,4169.230667,4185.128103,4182.05118
100,0,4199.999897,4155.384514,4201.538359,4203.07682,4216.922974,4218.461435,4217.948615,4207.179384,4206.666564,4209.230666,4189.743487,4174.871693,4190.256308,4193.846051
101,0,4206.153743,4157.948616,4204.102461,4201.025538,4216.922974,4223.07682,4220.512717,4214.358871,4214.871692,4215.384512,4204.102461,4183.076821,4199.999897,4201.538359
102,0,4205.640923,4153.333232,4197.948615,4190.769128,4203.07682,4223.07682,4214.358871,4207.692205,4212.307589,4208.205025,4202.051179,4183.589641,4200.512718,4200.512718
103,0,4197.948615,4151.28195,4189.230667,4184.615282,4204.615282,4215.897333,4204.615282,4201.538359,4210.256307,4202.564,4191.281949,4181.025539,4191.281949,4197.948615
104,0,4196.410154,4144.102463,4189.743487,4186.666564,4217.435794,4204.102461,4199.487077,4202.051179,4211.794769,4205.640923,4190.769128,4175.897334,4183.589641,4197.435795
105,0,4202.564,4136.922976,4197.948615,4186.666564,4216.922974,4199.487077,4199.487077,4207.179384,4210.769128,4214.871692,4198.461436,4182.05118,4190.256308,4201.025538
106,0,4203.07682,4137.948617,4202.051179,4183.589641,4208.717846,4206.153743,4201.538359,4214.871692,4214.358871,4219.999897,4205.128102,4195.897333,4201.025538,4205.128102
107,0,4201.025538,4136.922976,4196.410154,4183.589641,4209.743487,4213.33323,4207.179384,4218.974256,4221.538358,4216.922974,4204.102461,4193.333231,4202.564,4203.589641
108,0,4198.461436,4135.897335,4191.281949,4184.102462,4212.82041,4215.384512,4216.922974,4216.410153,4219.999897,4216.922974,4199.487077,4183.589641,4196.410154,4201.538359
109,0,4191.794769,4138.461437,4188.717846,4182.564,4213.33323,4215.384512,4218.461435,4215.897333,4207.179384,4211.281948,4198.461436,4184.615282,4188.205026,4198.974256
110,0,4190.769128,4140.512719,4185.640923,4182.05118,4210.256307,4214.358871,4209.230666,4215.384512,4206.666564,4205.128102,4199.999897,4186.666564,4188.717846,4194.871692
111,0,4202.051179,4148.717847,4190.256308,4182.564,4203.589641,4212.307589,4204.615282,4212.82041,4216.922974,4216.410153,4202.051179,4184.615282,4199.487077,4206.153743
112,0,4207.179384,4157.948616,4195.897333,4184.102462,4204.102461,4214.871692,4212.307589,4212.82041,4217.948615,4221.538358,4203.589641,4188.205026,4202.564,4218.461435
113,0,4203.07682,4155.897334,4193.333231,4185.128103,4212.82041,4215.897333,4217.948615,4217.435794,4216.410153,4216.922974,4206.153743,4191.794769,4198.974256,4207.179384
114,0,4200.512718,4151.28195,4187.179385,4183.589641,4217.948615,4213.846051,4216.410153,4216.922974,4214.358871,4214.358871,4202.564,4185.128103,4197.435795,4198.974256
115,0,4198.974256,4150.769129,4186.153744,4181.538359,4216.922974,4214.358871,4212.82041,4205.128102,4200.512718,4208.717846,4190.256308,4174.871693,4191.794769,4204.102461
116,0,4199.999897,4150.769129,4190.256308,4185.640923,4217.435794,4217.435794,4213.33323,4201.025538,4196.410154,4198.974256,4186.666564,4172.820411,4189.743487,4201.025538
117,0,4209.230666,4154.358873,4196.922974,4192.30759,4221.025538,4217.435794,4212.82041,4209.743487,4209.230666,4201.025538,4199.487077,4183.589641,4200.512718,4203.589641
118,0,4219.487076,4156.410155,4201.025538,4190.256308,4221.538358,4213.846051,4210.769128,4210.769128,4208.717846,4219.999897,4207.179384,4192.82041,4207.692205,4221.025538
119,0,4214.358871,4151.79477,4199.487077,4184.615282,4215.384512,4213.33323,4208.205025,4203.589641,4198.461436,4216.922974,4202.051179,4188.717846,4202.564,4218.461435
120,0,4201.538359,4148.717847,4195.384513,4184.615282,4211.281948,4210.769128,4204.615282,4199.999897,4197.948615,4188.205026,4197.948615,4184.102462,4192.82041,4201.538359
121,0,4204.102461,4151.28195,4193.846051,4184.102462,4214.358871,4204.615282,4201.025538,4198.461436,4198.461436,4186.666564,4197.948615,4183.589641,4190.256308,4204.102461
122,0,4213.846051,4156.410155,4194.358872,4180.512718,4211.794769,4205.640923,4200.512718,4198.974256,4202.564,4211.794769,4198.974256,4182.05118,4196.922974,4213.846051
123,0,4219.487076,4161.025539,4197.948615,4185.640923,4208.717846,4212.82041,4204.615282,4205.640923,4212.82041,4216.922974,4206.153743,4186.153744,4205.128102,4217.435794
124,0,4239.487076,4173.846052,4206.153743,4198.974256,4216.410153,4211.794769,4207.692205,4206.666564,4214.871692,4211.281948,4215.384512,4198.461436,4211.794769,4232.307589
125,0,4265.128101,4185.640923,4215.897333,4205.128102,4221.025538,4207.179384,4205.640923,4202.051179,4208.717846,4219.487076,4222.563999,4207.692205,4225.128102,4258.461434
126,0,4282.563998,4180.512718,4217.948615,4200.512718,4211.281948,4203.589641,4201.025538,4201.538359,4201.025538,4217.435794,4226.153743,4212.307589,4232.307589,4286.666562
127,0,4327.179381,4186.666564,4229.230666,4198.974256,4206.666564,4200.512718,4200.512718,4202.564,4200.512718,4211.794769,4231.794768,4229.743486,4238.461435,4334.358868
128,0,4403.589636,4221.538358,4254.871691,4212.82041,4216.410153,4201.025538,4207.179384,4203.589641,4211.794769,4218.461435,4246.153742,4257.435793,4258.461434,4400.512713
0,0,4454.358865,4238.974255,4268.205024,4220.512717,4218.974256,4203.589641,4207.179384,4204.615282,4210.256307,4211.281948,4260.512716,4271.794767,4278.974254,4453.333224
1,0,4476.410147,4230.769127,4270.256306,4214.871692,4214.358871,4201.025538,4201.025538,4197.435795,4189.230667,4199.999897,4264.61528,4276.922972,4286.153741,4487.179377
2,0,4505.640915,4240.512717,4281.025536,4223.07682,4210.769128,4196.922974,4198.461436,4188.205026,4182.05118,4203.589641,4258.461434,4284.102459,4279.999895,4505.640915
3,0,4522.051171,4251.794768,4285.1281,4233.84605,4205.640923,4190.769128,4196.922974,4184.102462,4186.666564,4197.948615,4245.640922,4281.025536,4263.076819,4501.025531
4,0,4504.102454,4235.897332,4273.846049,4220.512717,4199.999897,4186.666564,4191.794769,4181.538359,4184.102462,4180.512718,4232.307589,4266.153742,4247.692204,4484.102454
5,0,4484.102454,4221.538358,4267.179383,4204.102461,4199.999897,4187.692205,4195.384513,4182.564,4190.769128,4189.743487,4233.84605,4261.025537,4249.743486,4469.23066
6,0,4464.102455,4214.358871,4263.589639,4203.07682,4198.461436,4188.205026,4199.487077,4182.564,4192.30759,4198.461436,4237.435794,4259.487075,4251.281947,4450.769122
7,0,4433.846045,4205.640923,4252.307588,4203.589641,4196.922974,4184.102462,4191.281949,4170.769129,4167.179385,4172.30759,4223.58964,4245.128101,4232.820409,4424.102456
8,0,4412.820405,4202.564,4246.666563,4199.999897,4200.512718,4183.589641,4188.205026,4164.615283,4156.922975,4167.692206,4210.256307,4234.358871,4216.410153,4392.307585
9,0,4394.871687,4194.871692,4246.153742,4198.974256,4203.589641,4189.743487,4196.410154,4176.410154,4174.871693,4187.179385,4209.743487,4230.256307,4215.384512,4356.92297
10,0,4365.128098,4185.128103,4240.512717,4202.051179,4205.640923,4196.922974,4199.999897,4191.794769,4186.153744,4179.999898,4213.846051,4223.07682,4216.410153,4332.820407
11,0,4342.051176,4181.538359,4235.384512,4199.999897,4201.025538,4199.999897,4199.487077,4195.384513,4188.717846,4174.871693,4210.769128,4217.435794,4214.358871,4324.615279
12,0,4331.281945,4174.358872,4232.307589,4187.692205,4195.384513,4198.974256,4200.512718,4189.743487,4186.153744,4194.871692,4203.589641,4215.384512,4214.358871,4318.974253
13,0,4315.38451,4166.666565,4229.230666,4183.076821,4206.153743,4198.974256,4198.974256,4190.769128,4184.102462,4202.051179,4207.692205,4217.948615,4217.948615,4311.794766
14,0,4301.025536,4169.230667,4233.33323,4183.076821,4221.025538,4200.512718,4201.538359,4202.051179,4195.897333,4195.897333,4214.871692,4222.563999,4215.897333,4290.769126
15,0,4290.769126,4166.666565,4232.820409,4170.769129,4211.281948,4200.512718,4202.564,4204.102461,4202.564,4200.512718,4207.692205,4219.487076,4207.179384,4268.205024
16,0,4276.410152,4156.410155,4219.999897,4162.564001,4198.974256,4201.538359,4201.538359,4197.948615,4198.461436,4203.589641,4201.025538,4210.256307,4202.564,4261.538357
17,0,4259.487075,4153.846052,4212.307589,4168.717847,4210.256307,4203.589641,4208.205025,4200.512718,4203.589641,4201.025538,4205.128102,4204.102461,4203.07682,4257.948614
18,0,4250.769127,4152.820411,4214.358871,4171.79477,4219.999897,4205.128102,4211.281948,4202.051179,4202.564,4199.999897,4203.07682,4200.512718,4200.512718,4248.717845
19,0,4245.640922,4153.333232,4216.922974,4168.717847,4218.461435,4210.256307,4208.717846,4200.512718,4194.358872,4201.025538,4203.589641,4204.615282,4202.564,4239.999896
20,0,4236.922973,4156.922975,4219.487076,4169.743488,4214.358871,4212.307589,4210.769128,4205.128102,4207.179384,4206.666564,4217.435794,4215.897333,4213.846051,4237.435794
21,0,4230.256307,4152.820411,4219.999897,4170.256308,4207.692205,4206.153743,4210.769128,4204.615282,4210.256307,4212.307589,4215.897333,4215.384512,4213.33323,4232.820409
22,0,4226.153743,4141.02554,4209.230666,4165.640924,4200.512718,4198.974256,4202.051179,4197.948615,4194.358872,4206.666564,4202.051179,4203.589641,4202.051179,4224.102461
23,0,4215.897333,4138.974258,4202.051179,4166.153744,4198.974256,4197.435795,4200.512718,4197.435795,4195.384513,4197.435795,4208.205025,4199.999897,4197.948615,4211.281948
24,0,4206.666564,4148.717847,4210.769128,4176.922975,4206.153743,4205.640923,4211.281948,4201.538359,4199.487077,4192.82041,4216.922974,4204.102461,4201.538359,4205.128102
25,0,4202.564,4152.307591,4211.281948,4180.512718,4213.846051,4212.307589,4211.794769,4200.512718,4190.256308,4199.999897,4204.615282,4201.025538,4201.538359,4202.564
26,0,4199.999897,4150.256309,4196.922974,4176.410154,4216.922974,4208.717846,4202.051179,4199.487077,4196.410154,4211.281948,4195.384513,4194.358872,4198.974256,4198.461436
27,0,4201.538359,4155.384514,4196.410154,4180.512718,4214.871692,4203.589641,4199.999897,4201.025538,4207.179384,4213.846051,4209.230666,4197.435795,4205.640923,4204.615282
28,0,4205.640923,4161.53836,4211.794769,4188.717846,4215.897333,4204.615282,4206.666564,4202.564,4203.07682,4214.358871,4222.051179,4205.640923,4216.922974,4208.717846
29,0,4200.512718,4158.461437,4211.281948,4183.589641,4215.897333,4201.025538,4205.128102,4205.128102,4203.589641,4218.974256,4219.487076,4203.589641,4214.871692,4202.564
30,0,4189.230667,4153.333232,4194.358872,4170.256308,4211.794769,4198.461436,4199.487077,4205.640923,4204.615282,4217.435794,4212.307589,4190.256308,4203.589641,4199.487077
31,0,4183.076821,4152.307591,4184.615282,4165.640924,4217.948615,4202.564,4201.025538,4202.564,4200.512718,4213.33323,4206.666564,4180.512718,4202.051179,4187.692205
32,0,4184.102462,4152.820411,4185.128103,4163.076821,4217.948615,4203.07682,4201.538359,4200.512718,4206.666564,4217.948615,4205.128102,4179.999898,4206.153743,4173.333231
33,0,4182.564,4150.769129,4187.692205,4157.948616,4208.205025,4200.512718,4199.487077,4201.025538,4209.743487,4215.384512,4203.589641,4182.564,4203.589641,4180.512718
34,0,4174.358872,4149.743488,4185.640923,4155.384514,4209.743487,4201.025538,4201.025538,4201.025538,4196.922974,4203.07682,4199.999897,4183.589641,4199.999897,4186.153744
35,0,4170.256308,4150.769129,4183.589641,4155.897334,4217.948615,4204.615282,4208.717846,4199.487077,4189.230667,4201.025538,4198.974256,4182.05118,4200.512718,4170.769129
36,0,4170.256308,4151.28195,4188.205026,4152.307591,4216.922974,4204.615282,4209.743487,4198.461436,4197.948615,4199.487077,4202.564,4185.128103,4200.512718,4172.30759
37,0,4170.256308,4153.846052,4194.358872,4150.769129,4214.358871,4199.999897,4203.589641,4198.974256,4204.615282,4198.461436,4203.589641,4191.794769,4202.564,4185.128103
38,0,4174.358872,4154.358873,4194.358872,4154.871693,4218.461435,4198.461436,4201.025538,4201.025538,4201.538359,4211.281948,4201.538359,4192.30759,4204.102461,4176.410154
39,0,4178.974257,4151.79477,4195.897333,4148.717847,4219.999897,4200.512718,4203.07682,4201.538359,4198.461436,4222.051179,4203.589641,4184.615282,4202.051179,4170.256308
40,0,4184.102462,4158.974257,4204.615282,4136.410155,4223.07682,4202.564,4204.102461,4204.102461,4209.743487,4216.410153,4212.307589,4183.589641,4201.538359,4183.589641
41,0,4188.717846,4166.153744,4207.179384,4135.384514,4230.769127,4202.564,4203.07682,4212.307589,4219.487076,4215.384512,4215.897333,4189.743487,4203.07682,4185.128103
42,0,4180.512718,4159.487078,4198.461436,4135.897335,4233.84605,4202.564,4203.589641,4212.82041,4208.717846,4218.974256,4207.179384,4188.717846,4204.102461,4173.333231
43,0,4167.692206,4151.79477,4191.281949,4127.179386,4232.820409,4204.102461,4204.615282,4205.640923,4198.974256,4213.846051,4200.512718,4184.615282,4201.538359,4170.256308
44,0,4164.615283,4151.79477,4187.179385,4118.461438,4230.769127,4204.102461,4203.589641,4202.564,4203.07682,4212.307589,4202.564,4182.564,4191.794769,4170.256308
45,0,4167.692206,4152.820411,4186.153744,4123.589643,4225.640922,4202.051179,4200.512718,4202.051179,4202.564,4213.846051,4205.128102,4182.564,4189.230667,4167.692206
46,0,4172.820411,4156.410155,4192.82041,4135.384514,4218.974256,4199.487077,4199.487077,4199.999897,4196.410154,4210.256307,4205.128102,4185.128103,4201.025538,4167.692206
47,0,4171.281949,4157.948616,4195.897333,4140.512719,4214.358871,4198.461436,4201.538359,4201.538359,4203.589641,4209.743487,4203.589641,4183.076821,4202.051179,4170.256308
48,0,4165.640924,4155.384514,4188.205026,4139.487078,4216.410153,4199.999897,4203.07682,4204.102461,4207.179384,4201.538359,4197.948615,4176.922975,4189.230667,4171.281949
49,0,4169.230667,4159.487078,4184.102462,4139.487078,4223.58964,4198.461436,4200.512718,4198.974256,4194.358872,4186.153744,4190.769128,4174.358872,4186.666564,4166.153744
50,0,4158.461437,4145.128104,4187.179385,4138.974258,4221.538358,4203.589641,4208.717846,4199.999897,4201.538359,4197.948615,4187.179385,4173.846052,4183.076821,4150.769129
51,0,4139.999899,4128.205027,4186.666564,4141.53836,4219.487076,4212.307589,4218.461435,4207.692205,4220.512717,4217.435794,4188.205026,4170.769129,4171.79477,4138.974258
52,0,4157.948616,4159.999898,4187.179385,4158.461437,4225.128102,4208.205025,4207.179384,4199.487077,4204.615282,4209.743487,4187.692205,4167.179385,4173.333231,4145.128104
53,0,4175.384513,4202.564,4189.743487,4174.358872,4222.051179,4204.615282,4195.384513,4187.692205,4180.512718,4192.82041,4176.410154,4160.512719,4169.743488,4141.02554
54,0,4148.717847,4200.512718,4185.640923,4173.846052,4218.974256,4212.82041,4201.538359,4193.333231,4191.281949,4186.666564,4156.410155,4145.128104,4141.02554,4107.179387
55,0,4128.205027,4187.692205,4182.564,4170.769129,4229.743486,4216.410153,4205.128102,4201.538359,4204.615282,4189.743487,4150.256309,4135.897335,4123.589643,4078.974259
56,0,4139.999899,4196.922974,4185.128103,4175.384513,4235.897332,4214.358871,4200.512718,4202.051179,4201.538359,4207.692205,4167.692206,4146.153745,4146.666565,4093.333233
57,0,4143.076822,4203.07682,4185.640923,4176.410154,4227.692204,4212.307589,4203.07682,4204.102461,4206.666564,4219.487076,4181.538359,4157.948616,4168.717847,4115.897335
58,0,4135.384514,4197.948615,4181.538359,4173.333231,4227.179384,4204.615282,4202.051179,4205.640923,4215.897333,4205.640923,4173.333231,4153.846052,4158.461437,4110.76913
59,0,4136.922976,4196.922974,4181.025539,4176.922975,4230.769127,4202.564,4199.487077,4203.589641,4211.794769,4196.410154,4170.769129,4152.307591,4148.205027,4102.051182
60,0,4141.02554,4197.948615,4185.640923,4184.615282,4232.307589,4212.82041,4206.153743,4203.589641,4201.538359,4202.051179,4184.102462,4161.53836,4159.999898,4108.205028
61,0,4139.999899,4193.846051,4185.640923,4185.128103,4233.84605,4216.922974,4211.794769,4203.07682,4197.948615,4208.205025,4185.640923,4160.512719,4172.30759,4111.281951
62,0,4135.384514,4187.692205,4177.948616,4181.538359,4227.179384,4213.846051,4210.769128,4201.025538,4196.922974,4198.974256,4172.820411,4151.79477,4165.128103,4107.179387
63,0,4132.820412,4187.179385,4177.435795,4183.076821,4224.102461,4214.358871,4210.256307,4201.025538,4196.410154,4188.717846,4169.230667,4152.307591,4156.410155,4107.692207
64,0,4133.333232,4187.692205,4183.076821,4187.179385,4234.358871,4217.948615,4215.384512,4206.666564,4207.179384,4205.128102,4172.30759,4155.384514,4161.025539,4108.717848
65,0,4136.410155,4187.692205,4183.589641,4188.205026,4231.281948,4219.999897,4216.410153,4216.410153,4218.974256,4218.974256,4171.79477,4154.871693,4167.692206,4105.640925
66,0,4141.02554,4190.256308,4184.102462,4186.666564,4219.487076,4217.435794,4212.82041,4214.358871,4214.358871,4209.230666,4174.358872,4153.846052,4168.717847,4106.666566
67,0,4139.487078,4187.692205,4183.076821,4183.589641,4222.563999,4214.358871,4210.256307,4204.615282,4205.640923,4200.512718,4173.846052,4153.333232,4163.589642,4112.820412
68,0,4135.384514,4182.05118,4174.871693,4183.076821,4226.153743,4214.358871,4211.794769,4206.666564,4204.102461,4200.512718,4170.256308,4150.769129,4161.025539,4112.307592
69,0,4133.846053,4181.538359,4174.358872,4185.128103,4216.922974,4212.307589,4214.358871,4216.410153,4201.025538,4199.999897,4178.974257,4154.358873,4166.666565,4105.640925
70,0,4134.358873,4184.102462,4186.153744,4187.692205,4216.922974,4213.33323,4215.897333,4219.487076,4206.666564,4204.102461,4185.640923,4162.05118,4170.769129,4111.281951
71,0,4133.846053,4185.128103,4184.615282,4186.666564,4219.999897,4211.281948,4213.33323,4216.410153,4212.82041,4200.512718,4174.871693,4158.974257,4165.128103,4117.948617
72,0,4134.358873,4184.102462,4175.897334,4185.128103,4213.846051,4207.179384,4211.281948,4214.358871,4206.153743,4192.30759,4171.281949,4156.922975,4162.564001,4115.897335
73,0,4137.435796,4185.640923,4181.025539,4191.794769,4216.410153,4210.769128,4214.358871,4214.358871,4203.589641,4201.538359,4183.589641,4167.179385,4171.281949,4121.538361
74,0,4137.435796,4190.769128,4186.666564,4197.948615,4218.974256,4215.384512,4216.410153,4212.307589,4203.589641,4197.948615,4185.128103,4172.30759,4177.948616,4128.717848
75,0,4142.564001,4196.410154,4184.615282,4197.948615,4213.846051,4214.871692,4215.384512,4211.794769,4200.512718,4192.82041,4183.076821,4167.179385,4182.564,4126.153745
76,0,4146.666565,4192.30759,4183.589641,4194.871692,4221.538358,4216.410153,4217.435794,4216.410153,4209.230666,4211.794769,4193.846051,4167.692206,4186.153744,4127.179386
77,0,4136.922976,4186.153744,4181.538359,4198.461436,4231.794768,4216.922974,4221.025538,4220.512717,4220.512717,4223.07682,4196.410154,4170.256308,4183.589641,4130.256309
78,0,4143.076822,4195.897333,4185.640923,4211.794769,4225.128102,4216.922974,4218.461435,4219.999897,4219.999897,4219.487076,4197.435795,4177.435795,4187.692205,4143.076822
79,0,4169.230667,4207.692205,4193.333231,4222.051179,4213.33323,4214.871692,4213.846051,4218.461435,4215.384512,4218.974256,4207.692205,4186.153744,4198.974256,4166.666565
80,0,4169.743488,4203.07682,4188.205026,4217.435794,4212.82041,4207.179384,4212.82041,4215.897333,4209.743487,4210.769128,4200.512718,4178.461436,4195.384513,4163.076821
81,0,4145.128104,4187.692205,4179.487077,4208.717846,4214.358871,4205.640923,4213.846051,4214.871692,4207.692205,4198.461436,4183.076821,4166.153744,4181.538359,4137.948617
82,0,4142.564001,4183.589641,4181.025539,4209.743487,4219.487076,4215.384512,4214.871692,4215.384512,4212.82041,4209.230666,4183.589641,4168.205026,4178.974257,4133.846053
83,0,4155.384514,4193.333231,4185.640923,4216.410153,4226.153743,4218.461435,4215.897333,4215.384512,4217.435794,4216.410153,4190.256308,4168.205026,4186.153744,4141.53836
84,0,4156.410155,4197.948615,4186.666564,4221.538358,4218.461435,4213.33323,4214.871692,4215.897333,4214.358871,4207.692205,4183.589641,4164.102462,4184.615282,4141.53836
85,0,4154.358873,4192.30759,4185.640923,4221.538358,4210.769128,4212.307589,4212.307589,4210.769128,4205.640923,4198.461436,4179.999898,4167.179385,4175.897334,4139.999899
86,0,4152.307591,4186.153744,4182.05118,4220.512717,4216.922974,4210.769128,4212.307589,4201.538359,4197.948615,4190.256308,4183.589641,4163.076821,4172.820411,4138.461437
87,0,4150.256309,4187.179385,4182.564,4221.025538,4222.563999,4208.205025,4214.871692,4204.615282,4198.461436,4193.333231,4182.05118,4157.435796,4175.384513,4139.487078
88,0,4154.871693,4189.743487,4187.692205,4218.461435,4218.461435,4212.82041,4215.897333,4213.846051,4199.999897,4202.564,4181.538359,4165.640924,4174.871693,4143.589642
89,0,4167.179385,4193.333231,4193.333231,4223.58964,4215.897333,4215.897333,4213.846051,4216.922974,4204.102461,4204.615282,4189.230667,4175.384513,4174.871693,4147.692206
90,0,4177.435795,4198.974256,4201.538359,4227.692204,4217.948615,4213.846051,4214.358871,4215.897333,4215.897333,4208.205025,4202.051179,4179.999898,4184.102462,4156.410155
91,0,4169.743488,4196.922974,4199.999897,4219.999897,4215.897333,4213.846051,4217.435794,4217.435794,4212.82041,4212.82041,4201.538359,4182.564,4184.615282,4160.512719
92,0,4154.358873,4188.717846,4187.692205,4215.384512,4216.922974,4214.871692,4215.384512,4215.897333,4201.538359,4206.153743,4190.769128,4175.897334,4173.333231,4150.256309
93,0,4154.871693,4182.05118,4179.999898,4220.512717,4210.769128,4205.128102,4204.102461,4210.256307,4203.589641,4198.461436,4184.615282,4167.179385,4170.256308,4138.461437
94,0,4157.948616,4181.538359,4182.564,4217.948615,4199.999897,4197.948615,4199.999897,4203.07682,4203.589641,4198.461436,4183.589641,4168.205026,4170.769129,4136.410155
95,0,4154.871693,4183.589641,4184.102462,4213.33323,4204.102461,4209.230666,4210.256307,4203.589641,4202.051179,4201.538359,4184.615282,4171.281949,4168.205026,4143.589642
96,0,4163.076821,4185.128103,4185.640923,4223.58964,4217.948615,4222.051179,4218.974256,4211.281948,4215.897333,4206.666564,4187.692205,4172.30759,4173.846052,4152.820411
97,0,4172.820411,4189.743487,4188.205026,4231.794768,4221.538358,4222.051179,4218.461435,4210.256307,4216.922974,4206.153743,4186.666564,4173.333231,4184.615282,4155.384514
98,0,4168.717847,4192.30759,4187.692205,4231.794768,4219.487076,4218.974256,4215.897333,4199.487077,4201.025538,4207.692205,4184.615282,4174.871693,4185.640923,4152.307591
99,0,4172.820411,4194.871692,4190.256308,4231.281948,4224.102461,4219.487076,4215.384512,4198.974256,4203.589641,4207.692205,4191.281949,4179.999898,4183.589641,4152.820411
100,0,4185.128103,4202.051179,4198.461436,4235.384512,4217.948615,4217.948615,4216.922974,4211.281948,4217.948615,4199.999897,4199.999897,4187.692205,4190.256308,4162.05118
101,0,4185.128103,4201.538359,4202.564,4234.871691,4207.692205,4217.948615,4216.922974,4218.974256,4221.538358,4210.256307,4199.487077,4194.358872,4195.897333,4168.205026
102,0,4177.948616,4189.743487,4196.410154,4230.256307,4215.384512,4216.922974,4215.384512,4215.384512,4215.897333,4228.205025,4198.461436,4198.974256,4195.897333,4166.666565
103,0,4172.30759,4184.102462,4194.358872,4231.794768,4215.897333,4212.82041,4217.435794,4215.897333,4216.410153,4224.102461,4205.640923,4202.051179,4194.871692,4171.79477
104,0,4168.205026,4182.564,4197.435795,4234.871691,4201.025538,4213.33323,4221.538358,4219.487076,4219.999897,4216.410153,4202.051179,4199.999897,4191.281949,4170.769129
105,0,4162.05118,4172.30759,4191.794769,4232.307589,4202.051179,4211.281948,4218.461435,4218.461435,4213.33323,4216.410153,4185.128103,4189.230667,4181.025539,4151.28195
106,0,4163.589642,4169.230667,4186.666564,4231.794768,4215.384512,4206.153743,4217.435794,4215.897333,4208.205025,4209.230666,4188.205026,4189.743487,4182.564,4152.820411
107,0,4169.743488,4175.897334,4187.692205,4234.871691,4210.256307,4209.230666,4223.07682,4218.461435,4215.384512,4201.538359,4201.025538,4197.948615,4188.717846,4168.717847
108,0,4157.948616,4171.79477,4184.102462,4234.871691,4206.153743,4217.948615,4224.102461,4216.410153,4212.82041,4197.948615,4184.615282,4187.692205,4168.717847,4148.205027
109,0,4153.333232,4168.205026,4181.538359,4235.384512,4215.897333,4219.487076,4220.512717,4207.179384,4208.717846,4197.435795,4171.79477,4177.435795,4161.53836,4138.461437
110,0,4189.230667,4175.897334,4191.794769,4242.563999,4218.461435,4215.897333,4213.846051,4196.410154,4215.897333,4199.999897,4196.922974,4192.82041,4201.025538,4187.692205
111,0,4230.769127,4176.410154,4204.102461,4247.179383,4213.846051,4214.871692,4205.128102,4193.846051,4207.179384,4207.179384,4224.615281,4217.435794,4239.487076,4243.58964
112,0,4249.743486,4175.897334,4216.410153,4247.179383,4213.846051,4213.846051,4206.153743,4206.153743,4202.051179,4223.07682,4241.025537,4242.051178,4254.35887,4277.948613
113,0,4274.35887,4183.076821,4237.435794,4254.871691,4218.974256,4213.846051,4215.897333,4221.538358,4225.128102,4233.33323,4262.563998,4269.743485,4274.35887,4316.922971
114,0,4302.563997,4187.692205,4248.205024,4264.61528,4215.384512,4214.358871,4216.410153,4221.538358,4238.461435,4232.307589,4273.846049,4279.999895,4288.717844,4344.615278
115,0,4305.1281,4188.205026,4242.051178,4265.128101,4205.128102,4214.871692,4213.33323,4215.384512,4228.717845,4237.948614,4266.666562,4272.820408,4278.461434,4336.922971
116,0,4290.769126,4183.589641,4230.769127,4264.10246,4210.256307,4216.922974,4216.922974,4219.487076,4222.051179,4240.512717,4253.84605,4262.051178,4264.10246,4316.410151
117,0,4270.256306,4165.640924,4216.922974,4259.999896,4217.435794,4216.922974,4217.948615,4216.922974,4221.025538,4223.58964,4236.922973,4244.10246,4246.666563,4296.922972
118,0,4249.743486,4149.743488,4201.025538,4249.743486,4209.743487,4213.846051,4214.871692,4204.615282,4215.384512,4210.256307,4220.512717,4227.692204,4229.743486,4279.487075
119,0,4243.58964,4152.307591,4197.948615,4251.794768,4205.128102,4213.33323,4213.846051,4205.640923,4205.640923,4211.794769,4219.999897,4225.128102,4227.692204,4270.769126
120,0,4248.205024,4157.948616,4206.666564,4262.051178,4214.358871,4218.974256,4217.948615,4214.871692,4204.102461,4214.871692,4227.179384,4229.230666,4230.256307,4267.692203
121,0,4249.230665,4156.922975,4212.307589,4264.10246,4214.358871,4220.512717,4221.025538,4214.358871,4217.435794,4219.999897,4228.205025,4229.743486,4228.205025,4263.589639
122,0,4245.128101,4158.461437,4215.897333,4268.205024,4204.102461,4216.922974,4215.384512,4210.769128,4225.640922,4214.358871,4226.153743,4232.307589,4228.717845,4261.538357
123,0,4247.179383,4167.179385,4217.948615,4274.35887,4195.897333,4216.410153,4215.897333,4210.769128,4210.769128,4200.512718,4227.179384,4235.897332,4232.307589,4264.10246
124,0,4248.205024,4167.179385,4217.948615,4274.87169,4197.948615,4218.974256,4222.563999,4209.230666,4200.512718,4204.615282,4226.153743,4232.307589,4228.717845,4265.640921
125,0,4247.179383,4165.128103,4224.102461,4277.948613,4205.640923,4217.435794,4223.07682,4216.922974,4214.871692,4223.58964,4226.153743,4234.358871,4229.743486,4271.281947
126,0,4255.897332,4177.435795,4232.820409,4282.563998,4204.615282,4218.461435,4224.615281,4234.358871,4234.358871,4238.461435,4240.512717,4252.307588,4242.563999,4278.461434
127,0,4268.717844,4188.717846,4233.33323,4285.640921,4203.07682,4226.666563,4229.743486,4246.666563,4242.051178,4248.205024,4260.512716,4267.179383,4258.974255,4285.1281
128,0,4265.640921,4187.692205,4231.794768,4290.769126,4214.358871,4231.794768,4230.256307,4248.205024,4249.743486,4254.871691,4267.692203,4268.205024,4264.61528,4293.846049
0,0,4251.281947,4186.153744,4228.717845,4285.1281,4221.025538,4230.256307,4229.743486,4245.128101,4250.769127,4252.307588,4259.487075,4262.051178,4256.410152,4289.230664
1,0,4249.743486,4183.589641,4220.512717,4276.922972,4213.846051,4226.666563,4232.820409,4244.10246,4237.435794,4246.153742,4249.230665,4251.794768,4246.153742,4272.307588
2,0,4248.205024,4173.846052,4215.897333,4276.922972,4204.615282,4222.563999,4232.820409,4245.128101,4239.487076,4234.871691,4241.538358,4236.922973,4238.974255,4261.538357
3,0,4231.281948,4167.179385,4212.82041,4269.230665,4198.461436,4217.435794,4231.794768,4238.461435,4247.692204,4229.230666,4235.897332,4227.692204,4233.33323,4252.307588
4,0,4223.07682,4167.692206,4207.692205,4257.435793,4197.948615,4215.897333,4228.205025,4222.563999,4230.769127,4232.307589,4229.230666,4229.230666,4230.769127,4244.615281
5,0,4232.820409,4167.179385,4208.717846,4262.563998,4202.564,4215.897333,4218.974256,4208.717846,4203.07682,4219.487076,4220.512717,4230.769127,4229.230666,4248.205024
6,0,4233.33323,4165.128103,4213.846051,4269.230665,4204.615282,4216.410153,4215.897333,4205.128102,4204.102461,4212.307589,4216.922974,4229.743486,4220.512717,4244.10246
7,0,4216.922974,4165.128103,4211.281948,4261.025537,4201.538359,4217.435794,4218.974256,4209.743487,4216.922974,4211.794769,4215.384512,4226.666563,4215.384512,4235.384512
8,0,4216.922974,4165.640924,4208.205025,4260.512716,4200.512718,4215.384512,4218.974256,4210.769128,4211.281948,4193.846051,4215.384512,4223.58964,4222.563999,4245.128101
9,0,4236.410153,4170.256308,4215.384512,4274.87169,4202.564,4213.846051,4218.974256,4212.82041,4207.692205,4199.487077,4229.230666,4234.358871,4232.820409,4260.512716
10,0,4246.666563,4178.974257,4224.615281,4282.563998,4193.846051,4213.846051,4222.051179,4221.025538,4217.435794,4234.358871,4242.051178,4250.256306,4241.538358,4258.974255
11,0,4242.563999,4184.102462,4228.205025,4277.435793,4187.179385,4215.897333,4226.666563,4229.230666,4226.666563,4239.487076,4241.025537,4249.743486,4247.179383,4258.974255
12,0,4245.128101,4184.615282,4229.230666,4277.948613,4198.974256,4219.487076,4231.794768,4235.384512,4232.307589,4229.743486,4239.999896,4245.128101,4245.640922,4267.692203
13,0,4249.230665,4181.538359,4228.205025,4284.102459,4209.230666,4217.948615,4234.871691,4235.897332,4232.820409,4233.84605,4240.512717,4247.692204,4236.922973,4262.051178
14,0,4238.974255,4174.871693,4221.538358,4282.563998,4204.102461,4214.871692,4228.717845,4224.102461,4221.025538,4213.846051,4229.743486,4239.487076,4229.743486,4250.256306
15,0,4228.205025,4169.230667,4214.871692,4278.461434,4201.025538,4215.384512,4221.025538,4213.33323,4208.205025,4193.333231,4218.461435,4226.666563,4224.615281,4246.153742
16,0,4226.153743,4167.179385,4215.384512,4278.461434,4198.461436,4210.256307,4216.410153,4213.846051,4204.615282,4202.051179,4213.33323,4227.692204,4212.307589,4241.538358
17,0,4229.743486,4167.179385,4213.33323,4279.487075,4194.871692,4204.102461,4215.384512,4211.794769,4199.999897,4204.615282,4208.717846,4227.179384,4203.589641,4236.922973
18,0,4232.820409,4169.743488,4214.871692,4281.025536,4202.564,4214.358871,4226.153743,4211.281948,4204.615282,4204.615282,4213.846051,4228.205025,4210.256307,4244.615281
19,0,4234.358871,4172.30759,4220.512717,4284.61528,4198.461436,4216.922974,4230.256307,4215.897333,4213.846051,4215.897333,4227.179384,4237.435794,4217.435794,4247.179383
20,0,4230.769127,4168.205026,4221.025538,4281.538357,4186.153744,4203.07682,4217.948615,4215.384512,4216.922974,4216.410153,4229.230666,4237.435794,4212.82041,4238.461435
21,0,4233.33323,4175.384513,4226.153743,4281.025536,4197.435795,4207.179384,4219.487076,4221.025538,4226.153743,4218.974256,4229.743486,4236.410153,4214.871692,4252.820409
22,0,4241.538358,4186.666564,4235.897332,4288.717844,4210.256307,4222.051179,4236.922973,4232.820409,4233.84605,4226.666563,4240.512717,4247.179383,4226.153743,4266.666562
23,0,4245.640922,4182.05118,4234.358871,4292.820408,4194.358872,4217.435794,4231.794768,4234.358871,4225.640922,4219.487076,4243.58964,4251.794768,4227.692204,4253.333229
24,0,4245.640922,4177.435795,4228.717845,4291.281946,4188.717846,4210.256307,4215.384512,4226.666563,4215.897333,4220.512717,4235.897332,4245.128101,4225.640922,4250.256306
25,0,4239.487076,4183.076821,4231.281948,4294.358869,4201.538359,4214.358871,4215.897333,4222.563999,4217.435794,4231.281948,4232.307589,4245.640922,4224.102461,4264.10246
26,0,4233.84605,4185.640923,4233.84605,4297.435792,4195.384513,4215.897333,4219.999897,4219.999897,4215.897333,4224.102461,4234.358871,4247.179383,4218.461435,4263.076819
27,0,4235.897332,4181.538359,4225.640922,4295.38451,4186.666564,4214.871692,4217.435794,4216.922974,4211.281948,4212.307589,4232.820409,4237.948614,4215.897333,4247.692204
28,0,4233.33323,4177.435795,4218.461435,4295.897331,4198.974256,4215.897333,4217.948615,4216.922974,4215.384512,4213.846051,4223.58964,4231.281948,4213.33323,4235.384512
29,0,4221.538358,4170.769129,4217.948615,4294.358869,4206.153743,4215.384512,4219.487076,4218.461435,4218.461435,4216.922974,4218.461435,4231.281948,4205.128102,4231.281948
30,0,4216.410153,4167.692206,4220.512717,4284.102459,4199.999897,4213.846051,4218.974256,4221.538358,4217.435794,4216.410153,4227.179384,4233.33323,4205.640923,4238.974255
31,0,4221.025538,4170.256308,4219.487076,4275.897331,4200.512718,4214.358871,4221.538358,4223.58964,4215.384512,4216.922974,4232.307589,4233.84605,4213.33323,4239.487076
32,0,4224.102461,4171.281949,4217.435794,4276.410152,4203.07682,4219.487076,4229.230666,4227.179384,4215.384512,4214.358871,4226.153743,4235.384512,4212.82041,4229.230666
33,0,4226.666563,4169.743488,4222.563999,4280.512716,4199.999897,4223.58964,4234.871691,4231.281948,4219.999897,4215.384512,4231.794768,4242.051178,4212.307589,4235.384512
34,0,4229.230666,4168.205026,4228.205025,4278.461434,4196.922974,4224.615281,4233.84605,4235.384512,4229.743486,4224.102461,4236.410153,4247.692204,4216.922974,4247.692204
35,0,4231.281948,4174.871693,4229.743486,4277.948613,4203.07682,4229.230666,4233.33323,4241.025537,4238.461435,4232.820409,4233.84605,4247.179383,4224.615281,4248.205024
36,0,4234.871691,4186.666564,4232.307589,4285.640921,4213.33323,4235.384512,4234.871691,4242.563999,4232.307589,4236.410153,4243.58964,4248.717845,4232.820409,4247.179383
37,0,4234.871691,4190.256308,4230.769127,4288.717844,4209.230666,4228.205025,4225.640922,4231.281948,4219.487076,4230.769127,4245.640922,4250.769127,4234.358871,4250.256306
38,0,4232.820409,4185.640923,4222.051179,4280.512716,4200.512718,4215.384512,4211.794769,4217.435794,4214.358871,4222.563999,4233.33323,4242.563999,4224.102461,4248.717845
39,0,4229.743486,4182.05118,4215.384512,4273.333229,4203.589641,4214.358871,4213.33323,4212.82041,4211.794769,4216.922974,4229.230666,4234.358871,4217.948615,4244.615281
40,0,4219.999897,4180.512718,4217.435794,4270.256306,4204.615282,4217.435794,4221.025538,4215.897333,4210.769128,4209.230666,4224.615281,4228.205025,4217.948615,4240.512717
41,0,4212.82041,4177.948616,4215.897333,4269.230665,4197.435795,4215.384512,4219.487076,4216.922974,4209.743487,4198.461436,4214.358871,4219.999897,4215.384512,4236.922973
42,0,4219.999897,4178.461436,4214.871692,4272.820408,4196.410154,4215.897333,4221.538358,4216.922974,4205.640923,4195.897333,4219.487076,4218.974256,4211.794769,4238.461435
43,0,4239.487076,4186.666564,4221.538358,4276.922972,4201.025538,4218.461435,4229.743486,4218.461435,4208.717846,4209.743487,4229.230666,4226.666563,4217.948615,4247.692204
44,0,4265.128101,4205.640923,4231.281948,4280.512716,4203.07682,4219.487076,4228.205025,4218.974256,4220.512717,4223.07682,4236.410153,4237.948614,4237.948614,4270.769126
45,0,4290.256305,4218.974256,4238.461435,4286.666562,4203.07682,4218.461435,4219.487076,4224.102461,4222.563999,4222.051179,4246.666563,4247.692204,4249.743486,4298.974254
46,0,4324.102458,4230.256307,4248.717845,4296.410151,4201.025538,4215.897333,4216.922974,4228.205025,4214.871692,4214.871692,4250.769127,4258.461434,4254.871691,4336.41015
47,0,4383.589636,4253.84605,4266.666562,4309.743484,4204.102461,4216.410153,4219.487076,4223.07682,4218.461435,4220.512717,4264.10246,4277.435793,4278.461434,4399.999892
48,0,4445.128096,4271.794767,4281.025536,4315.38451,4201.025538,4213.33323,4217.435794,4214.358871,4221.538358,4229.230666,4279.999895,4296.922972,4301.538356,4456.922968
49,0,4471.794762,4269.230665,4280.512716,4310.769125,4191.794769,4206.153743,4210.769128,4208.205025,4208.717846,4216.410153,4269.743485,4298.461433,4297.435792,4477.948608
50,0,4487.179377,4264.61528,4279.999895,4312.307587,4195.384513,4206.666564,4208.205025,4202.564,4196.922974,4198.974256,4266.153742,4295.897331,4291.281946,4493.846044
51,0,4509.743479,4267.179383,4290.256305,4318.461433,4204.102461,4213.33323,4211.281948,4199.487077,4197.948615,4199.487077,4282.051177,4306.666561,4301.538356,4519.999889
52,0,4510.2563,4264.61528,4293.333228,4313.333228,4199.487077,4216.410153,4214.871692,4205.640923,4203.589641,4204.102461,4276.410152,4307.692202,4300.512715,4522.051171
53,0,4496.922967,4261.025537,4284.102459,4309.230664,4196.410154,4214.871692,4214.871692,4214.358871,4202.564,4197.948615,4258.974255,4297.948613,4286.153741,4500.51271
54,0,4486.666557,4263.076819,4278.974254,4312.820407,4200.512718,4209.743487,4213.846051,4215.384512,4200.512718,4196.922974,4261.538357,4291.794767,4278.461434,4485.128095
55,0,4469.23066,4262.563998,4277.435793,4314.358869,4187.692205,4205.640923,4213.846051,4213.846051,4203.589641,4204.102461,4261.538357,4285.1281,4274.35887,4469.23066
56,0,4449.743481,4259.999896,4276.410152,4311.794766,4176.922975,4210.769128,4215.384512,4217.435794,4213.33323,4201.538359,4256.410152,4275.897331,4265.640921,4440.512712
57,0,4435.897327,4257.948614,4274.35887,4310.256305,4197.948615,4215.897333,4216.410153,4221.025538,4221.025538,4197.435795,4257.435793,4268.717844,4260.512716,4411.281943
58,0,4417.435789,4256.922973,4266.666562,4307.179382,4216.410153,4214.358871,4216.410153,4219.999897,4215.897333,4211.281948,4255.384511,4265.128101,4259.487075,4393.846046
59,0,4394.871687,4253.84605,4261.538357,4302.051177,4208.205025,4214.871692,4215.384512,4218.974256,4221.025538,4224.615281,4250.256306,4265.640921,4253.84605,4377.948611
60,0,4376.410149,4249.743486,4262.051178,4302.051177,4201.538359,4217.435794,4215.384512,4219.999897,4231.794768,4221.025538,4250.256306,4266.666562,4251.794768,4356.41015
61,0,4357.948611,4243.58964,4253.84605,4304.102459,4208.205025,4219.487076,4217.948615,4219.999897,4222.051179,4219.487076,4253.84605,4265.640921,4259.487075,4342.051176
62,0,4343.076817,4235.897332,4246.153742,4291.794767,4204.615282,4219.999897,4214.871692,4213.33323,4206.153743,4220.512717,4247.179383,4259.487075,4253.333229,4331.794766
63,0,4324.615279,4228.717845,4246.666563,4279.487075,4197.435795,4213.33323,4203.07682,4207.692205,4208.717846,4207.179384,4233.84605,4248.717845,4235.897332,4309.743484
64,0,4297.948613,4220.512717,4238.461435,4281.538357,4206.153743,4206.153743,4197.948615,4211.794769,4216.922974,4201.538359,4230.256307,4243.076819,4229.230666,4282.563998
65,0,4280.512716,4216.410153,4229.743486,4284.102459,4214.358871,4210.256307,4206.666564,4215.897333,4210.256307,4203.07682,4234.358871,4241.025537,4232.307589,4276.410152
66,0,4275.897331,4218.974256,4234.871691,4279.487075,4206.153743,4215.384512,4213.33323,4208.717846,4202.564,4197.435795,4234.358871,4234.871691,4232.307589,4280.512716
67,0,4267.692203,4216.410153,4231.281948,4268.717844,4195.384513,4213.846051,4213.33323,4204.102461,4207.692205,4204.615282,4227.692204,4227.692204,4226.666563,4265.128101
68,0,4249.230665,4204.615282,4217.948615,4253.333229,4202.051179,4214.358871,4214.358871,4213.33323,4217.435794,4221.538358,4224.615281,4222.563999,4217.435794,4240.512717
69,0,4230.256307,4197.948615,4215.897333,4244.10246,4209.230666,4218.974256,4218.974256,4218.461435,4221.538358,4221.025538,4217.948615,4215.897333,4213.846051,4230.769127
70,0,4224.615281,4200.512718,4219.487076,4246.666563,4204.102461,4220.512717,4227.179384,4216.922974,4222.051179,4213.846051,4214.871692,4216.922974,4217.435794,4228.205025
71,0,4228.717845,4201.538359,4218.974256,4246.666563,4205.640923,4219.487076,4229.230666,4221.025538,4221.538358,4222.051179,4228.205025,4227.692204,4219.999897,4226.153743
72,0,4223.07682,4199.999897,4217.948615,4243.076819,4214.871692,4215.384512,4220.512717,4223.07682,4217.435794,4216.922974,4233.84605,4226.153743,4216.410153,4222.563999
73,0,4212.307589,4198.974256,4217.435794,4244.615281,4213.33323,4212.82041,4213.33323,4215.897333,4215.384512,4197.948615,4219.487076,4216.410153,4212.307589,4213.33323
74,0,4213.846051,4198.974256,4216.922974,4246.153742,4210.256307,4214.871692,4216.922974,4214.358871,4214.871692,4206.153743,4213.33323,4216.922974,4208.205025,4207.179384
75,0,4215.384512,4201.538359,4217.948615,4246.666563,4221.538358,4219.487076,4219.487076,4217.948615,4214.358871,4221.538358,4223.58964,4217.948615,4204.102461,4199.487077
76,0,4199.999897,4198.461436,4211.794769,4246.666563,4214.871692,4219.487076,4215.897333,4213.846051,4212.307589,4206.153743,4217.948615,4208.205025,4199.487077,4186.153744
77,0,4186.666564,4188.205026,4203.589641,4242.563999,4198.461436,4215.897333,4216.410153,4213.33323,4208.717846,4190.769128,4201.538359,4198.461436,4197.435795,4178.461436
78,0,4186.153744,4182.564,4201.025538,4234.871691,4208.717846,4213.846051,4215.384512,4212.307589,4204.102461,4201.538359,4200.512718,4197.435795,4195.384513,4178.461436
79,0,4179.487077,4182.05118,4197.435795,4230.256307,4222.051179,4216.922974,4207.179384,4203.589641,4198.461436,4205.640923,4197.948615,4190.769128,4187.692205,4166.666565
80,0,4168.205026,4181.538359,4195.384513,4232.820409,4214.358871,4218.974256,4205.640923,4204.615282,4204.615282,4199.999897,4189.230667,4182.05118,4179.999898,4155.897334
81,0,4171.281949,4181.538359,4197.948615,4230.769127,4209.743487,4216.922974,4214.871692,4216.410153,4218.974256,4207.179384,4191.794769,4188.205026,4186.153744,4162.05118
82,0,4182.05118,4186.153744,4201.025538,4231.794768,4218.974256,4221.538358,4217.435794,4218.461435,4221.025538,4216.410153,4206.153743,4198.974256,4198.461436,4171.79477
83,0,4183.589641,4187.692205,4206.153743,4240.512717,4221.025538,4230.769127,4215.897333,4217.948615,4222.563999,4222.563999,4218.461435,4204.615282,4202.564,4177.948616
84,0,4179.999898,4187.179385,4213.33323,4236.410153,4213.33323,4229.743486,4217.948615,4225.128102,4232.307589,4227.179384,4221.538358,4208.205025,4204.102461,4178.974257
85,0,4184.615282,4195.384513,4213.846051,4231.794768,4214.358871,4227.179384,4218.461435,4224.102461,4227.692204,4226.666563,4219.999897,4210.256307,4207.179384,4176.922975
86,0,4185.640923,4201.025538,4206.153743,4239.487076,4226.666563,4227.179384,4215.384512,4215.897333,4212.82041,4214.871692,4211.281948,4203.07682,4201.538359,4172.820411
87,0,4173.333231,4189.743487,4199.999897,4239.999896,4219.999897,4221.538358,4215.384512,4213.33323,4212.307589,4202.051179,4203.589641,4189.743487,4189.230667,4167.692206
88,0,4167.692206,4179.999898,4199.487077,4233.84605,4202.564,4219.999897,4216.410153,4214.358871,4217.948615,4208.205025,4201.025538,4185.640923,4186.153744,4164.615283
89,0,4171.281949,4184.615282,4198.461436,4235.897332,4215.384512,4228.205025,4216.922974,4215.384512,4217.435794,4221.538358,4200.512718,4187.179385,4189.230667,4164.615283
90,0,4169.230667,4186.153744,4196.922974,4235.897332,4233.84605,4231.281948,4217.435794,4215.897333,4214.358871,4211.794769,4200.512718,4190.256308,4186.153744,4165.640924
91,0,4166.666565,4185.128103,4200.512718,4232.820409,4225.640922,4227.692204,4217.948615,4215.384512,4213.33323,4198.974256,4200.512718,4195.384513,4184.615282,4167.692206
92,0,4169.743488,4184.615282,4204.102461,4228.717845,4208.205025,4223.58964,4218.974256,4215.384512,4217.435794,4208.717846,4202.564,4198.974256,4184.615282,4169.743488
93,0,4166.666565,4182.564,4199.999897,4217.435794,4205.640923,4216.410153,4217.948615,4215.897333,4217.948615,4214.358871,4205.640923,4196.922974,4183.076821,4167.179385
94,0,4173.333231,4192.82041,4205.128102,4218.461435,4215.384512,4217.435794,4216.410153,4215.897333,4216.922974,4214.358871,4219.487076,4204.102461,4192.30759,4174.871693
95,0,4190.769128,4205.640923,4218.974256,4235.897332,4222.563999,4223.58964,4216.410153,4217.435794,4224.615281,4221.025538,4232.307589,4219.487076,4205.640923,4190.769128
96,0,4193.846051,4203.589641,4216.922974,4238.461435,4215.384512,4217.948615,4215.384512,4218.974256,4232.820409,4221.538358,4225.640922,4216.922974,4205.128102,4194.871692
97,0,4184.615282,4198.461436,4207.692205,4231.281948,4212.307589,4214.358871,4214.358871,4220.512717,4234.358871,4221.025538,4219.999897,4209.743487,4198.461436,4187.692205
98,0,4183.076821,4201.025538,4212.82041,4235.897332,4219.999897,4226.153743,4217.948615,4221.025538,4232.307589,4230.256307,4227.692204,4211.794769,4201.538359,4183.076821
99,0,4192.30759,4205.640923,4215.384512,4242.563999,4221.538358,4233.33323,4218.974256,4217.948615,4223.58964,4225.640922,4227.179384,4209.230666,4201.538359,4188.205026
100,0,4181.538359,4193.333231,4202.564,4231.794768,4214.871692,4230.256307,4215.384512,4215.384512,4213.846051,4205.128102,4210.256307,4197.435795,4189.230667,4183.076821
101,0,4159.999898,4175.897334,4192.30759,4220.512717,4205.640923,4229.230666,4215.897333,4214.871692,4221.538358,4205.128102,4201.538359,4189.230667,4180.512718,4164.615283
102,0,4176.410154,4191.281949,4196.410154,4228.205025,4208.205025,4233.33323,4216.922974,4207.692205,4223.58964,4214.871692,4204.102461,4184.102462,4184.102462,4171.281949
103,0,4211.794769,4225.128102,4208.205025,4241.538358,4216.922974,4229.230666,4210.769128,4194.871692,4195.384513,4205.128102,4202.051179,4184.102462,4187.179385,4196.410154
104,0,4222.563999,4235.897332,4216.410153,4247.692204,4218.461435,4221.538358,4209.743487,4191.281949,4185.128103,4197.435795,4203.589641,4193.333231,4184.102462,4200.512718
105,0,4223.58964,4235.897332,4218.461435,4251.281947,4220.512717,4218.461435,4212.82041,4199.999897,4210.256307,4204.102461,4207.692205,4202.051179,4185.128103,4192.30759
106,0,4219.487076,4235.384512,4216.922974,4250.769127,4213.846051,4216.410153,4207.179384,4204.102461,4218.461435,4204.102461,4205.640923,4199.487077,4182.05118,4191.794769
107,0,4208.205025,4225.128102,4213.33323,4246.666563,4198.974256,4214.871692,4200.512718,4199.999897,4209.230666,4206.153743,4199.487077,4196.410154,4170.769129,4191.281949
108,0,4212.307589,4217.948615,4212.82041,4245.128101,4201.025538,4214.358871,4203.07682,4199.999897,4216.922974,4214.358871,4201.025538,4199.487077,4173.333231,4187.692205
109,0,4221.025538,4219.999897,4215.897333,4246.666563,4214.871692,4216.410153,4205.640923,4208.205025,4219.999897,4209.743487,4209.230666,4203.589641,4185.128103,4184.102462
110,0,4211.281948,4219.487076,4219.999897,4248.717845,4218.974256,4219.487076,4209.230666,4215.384512,4214.871692,4210.256307,4216.410153,4205.640923,4186.153744,4191.281949
111,0,4202.564,4217.948615,4219.999897,4249.743486,4211.794769,4218.461435,4213.33323,4215.897333,4221.538358,4219.999897,4215.384512,4205.128102,4178.974257,4202.051179
112,0,4202.051179,4215.384512,4217.435794,4250.256306,4205.640923,4213.846051,4214.871692,4214.871692,4225.640922,4207.179384,4204.615282,4198.974256,4176.922975,4192.82041
113,0,4202.564,4216.410153,4216.922974,4254.871691,4203.589641,4214.358871,4215.384512,4214.358871,4211.794769,4193.846051,4200.512718,4200.512718,4176.410154,4181.538359
114,0,4202.051179,4216.922974,4216.922974,4258.974255,4195.897333,4218.461435,4214.358871,4209.230666,4200.512718,4201.025538,4200.512718,4199.487077,4171.79477,4180.512718
115,0,4199.487077,4214.358871,4216.410153,4262.051178,4193.333231,4215.384512,4212.82041,4209.230666,4208.717846,4204.102461,4196.922974,4193.333231,4167.692206,4177.948616
116,0,4202.051179,4216.410153,4219.487076,4266.153742,4204.615282,4213.846051,4215.384512,4214.871692,4214.871692,4198.461436,4196.410154,4196.922974,4168.205026,4179.487077
117,0,4198.974256,4215.384512,4216.410153,4263.076819,4209.743487,4216.410153,4215.384512,4208.717846,4202.564,4198.974256,4198.974256,4195.384513,4168.717847,4179.487077
118,0,4185.640923,4209.230666,4208.205025,4258.461434,4201.025538,4216.410153,4213.33323,4201.538359,4199.487077,4199.487077,4198.461436,4183.589641,4166.666565,4170.769129
119,0,4182.05118,4206.153743,4206.666564,4257.435793,4200.512718,4218.461435,4216.922974,4208.205025,4209.230666,4199.487077,4197.948615,4183.589641,4167.692206,4169.230667
120,0,4185.128103,4204.615282,4207.692205,4252.307588,4204.102461,4218.974256,4217.948615,4214.358871,4209.230666,4202.051179,4197.435795,4190.769128,4170.769129,4172.820411
121,0,4182.564,4202.051179,4205.128102,4246.666563,4201.538359,4218.461435,4215.384512,4211.794769,4208.717846,4201.538359,4197.435795,4185.128103,4170.769129,4169.230667
122,0,4179.999898,4203.07682,4204.102461,4249.743486,4200.512718,4221.538358,4215.897333,4213.846051,4217.948615,4199.487077,4195.897333,4182.564,4169.743488,4169.230667
123,0,4182.05118,4204.102461,4201.538359,4249.230665,4202.564,4219.487076,4215.897333,4214.871692,4217.948615,4204.102461,4189.230667,4185.640923,4167.179385,4169.743488
124,0,4183.589641,4202.564,4197.948615,4245.640922,4211.794769,4218.974256,4216.410153,4212.82041,4210.256307,4204.102461,4189.230667,4182.564,4166.666565,4166.153744
125,0,4185.128103,4204.615282,4201.538359,4249.230665,4213.33323,4222.051179,4219.999897,4216.922974,4214.358871,4195.897333,4202.564,4183.589641,4170.769129,4170.256308
126,0,4181.538359,4204.102461,4202.051179,4253.333229,4199.487077,4221.025538,4218.974256,4221.025538,4218.461435,4196.922974,4201.025538,4183.076821,4173.333231,4174.358872
127,0,4180.512718,4201.538359,4200.512718,4250.769127,4201.538359,4224.102461,4216.922974,4211.794769,4208.205025,4207.179384,4187.692205,4175.384513,4171.79477,4166.153744
128,0,4183.076821,4201.025538,4201.025538,4249.230665,4207.179384,4226.153743,4216.922974,4201.025538,4195.897333,4207.179384,4188.205026,4171.281949,4169.743488,4159.487078
0,0,4174.358872,4199.999897,4193.846051,4246.153742,4191.794769,4216.922974,4214.358871,4200.512718,4199.487077,4197.948615,4192.82041,4171.79477,4168.205026,4163.589642
1,0,4167.179385,4198.461436,4192.30759,4238.461435,4188.717846,4213.33323,4214.358871,4204.615282,4210.256307,4196.410154,4187.179385,4170.256308,4168.717847,4168.717847
2,0,4177.948616,4199.487077,4199.999897,4231.281948,4211.794769,4219.999897,4216.410153,4202.051179,4206.153743,4203.07682,4186.666564,4170.256308,4170.769129,4163.589642
3,0,4176.922975,4198.974256,4197.948615,4224.102461,4217.435794,4218.974256,4215.897333,4202.051179,4195.897333,4198.461436,4186.153744,4170.256308,4166.666565,4151.28195
4,0,4164.615283,4196.922974,4191.281949,4221.538358,4205.640923,4216.410153,4215.897333,4211.281948,4201.025538,4187.179385,4182.05118,4169.230667,4164.102462,4156.410155
5,0,4176.410154,4202.051179,4201.538359,4234.358871,4205.640923,4218.974256,4217.435794,4220.512717,4209.743487,4196.410154,4194.358872,4179.487077,4178.974257,4175.897334
6,0,4186.666564,4208.205025,4208.717846,4241.538358,4209.743487,4217.948615,4215.897333,4223.07682,4207.179384,4208.717846,4204.615282,4185.640923,4183.589641,4181.025539
7,0,4171.79477,4199.487077,4191.794769,4231.794768,4198.461436,4216.410153,4215.897333,4218.461435,4204.102461,4191.281949,4188.717846,4171.79477,4169.743488,4165.640924
8,0,4170.256308,4194.871692,4186.153744,4232.820409,4191.794769,4216.410153,4217.435794,4216.410153,4211.794769,4184.615282,4182.05118,4167.692206,4167.179385,4158.461437
9,0,4194.358872,4206.666564,4205.640923,4247.179383,4198.461436,4217.948615,4217.435794,4224.615281,4217.435794,4206.153743,4195.897333,4182.564,4182.564,4176.922975
10,0,4211.281948,4217.948615,4217.948615,4252.307588,4203.589641,4221.025538,4218.974256,4228.717845,4218.461435,4212.307589,4204.615282,4188.205026,4195.384513,4203.07682
11,0,4217.948615,4221.025538,4212.307589,4247.692204,4204.615282,4220.512717,4220.512717,4221.025538,4214.871692,4206.153743,4206.153743,4184.102462,4196.410154,4213.33323
12,0,4237.948614,4230.769127,4212.82041,4249.230665,4208.717846,4218.461435,4217.948615,4215.897333,4215.897333,4215.897333,4213.33323,4189.743487,4201.025538,4220.512717
13,0,4274.35887,4244.615281,4226.153743,4258.974255,4208.205025,4217.435794,4216.922974,4219.999897,4220.512717,4217.435794,4217.948615,4198.461436,4210.256307,4246.153742
14,0,4309.743484,4250.769127,4236.410153,4262.563998,4202.051179,4216.410153,4215.384512,4218.461435,4210.256307,4198.974256,4211.281948,4204.102461,4210.256307,4276.922972
15,0,4348.717842,4258.974255,4250.256306,4262.051178,4198.461436,4213.846051,4211.794769,4215.384512,4192.82041,4195.897333,4218.974256,4221.538358,4222.051179,4325.64092
16,0,4406.153738,4274.35887,4270.256306,4270.256306,4199.487077,4214.358871,4212.307589,4217.435794,4201.025538,4204.102461,4245.128101,4246.666563,4257.948614,4399.487072
17,0,4457.435788,4282.563998,4284.102459,4283.076818,4206.666564,4216.922974,4218.974256,4218.974256,4218.974256,4202.051179,4265.640921,4265.128101,4287.179382,4453.846045
18,0,4479.99989,4282.563998,4292.307587,4289.743485,4214.358871,4218.461435,4221.538358,4218.974256,4215.897333,4206.666564,4275.384511,4281.538357,4297.948613,4479.99989
19,0,4492.307582,4283.076818,4297.948613,4292.307587,4206.153743,4217.435794,4217.435794,4217.948615,4212.307589,4228.717845,4282.563998,4296.922972,4309.743484,4506.666556
20,0,4498.974249,4279.487075,4294.87169,4291.794767,4199.487077,4216.410153,4216.922974,4218.974256,4219.487076,4234.871691,4283.589639,4295.897331,4313.333228,4520.51271
21,0,4495.384505,4274.35887,4288.205023,4290.769126,4203.589641,4217.948615,4217.948615,4217.948615,4218.974256,4219.487076,4279.487075,4283.589639,4302.051177,4510.76912
22,0,4491.794762,4278.974254,4286.666562,4289.743485,4195.384513,4217.435794,4215.384512,4213.33323,4213.846051,4214.358871,4279.999895,4283.076818,4298.461433,4499.487069
23,0,4481.538352,4277.948613,4283.076818,4285.1281,4188.205026,4214.358871,4213.846051,4212.82041,4216.410153,4216.922974,4273.846049,4285.1281,4294.87169,4487.179377
24,0,4456.922968,4264.10246,4275.384511,4282.563998,4199.999897,4215.897333,4215.384512,4214.358871,4218.461435,4213.846051,4262.563998,4272.307588,4283.589639,4464.102455
25,0,4436.410148,4257.948614,4273.333229,4282.051177,4205.128102,4217.435794,4214.871692,4212.82041,4213.846051,4212.307589,4257.435793,4258.461434,4273.846049,4436.922968
26,0,4428.20502,4262.563998,4274.87169,4277.948613,4201.538359,4218.461435,4217.435794,4211.281948,4212.307589,4219.999897,4259.487075,4257.435793,4272.307588,4423.589635
27,0,4419.487071,4260.512716,4276.922972,4276.410152,4207.179384,4223.58964,4223.58964,4215.897333,4216.922974,4232.820409,4266.666562,4263.076819,4280.512716,4426.153738
28,0,4410.769123,4255.384511,4276.410152,4279.999895,4209.230666,4223.07682,4221.025538,4217.948615,4222.051179,4231.281948,4268.205024,4261.538357,4283.589639,4424.615276
29,0,4418.974251,4261.025537,4275.384511,4279.487075,4204.102461,4215.897333,4213.846051,4214.358871,4216.922974,4216.922974,4262.563998,4256.922973,4276.922972,4423.076815
30,0,4446.666558,4271.281947,4276.922972,4279.487075,4199.487077,4216.922974,4216.410153,4215.384512,4215.897333,4214.871692,4266.153742,4261.025537,4280.512716,4449.23066
31,0,4473.333224,4280.512716,4284.102459,4286.666562,4201.025538,4222.563999,4220.512717,4220.512717,4229.230666,4221.025538,4277.948613,4274.87169,4299.999895,4487.179377
32,0,4482.051172,4281.025536,4294.358869,4287.179382,4210.769128,4221.538358,4217.948615,4221.538358,4225.640922,4216.922974,4286.153741,4283.589639,4313.333228,4499.487069
33,0,4481.538352,4270.769126,4291.794767,4282.051177,4211.281948,4218.461435,4217.435794,4214.358871,4207.179384,4217.435794,4286.153741,4280.512716,4312.820407,4498.461428
34,0,4479.99989,4264.10246,4280.512716,4279.999895,4199.487077,4216.922974,4216.410153,4205.128102,4201.025538,4218.461435,4274.35887,4270.769126,4302.563997,4494.358864
35,0,4476.410147,4265.640921,4277.948613,4280.512716,4202.051179,4214.871692,4205.640923,4197.435795,4201.538359,4205.128102,4261.025537,4264.10246,4291.281946,4481.538352
36,0,4467.179378,4257.435793,4278.974254,4275.897331,4205.128102,4211.281948,4199.487077,4194.358872,4198.974256,4194.358872,4259.487075,4262.051178,4289.743485,4473.333224
37,0,4448.205019,4245.128101,4270.769126,4266.666562,4196.922974,4210.256307,4208.717846,4197.948615,4201.025538,4199.999897,4262.051178,4257.435793,4292.307587,4467.179378
38,0,4422.051174,4241.538358,4255.897332,4254.35887,4192.30759,4212.307589,4212.307589,4202.051179,4203.07682,4204.102461,4254.35887,4242.051178,4283.076818,4439.999891
39,0,4398.974251,4239.487076,4245.640922,4246.666563,4188.717846,4208.717846,4204.102461,4200.512718,4195.384513,4198.974256,4245.640922,4229.230666,4266.153742,4405.128097
40,0,4383.076816,4234.871691,4244.615281,4245.640922,4183.589641,4204.102461,4200.512718,4203.07682,4197.435795,4203.589641,4245.640922,4229.743486,4259.999896,4384.615277
41,0,4362.563996,4232.820409,4247.692204,4245.640922,4193.333231,4210.769128,4208.205025,4213.846051,4210.256307,4218.461435,4250.769127,4237.948614,4271.281947,4365.640919
42,0,4337.948612,4232.820409,4247.692204,4244.10246,4211.794769,4218.461435,4215.384512,4217.948615,4215.897333,4219.999897,4251.794768,4235.897332,4279.487075,4343.076817
43,0,4313.846048,4227.179384,4241.025537,4233.84605,4215.384512,4217.435794,4215.897333,4214.358871,4215.384512,4210.256307,4246.153742,4219.999897,4268.205024,4320.512715
44,0,4291.794767,4217.435794,4234.358871,4221.538358,4205.128102,4218.974256,4215.897333,4216.922974,4219.999897,4216.922974,4246.153742,4213.846051,4255.384511,4299.999895
45,0,4266.666562,4207.692205,4226.666563,4213.846051,4202.051179,4223.58964,4218.974256,4214.871692,4214.871692,4216.922974,4243.58964,4215.384512,4253.84605,4269.743485
46,0,4232.820409,4202.051179,4217.435794,4203.589641,4204.615282,4223.07682,4216.410153,4203.07682,4204.102461,4201.538359,4229.230666,4200.512718,4248.205024,4236.410153
47,0,4210.256307,4198.461436,4211.794769,4195.384513,4199.999897,4217.435794,4208.205025,4195.384513,4210.256307,4214.358871,4223.58964,4182.564,4243.076819,4221.025538
48,0,4211.794769,4198.461436,4212.307589,4196.922974,4203.07682,4216.922974,4213.33323,4206.666564,4221.025538,4237.435794,4232.820409,4184.615282,4246.153742,4221.025538
49,0,4209.743487,4198.974256,4211.794769,4193.846051,4218.974256,4227.692204,4227.179384,4226.153743,4223.07682,4230.769127,4236.410153,4190.769128,4251.281947,4214.871692
50,0,4187.179385,4190.769128,4203.589641,4184.615282,4222.051179,4228.717845,4224.102461,4226.666563,4221.538358,4221.538358,4230.256307,4183.589641,4244.615281,4192.30759
51,0,4164.102462,4183.076821,4197.435795,4183.589641,4206.666564,4215.897333,4215.384512,4216.410153,4220.512717,4231.281948,4228.205025,4179.487077,4235.384512,4172.30759
52,0,4153.846052,4182.564,4196.922974,4185.128103,4198.461436,4212.82041,4218.461435,4221.025538,4223.07682,4231.794768,4233.33323,4184.102462,4240.512717,4167.692206
53,0,4154.358873,4186.153744,4201.025538,4189.743487,4208.717846,4220.512717,4222.563999,4233.33323,4233.84605,4231.794768,4235.897332,4188.205026,4250.769127,4163.589642
54,0,4153.333232,4189.743487,4209.230666,4196.410154,4213.33323,4221.538358,4220.512717,4235.897332,4239.487076,4244.10246,4234.871691,4190.769128,4247.692204,4155.897334
55,0,4141.53836,4188.717846,4207.179384,4192.30759,4202.564,4216.922974,4218.461435,4228.717845,4233.33323,4243.076819,4234.871691,4186.666564,4236.922973,4151.28195
56,0,4131.28195,4182.564,4193.333231,4185.640923,4203.07682,4216.410153,4218.974256,4223.07682,4229.743486,4231.794768,4228.717845,4176.922975,4231.281948,4140.512719
57,0,4120.51272,4176.410154,4183.076821,4183.589641,4214.358871,4220.512717,4221.538358,4221.538358,4229.743486,4225.128102,4218.461435,4170.256308,4225.640922,4121.538361
58,0,4103.076823,4170.769129,4183.589641,4173.846052,4209.743487,4222.563999,4223.07682,4222.051179,4222.563999,4216.922974,4213.33323,4169.230667,4213.846051,4112.307592
59,0,4095.384515,4164.615283,4182.564,4164.102462,4194.871692,4216.410153,4218.974256,4213.33323,4212.82041,4214.358871,4211.794769,4169.743488,4206.153743,4105.128105
60,0,4104.102464,4168.205026,4184.102462,4172.820411,4196.410154,4211.281948,4214.871692,4203.07682,4213.846051,4218.461435,4212.307589,4169.230667,4213.33323,4106.153746
61,0,4111.281951,4183.076821,4192.30759,4185.128103,4212.82041,4215.897333,4215.384512,4207.179384,4218.974256,4215.384512,4217.435794,4172.820411,4221.538358,4120.51272
62,0,4108.717848,4187.692205,4192.30759,4182.564,4217.948615,4220.512717,4217.948615,4214.871692,4221.025538,4217.435794,4217.948615,4172.820411,4221.538358,4123.076822
63,0,4104.102464,4177.435795,4185.640923,4175.897334,4212.307589,4218.974256,4219.999897,4217.435794,4231.794768,4232.820409,4215.897333,4166.153744,4219.487076,4113.846053
64,0,4104.102464,4177.948616,4185.128103,4173.333231,4212.82041,4219.487076,4218.974256,4215.897333,4232.820409,4235.384512,4218.461435,4163.589642,4217.435794,4113.333233
65,0,4107.692207,4183.589641,4182.05118,4172.820411,4207.692205,4219.487076,4215.384512,4214.358871,4218.974256,4228.205025,4216.410153,4162.564001,4217.948615,4111.794771
66,0,4106.153746,4178.974257,4174.358872,4172.30759,4195.384513,4218.461435,4216.410153,4216.410153,4221.538358,4232.820409,4214.358871,4158.974257,4217.948615,4102.051182
67,0,4096.922977,4174.358872,4173.333231,4172.30759,4202.051179,4221.025538,4216.410153,4216.922974,4226.666563,4233.33323,4212.82041,4154.358873,4207.179384,4101.025541
68,0,4088.717849,4175.384513,4174.871693,4171.79477,4209.230666,4218.461435,4216.410153,4216.922974,4217.948615,4217.948615,4204.615282,4154.358873,4195.897333,4105.640925
69,0,4093.846054,4178.974257,4177.435795,4172.30759,4202.564,4217.435794,4223.07682,4219.487076,4223.07682,4217.948615,4206.153743,4163.589642,4206.666564,4107.692207
70,0,4107.179387,4181.025539,4185.128103,4172.820411,4211.794769,4223.07682,4225.640922,4222.563999,4234.871691,4233.84605,4217.948615,4174.358872,4220.512717,4108.717848
71,0,4106.153746,4178.974257,4183.076821,4170.256308,4217.435794,4220.512717,4216.922974,4218.461435,4224.102461,4232.307589,4211.281948,4168.205026,4210.256307,4107.692207
72,0,4098.974259,4176.410154,4174.358872,4173.846052,4195.897333,4212.307589,4213.33323,4212.307589,4213.846051,4212.307589,4195.897333,4153.333232,4196.410154,4104.615284
73,0,4103.589643,4182.564,4179.487077,4182.05118,4188.205026,4214.871692,4217.948615,4215.897333,4222.051179,4213.33323,4201.538359,4157.948616,4204.615282,4105.128105
74,0,4110.25631,4185.128103,4188.205026,4187.179385,4206.666564,4217.948615,4217.948615,4220.512717,4221.025538,4226.153743,4211.281948,4168.717847,4213.33323,4110.25631
75,0,4109.743489,4183.076821,4187.692205,4195.384513,4214.871692,4216.410153,4215.384512,4218.974256,4217.948615,4215.897333,4210.769128,4168.205026,4209.743487,4114.358874
76,0,4106.666566,4184.615282,4187.179385,4204.102461,4204.102461,4224.615281,4217.435794,4221.025538,4227.692204,4213.33323,4213.33323,4165.128103,4211.281948,4111.794771
77,0,4102.564002,4182.05118,4186.666564,4203.07682,4193.846051,4230.769127,4216.922974,4230.769127,4234.871691,4237.435794,4212.82041,4168.205026,4215.384512,4107.692207
78,0,4110.76913,4181.538359,4185.128103,4204.615282,4203.589641,4228.205025,4218.974256,4235.384512,4231.281948,4249.230665,4215.384512,4171.281949,4217.948615,4118.461438
79,0,4125.128104,4187.692205,4188.717846,4215.897333,4218.974256,4230.769127,4224.615281,4234.358871,4229.230666,4237.948614,4226.153743,4174.358872,4226.666563,4132.820412
80,0,4121.02554,4190.769128,4189.743487,4215.384512,4210.769128,4234.358871,4224.102461,4234.871691,4236.410153,4233.33323,4228.205025,4175.384513,4228.717845,4131.28195
81,0,4105.640925,4183.076821,4179.487077,4201.538359,4194.871692,4229.743486,4215.897333,4226.666563,4233.84605,4234.358871,4213.846051,4162.05118,4217.948615,4118.461438
82,0,4104.102464,4176.922975,4176.922975,4199.487077,4206.153743,4227.692204,4217.435794,4217.435794,4222.051179,4229.230666,4206.153743,4155.384514,4212.82041,4117.435797
83,0,4115.384515,4184.615282,4194.358872,4211.794769,4220.512717,4232.307589,4226.153743,4222.051179,4223.07682,4229.230666,4214.871692,4171.79477,4216.922974,4130.76913
84,0,4121.538361,4193.333231,4204.615282,4218.974256,4214.358871,4229.743486,4223.07682,4225.128102,4235.384512,4234.358871,4219.999897,4178.461436,4215.384512,4133.846053
85,0,4120.51272,4191.281949,4194.871692,4217.435794,4208.717846,4226.153743,4213.846051,4218.461435,4233.84605,4234.871691,4214.358871,4168.205026,4214.871692,4128.717848
86,0,4121.538361,4187.179385,4187.692205,4215.897333,4209.230666,4228.717845,4215.897333,4213.846051,4218.974256,4222.563999,4206.153743,4163.076821,4213.33323,4125.128104
87,0,4123.076822,4186.153744,4188.205026,4214.358871,4204.615282,4228.717845,4219.487076,4215.384512,4213.33323,4214.358871,4198.974256,4158.461437,4204.102461,4119.487079
88,0,4122.051181,4187.179385,4190.769128,4213.33323,4201.538359,4224.615281,4216.922974,4213.846051,4216.922974,4221.538358,4198.461436,4153.333232,4202.564,4123.589643
89,0,4130.76913,4196.410154,4201.538359,4218.974256,4202.051179,4227.179384,4222.563999,4216.922974,4223.58964,4221.538358,4209.743487,4167.179385,4218.461435,4142.564001
90,0,4142.564001,4202.564,4207.179384,4221.538358,4199.999897,4233.33323,4233.33323,4223.07682,4229.743486,4218.974256,4221.025538,4180.512718,4232.820409,4146.666565
91,0,4139.487078,4197.948615,4198.974256,4215.384512,4206.666564,4232.820409,4228.205025,4220.512717,4231.794768,4232.307589,4218.461435,4174.871693,4230.256307,4142.564001
92,0,4135.897335,4197.948615,4197.948615,4214.358871,4220.512717,4230.256307,4218.461435,4218.974256,4235.897332,4241.538358,4214.871692,4171.281949,4227.179384,4152.820411
93,0,4138.461437,4198.974256,4203.07682,4218.974256,4217.435794,4230.256307,4222.563999,4222.051179,4231.794768,4232.307589,4216.922974,4172.30759,4227.179384,4153.333232
94,0,4133.846053,4190.769128,4197.948615,4215.384512,4202.564,4231.281948,4230.256307,4223.58964,4220.512717,4228.717845,4214.871692,4171.281949,4222.563999,4138.461437
95,0,4124.102463,4183.076821,4184.615282,4204.615282,4199.999897,4228.205025,4224.102461,4222.051179,4216.410153,4231.794768,4209.743487,4165.640924,4215.384512,4131.28195
96,0,4122.051181,4184.102462,4181.025539,4201.025538,4205.640923,4221.025538,4216.922974,4220.512717,4230.256307,4231.281948,4212.307589,4163.589642,4217.435794,4138.461437
97,0,4128.717848,4187.179385,4193.333231,4205.640923,4202.051179,4216.410153,4216.922974,4219.487076,4232.820409,4231.794768,4216.922974,4175.384513,4230.256307,4151.28195
98,0,4136.922976,4187.692205,4201.538359,4204.615282,4195.897333,4212.307589,4213.33323,4212.307589,4212.82041,4227.692204,4216.922974,4182.05118,4234.358871,4155.897334
99,0,4143.076822,4185.128103,4198.461436,4201.025538,4194.871692,4212.307589,4207.692205,4204.102461,4204.102461,4216.410153,4215.897333,4175.384513,4223.07682,4151.79477
100,0,4141.53836,4184.102462,4196.922974,4198.461436,4189.743487,4214.871692,4212.307589,4205.128102,4215.384512,4208.717846,4213.33323,4173.846052,4213.846051,4149.743488
101,0,4138.461437,4184.615282,4201.025538,4198.461436,4190.256308,4217.948615,4223.07682,4216.410153,4226.666563,4220.512717,4212.82041,4181.538359,4223.07682,4155.897334
102,0,4145.640924,4186.666564,4208.205025,4205.640923,4208.717846,4225.640922,4231.794768,4232.307589,4237.435794,4242.051178,4223.07682,4193.846051,4234.871691,4164.615283
103,0,4155.897334,4194.358872,4212.82041,4215.384512,4222.051179,4234.871691,4236.410153,4247.179383,4253.333229,4254.35887,4233.33323,4204.615282,4235.897332,4172.30759
104,0,4152.307591,4196.410154,4210.256307,4219.487076,4218.461435,4234.871691,4231.794768,4248.717845,4249.743486,4249.743486,4230.769127,4201.538359,4233.84605,4174.871693
105,0,4143.076822,4189.230667,4204.615282,4217.435794,4207.692205,4226.153743,4222.051179,4235.384512,4232.307589,4236.410153,4223.07682,4188.205026,4230.256307,4168.205026
106,0,4138.461437,4177.948616,4198.974256,4215.384512,4193.333231,4218.461435,4216.922974,4226.666563,4227.692204,4223.58964,4213.846051,4179.999898,4215.897333,4150.769129
107,0,4128.205027,4171.79477,4190.769128,4221.025538,4187.692205,4216.922974,4217.435794,4222.563999,4219.999897,4209.230666,4204.615282,4172.30759,4202.051179,4137.948617
108,0,4124.615284,4176.410154,4190.256308,4231.794768,4201.538359,4223.58964,4222.563999,4217.435794,4215.897333,4202.564,4197.435795,4164.102462,4205.640923,4137.948617
109,0,4135.897335,4185.128103,4198.974256,4235.384512,4207.179384,4229.230666,4229.230666,4216.922974,4219.999897,4212.307589,4196.410154,4165.640924,4212.82041,4139.999899
110,0,4138.974258,4186.666564,4201.025538,4232.820409,4201.538359,4227.692204,4230.769127,4219.487076,4214.358871,4226.666563,4205.128102,4172.820411,4215.384512,4145.128104
111,0,4135.384514,4189.230667,4200.512718,4235.384512,4203.589641,4225.128102,4224.102461,4223.07682,4219.487076,4230.769127,4215.897333,4181.538359,4224.102461,4154.871693
112,0,4145.640924,4198.974256,4205.128102,4236.922973,4202.564,4222.563999,4217.435794,4225.640922,4239.999896,4230.256307,4218.461435,4186.153744,4232.307589,4158.461437
113,0,4156.410155,4201.025538,4204.102461,4232.820409,4195.897333,4219.487076,4215.384512,4216.922974,4231.794768,4231.281948,4214.871692,4179.999898,4227.692204,4156.410155
114,0,4153.846052,4197.435795,4197.435795,4230.769127,4204.615282,4217.435794,4216.410153,4212.307589,4213.846051,4231.794768,4216.410153,4175.897334,4225.640922,4161.025539
115,0,4152.820411,4201.025538,4196.922974,4232.307589,4211.794769,4223.07682,4218.461435,4224.615281,4231.281948,4241.538358,4222.563999,4182.05118,4233.84605,4170.256308
116,0,4155.897334,4204.615282,4202.564,4236.922973,4208.205025,4230.769127,4219.487076,4236.410153,4249.743486,4254.871691,4230.769127,4189.230667,4238.461435,4173.333231
117,0,4157.435796,4203.589641,4198.974256,4236.922973,4208.717846,4233.84605,4218.461435,4231.794768,4245.128101,4251.281947,4231.794768,4189.230667,4237.948614,4172.30759
118,0,4153.333232,4199.999897,4188.717846,4233.33323,4210.256307,4230.256307,4217.435794,4221.025538,4233.33323,4233.33323,4219.999897,4181.538359,4231.281948,4168.717847
119,0,4141.53836,4191.281949,4184.615282,4228.717845,4203.589641,4222.563999,4218.461435,4217.435794,4221.025538,4221.025538,4205.640923,4171.281949,4219.999897,4158.461437
120,0,4133.846053,4183.589641,4183.589641,4221.025538,4199.999897,4217.435794,4217.435794,4212.307589,4216.410153,4215.897333,4200.512718,4168.205026,4214.358871,4148.205027
121,0,4143.076822,4188.205026,4182.05118,4217.948615,4209.743487,4215.897333,4213.846051,4202.051179,4217.435794,4213.846051,4201.025538,4170.256308,4214.871692,4152.307591
122,0,4154.358873,4191.794769,4183.076821,4213.846051,4216.922974,4220.512717,4210.256307,4200.512718,4215.384512,4215.897333,4203.07682,4170.769129,4215.384512,4156.410155
123,0,4153.333232,4187.179385,4185.640923,4205.640923,4211.794769,4224.615281,4207.179384,4205.640923,4221.025538,4217.435794,4205.640923,4170.256308,4215.384512,4144.615283
124,0,4150.256309,4191.281949,4187.692205,4206.153743,4209.230666,4223.58964,4203.589641,4204.615282,4226.666563,4221.538358,4206.153743,4170.769129,4215.384512,4133.846053
125,0,4154.871693,4197.948615,4188.717846,4210.256307,4212.307589,4217.948615,4202.564,4202.564,4224.102461,4228.205025,4202.051179,4169.743488,4215.897333,4136.922976
126,0,4154.871693,4195.897333,4185.128103,4208.205025,4203.07682,4217.435794,4207.179384,4202.564,4226.666563,4227.179384,4197.948615,4167.179385,4215.897333,4140.512719
127,0,4151.28195,4193.846051,4187.692205,4208.205025,4200.512718,4223.07682,4213.846051,4201.025538,4223.58964,4215.897333,4198.974256,4169.230667,4216.922974,4134.358873
128,0,4161.025539,4203.589641,4200.512718,4218.461435,4217.948615,4229.230666,4216.410153,4207.179384,4212.82041,4218.461435,4208.717846,4179.999898,4226.153743,4134.358873
0,0,4175.384513,4213.846051,4206.666564,4227.692204,4226.153743,4231.281948,4215.384512,4215.897333,4220.512717,4231.794768,4216.410153,4187.692205,4233.33323,4143.076822
1,0,4182.564,4218.974256,4205.128102,4235.384512,4224.102461,4227.692204,4215.384512,4216.922974,4234.358871,4229.743486,4218.974256,4186.153744,4234.358871,4142.051181
2,0,4178.974257,4216.410153,4204.615282,4234.358871,4224.615281,4226.153743,4215.897333,4218.461435,4233.33323,4222.563999,4220.512717,4186.666564,4236.922973,4135.897335
3,0,4171.79477,4207.179384,4200.512718,4222.051179,4219.487076,4228.717845,4215.384512,4220.512717,4230.769127,4231.281948,4218.974256,4188.205026,4233.33323,4136.410155
4,0,4169.230667,4198.461436,4196.410154,4216.922974,4202.051179,4224.615281,4215.384512,4216.410153,4229.230666,4237.435794,4211.794769,4184.615282,4226.666563,4134.871694
5,0,4171.281949,4198.974256,4197.948615,4221.025538,4188.205026,4218.461435,4215.384512,4216.410153,4226.153743,4225.128102,4207.692205,4178.974257,4226.666563,4128.717848
6,0,4169.743488,4204.615282,4201.538359,4221.025538,4188.717846,4217.948615,4215.384512,4219.487076,4226.666563,4223.58964,4207.692205,4176.410154,4226.153743,4125.128104
7,0,4166.153744,4196.410154,4196.410154,4214.358871,4192.30759,4216.922974,4215.384512,4214.871692,4228.205025,4230.256307,4202.564,4172.30759,4217.948615,4117.948617
8,0,4165.640924,4186.153744,4190.256308,4214.358871,4199.487077,4220.512717,4215.384512,4211.794769,4230.769127,4225.128102,4201.025538,4171.79477,4216.410153,4117.435797
9,0,4165.640924,4192.30759,4192.82041,4216.922974,4210.256307,4228.205025,4215.384512,4216.410153,4232.307589,4221.538358,4205.640923,4179.487077,4219.999897,4132.307591
10,0,4169.743488,4195.384513,4195.897333,4208.205025,4209.743487,4222.563999,4214.871692,4215.384512,4221.025538,4222.563999,4205.128102,4182.564,4218.974256,4133.846053
11,0,4170.769129,4190.256308,4196.410154,4199.487077,4203.07682,4214.358871,4215.384512,4212.307589,4214.358871,4221.025538,4207.179384,4183.589641,4217.435794,4121.02554
12,0,4166.666565,4193.846051,4199.999897,4198.974256,4212.82041,4217.948615,4215.384512,4219.487076,4227.692204,4225.640922,4216.922974,4191.281949,4222.051179,4129.743489
13,0,4174.358872,4201.025538,4203.589641,4202.051179,4216.410153,4221.538358,4214.358871,4228.717845,4236.410153,4235.384512,4217.435794,4193.333231,4229.743486,4151.28195
