title:JTA                                                                             , recorded:03.07.20 12.48.37, sampling:128, subject:JTA                                                                             , labels:COUNTER INTERPOLATED AF3 F7 F3 FC5 T7 P7 O1 O2 P8 T8 FC6 F4 F8 AF4,, units:emotiv,,,,,,,,,
20,0,4531.28194,4303.076818,4292.307587,4249.743486,4236.922973,4212.82041,4217.948615,4203.07682,4186.153744,4199.487077,4261.538357,4301.538356,4303.076818,4533.333222
21,0,4559.999888,4311.281946,4299.487074,4257.948614,4230.256307,4208.717846,4213.846051,4198.974256,4186.153744,4204.615282,4265.128101,4305.64092,4298.974254,4557.435786
22,0,4578.461427,4311.794766,4307.692202,4264.61528,4212.307589,4200.512718,4212.307589,4206.666564,4198.461436,4198.974256,4261.538357,4309.230664,4291.794767,4557.948606
23,0,4598.461426,4312.307587,4313.333228,4262.051178,4221.538358,4199.999897,4212.82041,4215.384512,4207.692205,4202.564,4268.205024,4314.871689,4296.922972,4571.79476
24,0,4601.025529,4316.410151,4313.846048,4253.333229,4218.461435,4199.487077,4206.153743,4215.384512,4211.281948,4229.230666,4276.922972,4323.076817,4308.717843,4580.512709
25,0,4588.205016,4308.717843,4311.794766,4244.615281,4193.333231,4195.897333,4207.179384,4216.922974,4216.922974,4239.487076,4284.61528,4337.435791,4316.410151,4587.179375
26,0,4579.999888,4298.974254,4313.846048,4246.666563,4208.717846,4202.051179,4216.410153,4219.999897,4209.230666,4220.512717,4288.205023,4336.922971,4315.89733,4592.820401
27,0,4566.666555,4298.974254,4319.487074,4254.35887,4238.461435,4203.07682,4216.922974,4218.461435,4200.512718,4219.487076,4279.999895,4320.512715,4311.281946,4566.153734
28,0,4541.02553,4293.846049,4315.89733,4248.717845,4232.820409,4202.051179,4212.307589,4215.897333,4206.153743,4234.871691,4279.487075,4311.281946,4311.794766,4534.358863
29,0,4509.743479,4276.922972,4299.999895,4235.897332,4224.102461,4209.230666,4216.410153,4218.974256,4204.102461,4224.615281,4273.846049,4307.179382,4303.589638,4508.717838
30,0,4473.333224,4265.128101,4283.589639,4229.230666,4230.256307,4207.692205,4216.922974,4216.410153,4190.769128,4206.666564,4245.128101,4291.794767,4280.512716,4463.076814
31,0,4438.46143,4258.461434,4278.461434,4225.128102,4221.025538,4198.974256,4211.794769,4204.615282,4180.512718,4196.410154,4229.230666,4280.512716,4265.128101,4421.025533
32,0,4408.717841,4250.256306,4278.461434,4218.461435,4213.33323,4201.025538,4210.769128,4203.07682,4187.179385,4189.230667,4244.10246,4278.974254,4265.128101,4396.410149
33,0,4389.743482,4244.615281,4273.846049,4216.410153,4223.58964,4206.153743,4213.846051,4213.33323,4210.256307,4205.128102,4251.281947,4269.743485,4265.128101,4373.846047
34,0,4377.43579,4238.974255,4261.025537,4221.025538,4224.615281,4203.07682,4215.897333,4217.948615,4213.33323,4231.281948,4238.974255,4262.051178,4258.461434,4358.461432
35,0,4357.435791,4231.794768,4250.256306,4213.33323,4218.974256,4200.512718,4214.871692,4211.281948,4189.743487,4232.307589,4229.743486,4257.435793,4250.769127,4347.179381
36,0,4335.384509,4233.33323,4249.230665,4195.897333,4225.640922,4202.051179,4214.358871,4206.666564,4185.128103,4224.615281,4235.384512,4253.333229,4250.256306,4334.358868
37,0,4318.461433,4233.33323,4250.256306,4188.205026,4233.84605,4202.564,4214.358871,4209.743487,4205.128102,4226.666563,4239.487076,4257.435793,4251.794768,4315.89733
38,0,4301.025536,4224.615281,4251.281947,4190.769128,4228.205025,4205.640923,4216.410153,4216.410153,4215.897333,4235.897332,4237.948614,4265.128101,4246.153742,4289.743485
39,0,4277.948613,4218.461435,4246.153742,4192.30759,4224.102461,4213.846051,4218.974256,4218.461435,4206.153743,4229.743486,4233.33323,4260.512716,4237.435794,4277.948613
40,0,4260.512716,4213.33323,4232.307589,4193.333231,4232.820409,4220.512717,4217.435794,4215.384512,4204.102461,4196.922974,4223.58964,4242.051178,4224.615281,4275.897331
41,0,4257.435793,4211.281948,4226.666563,4184.102462,4237.435794,4212.307589,4215.897333,4218.461435,4216.922974,4192.82041,4213.33323,4229.230666,4215.897333,4257.948614
42,0,4254.871691,4218.974256,4232.820409,4155.897334,4231.281948,4201.538359,4215.384512,4220.512717,4211.281948,4228.205025,4213.846051,4232.307589,4221.538358,4235.384512
43,0,4237.435794,4214.871692,4229.230666,4113.333233,4226.153743,4202.564,4210.769128,4210.769128,4190.256308,4231.794768,4218.974256,4232.307589,4222.051179,4227.692204
44,0,4222.051179,4199.487077,4213.846051,4063.589644,4233.33323,4203.589641,4203.07682,4200.512718,4191.794769,4210.256307,4212.82041,4213.846051,4213.846051,4229.230666
45,0,4221.538358,4198.461436,4208.205025,4032.820414,4241.538358,4199.999897,4203.589641,4201.538359,4206.153743,4214.358871,4197.435795,4205.128102,4211.794769,4228.205025
46,0,4215.897333,4201.538359,4209.230666,4029.230671,4247.692204,4197.948615,4204.102461,4204.615282,4199.999897,4213.33323,4186.153744,4211.794769,4210.769128,4215.897333
47,0,4194.871692,4189.743487,4203.589641,4023.589645,4245.640922,4198.974256,4202.051179,4201.538359,4187.692205,4192.82041,4184.615282,4203.589641,4201.025538,4197.435795
48,0,4181.025539,4181.025539,4200.512718,4015.384517,4238.461435,4199.487077,4208.205025,4200.512718,4189.743487,4196.410154,4194.358872,4189.230667,4196.410154,4198.461436
49,0,4184.615282,4184.615282,4203.07682,4019.487081,4240.512717,4201.538359,4209.743487,4204.102461,4199.999897,4216.410153,4199.999897,4195.897333,4201.538359,4198.974256
50,0,4187.179385,4184.615282,4201.025538,4023.589645,4238.974255,4202.051179,4199.999897,4203.07682,4207.692205,4219.487076,4197.948615,4203.589641,4201.538359,4186.666564
51,0,4179.487077,4182.564,4201.025538,4027.692209,4232.820409,4202.564,4198.974256,4200.512718,4202.564,4205.640923,4197.435795,4198.461436,4197.948615,4192.82041
52,0,4176.922975,4184.102462,4204.615282,4033.846055,4232.307589,4201.025538,4204.615282,4207.179384,4198.974256,4198.974256,4199.487077,4199.999897,4201.538359,4202.051179
53,0,4176.410154,4184.615282,4199.999897,4030.769132,4232.820409,4197.435795,4202.564,4215.384512,4202.564,4203.07682,4198.974256,4207.692205,4202.564,4179.999898
54,0,4169.743488,4184.102462,4197.948615,4035.384517,4241.538358,4203.589641,4206.153743,4218.461435,4211.794769,4213.846051,4198.974256,4209.230666,4201.025538,4171.79477
55,0,4168.717847,4184.102462,4202.051179,4050.256311,4255.897332,4216.410153,4216.410153,4219.487076,4225.128102,4234.358871,4202.051179,4202.051179,4209.743487,4197.435795
56,0,4176.922975,4186.153744,4202.564,4054.358875,4248.717845,4218.461435,4215.897333,4217.948615,4221.025538,4236.410153,4203.589641,4198.461436,4215.384512,4208.717846
57,0,4178.974257,4187.692205,4198.974256,4054.358875,4238.461435,4215.384512,4212.82041,4215.384512,4204.102461,4213.846051,4199.999897,4200.512718,4204.102461,4202.564
58,0,4167.179385,4179.999898,4198.461436,4057.948619,4239.999896,4214.871692,4214.358871,4210.769128,4196.410154,4205.640923,4186.153744,4196.410154,4195.384513,4193.333231
59,0,4161.025539,4175.897334,4198.461436,4065.128106,4222.563999,4211.794769,4214.871692,4208.205025,4204.102461,4219.999897,4182.05118,4195.384513,4198.461436,4182.564
60,0,4168.717847,4183.589641,4200.512718,4074.358875,4217.948615,4210.769128,4214.358871,4213.846051,4216.410153,4219.487076,4199.487077,4203.589641,4203.07682,4186.666564
61,0,4174.871693,4187.179385,4203.589641,4085.128105,4250.769127,4216.922974,4217.435794,4214.871692,4218.461435,4209.230666,4207.692205,4203.07682,4202.564,4196.922974
62,0,4171.281949,4183.076821,4195.897333,4096.410156,4262.051178,4217.948615,4216.922974,4206.153743,4211.281948,4221.025538,4197.435795,4195.384513,4201.538359,4199.487077
63,0,4173.333231,4182.05118,4190.256308,4105.128105,4237.435794,4213.33323,4213.846051,4206.666564,4210.769128,4239.999896,4202.564,4197.435795,4205.640923,4206.153743
64,0,4173.333231,4187.179385,4198.461436,4108.205028,4227.692204,4212.82041,4213.846051,4215.384512,4217.435794,4229.230666,4212.307589,4202.564,4209.743487,4200.512718
65,0,4158.461437,4181.025539,4197.435795,4109.230669,4236.922973,4214.871692,4213.846051,4215.384512,4217.435794,4207.692205,4190.769128,4200.512718,4201.025538,4178.974257
66,0,4151.28195,4168.717847,4182.564,4117.948617,4229.743486,4214.871692,4212.307589,4209.743487,4212.82041,4215.897333,4176.410154,4195.384513,4192.30759,4183.076821
67,0,4172.820411,4175.384513,4188.205026,4143.076822,4217.435794,4217.435794,4214.871692,4211.281948,4213.846051,4223.07682,4202.564,4199.487077,4198.461436,4205.128102
68,0,4190.769128,4193.333231,4214.871692,4181.025539,4230.256307,4228.205025,4219.999897,4222.563999,4218.974256,4209.230666,4224.615281,4215.897333,4206.153743,4204.615282
69,0,4178.974257,4192.30759,4216.922974,4202.564,4233.33323,4229.743486,4219.999897,4225.128102,4222.051179,4217.948615,4213.33323,4223.58964,4204.102461,4196.922974
70,0,4174.358872,4185.640923,4202.564,4206.666564,4216.410153,4219.487076,4217.948615,4215.384512,4219.487076,4237.948614,4205.640923,4218.974256,4204.615282,4206.153743
71,0,4189.230667,4198.974256,4209.743487,4217.435794,4228.717845,4225.128102,4218.461435,4214.358871,4217.435794,4235.897332,4220.512717,4220.512717,4217.435794,4215.384512
72,0,4192.30759,4207.179384,4219.487076,4226.153743,4246.666563,4233.84605,4218.461435,4217.948615,4218.461435,4237.435794,4225.128102,4217.948615,4225.640922,4218.974256
73,0,4181.025539,4195.897333,4208.717846,4215.897333,4223.07682,4221.538358,4213.846051,4212.307589,4218.461435,4234.358871,4214.358871,4203.07682,4216.410153,4226.153743
74,0,4183.589641,4195.897333,4204.615282,4213.846051,4205.640923,4211.794769,4211.794769,4211.794769,4216.922974,4209.230666,4211.794769,4206.153743,4212.82041,4218.974256
75,0,4202.051179,4208.717846,4216.410153,4229.230666,4223.07682,4219.999897,4215.384512,4218.461435,4219.999897,4216.410153,4218.974256,4229.743486,4226.666563,4206.666564
76,0,4202.564,4208.717846,4219.999897,4232.307589,4229.743486,4219.487076,4216.922974,4217.435794,4220.512717,4245.640922,4223.58964,4234.358871,4229.230666,4220.512717
77,0,4185.128103,4198.974256,4212.82041,4219.487076,4233.33323,4214.871692,4213.33323,4211.281948,4210.256307,4236.922973,4217.948615,4208.205025,4215.384512,4234.358871
78,0,4182.564,4199.999897,4204.615282,4215.897333,4245.128101,4225.128102,4214.871692,4213.33323,4204.615282,4219.999897,4207.179384,4195.384513,4211.281948,4221.538358
79,0,4191.794769,4204.102461,4201.025538,4217.948615,4233.33323,4232.820409,4222.051179,4224.102461,4215.897333,4231.281948,4208.205025,4208.205025,4215.897333,4215.384512
80,0,4186.153744,4193.846051,4202.051179,4206.153743,4212.307589,4223.07682,4222.051179,4230.256307,4225.640922,4232.820409,4217.948615,4209.743487,4209.743487,4212.307589
81,0,4179.999898,4187.692205,4197.948615,4186.666564,4216.922974,4213.846051,4216.922974,4229.230666,4222.563999,4213.846051,4212.82041,4206.666564,4201.538359,4197.948615
82,0,4185.640923,4193.333231,4192.30759,4172.30759,4228.717845,4218.461435,4217.435794,4226.666563,4220.512717,4218.974256,4202.564,4212.82041,4203.07682,4198.974256
83,0,4183.076821,4191.794769,4193.846051,4166.153744,4230.256307,4222.563999,4218.974256,4220.512717,4212.82041,4233.84605,4203.07682,4206.666564,4203.07682,4210.769128
84,0,4179.487077,4191.281949,4196.410154,4167.179385,4232.820409,4219.487076,4218.974256,4222.051179,4214.358871,4230.256307,4199.999897,4194.358872,4199.999897,4210.256307
85,0,4186.153744,4197.435795,4197.435795,4165.640924,4225.128102,4217.948615,4218.461435,4230.256307,4230.769127,4226.666563,4196.410154,4200.512718,4201.025538,4207.179384
86,0,4185.128103,4192.82041,4195.897333,4162.564001,4211.794769,4217.435794,4217.435794,4224.102461,4222.051179,4230.256307,4207.692205,4203.07682,4200.512718,4214.358871
87,0,4178.461436,4184.102462,4189.743487,4167.692206,4221.538358,4214.871692,4216.410153,4212.307589,4202.564,4225.640922,4216.410153,4196.410154,4199.999897,4216.922974
88,0,4190.769128,4192.82041,4190.256308,4171.281949,4235.897332,4215.897333,4217.435794,4212.82041,4206.153743,4214.358871,4209.230666,4206.666564,4209.230666,4216.922974
89,0,4201.025538,4202.564,4199.999897,4168.717847,4230.769127,4220.512717,4219.999897,4216.922974,4215.384512,4214.871692,4202.564,4213.846051,4218.974256,4227.692204
90,0,4188.205026,4198.461436,4205.640923,4174.358872,4223.58964,4220.512717,4223.07682,4220.512717,4214.358871,4224.615281,4207.179384,4204.615282,4216.410153,4226.153743
91,0,4183.076821,4195.384513,4202.564,4184.102462,4228.205025,4216.922974,4222.563999,4227.692204,4221.025538,4238.461435,4208.717846,4203.07682,4210.769128,4207.692205
92,0,4198.461436,4197.948615,4205.640923,4189.743487,4231.281948,4217.948615,4219.487076,4232.307589,4231.281948,4235.384512,4211.281948,4215.384512,4214.358871,4220.512717
93,0,4209.743487,4199.487077,4212.307589,4195.384513,4231.281948,4219.999897,4218.974256,4232.820409,4228.205025,4220.512717,4226.666563,4218.461435,4224.102461,4258.974255
94,0,4212.307589,4200.512718,4213.33323,4201.025538,4221.538358,4217.948615,4218.461435,4233.84605,4222.563999,4236.410153,4234.871691,4214.358871,4230.256307,4261.538357
95,0,4218.461435,4206.153743,4211.794769,4201.025538,4199.487077,4214.358871,4216.410153,4231.281948,4220.512717,4254.871691,4221.538358,4215.897333,4227.692204,4236.922973
96,0,4228.205025,4211.794769,4213.846051,4203.07682,4203.07682,4212.82041,4215.384512,4222.051179,4213.33323,4226.153743,4208.717846,4217.435794,4223.07682,4237.948614
97,0,4247.179383,4214.871692,4222.563999,4209.230666,4229.230666,4215.384512,4215.384512,4216.922974,4209.230666,4203.589641,4217.435794,4219.487076,4230.769127,4272.307588
98,0,4276.410152,4221.025538,4228.717845,4206.666564,4226.666563,4215.897333,4217.435794,4223.07682,4212.82041,4224.102461,4228.205025,4230.256307,4243.076819,4307.692202
99,0,4312.820407,4228.717845,4230.256307,4204.615282,4209.743487,4208.717846,4214.358871,4218.974256,4208.205025,4228.205025,4227.692204,4244.615281,4247.179383,4329.743484
100,0,4367.692201,4238.461435,4242.563999,4218.461435,4209.230666,4201.025538,4203.07682,4201.538359,4194.871692,4208.717846,4236.410153,4257.435793,4263.076819,4381.025534
101,0,4436.410148,4264.61528,4271.794767,4235.384512,4209.230666,4199.999897,4198.974256,4202.564,4199.487077,4213.846051,4259.487075,4277.948613,4293.846049,4471.281942
102,0,4489.74348,4289.230664,4292.820408,4240.512717,4197.435795,4202.051179,4203.07682,4214.871692,4207.692205,4216.410153,4269.230665,4295.897331,4305.1281,4540.512709
103,0,4516.922966,4286.666562,4292.307587,4244.615281,4199.487077,4201.538359,4203.07682,4211.794769,4193.333231,4201.025538,4261.538357,4293.333228,4292.820408,4559.487068
104,0,4529.230658,4276.922972,4291.281946,4245.640922,4213.846051,4197.435795,4199.999897,4206.666564,4179.999898,4195.897333,4262.563998,4293.846049,4290.769126,4552.307581
105,0,4535.897325,4279.487075,4294.358869,4236.410153,4218.974256,4199.999897,4204.102461,4213.846051,4183.076821,4195.897333,4266.153742,4305.64092,4297.435792,4546.153735
106,0,4531.28194,4277.948613,4287.692203,4229.743486,4217.948615,4205.640923,4204.615282,4217.948615,4194.358872,4201.538359,4261.538357,4303.076818,4295.38451,4556.922965
107,0,4509.230659,4266.666562,4278.461434,4227.692204,4219.999897,4203.589641,4201.025538,4216.410153,4208.717846,4226.666563,4260.512716,4287.692203,4292.307587,4553.333222
108,0,4493.333223,4264.10246,4283.076818,4228.205025,4215.384512,4206.666564,4207.692205,4219.999897,4219.999897,4236.922973,4271.281947,4291.794767,4295.897331,4520.51271
109,0,4490.769121,4268.717844,4283.076818,4227.179384,4207.179384,4210.769128,4214.358871,4219.999897,4211.281948,4212.307589,4270.256306,4297.948613,4291.281946,4496.922967
110,0,4465.128096,4264.61528,4269.743485,4218.461435,4212.307589,4203.589641,4206.666564,4215.897333,4199.487077,4205.128102,4252.820409,4279.999895,4278.461434,4478.461429
111,0,4417.435789,4248.717845,4261.025537,4214.358871,4221.538358,4198.974256,4198.974256,4212.307589,4203.589641,4225.128102,4248.717845,4263.589639,4272.820408,4444.615276
112,0,4386.666559,4237.435794,4251.281947,4214.871692,4215.384512,4203.07682,4202.051179,4204.615282,4200.512718,4224.102461,4244.10246,4258.461434,4265.640921,4406.153738
113,0,4369.230662,4232.307589,4234.358871,4205.128102,4207.179384,4198.974256,4202.051179,4198.974256,4188.717846,4208.717846,4222.051179,4244.615281,4248.717845,4370.769124
114,0,4337.948612,4221.538358,4227.692204,4203.07682,4208.717846,4198.461436,4197.948615,4199.999897,4190.769128,4209.743487,4208.717846,4229.743486,4235.897332,4333.846048
115,0,4308.205023,4215.384512,4228.717845,4214.358871,4225.128102,4209.230666,4201.025538,4203.07682,4200.512718,4212.82041,4214.358871,4224.615281,4232.307589,4305.64092
116,0,4292.307587,4214.358871,4223.07682,4209.743487,4234.358871,4213.33323,4210.769128,4207.692205,4202.564,4197.435795,4215.897333,4218.974256,4228.205025,4299.487074
117,0,4276.410152,4207.179384,4215.897333,4198.461436,4214.871692,4214.358871,4215.897333,4213.33323,4201.538359,4197.435795,4213.33323,4211.794769,4222.563999,4295.897331
118,0,4254.35887,4198.461436,4213.846051,4200.512718,4207.179384,4212.307589,4214.871692,4215.897333,4202.051179,4215.897333,4217.435794,4212.307589,4215.897333,4274.35887
119,0,4239.487076,4200.512718,4215.384512,4205.640923,4216.922974,4208.717846,4213.33323,4217.948615,4206.153743,4217.435794,4216.410153,4217.948615,4213.846051,4258.974255
120,0,4236.410153,4203.589641,4214.871692,4203.589641,4207.692205,4210.256307,4208.717846,4220.512717,4212.307589,4214.871692,4210.256307,4214.871692,4218.974256,4249.743486
121,0,4229.230666,4197.435795,4204.615282,4198.974256,4205.128102,4213.33323,4201.025538,4217.948615,4214.871692,4227.692204,4205.128102,4205.128102,4216.410153,4220.512717
122,0,4217.948615,4193.333231,4199.999897,4199.999897,4227.179384,4210.769128,4201.538359,4216.410153,4211.281948,4228.205025,4204.102461,4199.999897,4207.179384,4213.33323
123,0,4202.051179,4195.384513,4197.435795,4202.564,4225.640922,4209.743487,4206.153743,4215.897333,4205.640923,4204.615282,4202.564,4196.922974,4202.564,4231.794768
124,0,4185.128103,4190.256308,4182.564,4191.794769,4207.179384,4212.307589,4201.538359,4206.153743,4198.974256,4199.999897,4194.358872,4187.179385,4200.512718,4216.922974
125,0,4182.564,4185.128103,4182.564,4181.025539,4222.563999,4213.846051,4200.512718,4198.461436,4189.230667,4213.846051,4194.358872,4184.615282,4197.435795,4192.82041
126,0,4178.974257,4193.846051,4202.564,4191.281949,4232.820409,4215.384512,4210.256307,4205.640923,4188.205026,4213.846051,4199.999897,4192.30759,4195.897333,4191.281949
127,0,4168.205026,4196.410154,4203.589641,4201.025538,4211.281948,4215.384512,4217.948615,4214.358871,4199.999897,4203.589641,4193.846051,4195.384513,4198.974256,4189.230667
128,0,4167.692206,4185.128103,4189.230667,4198.461436,4209.230666,4215.384512,4213.33323,4213.846051,4207.692205,4203.589641,4186.153744,4200.512718,4198.974256,4182.05118
0,0,4174.358872,4181.538359,4187.179385,4197.435795,4221.538358,4214.358871,4205.128102,4213.846051,4202.051179,4210.256307,4195.897333,4200.512718,4196.410154,4185.640923
1,0,4165.640924,4190.256308,4187.179385,4199.999897,4218.974256,4212.307589,4201.538359,4214.871692,4203.07682,4214.871692,4212.307589,4190.769128,4196.410154,4191.794769
2,0,4154.358873,4193.333231,4182.05118,4201.025538,4221.025538,4215.897333,4202.051179,4213.846051,4209.743487,4224.615281,4212.307589,4188.205026,4198.974256,4190.769128
3,0,4158.461437,4188.205026,4178.974257,4199.487077,4232.820409,4223.58964,4207.179384,4214.358871,4212.82041,4226.153743,4202.564,4188.205026,4197.948615,4184.102462
4,0,4163.589642,4187.692205,4182.564,4198.461436,4234.871691,4229.230666,4213.33323,4216.922974,4217.435794,4217.435794,4197.948615,4187.179385,4196.922974,4174.871693
5,0,4169.230667,4195.897333,4188.717846,4202.564,4226.153743,4227.692204,4211.794769,4216.410153,4216.410153,4219.999897,4201.025538,4195.384513,4199.999897,4178.461436
6,0,4180.512718,4201.025538,4186.153744,4209.230666,4217.948615,4221.025538,4206.666564,4215.384512,4215.897333,4226.666563,4205.128102,4198.461436,4197.948615,4192.82041
7,0,4203.07682,4205.128102,4180.512718,4213.846051,4219.999897,4217.435794,4203.589641,4214.871692,4218.974256,4216.410153,4202.564,4194.358872,4201.025538,4219.999897
8,0,4238.461435,4219.999897,4188.205026,4215.897333,4229.230666,4217.948615,4201.538359,4213.33323,4215.897333,4209.230666,4202.051179,4204.615282,4216.922974,4253.84605
9,0,4279.999895,4231.794768,4207.179384,4216.922974,4224.102461,4218.974256,4201.538359,4214.871692,4212.82041,4219.999897,4205.640923,4216.922974,4222.563999,4283.076818
10,0,4325.128099,4238.461435,4218.461435,4222.051179,4209.743487,4217.948615,4203.07682,4212.307589,4212.82041,4219.999897,4213.846051,4218.461435,4225.128102,4325.64092
11,0,4377.948611,4251.281947,4225.128102,4231.281948,4211.281948,4215.897333,4201.025538,4205.128102,4203.589641,4206.153743,4232.820409,4235.384512,4249.743486,4398.974251
12,0,4423.076815,4265.640921,4247.692204,4242.563999,4218.461435,4213.846051,4201.538359,4205.128102,4194.358872,4201.538359,4250.256306,4267.692203,4277.948613,4448.71784
13,0,4445.640917,4270.769126,4271.794767,4252.307588,4218.974256,4213.846051,4211.281948,4216.410153,4203.589641,4213.846051,4262.051178,4282.051177,4291.281946,4450.769122
14,0,4454.871686,4267.179383,4273.846049,4254.35887,4216.410153,4214.358871,4219.487076,4228.205025,4217.948615,4235.384512,4276.922972,4279.487075,4302.051177,4478.461429
15,0,4452.307583,4264.10246,4265.128101,4248.205024,4214.871692,4214.871692,4216.410153,4231.794768,4218.461435,4237.435794,4279.487075,4283.076818,4305.64092,4510.2563
16,0,4437.948609,4264.10246,4263.589639,4247.179383,4214.871692,4215.897333,4212.307589,4225.640922,4211.281948,4213.846051,4264.10246,4286.153741,4289.743485,4473.846044
17,0,4421.538353,4260.512716,4262.051178,4252.820409,4217.948615,4215.384512,4213.846051,4227.179384,4214.871692,4218.974256,4262.051178,4275.384511,4281.025536,4440.512712
18,0,4387.6922,4244.10246,4249.230665,4244.615281,4225.128102,4216.410153,4216.922974,4235.897332,4225.640922,4244.10246,4270.256306,4261.025537,4285.640921,4435.897327
19,0,4337.435791,4221.025538,4229.230666,4222.051179,4224.102461,4217.948615,4216.410153,4227.692204,4217.435794,4222.563999,4254.35887,4248.205024,4270.769126,4383.589636
20,0,4299.999895,4209.743487,4212.82041,4212.307589,4208.205025,4215.897333,4213.846051,4213.33323,4196.922974,4194.871692,4225.640922,4228.717845,4241.538358,4316.410151
21,0,4283.589639,4211.794769,4210.769128,4219.999897,4202.564,4213.846051,4212.82041,4212.307589,4196.410154,4213.33323,4218.974256,4213.846051,4227.692204,4303.076818
22,0,4269.743485,4217.435794,4214.871692,4216.410153,4214.871692,4214.871692,4214.871692,4215.897333,4211.794769,4227.179384,4227.692204,4214.358871,4232.307589,4294.87169
23,0,4248.205024,4213.846051,4209.743487,4193.846051,4223.58964,4216.410153,4216.922974,4224.102461,4217.948615,4220.512717,4223.58964,4218.461435,4234.358871,4260.512716
24,0,4224.102461,4200.512718,4199.487077,4179.487077,4219.487076,4214.871692,4218.461435,4231.794768,4213.846051,4227.692204,4212.307589,4211.794769,4226.153743,4226.153743
25,0,4209.230666,4198.974256,4198.461436,4189.230667,4214.871692,4208.205025,4213.846051,4226.666563,4213.33323,4237.435794,4215.384512,4203.07682,4217.435794,4211.794769
26,0,4202.564,4211.281948,4202.051179,4203.07682,4219.999897,4205.640923,4205.640923,4221.025538,4214.871692,4229.743486,4221.025538,4201.025538,4217.948615,4216.410153
27,0,4189.230667,4218.461435,4201.025538,4203.589641,4224.615281,4211.794769,4205.640923,4226.153743,4213.33323,4219.487076,4221.538358,4202.051179,4218.461435,4213.33323
28,0,4181.025539,4225.128102,4201.538359,4206.666564,4225.128102,4216.410153,4213.846051,4231.794768,4216.410153,4220.512717,4225.128102,4207.692205,4218.461435,4201.025538
29,0,4176.410154,4236.410153,4204.102461,4214.358871,4231.281948,4217.435794,4217.948615,4233.33323,4222.051179,4229.743486,4224.102461,4214.871692,4223.58964,4193.333231
30,0,4159.487078,4232.820409,4190.769128,4205.128102,4234.358871,4219.999897,4216.922974,4232.307589,4222.051179,4233.84605,4213.33323,4208.205025,4218.974256,4176.410154
31,0,4149.230668,4229.743486,4180.512718,4195.897333,4231.281948,4226.153743,4216.922974,4234.871691,4224.102461,4237.435794,4211.281948,4193.846051,4212.82041,4161.53836
32,0,4149.743488,4244.10246,4191.281949,4205.640923,4230.769127,4228.717845,4217.948615,4233.33323,4223.58964,4232.820409,4216.410153,4191.281949,4218.974256,4167.692206
33,0,4139.487078,4245.128101,4193.846051,4208.205025,4226.666563,4224.615281,4218.461435,4220.512717,4213.33323,4218.974256,4214.871692,4187.692205,4216.922974,4163.589642
34,0,4126.666566,4229.743486,4180.512718,4196.922974,4210.769128,4215.897333,4216.410153,4216.922974,4212.82041,4220.512717,4205.128102,4182.05118,4204.102461,4135.384514
35,0,4124.102463,4231.281948,4182.564,4198.461436,4216.410153,4220.512717,4219.999897,4229.743486,4223.58964,4234.358871,4206.153743,4193.333231,4209.230666,4130.76913
36,0,4122.564002,4239.487076,4191.281949,4205.128102,4244.10246,4233.84605,4226.666563,4235.384512,4224.102461,4238.974255,4213.33323,4198.974256,4218.974256,4154.871693
37,0,4119.487079,4229.743486,4183.076821,4201.025538,4244.615281,4228.205025,4221.025538,4228.717845,4220.512717,4230.769127,4208.205025,4181.538359,4209.743487,4156.410155
38,0,4120.51272,4223.07682,4177.435795,4198.461436,4222.051179,4215.897333,4214.358871,4230.769127,4218.461435,4220.512717,4197.948615,4177.435795,4197.948615,4129.230668
39,0,4121.538361,4231.794768,4183.589641,4197.435795,4215.384512,4222.051179,4222.563999,4238.461435,4215.384512,4226.153743,4200.512718,4190.769128,4199.999897,4117.435797
40,0,4125.128104,4236.410153,4192.82041,4199.487077,4225.640922,4234.358871,4233.33323,4245.128101,4223.58964,4245.128101,4213.33323,4195.897333,4212.307589,4141.02554
41,0,4130.76913,4233.84605,4198.461436,4209.230666,4233.84605,4234.358871,4234.871691,4250.256306,4233.84605,4249.743486,4224.615281,4197.435795,4222.051179,4168.205026
42,0,4128.205027,4227.179384,4191.794769,4212.307589,4235.897332,4234.358871,4233.33323,4248.717845,4233.33323,4245.128101,4225.128102,4194.358872,4220.512717,4165.128103
43,0,4119.487079,4215.897333,4180.512718,4206.153743,4231.281948,4235.897332,4233.33323,4244.10246,4233.84605,4248.717845,4212.307589,4182.564,4212.82041,4145.640924
44,0,4113.846053,4206.153743,4182.564,4204.102461,4230.256307,4227.692204,4228.717845,4235.897332,4231.794768,4240.512717,4202.564,4181.025539,4203.589641,4135.897335
45,0,4112.307592,4202.564,4185.640923,4205.128102,4229.230666,4223.07682,4221.538358,4226.153743,4217.435794,4222.563999,4200.512718,4179.999898,4194.358872,4139.487078
46,0,4108.717848,4197.435795,4173.333231,4199.999897,4219.487076,4221.538358,4218.461435,4217.948615,4203.07682,4211.794769,4191.794769,4164.102462,4185.640923,4143.589642
47,0,4104.102464,4205.128102,4166.666565,4197.435795,4222.563999,4217.435794,4219.487076,4217.435794,4206.153743,4214.358871,4184.102462,4157.948616,4183.076821,4132.820412
48,0,4104.102464,4216.922974,4168.717847,4198.974256,4235.897332,4218.974256,4218.974256,4223.58964,4214.358871,4222.051179,4184.615282,4169.230667,4183.589641,4119.487079
49,0,4107.692207,4208.205025,4170.256308,4199.999897,4232.820409,4227.179384,4218.461435,4229.743486,4213.846051,4213.33323,4191.281949,4177.948616,4184.615282,4125.640925
50,0,4113.846053,4196.922974,4176.410154,4203.589641,4228.205025,4230.769127,4224.615281,4232.820409,4214.358871,4216.410153,4198.461436,4181.025539,4185.128103,4136.410155
51,0,4121.02554,4201.025538,4181.538359,4203.589641,4232.307589,4226.666563,4228.205025,4235.897332,4226.153743,4241.538358,4201.538359,4187.692205,4187.179385,4133.333232
52,0,4124.615284,4203.07682,4175.384513,4199.487077,4218.974256,4222.563999,4224.102461,4237.435794,4231.794768,4234.358871,4202.051179,4188.205026,4188.205026,4134.358873
53,0,4123.076822,4196.922974,4168.717847,4199.487077,4209.230666,4221.538358,4218.974256,4233.33323,4222.051179,4207.179384,4198.974256,4174.358872,4182.05118,4142.051181
54,0,4124.102463,4199.487077,4173.333231,4203.07682,4219.999897,4225.128102,4218.974256,4230.256307,4223.58964,4225.640922,4201.538359,4175.384513,4184.615282,4151.79477
55,0,4125.128104,4203.07682,4176.410154,4203.07682,4222.051179,4228.717845,4217.435794,4233.84605,4232.820409,4248.717845,4210.769128,4192.30759,4201.025538,4159.487078
56,0,4121.02554,4202.564,4169.743488,4204.615282,4222.051179,4231.281948,4213.846051,4234.358871,4234.871691,4234.358871,4209.230666,4185.640923,4201.538359,4147.692206
57,0,4117.948617,4201.025538,4166.153744,4212.307589,4227.179384,4227.692204,4215.897333,4231.281948,4230.256307,4228.205025,4197.435795,4170.769129,4186.153744,4136.410155
58,0,4123.076822,4199.487077,4167.692206,4217.948615,4216.922974,4217.435794,4217.435794,4228.717845,4221.538358,4236.410153,4205.128102,4178.974257,4188.205026,4151.79477
59,0,4126.666566,4199.487077,4170.256308,4217.948615,4211.281948,4220.512717,4216.922974,4229.743486,4224.102461,4233.33323,4216.922974,4187.179385,4198.461436,4162.05118
60,0,4126.666566,4201.025538,4177.435795,4218.461435,4225.128102,4230.769127,4218.974256,4232.307589,4229.743486,4226.153743,4203.589641,4183.589641,4191.794769,4149.230668
61,0,4129.230668,4198.974256,4184.102462,4216.922974,4226.666563,4225.128102,4218.974256,4230.256307,4219.487076,4217.948615,4193.333231,4183.589641,4185.640923,4147.692206
62,0,4125.640925,4197.948615,4183.076821,4213.846051,4214.358871,4214.358871,4215.897333,4226.153743,4208.205025,4212.307589,4201.538359,4186.666564,4189.743487,4154.358873
63,0,4122.564002,4207.179384,4183.589641,4215.897333,4208.717846,4217.435794,4215.384512,4228.717845,4215.897333,4218.461435,4203.07682,4183.589641,4189.743487,4151.28195
64,0,4131.28195,4216.410153,4186.666564,4218.974256,4212.82041,4220.512717,4217.948615,4232.307589,4219.487076,4217.435794,4194.871692,4172.820411,4184.615282,4149.230668
65,0,4142.051181,4215.897333,4185.640923,4216.922974,4229.743486,4217.435794,4223.58964,4230.256307,4213.33323,4211.794769,4195.897333,4171.281949,4183.076821,4155.897334
66,0,4148.717847,4215.897333,4187.692205,4216.410153,4235.897332,4223.07682,4228.205025,4230.769127,4217.435794,4227.179384,4204.102461,4184.102462,4193.333231,4166.666565
67,0,4150.769129,4216.922974,4191.794769,4218.461435,4221.538358,4228.205025,4223.58964,4233.84605,4222.051179,4237.435794,4200.512718,4189.230667,4198.974256,4171.281949
68,0,4148.205027,4216.410153,4183.589641,4215.897333,4217.948615,4221.025538,4218.461435,4234.358871,4219.999897,4223.07682,4188.717846,4181.538359,4187.692205,4164.615283
69,0,4152.307591,4214.871692,4177.435795,4211.281948,4223.07682,4215.384512,4218.461435,4233.84605,4219.487076,4214.871692,4191.281949,4181.025539,4184.102462,4155.897334
70,0,4167.179385,4213.846051,4187.692205,4211.281948,4215.897333,4215.897333,4219.487076,4232.820409,4221.025538,4219.999897,4197.948615,4185.128103,4194.871692,4159.487078
71,0,4187.179385,4222.563999,4198.974256,4217.435794,4214.358871,4217.435794,4220.512717,4232.307589,4221.538358,4216.410153,4197.948615,4188.717846,4203.589641,4191.281949
72,0,4212.307589,4231.281948,4201.538359,4223.58964,4219.999897,4216.922974,4221.025538,4232.307589,4219.487076,4213.846051,4208.205025,4197.948615,4209.743487,4228.717845
73,0,4237.948614,4227.692204,4204.102461,4227.179384,4216.410153,4216.922974,4217.948615,4227.179384,4213.846051,4221.538358,4215.384512,4212.82041,4214.358871,4241.538358
74,0,4283.076818,4235.897332,4219.487076,4232.820409,4214.871692,4218.974256,4216.922974,4219.999897,4210.769128,4224.102461,4215.384512,4226.666563,4225.128102,4281.538357
75,0,4359.487073,4265.640921,4239.487076,4245.640922,4213.846051,4214.358871,4214.871692,4216.410153,4205.128102,4215.384512,4226.153743,4231.794768,4247.692204,4366.66656
76,0,4422.051174,4284.61528,4246.153742,4257.948614,4198.974256,4202.051179,4208.205025,4213.846051,4196.410154,4198.461436,4232.820409,4236.922973,4254.871691,4410.769123
77,0,4456.410147,4290.256305,4255.897332,4266.153742,4194.871692,4202.564,4209.743487,4214.358871,4196.922974,4197.435795,4233.84605,4254.35887,4252.820409,4417.94861
78,0,4494.871685,4307.692202,4275.897331,4275.897331,4214.358871,4209.230666,4216.410153,4217.435794,4202.051179,4209.743487,4247.179383,4270.769126,4264.61528,4462.563993
79,0,4527.692197,4317.948612,4283.589639,4281.025536,4225.128102,4202.564,4213.846051,4217.435794,4209.230666,4202.051179,4251.794768,4276.922972,4270.256306,4500.51271
80,0,4529.743479,4307.692202,4282.563998,4281.025536,4209.230666,4200.512718,4212.307589,4218.974256,4217.948615,4199.999897,4246.666563,4281.025536,4271.794767,4496.922967
81,0,4528.205017,4303.589638,4291.281946,4282.051177,4201.538359,4211.794769,4217.435794,4222.563999,4209.230666,4226.153743,4259.487075,4284.61528,4288.717844,4519.999889
82,0,4533.333222,4306.153741,4293.333228,4275.384511,4218.461435,4217.948615,4218.974256,4224.615281,4198.974256,4239.999896,4266.153742,4285.640921,4293.846049,4538.974248
83,0,4519.487069,4298.461433,4282.051177,4263.076819,4224.615281,4213.33323,4216.410153,4222.563999,4209.230666,4220.512717,4252.307588,4279.999895,4274.35887,4497.435787
84,0,4491.281941,4291.281946,4271.794767,4264.61528,4204.615282,4206.153743,4214.358871,4218.461435,4210.769128,4205.128102,4243.58964,4266.666562,4259.487075,4459.48707
85,0,4468.205019,4290.769126,4267.179383,4272.820408,4195.897333,4205.640923,4213.846051,4215.384512,4197.948615,4208.205025,4236.922973,4255.384511,4248.205024,4445.640917
86,0,4448.205019,4285.640921,4263.076819,4268.205024,4210.769128,4212.307589,4214.358871,4215.384512,4203.589641,4207.179384,4227.692204,4248.717845,4236.922973,4411.794764
87,0,4419.999892,4272.307588,4254.35887,4261.025537,4218.974256,4215.897333,4214.358871,4213.846051,4215.384512,4211.281948,4225.640922,4235.897332,4235.384512,4378.974252
88,0,4391.281944,4267.179383,4245.128101,4261.538357,4217.948615,4215.897333,4215.384512,4213.33323,4216.410153,4224.615281,4223.07682,4230.769127,4232.820409,4361.025534
89,0,4361.025534,4263.076819,4245.128101,4265.128101,4212.82041,4215.384512,4217.435794,4220.512717,4213.846051,4223.07682,4209.230666,4233.33323,4219.487076,4322.563997
90,0,4326.15374,4252.307588,4244.615281,4263.076819,4214.358871,4213.846051,4217.948615,4228.205025,4210.256307,4213.846051,4206.666564,4223.58964,4209.743487,4283.589639
91,0,4306.153741,4249.743486,4237.435794,4254.871691,4220.512717,4216.410153,4219.487076,4232.307589,4215.384512,4222.563999,4221.025538,4221.538358,4214.358871,4274.87169
92,0,4295.897331,4247.179383,4226.153743,4249.743486,4200.512718,4219.999897,4219.999897,4230.256307,4219.487076,4225.640922,4219.999897,4222.563999,4213.846051,4265.128101
93,0,4271.794767,4234.358871,4216.410153,4246.153742,4191.794769,4216.410153,4216.410153,4218.461435,4211.281948,4210.769128,4202.051179,4205.640923,4200.512718,4237.948614
94,0,4246.666563,4228.205025,4219.999897,4238.461435,4232.307589,4216.922974,4221.025538,4213.33323,4210.769128,4220.512717,4196.922974,4196.922974,4195.384513,4214.358871
95,0,4239.999896,4233.84605,4226.666563,4232.307589,4257.948614,4224.615281,4231.794768,4225.128102,4221.025538,4235.897332,4204.102461,4208.205025,4201.538359,4212.82041
96,0,4229.743486,4224.615281,4212.307589,4215.897333,4228.205025,4223.07682,4233.33323,4233.33323,4218.461435,4224.615281,4205.640923,4199.999897,4199.999897,4214.358871
97,0,4206.153743,4206.666564,4196.922974,4187.179385,4208.717846,4215.384512,4227.692204,4229.230666,4214.871692,4216.922974,4205.128102,4185.640923,4191.281949,4198.461436
98,0,4190.256308,4203.589641,4199.999897,4185.128103,4228.205025,4223.07682,4229.743486,4230.256307,4228.717845,4222.563999,4206.153743,4194.871692,4187.692205,4184.102462
99,0,4180.512718,4204.615282,4202.564,4197.948615,4234.871691,4230.769127,4234.358871,4235.897332,4224.615281,4214.871692,4200.512718,4195.897333,4185.128103,4171.79477
100,0,4168.717847,4203.07682,4197.435795,4191.281949,4214.358871,4222.563999,4229.230666,4228.205025,4202.051179,4210.256307,4190.256308,4182.05118,4180.512718,4148.205027
101,0,4155.384514,4204.102461,4196.922974,4187.692205,4210.256307,4218.461435,4219.999897,4219.487076,4204.615282,4225.640922,4186.153744,4181.025539,4181.025539,4145.640924
102,0,4152.307591,4205.128102,4195.384513,4198.974256,4224.615281,4221.025538,4215.384512,4225.128102,4218.974256,4227.179384,4191.281949,4189.230667,4185.128103,4166.666565
103,0,4157.948616,4203.07682,4189.230667,4201.538359,4222.051179,4216.922974,4218.974256,4231.281948,4211.794769,4208.717846,4196.410154,4185.128103,4185.128103,4165.128103
104,0,4147.179386,4203.07682,4186.153744,4197.948615,4217.435794,4213.846051,4226.666563,4232.820409,4213.33323,4217.435794,4199.999897,4180.512718,4184.615282,4148.205027
105,0,4137.948617,4203.589641,4187.692205,4201.538359,4230.256307,4219.999897,4233.33323,4241.538358,4233.84605,4236.410153,4202.564,4192.30759,4187.179385,4148.717847
106,0,4149.230668,4203.589641,4191.794769,4203.07682,4227.692204,4219.487076,4232.307589,4247.179383,4232.820409,4221.025538,4200.512718,4199.487077,4187.179385,4155.384514
107,0,4152.307591,4205.640923,4199.487077,4202.051179,4223.07682,4216.922974,4229.230666,4242.563999,4224.102461,4211.794769,4198.974256,4192.30759,4185.640923,4154.871693
108,0,4141.02554,4208.205025,4199.999897,4201.538359,4232.307589,4223.58964,4232.820409,4241.538358,4230.256307,4234.871691,4203.07682,4187.179385,4187.692205,4154.871693
109,0,4136.410155,4198.461436,4189.230667,4195.384513,4219.999897,4224.102461,4233.33323,4234.871691,4225.640922,4237.435794,4198.974256,4181.538359,4181.538359,4154.871693
110,0,4131.28195,4186.153744,4179.487077,4183.589641,4206.153743,4216.922974,4226.153743,4219.487076,4206.666564,4214.871692,4185.640923,4171.281949,4168.205026,4151.28195
111,0,4129.230668,4190.256308,4182.564,4181.538359,4225.128102,4221.025538,4226.666563,4223.58964,4206.666564,4217.948615,4187.692205,4175.897334,4173.846052,4146.153745
112,0,4142.051181,4197.948615,4190.769128,4187.179385,4233.33323,4232.820409,4233.84605,4238.461435,4220.512717,4236.922973,4202.051179,4191.281949,4188.717846,4150.256309
113,0,4151.28195,4195.897333,4190.769128,4185.128103,4213.846051,4230.256307,4234.871691,4236.410153,4220.512717,4235.384512,4202.564,4188.717846,4188.717846,4168.717847
114,0,4162.564001,4198.461436,4186.666564,4187.179385,4208.717846,4219.999897,4226.153743,4229.743486,4214.871692,4222.563999,4198.461436,4183.589641,4186.153744,4184.615282
115,0,4194.871692,4213.846051,4195.897333,4197.948615,4217.435794,4217.948615,4218.461435,4229.743486,4211.794769,4221.025538,4208.205025,4197.948615,4200.512718,4201.538359
116,0,4237.948614,4225.640922,4213.33323,4202.564,4214.871692,4217.948615,4217.435794,4223.58964,4205.640923,4217.948615,4214.358871,4214.358871,4212.82041,4238.461435
117,0,4283.076818,4233.84605,4226.153743,4210.256307,4211.281948,4213.846051,4216.410153,4212.82041,4199.999897,4203.07682,4214.871692,4223.58964,4218.461435,4293.846049
118,0,4348.205022,4256.410152,4244.10246,4223.58964,4222.051179,4211.794769,4212.82041,4212.82041,4206.666564,4204.102461,4232.307589,4245.128101,4241.538358,4362.051175
119,0,4437.948609,4288.205023,4263.076819,4232.820409,4232.307589,4216.410153,4211.281948,4225.128102,4217.435794,4228.205025,4257.435793,4274.35887,4276.922972,4434.871686
120,0,4500.51271,4306.153741,4274.87169,4241.025537,4227.692204,4216.922974,4216.410153,4230.256307,4220.512717,4236.410153,4269.743485,4286.153741,4296.410151,4484.102454
121,0,4496.922967,4298.974254,4278.974254,4242.563999,4211.281948,4206.153743,4215.897333,4222.563999,4214.358871,4220.512717,4264.61528,4279.999895,4285.640921,4488.205018
122,0,4479.48707,4285.1281,4276.922972,4234.871691,4204.615282,4198.974256,4209.230666,4217.435794,4204.615282,4214.871692,4254.871691,4275.897331,4274.35887,4477.948608
123,0,4487.179377,4279.487075,4275.897331,4230.769127,4203.07682,4202.564,4209.743487,4218.974256,4201.538359,4215.897333,4268.205024,4284.102459,4293.333228,4493.846044
124,0,4477.948608,4273.333229,4279.487075,4231.281948,4195.384513,4204.102461,4213.33323,4215.897333,4201.025538,4214.358871,4283.589639,4295.38451,4314.358869,4506.153736
125,0,4458.97425,4272.307588,4282.051177,4230.769127,4205.128102,4200.512718,4212.307589,4214.358871,4199.487077,4221.538358,4273.846049,4298.974254,4303.589638,4482.563993
126,0,4470.256301,4276.922972,4276.410152,4227.179384,4223.58964,4199.487077,4213.33323,4221.538358,4206.666564,4231.281948,4269.230665,4289.230664,4291.281946,4469.74348
127,0,4468.717839,4275.897331,4267.179383,4221.025538,4224.102461,4205.128102,4217.435794,4227.692204,4215.897333,4232.820409,4281.538357,4275.897331,4300.512715,4485.128095
128,0,4428.20502,4265.640921,4258.461434,4215.384512,4214.358871,4210.256307,4217.948615,4226.153743,4214.358871,4228.205025,4274.35887,4263.076819,4297.948613,4465.640916
0,0,4392.307585,4251.794768,4249.230665,4217.435794,4211.281948,4209.230666,4215.897333,4223.07682,4214.358871,4225.128102,4248.717845,4253.84605,4278.974254,4408.717841
1,0,4370.769124,4239.999896,4239.999896,4218.461435,4212.307589,4210.769128,4215.384512,4221.538358,4218.974256,4228.205025,4245.640922,4250.256306,4269.743485,4365.128098
2,0,4343.076817,4225.128102,4230.769127,4211.281948,4213.33323,4212.82041,4215.384512,4219.487076,4210.256307,4221.538358,4252.820409,4237.435794,4261.538357,4331.794766
3,0,4312.307587,4213.33323,4219.487076,4205.640923,4214.358871,4205.128102,4214.358871,4213.846051,4195.384513,4197.948615,4232.307589,4212.307589,4238.461435,4297.435792
4,0,4281.025536,4213.33323,4212.82041,4213.33323,4212.307589,4202.564,4212.307589,4212.82041,4197.435795,4192.30759,4209.743487,4205.128102,4224.102461,4268.717844
5,0,4254.35887,4213.846051,4217.948615,4216.922974,4213.846051,4215.897333,4214.358871,4223.07682,4209.743487,4219.487076,4220.512717,4214.871692,4228.205025,4246.666563
6,0,4239.999896,4203.07682,4215.897333,4205.640923,4213.33323,4216.922974,4217.435794,4231.794768,4218.461435,4237.435794,4233.84605,4207.692205,4221.538358,4230.256307
7,0,4227.692204,4196.410154,4205.640923,4201.538359,4209.743487,4205.640923,4214.358871,4226.153743,4221.025538,4235.384512,4226.666563,4194.871692,4231.794768,4221.538358
8,0,4214.358871,4203.589641,4203.07682,4196.410154,4217.435794,4210.256307,4213.33323,4216.922974,4215.897333,4233.84605,4231.794768,4202.564,4297.435792,4213.846051
9,0,4203.07682,4204.102461,4204.102461,4176.410154,4233.33323,4218.461435,4214.871692,4213.846051,4206.666564,4232.307589,4229.230666,4202.051179,4358.461432,4192.82041
10,0,4191.794769,4194.871692,4198.461436,4167.692206,4233.84605,4216.922974,4214.358871,4214.871692,4203.589641,4226.666563,4203.589641,4186.666564,4372.820406,4166.153744
11,0,4166.153744,4187.692205,4190.256308,4164.102462,4217.948615,4215.897333,4216.410153,4221.025538,4203.589641,4212.82041,4198.974256,4183.076821,4376.92297,4156.410155
12,0,4138.974258,4184.615282,4186.666564,4144.102463,4218.461435,4219.999897,4221.025538,4229.230666,4205.128102,4199.999897,4214.871692,4178.461436,4382.563995,4157.435796
13,0,4134.358873,4181.538359,4179.487077,4138.974258,4232.820409,4222.051179,4221.538358,4233.33323,4223.07682,4216.410153,4213.33323,4161.025539,4379.487072,4141.02554
14,0,4130.76913,4171.79477,4172.30759,4153.846052,4228.717845,4219.487076,4219.999897,4236.922973,4237.948614,4240.512717,4204.102461,4153.333232,4381.538354,4123.076822
15,0,4112.307592,4164.615283,4169.230667,4158.461437,4215.897333,4216.922974,4220.512717,4230.769127,4220.512717,4221.538358,4194.871692,4156.410155,4385.128098,4112.820412
16,0,4103.076823,4168.205026,4168.717847,4158.974257,4211.281948,4215.897333,4219.999897,4219.999897,4204.615282,4198.974256,4184.615282,4154.358873,4385.640918,4099.9999
17,0,4109.230669,4172.820411,4171.281949,4169.230667,4215.384512,4217.435794,4222.051179,4224.102461,4214.871692,4225.128102,4193.333231,4152.307591,4396.410149,4102.051182
18,0,4107.692207,4171.79477,4171.281949,4183.076821,4227.179384,4217.435794,4220.512717,4232.307589,4222.051179,4249.743486,4207.692205,4155.384514,4406.666559,4109.230669
19,0,4102.051182,4173.846052,4170.256308,4189.230667,4239.487076,4216.922974,4218.974256,4228.717845,4218.461435,4234.358871,4203.589641,4156.410155,4409.230661,4104.102464
20,0,4106.666566,4177.435795,4176.410154,4187.692205,4243.076819,4223.07682,4227.179384,4232.307589,4219.999897,4223.07682,4201.025538,4161.53836,4412.307584,4107.692207
21,0,4108.205028,4177.435795,4186.153744,4194.871692,4231.794768,4228.717845,4231.281948,4234.358871,4215.897333,4233.33323,4205.128102,4171.79477,4411.281943,4111.794771
22,0,4098.974259,4175.897334,4184.615282,4179.999898,4216.410153,4225.640922,4223.58964,4223.58964,4206.666564,4236.410153,4201.538359,4174.871693,4407.179379,4094.871695
23,0,4093.333233,4168.717847,4173.846052,4099.9999,4224.102461,4218.461435,4217.435794,4218.974256,4209.743487,4229.743486,4198.461436,4162.05118,4404.102456,4091.281951
24,0,4095.897336,4158.974257,4164.615283,4017.435799,4244.10246,4218.974256,4218.461435,4223.58964,4217.435794,4223.58964,4198.974256,4148.717847,4396.410149,4097.948618
25,0,4086.666567,4151.28195,4154.358873,3996.922979,4239.999896,4219.999897,4217.948615,4217.948615,4213.846051,4216.410153,4186.666564,4136.922976,4383.589636,4088.205028
26,0,4072.820413,4142.564001,4143.076822,4001.025543,4230.256307,4215.897333,4213.33323,4206.153743,4203.07682,4205.640923,4172.30759,4122.564002,4378.974252,4081.025541
27,0,4069.74349,4137.948617,4139.487078,3996.410159,4235.384512,4211.281948,4207.179384,4203.589641,4196.922974,4193.333231,4167.179385,4126.153745,4378.974252,4076.410157
28,0,4066.153747,4141.53836,4147.179386,3996.922979,4225.640922,4207.179384,4201.025538,4207.179384,4201.025538,4197.435795,4166.153744,4139.487078,4377.43579,4061.538362
29,0,4066.666567,4143.076822,4152.820411,4004.102466,4213.33323,4207.692205,4202.564,4209.743487,4204.102461,4215.897333,4171.79477,4137.948617,4386.153739,4069.23067
30,0,4077.435798,4144.102463,4150.256309,4020.512722,4233.33323,4212.307589,4204.102461,4208.717846,4198.974256,4222.563999,4183.589641,4132.820412,4397.43579,4102.564002
31,0,4077.948618,4150.769129,4148.205027,4041.025542,4251.281947,4215.384512,4202.564,4210.256307,4202.564,4213.846051,4184.615282,4136.922976,4396.922969,4105.128105
32,0,4072.307593,4153.333232,4153.846052,4048.205029,4249.230665,4216.410153,4205.640923,4217.435794,4214.871692,4212.307589,4179.999898,4143.589642,4396.922969,4087.692208
33,0,4084.615285,4152.820411,4156.922975,4052.820414,4245.128101,4217.948615,4215.897333,4222.563999,4221.025538,4218.974256,4183.589641,4154.871693,4403.589636,4096.410156
34,0,4096.922977,4158.461437,4153.846052,4066.666567,4238.974255,4220.512717,4222.051179,4221.538358,4216.410153,4221.538358,4188.205026,4164.102462,4401.538354,4107.179387
35,0,4080.512721,4154.358873,4154.358873,4075.897336,4229.230666,4218.461435,4218.461435,4216.410153,4210.769128,4212.307589,4187.179385,4153.333232,4388.717841,4094.871695
36,0,4062.051183,4139.487078,4153.846052,4074.358875,4227.692204,4215.897333,4214.871692,4212.82041,4209.230666,4198.461436,4182.564,4140.512719,4378.974252,4093.333233
37,0,4069.74349,4137.948617,4141.53836,4077.948618,4230.256307,4215.897333,4215.384512,4213.33323,4202.051179,4197.948615,4176.410154,4138.461437,4376.410149,4107.692207
38,0,4077.435798,4149.743488,4138.461437,4088.205028,4230.256307,4216.922974,4216.922974,4214.358871,4197.948615,4208.717846,4177.948616,4138.461437,4379.487072,4107.179387
39,0,4076.410157,4154.871693,4151.28195,4091.281951,4236.410153,4217.948615,4217.948615,4216.410153,4207.179384,4216.922974,4187.179385,4141.53836,4386.153739,4103.076823
40,0,4083.076823,4153.846052,4154.871693,4095.897336,4235.897332,4218.974256,4218.974256,4217.435794,4217.948615,4223.07682,4189.743487,4149.743488,4389.743482,4107.692207
41,0,4091.794772,4154.871693,4152.820411,4104.102464,4219.999897,4214.871692,4217.948615,4218.461435,4218.461435,4224.102461,4190.256308,4154.871693,4387.17938,4112.820412
42,0,4092.307592,4156.410155,4158.974257,4111.281951,4212.82041,4211.794769,4214.871692,4222.563999,4217.948615,4216.922974,4198.974256,4154.358873,4384.102457,4122.564002
43,0,4091.281951,4157.435796,4161.025539,4120.51272,4229.743486,4217.948615,4214.358871,4224.102461,4221.025538,4214.358871,4200.512718,4154.871693,4381.025534,4132.307591
44,0,4090.769131,4155.384514,4154.871693,4134.871694,4232.820409,4219.487076,4213.846051,4217.948615,4218.974256,4220.512717,4184.615282,4153.333232,4369.743483,4115.897335
45,0,4094.358874,4152.307591,4155.384514,4150.256309,4216.922974,4215.384512,4211.281948,4214.358871,4214.358871,4225.128102,4173.846052,4151.28195,4356.41015,4094.358874
46,0,4104.615284,4162.05118,4166.666565,4172.30759,4225.128102,4224.102461,4215.897333,4222.051179,4219.487076,4228.717845,4185.128103,4159.487078,4362.051175,4117.435797
47,0,4106.666566,4172.30759,4177.435795,4194.358872,4241.538358,4230.256307,4224.615281,4232.307589,4229.230666,4237.948614,4201.538359,4172.820411,4373.846047,4143.076822
48,0,4103.589643,4165.128103,4173.333231,4212.307589,4225.640922,4219.999897,4223.58964,4231.281948,4228.717845,4237.948614,4206.666564,4171.79477,4369.743483,4122.051181
49,0,4106.153746,4154.358873,4161.025539,4228.717845,4201.538359,4215.384512,4218.461435,4221.538358,4217.435794,4219.999897,4196.410154,4158.974257,4361.025534,4103.076823
50,0,4105.640925,4155.897334,4153.333232,4226.153743,4207.692205,4218.461435,4214.358871,4214.871692,4211.281948,4212.307589,4184.102462,4150.769129,4360.512714,4117.435797
51,0,4104.615284,4163.076821,4155.897334,4215.897333,4211.281948,4214.871692,4212.82041,4215.897333,4214.358871,4225.640922,4190.769128,4150.769129,4365.128098,4133.846053
52,0,4115.384515,4167.692206,4168.205026,4225.640922,4201.025538,4217.948615,4222.563999,4223.07682,4216.410153,4225.640922,4208.717846,4159.999898,4372.307585,4145.128104
53,0,4133.333232,4178.461436,4184.615282,4241.025537,4216.410153,4231.794768,4233.84605,4230.256307,4217.435794,4222.051179,4216.922974,4177.948616,4380.512713,4157.435796
54,0,4137.435796,4183.076821,4192.30759,4237.948614,4237.948614,4235.897332,4232.820409,4232.307589,4224.102461,4241.025537,4217.435794,4187.692205,4383.589636,4163.076821
55,0,4123.076822,4173.846052,4189.230667,4232.820409,4222.051179,4229.743486,4228.717845,4231.794768,4227.692204,4246.666563,4217.435794,4183.076821,4376.92297,4152.307591
56,0,4121.02554,4173.846052,4191.794769,4242.051178,4210.256307,4232.820409,4232.307589,4234.358871,4226.153743,4231.281948,4215.384512,4182.05118,4369.743483,4135.897335
57,0,4146.666565,4185.128103,4201.538359,4252.307588,4237.435794,4240.512717,4236.922973,4237.435794,4229.230666,4234.871691,4215.384512,4186.666564,4374.358867,4149.230668
58,0,4158.974257,4181.025539,4199.999897,4249.743486,4239.999896,4237.435794,4235.897332,4235.384512,4231.794768,4246.153742,4218.461435,4186.153744,4375.384508,4178.461436
59,0,4138.974258,4168.717847,4196.410154,4245.640922,4214.871692,4230.256307,4231.281948,4236.922973,4233.33323,4243.076819,4217.435794,4192.82041,4364.102457,4175.384513
60,0,4134.358873,4176.922975,4207.179384,4253.84605,4219.999897,4233.33323,4231.281948,4244.10246,4237.948614,4243.58964,4216.410153,4209.230666,4360.512714,4163.589642
61,0,4152.820411,4187.179385,4213.33323,4263.076819,4230.256307,4237.948614,4233.84605,4249.743486,4239.487076,4248.717845,4225.128102,4208.717846,4366.66656,4173.333231
62,0,4152.307591,4180.512718,4204.102461,4261.025537,4214.871692,4235.384512,4232.307589,4245.640922,4233.84605,4245.128101,4230.256307,4195.384513,4364.615278,4172.820411
63,0,4141.53836,4176.410154,4199.487077,4259.487075,4213.846051,4232.820409,4230.256307,4237.948614,4233.84605,4243.58964,4225.640922,4194.358872,4362.051175,4167.692206
64,0,4142.051181,4181.538359,4201.538359,4262.563998,4230.256307,4233.84605,4232.307589,4235.897332,4233.84605,4245.640922,4226.666563,4195.384513,4366.153739,4175.384513
65,0,4147.692206,4182.564,4197.435795,4264.10246,4224.102461,4234.871691,4234.358871,4236.922973,4230.769127,4247.692204,4231.794768,4192.30759,4369.230662,4180.512718
66,0,4158.461437,4182.564,4197.435795,4264.61528,4213.33323,4232.307589,4229.230666,4231.794768,4227.179384,4244.10246,4229.743486,4195.384513,4369.743483,4185.128103
67,0,4172.30759,4185.128103,4206.153743,4264.61528,4221.025538,4228.205025,4225.640922,4226.153743,4218.461435,4235.384512,4224.102461,4198.461436,4369.230662,4190.256308
68,0,4186.666564,4181.025539,4213.33323,4262.563998,4225.640922,4230.256307,4229.743486,4230.256307,4214.871692,4233.84605,4228.205025,4203.589641,4372.820406,4200.512718
69,0,4238.974255,4202.051179,4224.615281,4270.256306,4217.435794,4229.230666,4225.640922,4230.769127,4218.461435,4237.948614,4239.999896,4224.615281,4386.666559,4249.230665
70,0,4337.948612,4250.256306,4247.179383,4288.205023,4213.846051,4219.487076,4216.410153,4223.07682,4214.358871,4230.256307,4252.820409,4245.128101,4401.025533,4329.230663
71,0,4426.666558,4278.461434,4270.769126,4304.615279,4222.051179,4215.384512,4216.410153,4217.948615,4204.102461,4221.538358,4258.974255,4257.948614,4406.666559,4389.743482
72,0,4491.281941,4290.256305,4293.846049,4318.461433,4230.256307,4219.487076,4219.487076,4216.922974,4200.512718,4222.563999,4264.61528,4275.384511,4416.922969,4446.666558
73,0,4551.79476,4305.1281,4310.256305,4329.230663,4223.58964,4218.974256,4218.461435,4214.871692,4199.487077,4212.307589,4274.35887,4298.461433,4428.20502,4518.461428
74,0,4590.769119,4305.64092,4315.89733,4330.256304,4214.871692,4215.384512,4213.846051,4212.82041,4196.410154,4204.615282,4279.999895,4312.820407,4436.410148,4557.435786
75,0,4604.615272,4303.076818,4319.999894,4329.743484,4218.974256,4217.435794,4205.640923,4213.33323,4199.487077,4220.512717,4279.999895,4306.153741,4444.102455,4564.102452
76,0,4611.281939,4306.153741,4321.538356,4331.281945,4221.025538,4215.384512,4201.538359,4216.410153,4206.153743,4228.717845,4274.35887,4288.205023,4432.820404,4566.666555
77,0,4601.538349,4291.794767,4312.307587,4326.666561,4214.358871,4207.179384,4202.051179,4213.846051,4197.948615,4215.897333,4264.61528,4287.692203,4416.410148,4552.820401
78,0,4582.05117,4277.948613,4309.230664,4322.051176,4209.230666,4200.512718,4198.461436,4205.640923,4182.564,4206.666564,4261.538357,4297.948613,4420.512712,4539.487068
79,0,4572.307581,4282.563998,4313.846048,4320.512715,4204.102461,4200.512718,4198.974256,4207.692205,4186.153744,4201.538359,4265.640921,4293.846049,4420.512712,4548.717837
80,0,4551.79476,4272.307588,4303.589638,4312.307587,4199.487077,4205.640923,4209.743487,4216.410153,4197.435795,4195.897333,4266.666562,4288.205023,4408.717841,4533.846043
81,0,4516.922966,4249.230665,4291.794767,4302.051177,4203.589641,4211.281948,4216.410153,4214.358871,4194.358872,4205.640923,4264.10246,4290.769126,4410.769123,4485.640916
82,0,4493.333223,4245.640922,4296.922972,4302.051177,4204.102461,4215.384512,4215.384512,4212.82041,4194.358872,4214.871692,4263.589639,4285.1281,4414.871687,4457.948609
83,0,4473.846044,4246.666563,4294.87169,4304.615279,4198.974256,4215.384512,4215.384512,4219.999897,4207.179384,4213.33323,4266.153742,4273.333229,4408.717841,4458.461429
84,0,4438.97425,4236.410153,4281.538357,4298.974254,4208.205025,4215.897333,4217.435794,4219.999897,4205.640923,4214.358871,4261.025537,4263.076819,4394.871687,4432.307584
85,0,4411.281943,4224.615281,4275.897331,4292.820408,4219.999897,4217.948615,4215.384512,4214.871692,4199.487077,4218.974256,4249.743486,4254.871691,4376.410149,4370.256303
86,0,4397.43579,4218.461435,4271.281947,4285.1281,4217.435794,4219.487076,4214.358871,4222.051179,4209.230666,4223.07682,4249.230665,4258.974255,4374.358867,4338.974253
87,0,4372.307585,4214.871692,4263.589639,4278.974254,4215.897333,4217.948615,4215.897333,4232.820409,4219.487076,4224.102461,4253.84605,4264.10246,4383.589636,4341.025535
88,0,4339.487073,4207.692205,4259.487075,4276.410152,4222.563999,4216.410153,4215.384512,4232.820409,4226.153743,4232.820409,4250.769127,4245.640922,4371.794765,4313.333228
89,0,4319.999894,4198.461436,4248.205024,4272.307588,4221.538358,4218.461435,4215.897333,4229.743486,4230.256307,4239.999896,4244.10246,4225.128102,4354.358868,4270.769126
90,0,4307.692202,4195.897333,4233.33323,4272.307588,4215.384512,4219.999897,4218.974256,4230.256307,4218.974256,4238.974255,4247.692204,4227.692204,4356.92297,4268.205024
91,0,4282.563998,4202.564,4234.871691,4274.87169,4216.922974,4218.974256,4221.538358,4230.769127,4206.666564,4228.205025,4254.35887,4237.435794,4356.92297,4264.61528
92,0,4250.769127,4202.051179,4236.410153,4266.666562,4218.974256,4218.974256,4221.538358,4230.769127,4212.82041,4212.82041,4239.999896,4223.58964,4338.461432,4220.512717
93,0,4229.230666,4191.794769,4222.051179,4257.435793,4215.897333,4220.512717,4219.487076,4227.179384,4214.871692,4216.410153,4212.82041,4201.538359,4318.461433,4185.640923
94,0,4212.307589,4187.179385,4212.82041,4261.025537,4210.769128,4219.487076,4216.410153,4220.512717,4209.230666,4228.717845,4211.794769,4196.922974,4311.281946,4179.487077
95,0,4202.051179,4194.871692,4217.435794,4263.589639,4213.846051,4217.435794,4214.358871,4219.487076,4216.410153,4233.33323,4235.897332,4203.07682,4312.820407,4190.769128
96,0,4197.435795,4199.487077,4222.563999,4261.025537,4221.538358,4216.922974,4212.307589,4218.461435,4214.358871,4227.692204,4237.948614,4208.205025,4313.846048,4201.025538
97,0,4188.717846,4189.743487,4217.435794,4261.025537,4217.948615,4217.435794,4211.281948,4214.358871,4202.564,4219.999897,4225.128102,4205.640923,4311.794766,4177.948616
98,0,4173.846052,4182.564,4206.153743,4255.384511,4211.281948,4221.025538,4215.897333,4220.512717,4209.743487,4222.051179,4224.102461,4201.025538,4305.1281,4142.564001
99,0,4160.512719,4184.615282,4198.461436,4251.281947,4219.999897,4226.153743,4218.461435,4231.794768,4225.640922,4236.922973,4220.512717,4199.999897,4297.435792,4152.820411
100,0,4154.871693,4187.179385,4200.512718,4255.384511,4237.435794,4233.33323,4217.435794,4235.897332,4234.871691,4242.051178,4217.948615,4199.487077,4295.897331,4178.461436
101,0,4151.79477,4183.076821,4199.999897,4254.871691,4235.384512,4231.794768,4217.435794,4236.410153,4237.435794,4235.384512,4220.512717,4195.384513,4290.256305,4150.256309
102,0,4141.53836,4172.30759,4186.666564,4247.179383,4215.897333,4219.999897,4216.410153,4230.769127,4219.999897,4233.33323,4206.666564,4188.205026,4268.717844,4108.717848
103,0,4133.846053,4165.640924,4182.05118,4245.640922,4216.410153,4221.025538,4216.410153,4224.615281,4199.487077,4225.640922,4193.333231,4181.025539,4260.512716,4123.076822
104,0,4137.435796,4170.769129,4191.281949,4249.743486,4228.205025,4231.281948,4219.999897,4226.666563,4207.692205,4217.435794,4207.179384,4180.512718,4273.333229,4154.871693
105,0,4131.28195,4172.30759,4190.256308,4248.205024,4216.922974,4222.563999,4213.846051,4223.58964,4211.281948,4217.948615,4214.871692,4184.102462,4271.281947,4142.564001
106,0,4123.076822,4167.179385,4187.179385,4246.666563,4217.435794,4214.358871,4206.153743,4213.846051,4197.948615,4215.384512,4206.153743,4184.615282,4262.563998,4129.743489
107,0,4135.897335,4169.230667,4193.846051,4250.256306,4233.33323,4223.58964,4212.82041,4214.358871,4202.564,4210.769128,4210.769128,4186.153744,4265.640921,4148.717847
108,0,4138.974258,4167.179385,4192.82041,4249.230665,4224.102461,4223.58964,4216.922974,4222.051179,4213.846051,4215.384512,4210.769128,4185.640923,4260.512716,4143.076822
109,0,4125.128104,4156.922975,4186.153744,4246.666563,4218.974256,4221.538358,4214.871692,4226.666563,4214.871692,4227.179384,4198.461436,4187.179385,4252.307588,4126.666566
110,0,4127.692207,4158.974257,4194.358872,4248.717845,4230.769127,4233.33323,4225.640922,4237.435794,4225.128102,4236.922973,4203.589641,4199.487077,4262.563998,4144.615283
111,0,4134.358873,4166.666565,4203.589641,4250.769127,4221.025538,4237.435794,4233.33323,4246.666563,4235.384512,4236.410153,4216.922974,4202.564,4269.743485,4150.769129
112,0,4128.205027,4167.179385,4201.538359,4249.743486,4215.897333,4232.820409,4223.07682,4241.538358,4233.33323,4229.230666,4216.410153,4188.205026,4263.589639,4134.871694
113,0,4130.76913,4167.692206,4199.999897,4249.230665,4234.358871,4233.84605,4216.922974,4232.820409,4229.230666,4232.307589,4210.769128,4183.589641,4266.153742,4145.128104
114,0,4132.307591,4164.615283,4194.358872,4246.666563,4227.179384,4233.84605,4218.974256,4232.307589,4224.102461,4236.922973,4207.179384,4188.717846,4267.179383,4155.384514
115,0,4123.589643,4154.358873,4184.615282,4243.58964,4211.794769,4227.692204,4216.410153,4232.820409,4214.871692,4222.563999,4200.512718,4182.05118,4253.84605,4139.487078
116,0,4127.692207,4152.307591,4190.769128,4245.128101,4220.512717,4227.179384,4216.922974,4233.84605,4212.82041,4207.692205,4197.948615,4183.589641,4250.256306,4133.846053
117,0,4140.512719,4157.435796,4201.538359,4247.692204,4216.922974,4229.230666,4222.563999,4244.10246,4225.640922,4226.153743,4210.769128,4198.974256,4259.999896,4149.230668
118,0,4137.948617,4158.461437,4200.512718,4248.717845,4206.666564,4229.230666,4223.07682,4250.256306,4235.897332,4248.205024,4217.948615,4198.461436,4260.512716,4155.897334
119,0,4133.846053,4160.512719,4198.461436,4249.230665,4222.051179,4230.769127,4221.538358,4240.512717,4225.640922,4238.461435,4209.743487,4190.256308,4255.897332,4152.820411
120,0,4137.948617,4158.974257,4201.025538,4249.230665,4235.384512,4234.358871,4223.58964,4227.692204,4212.307589,4222.563999,4206.153743,4194.871692,4259.487075,4152.820411
121,0,4135.384514,4157.435796,4200.512718,4249.230665,4232.820409,4235.897332,4227.692204,4229.743486,4219.999897,4225.640922,4211.794769,4201.538359,4259.487075,4149.743488
122,0,4137.435796,4164.102462,4203.07682,4249.743486,4229.743486,4235.897332,4230.256307,4243.58964,4234.358871,4236.922973,4216.410153,4202.564,4258.461434,4157.948616
123,0,4146.153745,4162.564001,4200.512718,4245.128101,4222.051179,4235.384512,4229.743486,4250.769127,4234.358871,4242.563999,4221.538358,4201.025538,4264.10246,4175.897334
124,0,4135.384514,4145.640924,4189.230667,4238.974255,4214.871692,4232.307589,4228.717845,4247.692204,4228.717845,4236.922973,4214.358871,4192.82041,4246.153742,4161.53836
125,0,4118.974258,4139.999899,4190.769128,4243.076819,4221.025538,4230.256307,4229.230666,4246.153742,4229.230666,4225.128102,4202.564,4189.230667,4228.717845,4133.846053
126,0,4122.564002,4152.820411,4198.974256,4247.179383,4228.205025,4232.307589,4229.743486,4250.256306,4235.384512,4233.84605,4214.871692,4197.948615,4256.410152,4147.692206
127,0,4125.640925,4159.999898,4192.30759,4241.025537,4231.281948,4233.84605,4230.769127,4251.281947,4234.358871,4251.794768,4226.153743,4193.846051,4278.461434,4166.153744
128,0,4101.538361,4150.769129,4178.461436,4233.33323,4232.307589,4231.794768,4233.33323,4239.999896,4230.769127,4245.640922,4210.256307,4180.512718,4255.384511,4145.128104
0,0,4078.974259,4141.53836,4177.948616,4229.743486,4224.615281,4229.230666,4229.743486,4233.84605,4229.230666,4231.281948,4204.615282,4180.512718,4243.076819,4124.102463
1,0,4084.615285,4143.076822,4185.128103,4231.281948,4222.563999,4231.281948,4224.102461,4238.974255,4225.640922,4232.820409,4217.435794,4190.769128,4256.922973,4123.589643
2,0,4091.794772,4142.564001,4184.102462,4232.307589,4230.769127,4233.33323,4224.102461,4239.487076,4219.487076,4236.410153,4215.897333,4187.692205,4255.384511,4124.102463
3,0,4085.640926,4136.922976,4177.948616,4229.743486,4230.769127,4233.84605,4223.07682,4230.769127,4218.461435,4231.281948,4203.07682,4170.769129,4244.10246,4121.538361
4,0,4086.153746,4143.076822,4185.128103,4231.281948,4233.84605,4235.897332,4218.974256,4230.769127,4218.974256,4226.666563,4200.512718,4168.717847,4245.640922,4124.615284
5,0,4094.871695,4148.717847,4189.743487,4235.897332,4230.256307,4235.384512,4216.922974,4229.743486,4217.435794,4218.974256,4201.025538,4179.999898,4245.640922,4119.999899
6,0,4092.820413,4141.53836,4176.922975,4235.897332,4216.410153,4231.281948,4214.358871,4219.487076,4218.461435,4217.948615,4198.461436,4175.384513,4236.410153,4103.589643
7,0,4087.692208,4143.589642,4175.384513,4234.358871,4225.128102,4231.794768,4216.410153,4218.974256,4217.948615,4231.794768,4201.025538,4165.640924,4233.84605,4112.820412
8,0,4095.897336,4154.871693,4183.076821,4236.410153,4237.435794,4234.358871,4223.07682,4228.205025,4218.461435,4231.794768,4203.589641,4167.692206,4241.538358,4136.922976
9,0,4105.640925,4154.358873,4178.974257,4236.922973,4229.743486,4234.358871,4230.256307,4234.871691,4231.281948,4221.025538,4203.589641,4169.230667,4248.205024,4136.410155
10,0,4106.153746,4150.256309,4176.922975,4235.897332,4231.794768,4234.358871,4232.307589,4236.922973,4235.384512,4229.230666,4211.794769,4167.179385,4248.205024,4131.28195
11,0,4103.076823,4153.333232,4182.564,4233.33323,4231.281948,4230.769127,4225.640922,4235.384512,4219.487076,4240.512717,4216.922974,4166.153744,4239.487076,4134.871694
12,0,4113.333233,4153.846052,4183.076821,4231.281948,4215.897333,4228.717845,4222.563999,4237.948614,4219.487076,4235.384512,4214.358871,4167.179385,4233.84605,4139.999899
13,0,4132.307591,4154.871693,4184.102462,4229.230666,4222.563999,4231.281948,4231.281948,4249.230665,4235.384512,4232.307589,4218.461435,4171.79477,4245.128101,4151.28195
14,0,4134.871694,4157.948616,4189.230667,4223.07682,4226.153743,4227.692204,4232.820409,4250.769127,4226.666563,4233.33323,4223.07682,4173.846052,4250.256306,4153.846052
15,0,4122.564002,4154.358873,4188.205026,4213.33323,4208.205025,4217.435794,4218.461435,4235.384512,4210.769128,4229.743486,4215.384512,4168.205026,4234.358871,4138.974258
16,0,4121.02554,4156.410155,4186.666564,4205.640923,4223.07682,4218.974256,4210.769128,4229.230666,4223.58964,4226.153743,4211.794769,4173.846052,4234.358871,4136.410155
17,0,4136.922976,4168.717847,4186.666564,4197.435795,4249.230665,4230.256307,4217.948615,4235.384512,4236.922973,4227.179384,4219.487076,4185.640923,4249.230665,4146.153745
18,0,4150.256309,4172.820411,4184.102462,4186.153744,4240.512717,4229.743486,4218.974256,4233.84605,4225.640922,4229.743486,4218.974256,4177.948616,4242.051178,4150.769129
19,0,4147.179386,4164.102462,4182.05118,4181.025539,4223.58964,4220.512717,4215.384512,4228.717845,4213.33323,4232.307589,4208.717846,4163.589642,4226.666563,4153.846052
20,0,4144.102463,4159.487078,4185.640923,4181.538359,4222.563999,4218.974256,4216.922974,4229.743486,4214.358871,4230.256307,4206.666564,4165.128103,4230.256307,4153.846052
21,0,4149.230668,4154.358873,4187.692205,4181.025539,4223.58964,4221.538358,4219.487076,4238.461435,4224.615281,4229.230666,4214.871692,4174.871693,4233.33323,4151.28195
22,0,4155.897334,4151.28195,4187.179385,4181.025539,4221.025538,4219.487076,4222.563999,4243.58964,4230.769127,4232.307589,4217.435794,4180.512718,4229.230666,4145.128104
23,0,4167.692206,4154.358873,4192.30759,4186.666564,4219.999897,4217.948615,4228.717845,4242.563999,4230.256307,4234.871691,4218.461435,4186.666564,4235.897332,4149.230668
24,0,4174.358872,4139.999899,4190.769128,4183.589641,4210.256307,4218.974256,4230.256307,4245.128101,4233.33323,4235.384512,4226.153743,4188.205026,4242.051178,4166.153744
25,0,4181.025539,4130.76913,4184.102462,4176.410154,4204.102461,4218.461435,4221.538358,4244.10246,4230.769127,4229.743486,4227.692204,4185.640923,4235.897332,4174.358872
26,0,4208.205025,4161.025539,4196.410154,4188.205026,4217.435794,4215.384512,4214.358871,4233.84605,4215.897333,4222.563999,4216.922974,4185.128103,4230.769127,4176.410154
27,0,4250.769127,4191.281949,4215.384512,4202.051179,4229.230666,4214.871692,4215.897333,4223.58964,4209.743487,4212.82041,4213.846051,4188.205026,4238.974255,4199.487077
28,0,4285.640921,4193.846051,4219.487076,4204.102461,4224.615281,4215.897333,4214.358871,4222.051179,4212.82041,4205.640923,4225.640922,4197.435795,4254.871691,4239.487076
29,0,4319.487074,4202.564,4226.153743,4208.205025,4212.307589,4213.33323,4210.769128,4225.640922,4213.33323,4217.435794,4236.410153,4213.846051,4269.743485,4275.384511
30,0,4366.66656,4221.538358,4247.692204,4218.461435,4210.256307,4210.769128,4214.358871,4237.435794,4225.128102,4236.410153,4251.794768,4234.358871,4286.153741,4310.769125
31,0,4417.435789,4231.794768,4261.538357,4223.58964,4218.461435,4214.358871,4220.512717,4245.128101,4235.384512,4241.538358,4267.179383,4254.35887,4303.076818,4352.307586
32,0,4463.076814,4242.051178,4262.051178,4226.153743,4217.435794,4214.871692,4216.410153,4238.974255,4223.58964,4231.281948,4266.153742,4263.076819,4311.794766,4401.025533
33,0,4504.615274,4249.743486,4267.179383,4227.692204,4203.589641,4206.153743,4205.128102,4229.743486,4211.794769,4222.051179,4264.61528,4264.10246,4312.820407,4452.820404
34,0,4547.179376,4250.769127,4281.025536,4228.717845,4205.640923,4199.487077,4199.487077,4222.051179,4212.307589,4219.487076,4273.846049,4271.794767,4310.769125,4490.769121
35,0,4588.717837,4259.487075,4296.410151,4241.025537,4208.205025,4197.948615,4201.025538,4217.948615,4207.179384,4219.487076,4279.487075,4286.153741,4308.717843,4519.999889
36,0,4609.230657,4267.692203,4309.743484,4258.461434,4192.30759,4197.435795,4203.07682,4217.435794,4193.846051,4206.666564,4279.999895,4300.512715,4312.307587,4544.102453
37,0,4611.794759,4266.666562,4313.333228,4265.128101,4196.922974,4198.974256,4203.589641,4215.897333,4187.692205,4192.30759,4280.512716,4309.230664,4314.358869,4547.692196
38,0,4611.281939,4265.128101,4310.256305,4266.153742,4218.461435,4197.435795,4201.025538,4212.307589,4191.794769,4203.589641,4276.410152,4308.717843,4309.743484,4538.974248
39,0,4611.281939,4268.717844,4317.435792,4268.205024,4220.512717,4200.512718,4199.999897,4212.307589,4200.512718,4220.512717,4284.102459,4309.743484,4314.871689,4550.769119
40,0,4608.205016,4264.61528,4325.128099,4267.692203,4207.179384,4208.205025,4205.640923,4216.410153,4204.615282,4220.512717,4297.435792,4314.358869,4326.666561,4565.128093
41,0,4593.846042,4255.897332,4318.974253,4267.179383,4203.07682,4209.743487,4214.358871,4225.640922,4202.051179,4212.82041,4289.230664,4304.102459,4321.538356,4547.692196
42,0,4563.589632,4251.281947,4308.205023,4262.563998,4204.102461,4208.205025,4216.922974,4232.307589,4202.564,4213.33323,4274.87169,4284.61528,4304.615279,4512.307582
43,0,4522.051171,4237.948614,4299.487074,4250.256306,4199.487077,4209.230666,4214.871692,4232.307589,4209.743487,4223.58964,4277.435793,4277.948613,4297.948613,4477.948608
44,0,4490.769121,4221.025538,4291.794767,4243.076819,4205.640923,4211.281948,4216.410153,4238.974255,4224.615281,4232.820409,4288.205023,4283.076818,4298.974254,4449.23066
45,0,4464.102455,4217.435794,4282.563998,4240.512717,4221.025538,4215.897333,4219.999897,4250.256306,4232.307589,4238.461435,4285.1281,4283.076818,4288.205023,4422.051174
46,0,4426.153738,4212.82041,4269.743485,4230.256307,4212.307589,4218.461435,4219.487076,4246.153742,4223.07682,4232.820409,4267.692203,4266.153742,4265.128101,4374.871688
47,0,4388.717841,4201.025538,4262.563998,4227.692204,4195.384513,4213.33323,4215.897333,4234.358871,4213.33323,4217.435794,4253.84605,4251.281947,4249.743486,4321.025535
48,0,4355.897329,4196.410154,4261.025537,4235.897332,4214.871692,4215.897333,4217.948615,4232.307589,4212.82041,4210.256307,4251.794768,4248.717845,4248.717845,4303.076818
49,0,4329.743484,4192.30759,4250.769127,4233.84605,4228.717845,4221.025538,4217.948615,4226.153743,4212.307589,4219.487076,4246.153742,4235.384512,4242.563999,4303.589638
50,0,4309.743484,4182.05118,4237.435794,4229.230666,4203.589641,4212.82041,4206.153743,4212.82041,4208.205025,4221.025538,4233.84605,4213.846051,4229.230666,4273.333229
51,0,4289.230664,4182.564,4234.871691,4232.307589,4189.743487,4210.769128,4203.07682,4215.897333,4210.256307,4213.33323,4230.256307,4211.281948,4227.179384,4237.435794
52,0,4264.61528,4184.102462,4230.256307,4225.128102,4208.205025,4216.922974,4215.384512,4231.281948,4215.384512,4222.051179,4235.384512,4218.974256,4228.717845,4224.102461
53,0,4245.128101,4171.79477,4218.974256,4210.256307,4222.563999,4215.897333,4221.025538,4238.461435,4213.846051,4229.230666,4234.358871,4214.358871,4221.538358,4205.128102
54,0,4235.897332,4166.666565,4219.999897,4211.794769,4213.846051,4211.794769,4218.461435,4245.128101,4216.410153,4220.512717,4229.743486,4205.128102,4211.281948,4191.794769
55,0,4228.717845,4169.230667,4225.640922,4207.179384,4198.974256,4213.846051,4219.999897,4249.230665,4224.102461,4217.435794,4229.743486,4198.974256,4208.205025,4199.999897
56,0,4213.846051,4161.025539,4212.307589,4174.871693,4198.974256,4215.897333,4219.487076,4240.512717,4221.025538,4216.410153,4225.640922,4189.743487,4201.025538,4187.692205
57,0,4193.846051,4151.28195,4196.922974,4162.564001,4210.256307,4215.384512,4215.384512,4237.948614,4214.358871,4213.33323,4215.897333,4182.05118,4189.743487,4158.461437
58,0,4185.128103,4156.410155,4204.102461,4185.640923,4222.051179,4218.974256,4218.461435,4248.205024,4223.07682,4223.58964,4211.281948,4185.128103,4185.128103,4147.179386
59,0,4187.179385,4164.102462,4219.999897,4198.974256,4216.410153,4220.512717,4221.538358,4246.666563,4230.769127,4238.461435,4214.871692,4190.769128,4186.666564,4139.999899
60,0,4183.076821,4159.487078,4218.461435,4188.205026,4201.025538,4213.846051,4217.435794,4235.384512,4223.58964,4234.358871,4218.974256,4187.179385,4188.717846,4133.333232
61,0,4169.230667,4152.820411,4204.615282,4186.666564,4203.589641,4208.717846,4213.846051,4231.794768,4215.384512,4219.999897,4212.82041,4184.102462,4184.615282,4138.461437
62,0,4156.410155,4150.769129,4194.871692,4194.358872,4213.846051,4213.33323,4214.358871,4231.794768,4212.307589,4213.846051,4201.025538,4181.025539,4181.538359,4135.384514
63,0,4153.333232,4152.307591,4199.999897,4193.333231,4208.205025,4217.948615,4217.948615,4231.281948,4217.948615,4216.410153,4201.538359,4175.897334,4184.615282,4127.179386
64,0,4151.79477,4151.79477,4199.999897,4187.692205,4196.922974,4214.871692,4216.922974,4232.307589,4221.538358,4221.025538,4204.615282,4171.79477,4179.487077,4123.589643
65,0,4149.743488,4148.717847,4189.230667,4186.666564,4206.666564,4213.846051,4214.358871,4229.743486,4208.205025,4216.410153,4199.999897,4171.281949,4172.30759,4121.02554
66,0,4153.333232,4155.384514,4191.281949,4188.205026,4221.538358,4218.461435,4216.410153,4228.717845,4205.128102,4208.717846,4207.692205,4175.897334,4181.025539,4132.307591
67,0,4153.846052,4164.102462,4197.435795,4186.153744,4214.358871,4220.512717,4218.461435,4232.820409,4220.512717,4216.410153,4215.384512,4176.922975,4185.128103,4137.435796
68,0,4149.230668,4163.589642,4189.230667,4185.128103,4208.205025,4218.974256,4218.461435,4233.84605,4225.640922,4231.281948,4206.666564,4169.230667,4172.820411,4125.640925
69,0,4152.307591,4161.025539,4183.589641,4186.153744,4211.794769,4217.435794,4219.999897,4233.84605,4221.538358,4230.256307,4205.128102,4171.281949,4176.410154,4127.692207
70,0,4154.358873,4164.102462,4189.230667,4184.102462,4207.692205,4215.897333,4218.974256,4234.871691,4220.512717,4220.512717,4207.692205,4181.025539,4184.102462,4135.897335
71,0,4151.28195,4167.692206,4193.846051,4184.615282,4204.102461,4214.871692,4215.897333,4233.84605,4219.999897,4226.666563,4205.640923,4183.076821,4176.922975,4129.743489
72,0,4160.512719,4171.79477,4198.974256,4193.846051,4213.33323,4214.871692,4215.897333,4233.33323,4219.999897,4231.794768,4207.692205,4188.717846,4181.025539,4135.384514
73,0,4171.281949,4174.358872,4207.179384,4203.589641,4219.487076,4217.435794,4216.922974,4232.820409,4217.948615,4219.487076,4206.153743,4195.384513,4186.666564,4149.743488
74,0,4160.512719,4172.30759,4198.461436,4196.922974,4214.358871,4218.461435,4215.384512,4229.230666,4210.256307,4211.794769,4197.948615,4184.102462,4173.333231,4134.871694
75,0,4142.564001,4163.589642,4187.179385,4182.05118,4195.384513,4211.794769,4213.846051,4228.205025,4213.846051,4216.410153,4200.512718,4171.281949,4162.05118,4114.871694
76,0,4144.615283,4162.05118,4191.281949,4186.666564,4186.666564,4208.717846,4214.871692,4238.974255,4227.692204,4221.025538,4210.769128,4178.461436,4169.743488,4132.820412
77,0,4158.974257,4171.79477,4196.410154,4197.948615,4211.281948,4216.410153,4218.974256,4247.692204,4237.435794,4219.999897,4217.948615,4185.128103,4181.538359,4163.076821
78,0,4155.897334,4172.820411,4187.179385,4190.256308,4225.128102,4219.999897,4221.025538,4241.538358,4230.769127,4216.922974,4215.384512,4174.358872,4177.948616,4158.461437
79,0,4139.999899,4163.589642,4176.922975,4179.487077,4201.025538,4215.897333,4217.948615,4229.230666,4214.358871,4215.384512,4198.461436,4168.205026,4161.025539,4128.717848
80,0,4139.999899,4163.589642,4177.948616,4183.076821,4192.30759,4217.948615,4216.922974,4226.666563,4211.794769,4210.769128,4190.769128,4173.333231,4155.897334,4122.051181
81,0,4158.461437,4171.79477,4183.589641,4189.743487,4210.256307,4221.025538,4219.999897,4228.717845,4216.410153,4202.051179,4199.999897,4173.846052,4169.743488,4136.410155
82,0,4153.846052,4177.435795,4185.128103,4186.666564,4210.256307,4211.281948,4218.974256,4227.179384,4207.692205,4208.205025,4202.051179,4171.79477,4171.281949,4145.640924
83,0,4144.102463,4182.05118,4185.128103,4185.128103,4195.384513,4204.615282,4215.384512,4226.666563,4197.948615,4214.871692,4204.615282,4179.999898,4166.666565,4157.435796
84,0,4170.769129,4189.743487,4192.30759,4194.358872,4196.410154,4211.281948,4215.897333,4228.205025,4204.102461,4202.564,4219.487076,4187.692205,4178.461436,4178.461436
85,0,4186.666564,4188.205026,4195.897333,4199.999897,4214.871692,4218.974256,4216.410153,4229.743486,4215.897333,4201.025538,4220.512717,4184.102462,4173.846052,4171.281949
86,0,4162.564001,4182.564,4193.846051,4191.794769,4218.461435,4219.487076,4218.461435,4233.33323,4225.640922,4224.615281,4213.33323,4183.589641,4158.461437,4146.153745
87,0,4152.307591,4188.205026,4196.922974,4185.128103,4201.538359,4217.435794,4215.897333,4236.410153,4232.307589,4237.948614,4222.051179,4191.794769,4173.333231,4155.384514
88,0,4163.076821,4201.538359,4197.435795,4194.358872,4207.692205,4214.358871,4205.640923,4235.897332,4233.33323,4232.307589,4228.717845,4193.846051,4193.333231,4175.384513
89,0,4157.435796,4205.640923,4190.769128,4200.512718,4230.256307,4214.358871,4205.640923,4234.871691,4231.281948,4232.307589,4221.538358,4187.692205,4187.179385,4165.640924
90,0,4132.820412,4190.769128,4178.974257,4191.281949,4221.025538,4217.948615,4214.871692,4228.205025,4220.512717,4225.128102,4207.179384,4177.948616,4172.820411,4138.974258
91,0,4106.666566,4173.333231,4169.230667,4177.948616,4204.615282,4218.461435,4215.384512,4217.435794,4206.153743,4206.666564,4190.256308,4169.743488,4159.999898,4110.76913
92,0,4101.025541,4174.358872,4167.179385,4170.256308,4213.846051,4216.410153,4210.256307,4212.82041,4198.461436,4194.358872,4182.564,4164.102462,4149.743488,4102.564002
93,0,4117.948617,4183.589641,4172.30759,4170.769129,4209.743487,4215.897333,4211.794769,4216.410153,4197.435795,4193.333231,4184.615282,4166.666565,4156.922975,4115.897335
94,0,4122.564002,4183.076821,4177.948616,4176.922975,4194.871692,4215.384512,4214.358871,4222.051179,4201.538359,4208.205025,4189.230667,4178.974257,4165.128103,4123.589643
95,0,4124.615284,4184.615282,4187.179385,4185.128103,4208.205025,4216.922974,4216.410153,4229.743486,4213.33323,4228.717845,4204.615282,4183.589641,4168.717847,4135.384514
96,0,4138.974258,4193.333231,4187.179385,4186.153744,4219.999897,4215.384512,4216.922974,4229.743486,4216.922974,4225.640922,4218.974256,4173.333231,4174.358872,4159.487078
97,0,4139.487078,4195.384513,4176.922975,4181.025539,4216.410153,4212.307589,4213.846051,4222.051179,4209.743487,4208.717846,4213.846051,4170.769129,4177.435795,4159.999898
98,0,4135.384514,4200.512718,4182.05118,4185.128103,4213.33323,4214.871692,4212.82041,4224.615281,4214.358871,4215.897333,4212.82041,4183.076821,4182.564,4146.153745
99,0,4140.512719,4205.640923,4190.256308,4189.743487,4206.153743,4216.922974,4211.281948,4234.358871,4225.640922,4229.230666,4218.461435,4187.179385,4187.179385,4146.666565
100,0,4138.461437,4202.051179,4182.564,4179.487077,4213.33323,4214.871692,4211.281948,4232.307589,4228.205025,4225.128102,4211.281948,4181.538359,4185.640923,4155.384514
101,0,4134.871694,4201.538359,4179.487077,4169.230667,4225.640922,4214.871692,4214.871692,4229.230666,4229.743486,4220.512717,4212.307589,4181.025539,4186.153744,4170.769129
102,0,4140.512719,4204.615282,4195.384513,4170.769129,4220.512717,4218.461435,4219.999897,4240.512717,4231.281948,4225.640922,4225.128102,4193.333231,4188.717846,4170.769129
103,0,4139.999899,4203.07682,4201.025538,4174.358872,4213.33323,4218.461435,4223.07682,4246.153742,4231.281948,4233.33323,4223.58964,4207.179384,4184.102462,4151.79477
104,0,4141.53836,4198.974256,4189.230667,4172.30759,4213.33323,4216.922974,4219.999897,4236.410153,4230.256307,4235.384512,4211.281948,4197.948615,4181.538359,4154.871693
105,0,4149.230668,4197.948615,4184.102462,4170.769129,4210.769128,4216.922974,4216.410153,4229.230666,4221.025538,4223.58964,4212.82041,4179.487077,4181.025539,4176.922975
106,0,4145.640924,4199.487077,4187.179385,4176.410154,4209.230666,4216.410153,4216.922974,4229.230666,4212.82041,4215.384512,4214.871692,4178.974257,4174.871693,4174.871693
107,0,4134.871694,4200.512718,4185.640923,4184.102462,4203.589641,4211.794769,4216.922974,4229.230666,4214.358871,4212.82041,4203.07682,4187.692205,4171.281949,4156.922975
108,0,4135.897335,4199.487077,4184.615282,4184.102462,4200.512718,4209.230666,4214.358871,4225.640922,4212.82041,4203.589641,4199.487077,4188.717846,4174.358872,4159.487078
109,0,4142.564001,4200.512718,4188.717846,4178.974257,4221.025538,4215.384512,4215.897333,4226.153743,4207.692205,4207.692205,4206.666564,4185.128103,4171.79477,4171.79477
110,0,4139.999899,4198.461436,4189.230667,4178.974257,4220.512717,4218.461435,4217.948615,4229.743486,4211.794769,4219.487076,4206.666564,4181.538359,4167.179385,4166.153744
111,0,4133.333232,4195.384513,4186.153744,4182.05118,4196.922974,4215.384512,4216.410153,4232.820409,4220.512717,4216.922974,4205.128102,4183.589641,4176.922975,4159.487078
112,0,4126.666566,4197.435795,4184.615282,4183.589641,4204.615282,4216.410153,4218.461435,4234.871691,4228.205025,4220.512717,4208.717846,4188.717846,4188.205026,4161.025539
113,0,4124.615284,4198.974256,4184.102462,4183.076821,4219.999897,4218.974256,4219.487076,4235.897332,4233.33323,4232.820409,4210.256307,4188.205026,4181.538359,4155.384514
114,0,4131.28195,4196.410154,4185.128103,4183.589641,4217.948615,4217.435794,4218.461435,4237.435794,4228.205025,4226.153743,4206.666564,4187.692205,4171.79477,4155.897334
115,0,4127.179386,4197.435795,4184.102462,4179.999898,4211.794769,4214.358871,4212.82041,4230.769127,4215.384512,4208.205025,4202.564,4179.487077,4171.281949,4169.230667
116,0,4121.02554,4199.487077,4183.076821,4169.743488,4204.615282,4211.794769,4206.153743,4218.974256,4209.230666,4202.564,4197.435795,4171.79477,4170.769129,4164.615283
117,0,4131.794771,4198.974256,4183.589641,4167.692206,4206.666564,4212.82041,4209.230666,4220.512717,4214.358871,4204.102461,4197.948615,4183.076821,4175.897334,4158.974257
118,0,4144.615283,4201.025538,4186.666564,4174.871693,4217.948615,4215.384512,4214.358871,4230.769127,4220.512717,4216.922974,4203.589641,4188.205026,4192.82041,4170.769129
119,0,4147.179386,4205.128102,4187.179385,4180.512718,4217.948615,4215.384512,4214.358871,4232.820409,4222.563999,4230.256307,4205.128102,4182.564,4201.538359,4171.79477
120,0,4152.307591,4206.666564,4186.153744,4182.05118,4215.384512,4216.410153,4215.384512,4231.281948,4220.512717,4225.640922,4203.07682,4192.30759,4201.025538,4165.128103
121,0,4155.384514,4204.615282,4188.717846,4184.102462,4218.974256,4218.461435,4217.948615,4233.84605,4215.897333,4215.384512,4200.512718,4198.461436,4203.07682,4172.820411
122,0,4147.179386,4200.512718,4194.358872,4183.589641,4201.538359,4216.922974,4216.922974,4233.84605,4215.384512,4214.358871,4198.974256,4191.794769,4203.589641,4175.897334
123,0,4140.512719,4200.512718,4197.948615,4183.589641,4192.30759,4216.922974,4216.922974,4231.281948,4216.410153,4215.384512,4200.512718,4187.692205,4198.461436,4177.435795
124,0,4148.205027,4204.102461,4196.410154,4187.179385,4223.58964,4219.487076,4217.435794,4232.307589,4216.410153,4214.358871,4203.07682,4181.025539,4201.025538,4190.256308
125,0,4154.358873,4204.102461,4191.281949,4187.179385,4244.615281,4218.974256,4214.871692,4232.820409,4215.897333,4209.743487,4198.461436,4173.333231,4202.564,4185.128103
126,0,4145.640924,4201.025538,4188.205026,4186.153744,4227.179384,4217.948615,4216.410153,4231.794768,4218.461435,4210.256307,4193.846051,4177.948616,4190.256308,4164.615283
127,0,4139.999899,4199.999897,4188.717846,4182.564,4212.82041,4217.948615,4216.410153,4230.769127,4218.974256,4213.846051,4194.358872,4183.076821,4186.666564,4163.589642
128,0,4150.256309,4201.025538,4189.230667,4175.384513,4221.025538,4218.461435,4214.358871,4230.769127,4216.922974,4218.461435,4197.435795,4183.076821,4199.999897,4178.461436
0,0,4154.358873,4201.538359,4188.205026,4176.410154,4222.563999,4218.461435,4216.922974,4232.820409,4218.974256,4223.58964,4203.07682,4182.05118,4205.128102,4187.692205
1,0,4148.205027,4201.025538,4191.794769,4183.076821,4210.769128,4214.358871,4217.435794,4232.307589,4219.999897,4225.640922,4203.07682,4179.487077,4198.974256,4183.589641
2,0,4154.871693,4204.102461,4198.974256,4189.230667,4221.025538,4219.999897,4218.461435,4232.307589,4216.922974,4218.461435,4199.999897,4189.230667,4199.487077,4181.025539
3,0,4162.564001,4208.717846,4202.051179,4194.871692,4234.358871,4229.743486,4223.07682,4233.33323,4221.025538,4213.846051,4204.102461,4198.461436,4201.538359,4190.769128
4,0,4157.435796,4210.256307,4199.999897,4192.30759,4217.948615,4223.07682,4218.461435,4234.871691,4231.281948,4223.07682,4209.230666,4190.256308,4198.461436,4196.922974
5,0,4158.461437,4212.307589,4198.461436,4186.666564,4209.230666,4217.948615,4214.358871,4236.410153,4234.358871,4231.794768,4205.128102,4193.846051,4202.051179,4192.82041
6,0,4170.256308,4218.461435,4199.999897,4192.30759,4221.025538,4227.692204,4224.102461,4243.58964,4232.820409,4234.358871,4206.666564,4213.33323,4214.358871,4207.692205
7,0,4175.384513,4217.948615,4202.051179,4201.538359,4221.538358,4228.717845,4227.179384,4250.256306,4237.435794,4236.922973,4217.435794,4216.410153,4219.999897,4225.128102
8,0,4166.153744,4206.153743,4200.512718,4193.846051,4215.384512,4214.871692,4215.384512,4241.538358,4233.84605,4230.769127,4218.461435,4202.051179,4210.256307,4206.666564
9,0,4154.871693,4198.974256,4198.461436,4176.922975,4224.102461,4213.846051,4211.794769,4227.692204,4218.461435,4221.538358,4206.666564,4194.358872,4198.974256,4178.461436
10,0,4151.28195,4198.461436,4198.461436,4171.281949,4231.281948,4227.179384,4216.410153,4226.153743,4212.82041,4210.256307,4198.461436,4192.82041,4190.769128,4178.461436
11,0,4163.076821,4199.999897,4199.999897,4182.05118,4233.33323,4232.307589,4218.461435,4230.769127,4215.897333,4201.025538,4201.025538,4190.256308,4191.794769,4204.615282
12,0,4177.435795,4203.07682,4200.512718,4187.692205,4229.743486,4223.58964,4216.410153,4228.205025,4216.922974,4207.692205,4203.589641,4194.358872,4202.564,4223.58964
13,0,4177.948616,4205.640923,4200.512718,4184.102462,4213.846051,4216.410153,4214.358871,4229.743486,4222.051179,4221.538358,4200.512718,4202.051179,4201.538359,4202.564
14,0,4171.281949,4205.640923,4203.07682,4188.205026,4212.307589,4220.512717,4217.435794,4239.487076,4227.692204,4219.487076,4197.435795,4201.025538,4188.205026,4177.948616
15,0,4165.128103,4196.410154,4203.589641,4190.769128,4216.410153,4219.487076,4219.999897,4236.922973,4221.025538,4211.794769,4197.435795,4192.30759,4185.640923,4191.281949
16,0,4162.564001,4186.153744,4200.512718,4182.564,4207.179384,4212.82041,4214.358871,4219.999897,4210.256307,4215.897333,4196.922974,4189.230667,4187.692205,4206.153743
17,0,4165.128103,4190.256308,4197.948615,4180.512718,4204.615282,4213.33323,4210.769128,4219.487076,4212.82041,4213.846051,4199.999897,4194.871692,4184.102462,4205.128102
18,0,4178.461436,4201.538359,4200.512718,4185.128103,4216.410153,4217.435794,4216.410153,4240.512717,4229.230666,4212.82041,4208.205025,4206.153743,4189.230667,4210.769128
19,0,4187.179385,4208.205025,4208.205025,4191.281949,4227.179384,4225.640922,4225.640922,4249.743486,4242.051178,4231.281948,4218.974256,4213.846051,4201.025538,4213.33323
20,0,4187.179385,4214.871692,4217.948615,4198.974256,4233.84605,4232.307589,4231.794768,4245.128101,4236.410153,4241.538358,4221.538358,4211.794769,4204.615282,4221.538358
21,0,4192.30759,4219.487076,4221.538358,4203.07682,4232.820409,4232.820409,4232.820409,4247.692204,4230.769127,4235.897332,4219.487076,4212.307589,4205.128102,4240.512717
22,0,4198.974256,4217.435794,4216.922974,4200.512718,4216.410153,4228.717845,4226.666563,4247.692204,4233.33323,4229.743486,4224.102461,4219.487076,4203.589641,4226.153743
23,0,4193.333231,4216.410153,4213.846051,4200.512718,4212.82041,4221.538358,4218.461435,4234.358871,4229.230666,4231.794768,4228.205025,4216.410153,4198.974256,4208.205025
24,0,4183.589641,4217.435794,4214.358871,4206.153743,4228.717845,4216.410153,4212.82041,4225.640922,4221.025538,4231.281948,4225.640922,4202.051179,4199.999897,4229.743486
25,0,4187.179385,4215.897333,4214.871692,4206.666564,4231.281948,4216.922974,4212.307589,4231.281948,4219.487076,4215.897333,4219.999897,4198.461436,4199.487077,4233.84605
26,0,4190.256308,4213.846051,4213.33323,4202.051179,4217.948615,4222.051179,4215.897333,4229.743486,4216.922974,4208.717846,4212.307589,4201.538359,4189.743487,4210.769128
27,0,4186.153744,4207.179384,4211.281948,4205.640923,4210.769128,4221.538358,4214.358871,4221.538358,4211.794769,4223.07682,4207.692205,4201.538359,4183.589641,4211.794769
28,0,4185.128103,4203.07682,4213.33323,4215.384512,4224.615281,4225.128102,4213.33323,4227.692204,4219.999897,4238.461435,4212.307589,4208.205025,4187.179385,4231.794768
29,0,4186.666564,4203.589641,4219.487076,4214.871692,4230.256307,4233.33323,4223.07682,4245.128101,4234.871691,4236.410153,4219.999897,4218.974256,4189.230667,4231.794768
30,0,4183.589641,4201.538359,4217.948615,4205.128102,4221.538358,4229.230666,4230.769127,4250.769127,4236.922973,4230.769127,4217.948615,4216.410153,4182.05118,4216.410153
31,0,4181.538359,4198.461436,4204.615282,4199.999897,4212.82041,4216.410153,4221.538358,4247.179383,4230.769127,4223.58964,4214.358871,4197.948615,4173.333231,4210.769128
32,0,4184.615282,4197.435795,4197.435795,4207.692205,4199.487077,4213.846051,4213.33323,4243.58964,4226.666563,4208.717846,4212.307589,4186.153744,4169.743488,4224.615281
33,0,4188.205026,4204.615282,4209.230666,4219.487076,4205.128102,4221.025538,4218.461435,4239.487076,4228.205025,4207.179384,4212.307589,4199.487077,4172.30759,4236.922973
34,0,4188.205026,4209.743487,4216.410153,4220.512717,4223.58964,4219.487076,4218.461435,4233.84605,4226.153743,4216.922974,4213.33323,4213.33323,4177.948616,4228.205025
35,0,4188.205026,4205.640923,4208.717846,4217.435794,4223.07682,4217.435794,4218.461435,4234.358871,4219.999897,4221.025538,4216.922974,4208.205025,4183.589641,4223.07682
36,0,4193.333231,4207.179384,4202.564,4218.461435,4214.358871,4222.563999,4224.615281,4238.461435,4216.922974,4219.999897,4216.410153,4204.102461,4185.128103,4226.153743
37,0,4199.999897,4212.307589,4202.051179,4217.948615,4219.999897,4221.025538,4221.538358,4237.948614,4218.974256,4217.948615,4206.153743,4204.615282,4177.948616,4222.051179
38,0,4201.538359,4214.358871,4208.205025,4223.07682,4222.051179,4217.435794,4214.871692,4229.743486,4216.922974,4215.384512,4204.102461,4199.487077,4178.461436,4228.717845
39,0,4197.435795,4216.410153,4216.410153,4234.358871,4219.487076,4221.025538,4218.461435,4221.025538,4213.33323,4215.897333,4215.384512,4197.435795,4183.076821,4246.666563
40,0,4195.897333,4217.435794,4217.948615,4231.794768,4224.615281,4219.999897,4216.410153,4216.410153,4215.897333,4217.435794,4214.871692,4200.512718,4175.897334,4239.999896
41,0,4203.07682,4213.846051,4212.307589,4215.897333,4213.33323,4212.307589,4206.666564,4216.410153,4215.897333,4205.128102,4205.128102,4200.512718,4169.230667,4222.051179
42,0,4205.640923,4211.794769,4212.82041,4209.743487,4204.615282,4214.358871,4210.256307,4221.025538,4213.33323,4200.512718,4203.07682,4199.487077,4171.281949,4232.307589
43,0,4203.589641,4213.33323,4215.897333,4214.871692,4212.307589,4218.461435,4217.948615,4230.769127,4218.461435,4215.897333,4209.743487,4206.666564,4174.358872,4253.84605
44,0,4216.922974,4217.435794,4218.974256,4217.948615,4213.33323,4215.897333,4218.461435,4241.538358,4229.230666,4224.615281,4222.051179,4216.922974,4182.05118,4265.128101
45,0,4230.256307,4216.922974,4220.512717,4216.922974,4208.717846,4216.922974,4218.974256,4246.666563,4233.84605,4219.487076,4226.153743,4219.999897,4184.615282,4268.717844
46,0,4223.58964,4213.33323,4213.33323,4215.897333,4216.922974,4221.025538,4219.999897,4239.999896,4231.794768,4219.999897,4214.358871,4213.846051,4170.769129,4262.051178
47,0,4233.33323,4224.615281,4212.82041,4223.07682,4225.128102,4221.025538,4217.948615,4234.358871,4229.743486,4220.512717,4209.230666,4213.33323,4168.717847,4262.051178
48,0,4263.076819,4229.230666,4221.538358,4226.153743,4212.307589,4212.307589,4214.871692,4229.230666,4217.948615,4201.025538,4213.846051,4214.871692,4179.487077,4286.666562
49,0,4289.230664,4221.538358,4226.666563,4225.640922,4205.128102,4208.205025,4214.358871,4219.999897,4207.179384,4194.358872,4212.82041,4217.435794,4183.589641,4328.205022
50,0,4337.435791,4243.076819,4236.410153,4237.435794,4213.846051,4214.358871,4210.769128,4215.897333,4208.205025,4210.256307,4217.948615,4233.33323,4195.384513,4381.025534
51,0,4407.6922,4276.922972,4257.435793,4251.794768,4219.487076,4212.307589,4204.615282,4213.846051,4203.589641,4208.717846,4239.487076,4255.384511,4217.435794,4437.948609
52,0,4462.051173,4283.589639,4278.974254,4256.922973,4214.871692,4201.025538,4201.538359,4205.128102,4196.922974,4198.461436,4258.461434,4278.461434,4238.461435,4495.384505
53,0,4500.51271,4287.179382,4290.769126,4262.051178,4197.948615,4197.948615,4200.512718,4203.07682,4200.512718,4203.07682,4266.153742,4296.922972,4250.769127,4541.02553
54,0,4530.256299,4300.512715,4300.512715,4270.769126,4188.205026,4202.051179,4204.102461,4209.743487,4202.564,4202.051179,4271.794767,4309.743484,4252.820409,4557.435786
55,0,4543.589632,4299.487074,4312.820407,4275.384511,4206.153743,4203.07682,4214.358871,4218.461435,4209.743487,4203.07682,4283.076818,4321.025535,4255.897332,4570.256298
56,0,4550.769119,4292.307587,4311.794766,4275.897331,4222.051179,4202.564,4212.307589,4224.615281,4219.487076,4221.538358,4285.640921,4320.512715,4259.999896,4585.128093
57,0,4546.666555,4290.769126,4299.487074,4270.769126,4213.846051,4199.999897,4202.051179,4223.07682,4215.897333,4223.07682,4273.846049,4309.743484,4250.256306,4572.820401
58,0,4528.205017,4291.281946,4295.897331,4265.128101,4214.871692,4199.999897,4199.999897,4217.435794,4207.179384,4203.07682,4266.153742,4306.666561,4237.948614,4551.79476
59,0,4511.794761,4286.153741,4292.820408,4265.128101,4214.871692,4203.07682,4199.999897,4214.358871,4204.102461,4199.999897,4258.974255,4298.461433,4228.717845,4542.051171
60,0,4492.307582,4271.794767,4281.025536,4261.538357,4196.922974,4205.128102,4203.07682,4215.384512,4207.692205,4207.692205,4246.153742,4281.538357,4216.410153,4514.358864
61,0,4463.589634,4261.025537,4278.461434,4258.974255,4193.333231,4205.128102,4215.897333,4217.948615,4216.410153,4196.922974,4246.153742,4277.948613,4212.82041,4473.846044
62,0,4442.051173,4257.948614,4282.051177,4262.051178,4201.538359,4203.07682,4221.025538,4217.948615,4216.410153,4190.769128,4249.743486,4273.333229,4209.230666,4454.358865
63,0,4422.563994,4250.769127,4276.922972,4258.974255,4191.281949,4203.07682,4215.897333,4214.358871,4206.153743,4205.128102,4240.512717,4257.948614,4195.897333,4437.948609
64,0,4399.487072,4244.10246,4276.410152,4249.230665,4184.102462,4203.589641,4217.435794,4216.410153,4201.538359,4209.230666,4233.84605,4264.10246,4196.922974,4411.281943
65,0,4382.563995,4246.153742,4281.025536,4253.333229,4204.102461,4208.205025,4217.948615,4215.384512,4206.666564,4204.102461,4236.410153,4278.461434,4201.538359,4387.6922
66,0,4368.205021,4244.10246,4271.794767,4259.999896,4226.153743,4215.384512,4213.846051,4212.307589,4215.897333,4215.384512,4233.33323,4264.61528,4190.769128,4374.358867
67,0,4351.794765,4235.897332,4262.563998,4255.384511,4231.794768,4218.974256,4215.897333,4221.538358,4220.512717,4221.025538,4232.307589,4247.179383,4184.615282,4362.051175
68,0,4332.307586,4231.281948,4262.051178,4248.717845,4222.051179,4218.461435,4217.948615,4229.230666,4215.384512,4206.153743,4236.410153,4246.153742,4186.666564,4343.589637
69,0,4304.102459,4223.58964,4252.307588,4241.025537,4203.07682,4212.307589,4215.897333,4222.563999,4213.846051,4202.564,4230.769127,4242.563999,4173.333231,4312.307587
70,0,4279.999895,4208.205025,4230.256307,4227.692204,4194.358872,4203.589641,4214.358871,4215.897333,4209.743487,4203.589641,4214.871692,4225.128102,4155.897334,4278.461434
71,0,4267.692203,4202.564,4222.563999,4227.179384,4207.692205,4206.153743,4215.897333,4216.922974,4202.051179,4198.461436,4211.794769,4213.33323,4159.487078,4277.435793
72,0,4268.717844,4212.82041,4237.948614,4237.435794,4221.538358,4218.974256,4217.435794,4218.461435,4207.692205,4207.179384,4224.615281,4223.07682,4171.79477,4299.487074
73,0,4274.35887,4219.999897,4244.615281,4235.897332,4209.743487,4220.512717,4217.435794,4218.461435,4217.435794,4219.999897,4231.281948,4236.922973,4174.871693,4287.692203
74,0,4265.128101,4217.435794,4235.384512,4229.743486,4203.589641,4215.384512,4216.410153,4218.461435,4215.897333,4216.410153,4228.717845,4234.871691,4176.922975,4258.461434
75,0,4249.743486,4216.922974,4234.358871,4240.512717,4214.871692,4219.487076,4215.897333,4218.461435,4212.307589,4210.769128,4232.820409,4229.230666,4178.461436,4262.051178
76,0,4247.179383,4215.897333,4247.179383,4250.769127,4211.281948,4217.435794,4215.384512,4218.461435,4216.922974,4218.974256,4239.999896,4236.922973,4172.820411,4272.307588
77,0,4236.922973,4205.128102,4250.256306,4240.512717,4192.30759,4205.128102,4215.384512,4219.487076,4216.410153,4220.512717,4233.84605,4234.871691,4170.256308,4252.820409
78,0,4213.846051,4195.897333,4237.435794,4229.230666,4192.30759,4205.128102,4216.922974,4222.051179,4211.794769,4214.358871,4218.974256,4219.487076,4168.717847,4231.794768
79,0,4212.82041,4198.461436,4230.769127,4235.897332,4210.769128,4216.922974,4217.948615,4227.179384,4219.487076,4214.358871,4216.410153,4222.563999,4161.53836,4227.179384
80,0,4216.410153,4201.025538,4231.794768,4242.051178,4219.999897,4218.461435,4217.948615,4231.281948,4227.692204,4215.384512,4226.666563,4237.435794,4161.53836,4227.692204
81,0,4200.512718,4194.871692,4228.717845,4233.84605,4219.999897,4213.846051,4216.922974,4232.307589,4227.179384,4222.563999,4227.179384,4231.794768,4165.640924,4226.666563
82,0,4189.230667,4187.692205,4221.538358,4230.256307,4213.846051,4216.922974,4217.948615,4234.358871,4224.102461,4231.281948,4212.82041,4215.897333,4156.410155,4217.435794
83,0,4181.025539,4184.102462,4216.922974,4232.307589,4203.07682,4218.974256,4217.948615,4234.871691,4219.999897,4222.051179,4201.538359,4210.769128,4139.487078,4198.974256
84,0,4175.897334,4184.102462,4214.358871,4224.102461,4198.974256,4217.435794,4217.435794,4232.820409,4215.897333,4210.256307,4207.692205,4207.179384,4135.384514,4195.897333
85,0,4177.948616,4183.589641,4213.33323,4213.846051,4207.692205,4219.487076,4218.974256,4232.307589,4219.487076,4217.948615,4216.410153,4204.102461,4143.589642,4209.230666
86,0,4171.79477,4184.102462,4219.999897,4216.410153,4218.974256,4220.512717,4220.512717,4232.820409,4219.487076,4220.512717,4214.871692,4210.769128,4149.230668,4216.410153
87,0,4164.102462,4190.256308,4228.717845,4219.487076,4214.358871,4219.999897,4221.538358,4231.794768,4217.948615,4212.82041,4216.410153,4217.948615,4150.256309,4208.717846
88,0,4178.974257,4201.538359,4230.769127,4216.410153,4209.230666,4218.461435,4216.410153,4230.769127,4229.743486,4222.563999,4226.666563,4217.435794,4157.948616,4201.538359
89,0,4200.512718,4212.307589,4230.769127,4222.563999,4222.563999,4218.461435,4207.179384,4229.743486,4234.358871,4236.410153,4235.897332,4224.615281,4171.281949,4221.538358
90,0,4206.666564,4218.461435,4235.897332,4233.84605,4243.076819,4222.563999,4208.205025,4230.256307,4227.179384,4235.897332,4242.563999,4238.974255,4174.358872,4249.230665
91,0,4204.102461,4221.025538,4236.922973,4239.487076,4231.794768,4223.58964,4217.435794,4237.948614,4229.743486,4236.922973,4245.640922,4241.538358,4171.79477,4243.58964
92,0,4192.82041,4216.922974,4234.358871,4234.358871,4203.07682,4217.435794,4218.974256,4242.051178,4236.922973,4234.358871,4240.512717,4232.820409,4173.333231,4225.640922
93,0,4172.820411,4208.205025,4232.820409,4222.051179,4203.07682,4212.82041,4216.922974,4236.922973,4229.230666,4218.461435,4229.230666,4224.102461,4166.153744,4217.435794
94,0,4153.846052,4197.435795,4216.410153,4209.743487,4208.717846,4213.33323,4222.563999,4232.820409,4217.435794,4210.769128,4214.358871,4214.358871,4148.717847,4202.564
95,0,4150.256309,4188.205026,4197.435795,4202.051179,4204.615282,4217.435794,4229.230666,4231.794768,4215.384512,4218.461435,4205.128102,4196.410154,4138.461437,4195.897333
96,0,4156.410155,4193.846051,4205.128102,4201.538359,4220.512717,4222.563999,4230.769127,4229.743486,4215.897333,4214.358871,4203.589641,4192.82041,4138.974258,4198.461436
97,0,4149.230668,4198.974256,4217.435794,4205.128102,4235.384512,4223.58964,4224.615281,4228.717845,4211.794769,4205.640923,4201.538359,4202.564,4138.461437,4184.615282
98,0,4139.999899,4188.205026,4204.615282,4203.589641,4214.358871,4216.922974,4216.410153,4229.230666,4210.256307,4203.589641,4198.461436,4197.435795,4135.384514,4183.589641
99,0,4151.28195,4183.589641,4196.922974,4198.461436,4203.589641,4216.922974,4217.435794,4229.230666,4213.846051,4196.922974,4198.974256,4186.153744,4134.871694,4201.025538
100,0,4165.640924,4199.487077,4211.281948,4209.230666,4223.58964,4226.153743,4219.487076,4230.769127,4217.435794,4203.589641,4205.640923,4197.435795,4137.435796,4196.922974
101,0,4168.205026,4206.153743,4217.435794,4217.948615,4228.717845,4224.615281,4216.922974,4231.794768,4217.948615,4224.102461,4221.025538,4214.871692,4146.153745,4197.435795
102,0,4170.769129,4199.999897,4215.897333,4206.666564,4212.82041,4216.410153,4216.922974,4229.230666,4218.461435,4228.205025,4231.281948,4217.435794,4158.461437,4220.512717
103,0,4179.999898,4208.205025,4224.615281,4202.051179,4212.307589,4221.538358,4214.358871,4226.153743,4223.58964,4225.128102,4229.230666,4224.102461,4166.666565,4233.33323
104,0,4189.743487,4220.512717,4233.84605,4218.974256,4239.999896,4232.820409,4209.230666,4227.179384,4231.794768,4233.84605,4234.358871,4234.871691,4174.358872,4233.33323
105,0,4188.717846,4213.846051,4232.307589,4227.179384,4256.410152,4235.384512,4212.82041,4231.794768,4237.948614,4229.743486,4235.897332,4226.153743,4168.717847,4227.179384
106,0,4174.358872,4198.974256,4223.58964,4204.615282,4237.948614,4230.769127,4216.922974,4231.281948,4231.281948,4214.358871,4223.58964,4209.230666,4156.410155,4216.410153
107,0,4164.102462,4199.487077,4211.794769,4184.102462,4210.256307,4222.563999,4213.33323,4226.666563,4218.461435,4217.435794,4217.435794,4202.051179,4159.487078,4215.897333
108,0,4156.410155,4204.102461,4203.589641,4188.205026,4209.743487,4215.384512,4212.82041,4227.179384,4215.384512,4223.07682,4217.435794,4195.384513,4163.589642,4212.82041
109,0,4135.897335,4192.30759,4197.435795,4190.769128,4223.07682,4217.435794,4214.358871,4230.769127,4218.974256,4218.461435,4209.230666,4183.589641,4148.205027,4186.153744
110,0,4118.974258,4174.871693,4186.666564,4182.564,4227.692204,4218.974256,4212.82041,4229.230666,4216.410153,4212.307589,4196.410154,4182.05118,4134.358873,4156.410155
111,0,4118.974258,4169.743488,4183.076821,4183.589641,4228.205025,4218.974256,4216.922974,4229.230666,4212.82041,4203.07682,4189.230667,4184.102462,4133.846053,4150.256309
112,0,4119.487079,4168.205026,4186.153744,4189.230667,4211.281948,4217.948615,4212.82041,4227.692204,4215.897333,4196.922974,4183.589641,4174.871693,4127.179386,4157.948616
113,0,4116.410156,4165.640924,4185.640923,4183.589641,4198.461436,4213.33323,4203.589641,4223.07682,4215.384512,4204.615282,4179.999898,4168.205026,4122.564002,4161.025539
114,0,4120.51272,4170.256308,4191.794769,4182.05118,4218.974256,4218.974256,4209.230666,4223.58964,4215.384512,4216.922974,4189.743487,4180.512718,4131.794771,4154.871693
115,0,4129.230668,4179.487077,4203.589641,4190.769128,4242.051178,4231.281948,4218.974256,4228.205025,4226.153743,4219.999897,4208.205025,4195.897333,4143.589642,4156.922975
116,0,4144.102463,4192.30759,4213.846051,4199.487077,4232.307589,4233.33323,4218.461435,4229.230666,4233.84605,4214.871692,4221.025538,4203.589641,4153.333232,4181.538359
117,0,4164.615283,4202.564,4224.102461,4208.717846,4227.179384,4231.281948,4215.897333,4221.538358,4222.563999,4206.153743,4221.025538,4204.615282,4156.410155,4210.769128
118,0,4173.846052,4205.640923,4225.640922,4216.922974,4234.871691,4235.384512,4211.794769,4207.692205,4204.102461,4208.205025,4214.871692,4201.025538,4158.461437,4213.846051
119,0,4172.30759,4210.769128,4220.512717,4220.512717,4221.025538,4231.281948,4199.999897,4195.384513,4198.974256,4216.410153,4210.769128,4202.051179,4164.102462,4190.256308
120,0,4167.179385,4216.410153,4219.487076,4218.974256,4224.615281,4219.999897,4195.897333,4195.897333,4205.640923,4217.948615,4213.33323,4205.640923,4169.743488,4186.666564
121,0,4161.025539,4211.794769,4218.461435,4216.410153,4248.717845,4217.435794,4205.128102,4206.666564,4210.256307,4218.974256,4217.948615,4204.102461,4167.179385,4207.179384
122,0,4154.871693,4201.538359,4217.435794,4217.948615,4249.230665,4217.948615,4215.897333,4215.897333,4206.153743,4218.461435,4214.871692,4200.512718,4159.487078,4202.564
123,0,4147.179386,4193.333231,4213.33323,4217.948615,4227.692204,4214.871692,4218.974256,4222.051179,4198.974256,4207.692205,4206.153743,4196.410154,4149.230668,4171.281949
124,0,4136.922976,4182.05118,4204.102461,4218.974256,4212.307589,4213.33323,4218.974256,4228.205025,4205.640923,4195.384513,4195.897333,4191.794769,4137.435796,4155.384514
125,0,4129.230668,4173.846052,4194.871692,4216.922974,4213.33323,4219.487076,4226.666563,4235.897332,4223.07682,4201.538359,4191.281949,4179.999898,4130.76913,4163.076821
126,0,4131.28195,4172.820411,4188.717846,4210.256307,4220.512717,4229.230666,4234.358871,4237.948614,4228.717845,4216.410153,4195.897333,4168.717847,4129.230668,4173.333231
127,0,4135.897335,4168.717847,4184.615282,4203.07682,4219.487076,4228.205025,4230.256307,4235.897332,4224.102461,4217.435794,4200.512718,4173.846052,4134.358873,4168.717847
128,0,4132.820412,4166.153744,4185.128103,4202.564,4206.666564,4219.999897,4221.025538,4237.435794,4222.051179,4212.307589,4196.922974,4182.564,4136.410155,4152.820411
0,0,4124.102463,4166.153744,4184.102462,4207.692205,4211.281948,4216.410153,4214.358871,4229.230666,4217.435794,4211.281948,4188.205026,4175.384513,4129.230668,4153.333232
1,0,4121.538361,4166.153744,4181.538359,4209.743487,4226.666563,4218.974256,4213.33323,4216.922974,4210.769128,4206.666564,4179.999898,4165.128103,4128.205027,4166.153744
2,0,4128.205027,4165.640924,4187.692205,4211.281948,4224.615281,4218.974256,4211.281948,4215.897333,4215.897333,4198.461436,4184.102462,4169.230667,4136.922976,4173.846052
3,0,4136.922976,4170.256308,4199.999897,4214.358871,4218.461435,4217.948615,4202.564,4219.487076,4222.051179,4197.948615,4197.948615,4186.153744,4141.02554,4172.820411
4,0,4143.589642,4177.435795,4209.230666,4217.435794,4218.974256,4217.435794,4198.974256,4213.846051,4211.794769,4197.435795,4205.640923,4201.538359,4143.589642,4170.769129
5,0,4156.410155,4181.538359,4215.897333,4224.102461,4219.487076,4216.922974,4202.051179,4210.769128,4205.128102,4209.230666,4217.948615,4204.102461,4161.53836,4197.948615
6,0,4183.076821,4194.358872,4227.179384,4235.384512,4216.922974,4217.435794,4198.974256,4212.82041,4214.871692,4228.717845,4236.410153,4211.281948,4187.179385,4246.666563
7,0,4197.435795,4202.051179,4232.820409,4239.999896,4214.358871,4216.410153,4198.461436,4214.871692,4222.051179,4226.153743,4239.999896,4232.307589,4188.717846,4249.743486
8,0,4184.102462,4191.794769,4225.128102,4234.871691,4218.461435,4214.358871,4210.256307,4223.58964,4218.461435,4223.58964,4234.871691,4236.410153,4174.358872,4212.307589
9,0,4166.666565,4183.076821,4213.846051,4228.717845,4222.563999,4214.871692,4219.999897,4235.384512,4220.512717,4231.794768,4231.794768,4222.563999,4166.153744,4198.461436
10,0,4153.333232,4182.05118,4204.615282,4221.538358,4214.358871,4215.897333,4218.461435,4235.897332,4225.640922,4225.128102,4216.922974,4211.794769,4159.487078,4203.589641
11,0,4143.076822,4173.333231,4195.897333,4211.281948,4211.794769,4214.871692,4218.461435,4230.769127,4218.461435,4213.846051,4202.051179,4198.974256,4151.28195,4208.205025
12,0,4141.53836,4165.640924,4187.179385,4203.589641,4225.640922,4214.871692,4221.025538,4230.769127,4211.794769,4210.769128,4203.07682,4183.589641,4146.153745,4203.589641
13,0,4139.999899,4167.179385,4182.05118,4202.564,4225.640922,4216.410153,4219.999897,4231.281948,4214.358871,4206.153743,4198.974256,4181.025539,4139.487078,4175.897334
14,0,4133.333232,4167.179385,4177.435795,4200.512718,4209.230666,4215.897333,4216.410153,4223.58964,4216.922974,4205.640923,4190.769128,4185.640923,4133.846053,4163.076821
15,0,4135.384514,4166.666565,4177.435795,4198.461436,4210.256307,4214.871692,4214.871692,4216.410153,4212.82041,4205.128102,4191.794769,4182.05118,4137.948617,4189.230667
16,0,4144.615283,4168.205026,4186.153744,4206.153743,4214.871692,4216.410153,4215.897333,4218.461435,4214.871692,4192.82041,4198.461436,4180.512718,4144.615283,4204.615282
17,0,4151.79477,4169.230667,4198.974256,4216.922974,4209.230666,4217.435794,4216.410153,4219.487076,4225.640922,4201.025538,4207.692205,4191.281949,4148.205027,4193.846051
18,0,4159.999898,4176.922975,4208.205025,4216.410153,4223.07682,4217.948615,4214.358871,4214.871692,4224.102461,4225.640922,4214.358871,4206.153743,4154.871693,4197.435795
19,0,4175.384513,4188.205026,4216.922974,4222.563999,4237.948614,4222.563999,4212.82041,4211.281948,4213.33323,4230.256307,4220.512717,4217.948615,4166.666565,4219.999897
20,0,4191.281949,4199.999897,4226.666563,4242.563999,4224.102461,4229.230666,4213.33323,4212.82041,4219.999897,4229.230666,4235.897332,4222.051179,4182.05118,4239.487076
21,0,4204.615282,4213.33323,4234.871691,4250.256306,4228.717845,4235.384512,4218.974256,4221.538358,4237.948614,4235.384512,4251.794768,4226.153743,4194.358872,4244.10246
22,0,4212.307589,4222.563999,4243.58964,4252.820409,4252.307588,4231.794768,4214.871692,4224.615281,4237.435794,4235.384512,4254.871691,4237.948614,4201.025538,4250.256306
23,0,4209.743487,4216.922974,4239.487076,4262.563998,4233.33323,4220.512717,4203.589641,4215.384512,4223.58964,4239.487076,4251.281947,4241.538358,4193.333231,4262.563998
24,0,4193.846051,4198.461436,4222.563999,4229.743486,4210.256307,4215.384512,4207.692205,4209.743487,4217.948615,4242.563999,4237.435794,4219.487076,4175.384513,4251.281947
25,0,4171.79477,4182.564,4207.692205,4158.461437,4236.410153,4215.384512,4215.897333,4212.82041,4212.307589,4224.102461,4214.871692,4195.897333,4159.999898,4208.205025
26,0,4162.564001,4180.512718,4202.051179,4155.897334,4258.461434,4216.922974,4217.435794,4221.538358,4214.358871,4209.230666,4208.717846,4197.948615,4152.307591,4193.333231
27,0,4168.717847,4182.564,4200.512718,4190.769128,4236.410153,4224.615281,4224.102461,4234.871691,4227.179384,4221.538358,4216.922974,4204.102461,4154.871693,4217.435794
28,0,4156.922975,4168.717847,4187.179385,4104.615284,4215.384512,4223.58964,4224.615281,4231.794768,4222.051179,4213.33323,4199.487077,4189.230667,4149.230668,4210.769128
29,0,4138.974258,4151.79477,4173.846052,4003.589646,4221.025538,4210.769128,4211.794769,4219.999897,4210.769128,4183.589641,4177.435795,4172.820411,4133.333232,4176.922975
30,0,4153.333232,4161.025539,4183.076821,4067.179388,4234.871691,4211.794769,4211.281948,4226.153743,4222.051179,4194.358872,4189.743487,4178.461436,4138.461437,4179.487077
31,0,4174.871693,4182.05118,4200.512718,4173.846052,4239.487076,4222.563999,4221.025538,4235.897332,4229.743486,4225.128102,4207.179384,4194.358872,4155.897334,4209.230666
32,0,4169.743488,4184.102462,4199.487077,4188.205026,4220.512717,4221.538358,4218.974256,4231.281948,4224.102461,4221.025538,4203.07682,4199.487077,4157.435796,4225.128102
33,0,4172.30759,4182.564,4202.564,4183.076821,4215.384512,4223.58964,4217.435794,4227.692204,4228.717845,4213.33323,4206.153743,4199.999897,4160.512719,4232.820409
34,0,4193.846051,4194.871692,4216.410153,4193.846051,4237.435794,4232.307589,4219.487076,4230.769127,4231.281948,4223.58964,4224.102461,4211.281948,4175.384513,4233.33323
35,0,4205.640923,4205.128102,4226.153743,4205.128102,4245.128101,4231.281948,4216.922974,4231.281948,4233.84605,4225.128102,4231.794768,4230.256307,4185.128103,4232.820409
36,0,4208.717846,4207.179384,4233.84605,4194.871692,4233.84605,4224.102461,4218.461435,4230.256307,4246.153742,4242.051178,4237.948614,4241.538358,4194.871692,4254.35887
37,0,4194.358872,4198.974256,4226.666563,4088.205028,4230.256307,4215.897333,4214.358871,4221.025538,4234.871691,4245.640922,4237.435794,4227.179384,4194.358872,4254.871691
38,0,4167.692206,4177.435795,4202.564,3975.897339,4236.410153,4208.717846,4204.102461,4210.769128,4200.512718,4199.487077,4212.82041,4198.974256,4168.205026,4217.948615
39,0,4160.512719,4166.153744,4192.30759,4019.487081,4239.487076,4208.717846,4206.666564,4212.307589,4194.871692,4187.692205,4195.897333,4191.281949,4151.28195,4196.410154
40,0,4170.256308,4175.384513,4202.051179,4124.102463,4247.692204,4215.897333,4218.461435,4216.922974,4211.794769,4218.461435,4204.102461,4204.102461,4157.435796,4202.564
41,0,4174.358872,4179.487077,4201.538359,4150.769129,4239.999896,4218.461435,4216.922974,4215.897333,4216.922974,4211.794769,4209.230666,4197.948615,4159.487078,4204.102461
42,0,4166.666565,4169.743488,4189.743487,4150.769129,4210.769128,4212.307589,4209.743487,4212.307589,4207.692205,4194.871692,4190.769128,4177.948616,4149.230668,4197.435795
43,0,4163.076821,4173.333231,4195.897333,4183.076821,4210.769128,4216.410153,4215.384512,4216.922974,4212.82041,4216.410153,4187.179385,4186.666564,4152.307591,4197.435795
44,0,4175.897334,4189.230667,4213.33323,4198.974256,4238.461435,4230.769127,4222.051179,4227.179384,4226.153743,4225.128102,4211.281948,4205.128102,4169.743488,4212.307589
45,0,4190.256308,4194.358872,4212.82041,4183.589641,4246.153742,4230.256307,4218.974256,4227.692204,4223.07682,4213.33323,4218.974256,4204.102461,4171.281949,4229.230666
46,0,4186.153744,4187.179385,4205.640923,4186.153744,4226.666563,4216.410153,4214.871692,4219.487076,4215.384512,4214.358871,4205.640923,4202.051179,4155.897334,4226.153743
47,0,4184.102462,4184.102462,4212.307589,4185.640923,4227.692204,4214.871692,4217.948615,4218.461435,4219.999897,4208.717846,4202.051179,4210.256307,4150.769129,4209.743487
48,0,4198.461436,4195.897333,4225.128102,4119.999899,4249.743486,4221.025538,4215.897333,4218.974256,4219.487076,4197.435795,4217.435794,4220.512717,4158.974257,4212.82041
49,0,4194.871692,4196.922974,4228.205025,4062.051183,4245.640922,4214.358871,4204.102461,4207.692205,4210.769128,4204.102461,4227.692204,4223.58964,4159.487078,4228.717845
50,0,4172.30759,4174.358872,4218.461435,4103.589643,4234.358871,4215.384512,4206.666564,4200.512718,4216.410153,4223.07682,4219.487076,4211.281948,4142.051181,4220.512717
51,0,4185.128103,4171.281949,4214.871692,4174.871693,4229.230666,4225.640922,4217.948615,4203.589641,4218.974256,4221.538358,4206.153743,4202.564,4137.435796,4216.410153
52,0,4226.666563,4190.256308,4225.640922,4195.897333,4219.999897,4222.051179,4217.435794,4206.666564,4207.179384,4201.538359,4201.538359,4213.33323,4150.256309,4247.692204
53,0,4241.025537,4195.897333,4227.179384,4197.435795,4215.897333,4216.410153,4215.897333,4211.794769,4207.692205,4197.948615,4198.974256,4217.435794,4144.615283,4268.205024
54,0,4244.10246,4193.333231,4218.974256,4214.358871,4223.07682,4224.615281,4220.512717,4216.922974,4213.33323,4201.538359,4191.281949,4210.769128,4130.256309,4256.922973
55,0,4266.666562,4203.589641,4226.153743,4232.820409,4225.128102,4229.743486,4219.999897,4221.025538,4219.487076,4195.384513,4195.384513,4217.948615,4138.461437,4265.128101
56,0,4268.717844,4207.179384,4232.820409,4236.922973,4211.794769,4227.179384,4218.974256,4228.205025,4233.33323,4207.179384,4210.769128,4224.615281,4145.128104,4287.179382
57,0,4248.717845,4199.999897,4229.230666,4232.307589,4212.307589,4231.281948,4223.58964,4234.358871,4236.410153,4233.33323,4215.897333,4218.974256,4140.512719,4282.051177
58,0,4261.025537,4203.07682,4232.307589,4238.974255,4225.640922,4234.871691,4221.025538,4227.692204,4219.487076,4230.769127,4215.897333,4217.948615,4149.230668,4280.512716
59,0,4282.051177,4209.743487,4235.897332,4246.666563,4235.384512,4231.794768,4214.871692,4218.461435,4213.33323,4209.743487,4222.051179,4222.563999,4151.28195,4293.846049
60,0,4270.769126,4214.871692,4236.922973,4248.205024,4239.487076,4230.256307,4211.794769,4216.410153,4219.999897,4211.794769,4229.230666,4230.769127,4141.02554,4291.794767
61,0,4266.666562,4217.435794,4245.128101,4251.281947,4227.692204,4229.743486,4206.153743,4214.358871,4218.974256,4217.435794,4229.743486,4243.58964,4144.615283,4279.999895
62,0,4281.538357,4218.461435,4250.256306,4250.256306,4223.07682,4230.256307,4202.051179,4207.179384,4215.897333,4212.82041,4228.717845,4251.281947,4155.897334,4290.256305
63,0,4278.461434,4221.025538,4250.769127,4246.153742,4226.153743,4225.128102,4205.128102,4199.999897,4216.410153,4221.538358,4233.33323,4245.640922,4156.922975,4305.64092
64,0,4259.999896,4217.435794,4248.205024,4243.58964,4228.205025,4218.974256,4210.769128,4204.615282,4214.871692,4232.820409,4233.33323,4236.922973,4153.846052,4287.179382
65,0,4254.871691,4207.179384,4238.974255,4229.743486,4231.794768,4222.563999,4214.358871,4215.897333,4215.897333,4228.205025,4228.205025,4231.281948,4153.846052,4266.666562
66,0,4258.974255,4204.615282,4229.743486,4212.82041,4219.487076,4229.230666,4215.897333,4218.461435,4223.07682,4224.102461,4228.717845,4229.743486,4152.820411,4281.025536
67,0,4258.974255,4210.256307,4229.743486,4212.82041,4199.999897,4227.179384,4214.871692,4217.435794,4229.230666,4231.281948,4233.33323,4232.307589,4153.333232,4292.307587
68,0,4258.974255,4213.33323,4232.307589,4224.615281,4222.051179,4226.666563,4215.897333,4225.640922,4235.384512,4233.84605,4235.897332,4232.820409,4159.487078,4275.384511
69,0,4256.410152,4215.384512,4235.384512,4238.461435,4256.410152,4233.33323,4218.461435,4229.743486,4236.922973,4231.794768,4233.84605,4229.230666,4168.205026,4277.435793
70,0,4254.871691,4215.384512,4237.435794,4254.871691,4242.563999,4234.871691,4218.974256,4220.512717,4226.153743,4237.435794,4227.179384,4233.33323,4169.230667,4294.358869
71,0,4257.435793,4208.205025,4226.153743,4251.281947,4223.07682,4230.769127,4216.410153,4213.846051,4215.897333,4230.769127,4219.999897,4228.205025,4159.487078,4279.999895
72,0,4250.769127,4200.512718,4206.153743,4236.922973,4225.128102,4228.205025,4211.794769,4213.33323,4215.384512,4214.358871,4215.384512,4205.640923,4146.666565,4256.922973
