title:JTA                                                                             , recorded:03.07.20 13.26.32, sampling:128, subject:JTA                                                                             , labels:COUNTER INTERPOLATED AF3 F7 F3 FC5 T7 P7 O1 O2 P8 T8 FC6 F4 F8 AF4,, units:emotiv,,,,,,,,,
41,0,4227.179384,4204.615282,4235.384512,4196.922974,4199.487077,4201.538359,4216.410153,4232.820409,4232.820409,4219.487076,4202.051179,4214.871692,4201.025538,4212.307589
42,0,4200.512718,4199.487077,4248.717845,4179.487077,4213.33323,4205.128102,4214.871692,4229.743486,4226.666563,4216.410153,4198.461436,4213.846051,4196.410154,4214.871692
43,0,4198.974256,4199.999897,4250.769127,4182.564,4215.384512,4209.230666,4209.230666,4220.512717,4219.487076,4218.461435,4202.564,4218.974256,4197.948615,4223.07682
44,0,4219.487076,4202.051179,4236.922973,4191.794769,4201.025538,4204.102461,4197.948615,4205.640923,4214.871692,4214.358871,4198.974256,4212.307589,4194.358872,4228.205025
45,0,4208.717846,4202.564,4234.358871,4188.205026,4208.717846,4200.512718,4199.999897,4201.025538,4215.384512,4208.717846,4188.717846,4201.538359,4188.717846,4228.717845
46,0,4176.410154,4193.333231,4232.307589,4183.589641,4213.846051,4202.051179,4204.615282,4200.512718,4213.846051,4210.256307,4187.179385,4209.743487,4185.128103,4205.128102
47,0,4175.384513,4184.102462,4221.025538,4191.281949,4202.051179,4201.538359,4201.025538,4197.435795,4210.769128,4205.128102,4187.179385,4219.487076,4182.564,4174.871693
48,0,4205.128102,4189.743487,4217.435794,4201.538359,4205.128102,4202.051179,4203.589641,4203.589641,4215.384512,4201.538359,4184.102462,4213.846051,4188.717846,4180.512718
49,0,4221.025538,4200.512718,4215.897333,4207.179384,4218.974256,4202.564,4207.179384,4217.435794,4219.999897,4213.33323,4190.256308,4210.769128,4198.974256,4217.948615
50,0,4213.846051,4199.487077,4205.128102,4214.871692,4218.461435,4199.487077,4203.589641,4218.461435,4218.461435,4218.461435,4202.564,4215.897333,4199.487077,4234.871691
51,0,4214.358871,4201.025538,4196.922974,4233.33323,4213.846051,4205.640923,4210.769128,4216.410153,4221.538358,4217.435794,4212.307589,4219.487076,4205.640923,4224.615281
52,0,4222.051179,4210.256307,4195.897333,4250.256306,4221.025538,4215.384512,4222.563999,4226.153743,4227.692204,4229.230666,4214.871692,4221.025538,4216.410153,4238.974255
53,0,4221.025538,4210.256307,4198.974256,4239.999896,4225.640922,4211.281948,4215.384512,4225.128102,4230.769127,4233.84605,4208.717846,4219.999897,4210.256307,4252.307588
54,0,4217.948615,4202.564,4208.717846,4216.922974,4219.999897,4201.025538,4199.999897,4208.205025,4230.256307,4220.512717,4198.974256,4218.461435,4198.974256,4218.461435
55,0,4208.205025,4195.897333,4208.717846,4208.717846,4211.281948,4201.538359,4199.487077,4200.512718,4227.179384,4212.82041,4195.384513,4222.051179,4198.974256,4188.717846
56,0,4195.897333,4196.922974,4211.281948,4207.179384,4212.307589,4211.281948,4208.717846,4203.589641,4219.487076,4218.974256,4202.051179,4218.461435,4205.640923,4198.974256
57,0,4182.05118,4188.717846,4239.999896,4181.025539,4218.974256,4215.384512,4211.794769,4207.692205,4217.435794,4220.512717,4199.487077,4201.538359,4199.999897,4202.051179
58,0,4169.743488,4171.281949,4251.794768,4162.05118,4216.410153,4215.897333,4214.358871,4217.435794,4223.07682,4214.871692,4179.999898,4199.999897,4179.487077,4192.82041
59,0,4186.666564,4177.948616,4216.410153,4185.640923,4214.358871,4215.384512,4224.102461,4226.666563,4222.563999,4211.281948,4170.769129,4212.307589,4170.256308,4206.153743
60,0,4219.487076,4194.358872,4183.076821,4215.384512,4214.358871,4218.974256,4229.230666,4230.769127,4225.128102,4210.769128,4189.230667,4210.256307,4181.538359,4228.205025
61,0,4225.640922,4191.794769,4205.640923,4201.025538,4212.307589,4214.871692,4221.538358,4231.281948,4230.256307,4213.33323,4202.051179,4203.589641,4196.410154,4214.871692
62,0,4215.897333,4190.256308,4250.256306,4164.102462,4214.871692,4202.564,4213.33323,4221.538358,4223.58964,4216.410153,4197.948615,4215.384512,4199.487077,4194.871692
63,0,4214.871692,4203.07682,4252.307588,4169.743488,4215.384512,4206.153743,4218.974256,4217.435794,4222.563999,4219.487076,4205.640923,4231.794768,4199.999897,4216.922974
64,0,4213.846051,4203.589641,4229.230666,4202.564,4211.794769,4219.999897,4225.128102,4231.794768,4241.538358,4232.307589,4220.512717,4230.256307,4211.281948,4241.025537
65,0,4219.999897,4197.948615,4231.281948,4201.025538,4218.461435,4222.051179,4221.538358,4235.384512,4251.281947,4246.153742,4219.487076,4219.487076,4216.922974,4222.051179
66,0,4227.692204,4199.999897,4239.999896,4180.512718,4223.07682,4216.410153,4220.512717,4221.025538,4237.435794,4234.871691,4205.128102,4214.358871,4204.102461,4209.230666
67,0,4223.07682,4199.487077,4231.794768,4180.512718,4207.179384,4216.922974,4229.743486,4215.897333,4234.871691,4217.435794,4195.384513,4212.82041,4195.384513,4228.717845
68,0,4209.743487,4199.487077,4232.820409,4188.717846,4199.487077,4216.410153,4229.230666,4218.974256,4236.922973,4216.922974,4197.948615,4210.769128,4204.615282,4227.179384
69,0,4195.384513,4201.025538,4233.84605,4194.358872,4215.897333,4212.307589,4216.410153,4214.871692,4223.07682,4215.897333,4201.025538,4211.281948,4202.051179,4203.07682
70,0,4208.717846,4203.589641,4216.922974,4210.256307,4225.640922,4212.82041,4219.487076,4215.384512,4216.922974,4218.974256,4199.999897,4215.897333,4198.461436,4202.051179
71,0,4225.640922,4205.640923,4213.33323,4216.922974,4216.410153,4214.358871,4228.717845,4223.58964,4227.179384,4232.307589,4205.640923,4217.435794,4209.230666,4224.615281
72,0,4218.974256,4203.589641,4222.563999,4216.922974,4210.256307,4214.358871,4229.743486,4230.769127,4233.33323,4231.794768,4214.358871,4219.999897,4208.205025,4239.487076
73,0,4223.07682,4203.07682,4221.025538,4221.538358,4215.384512,4215.384512,4230.769127,4234.871691,4231.794768,4225.128102,4213.33323,4222.051179,4202.564,4226.666563
74,0,4233.84605,4203.589641,4223.07682,4211.281948,4219.999897,4215.897333,4230.256307,4231.794768,4228.205025,4224.102461,4202.051179,4218.461435,4198.974256,4202.051179
75,0,4219.999897,4201.538359,4221.025538,4206.153743,4219.999897,4216.410153,4228.717845,4227.692204,4229.230666,4220.512717,4192.30759,4213.33323,4192.30759,4194.871692
76,0,4209.743487,4200.512718,4202.051179,4220.512717,4216.922974,4214.871692,4230.769127,4233.33323,4232.820409,4217.435794,4185.128103,4207.692205,4188.717846,4212.82041
77,0,4213.846051,4196.410154,4204.615282,4209.230666,4211.794769,4212.82041,4231.281948,4231.794768,4224.102461,4214.871692,4183.589641,4199.487077,4190.769128,4225.128102
78,0,4206.153743,4196.922974,4221.538358,4197.435795,4214.871692,4215.897333,4231.794768,4218.974256,4219.487076,4218.461435,4193.846051,4199.487077,4196.410154,4229.743486
79,0,4208.205025,4207.692205,4217.435794,4219.487076,4225.640922,4221.025538,4230.769127,4217.435794,4229.743486,4229.743486,4203.589641,4214.871692,4203.07682,4215.384512
80,0,4218.461435,4212.307589,4219.487076,4211.794769,4226.666563,4217.948615,4221.025538,4215.897333,4229.230666,4231.281948,4201.025538,4222.051179,4203.589641,4194.358872
81,0,4204.102461,4202.051179,4244.615281,4165.640924,4214.871692,4211.794769,4210.256307,4199.999897,4214.871692,4215.897333,4191.281949,4206.153743,4196.410154,4213.33323
82,0,4193.846051,4201.025538,4248.717845,4169.230667,4211.281948,4214.358871,4212.82041,4199.999897,4213.33323,4210.256307,4191.794769,4196.922974,4197.948615,4219.999897
83,0,4210.769128,4209.743487,4217.948615,4215.384512,4214.871692,4216.410153,4223.58964,4216.410153,4223.58964,4221.025538,4199.487077,4208.717846,4203.589641,4188.205026
84,0,4222.563999,4207.179384,4195.897333,4226.666563,4212.307589,4212.82041,4226.153743,4216.410153,4229.743486,4228.205025,4198.461436,4211.794769,4202.051179,4203.07682
85,0,4212.82041,4202.051179,4208.717846,4202.564,4210.769128,4212.307589,4221.538358,4211.281948,4231.281948,4227.692204,4195.384513,4206.666564,4202.564,4245.128101
86,0,4199.487077,4202.564,4228.717845,4193.333231,4215.897333,4213.846051,4223.58964,4216.922974,4229.743486,4221.025538,4197.948615,4211.794769,4202.051179,4225.128102
87,0,4194.871692,4204.615282,4226.666563,4200.512718,4221.025538,4213.846051,4229.230666,4219.487076,4232.820409,4216.922974,4202.564,4210.256307,4199.999897,4203.07682
88,0,4195.384513,4202.051179,4226.666563,4193.333231,4213.846051,4213.33323,4227.179384,4215.897333,4233.84605,4223.58964,4202.051179,4197.948615,4201.025538,4226.153743
89,0,4197.948615,4198.974256,4233.84605,4183.076821,4205.128102,4214.871692,4227.692204,4216.922974,4230.769127,4229.743486,4201.025538,4202.051179,4202.564,4226.153743
90,0,4212.82041,4205.640923,4226.153743,4197.948615,4210.769128,4216.922974,4231.281948,4218.974256,4231.281948,4225.128102,4203.07682,4216.922974,4205.640923,4207.179384
91,0,4236.410153,4214.871692,4221.538358,4217.948615,4219.999897,4218.461435,4224.102461,4216.410153,4231.794768,4215.384512,4202.564,4216.922974,4206.666564,4200.512718
92,0,4233.33323,4213.846051,4229.743486,4217.948615,4213.33323,4216.922974,4217.435794,4215.384512,4228.717845,4218.461435,4203.589641,4212.307589,4202.564,4203.07682
93,0,4198.461436,4202.564,4224.102461,4206.666564,4196.922974,4211.794769,4219.487076,4215.897333,4225.640922,4227.179384,4203.07682,4215.897333,4203.589641,4221.538358
94,0,4193.333231,4199.999897,4197.435795,4218.974256,4201.538359,4216.410153,4227.692204,4216.410153,4231.281948,4230.769127,4205.640923,4220.512717,4214.358871,4242.051178
95,0,4218.974256,4202.564,4184.615282,4239.999896,4222.051179,4227.692204,4233.33323,4213.33323,4232.307589,4232.307589,4208.717846,4216.410153,4222.051179,4230.769127
96,0,4217.948615,4203.589641,4198.461436,4227.692204,4224.102461,4222.563999,4223.07682,4204.615282,4221.025538,4221.538358,4205.640923,4203.589641,4216.410153,4211.794769
97,0,4210.769128,4209.743487,4202.051179,4216.410153,4211.281948,4211.794769,4214.358871,4195.384513,4217.948615,4209.743487,4202.051179,4198.974256,4212.307589,4217.435794
98,0,4231.281948,4218.974256,4187.179385,4243.076819,4214.358871,4217.435794,4223.07682,4202.564,4232.307589,4224.615281,4212.82041,4209.743487,4218.974256,4213.846051
99,0,4243.076819,4219.487076,4187.179385,4257.948614,4215.897333,4224.102461,4230.256307,4217.948615,4238.974255,4245.640922,4224.615281,4215.897333,4228.205025,4204.102461
100,0,4219.999897,4214.871692,4199.999897,4244.10246,4200.512718,4219.487076,4230.256307,4221.538358,4232.307589,4241.025537,4228.205025,4216.922974,4233.33323,4223.58964
101,0,4208.205025,4219.487076,4207.179384,4233.33323,4207.179384,4218.974256,4232.307589,4220.512717,4231.794768,4233.84605,4228.717845,4218.461435,4235.384512,4245.640922
102,0,4227.179384,4222.051179,4227.179384,4221.538358,4227.179384,4222.051179,4227.692204,4219.487076,4234.871691,4233.84605,4216.922974,4208.717846,4234.358871,4233.84605
103,0,4232.820409,4217.948615,4237.435794,4217.948615,4224.102461,4217.435794,4217.435794,4211.794769,4228.205025,4223.58964,4206.153743,4198.461436,4230.769127,4227.692204
104,0,4222.051179,4216.922974,4212.307589,4237.948614,4210.769128,4215.384512,4214.871692,4201.025538,4218.974256,4215.384512,4210.256307,4201.025538,4227.692204,4237.435794
105,0,4215.384512,4219.487076,4201.025538,4247.179383,4214.871692,4221.025538,4220.512717,4198.974256,4215.384512,4220.512717,4210.769128,4204.615282,4222.563999,4223.58964
106,0,4213.33323,4219.487076,4219.999897,4226.666563,4221.025538,4222.051179,4223.07682,4201.538359,4216.410153,4221.538358,4208.205025,4208.205025,4215.897333,4203.589641
107,0,4215.897333,4211.794769,4221.025538,4208.205025,4210.769128,4215.897333,4218.974256,4199.999897,4215.897333,4212.82041,4211.281948,4218.461435,4217.435794,4208.717846
108,0,4222.563999,4206.153743,4204.615282,4222.563999,4203.589641,4214.358871,4218.461435,4203.07682,4221.025538,4219.487076,4217.435794,4218.461435,4230.769127,4227.179384
109,0,4209.230666,4203.07682,4199.999897,4237.435794,4203.589641,4218.461435,4225.640922,4204.615282,4225.128102,4232.307589,4214.871692,4204.102461,4231.794768,4226.153743
110,0,4188.205026,4199.999897,4199.487077,4219.999897,4199.999897,4216.922974,4221.538358,4189.743487,4217.435794,4223.58964,4205.128102,4194.871692,4216.922974,4223.07682
111,0,4209.743487,4208.205025,4204.615282,4214.871692,4210.256307,4215.384512,4215.384512,4188.717846,4219.999897,4219.999897,4205.640923,4202.051179,4217.435794,4213.846051
112,0,4232.307589,4217.435794,4216.410153,4235.897332,4223.58964,4221.025538,4226.666563,4210.769128,4232.820409,4235.897332,4218.461435,4216.410153,4232.820409,4195.897333
113,0,4216.410153,4217.435794,4212.307589,4243.58964,4206.666564,4220.512717,4233.33323,4214.871692,4227.179384,4234.871691,4218.974256,4217.948615,4233.84605,4217.435794
114,0,4211.794769,4211.281948,4206.153743,4233.84605,4193.333231,4214.358871,4221.538358,4198.974256,4214.358871,4216.922974,4203.07682,4208.717846,4223.07682,4244.615281
115,0,4217.948615,4204.102461,4212.82041,4225.640922,4215.384512,4214.358871,4216.922974,4195.897333,4215.897333,4212.307589,4194.358872,4203.07682,4217.948615,4223.58964
116,0,4210.256307,4205.640923,4208.205025,4230.769127,4223.07682,4216.410153,4226.666563,4201.025538,4219.999897,4216.922974,4203.589641,4205.640923,4222.051179,4206.666564
117,0,4218.974256,4216.922974,4198.461436,4237.948614,4213.846051,4215.384512,4226.153743,4202.051179,4218.461435,4224.615281,4217.948615,4206.666564,4229.230666,4225.640922
118,0,4242.051178,4219.487076,4207.692205,4235.897332,4212.82041,4214.871692,4218.974256,4201.538359,4218.461435,4229.230666,4217.948615,4205.640923,4229.743486,4222.563999
119,0,4232.820409,4212.82041,4217.435794,4238.461435,4205.128102,4218.461435,4224.102461,4203.07682,4224.615281,4225.640922,4212.82041,4213.846051,4226.153743,4210.769128
120,0,4214.358871,4219.999897,4216.410153,4245.128101,4205.640923,4225.128102,4233.84605,4209.230666,4232.820409,4226.666563,4217.948615,4216.922974,4231.281948,4229.230666
121,0,4223.58964,4219.999897,4214.358871,4239.487076,4217.435794,4230.256307,4234.871691,4217.948615,4233.33323,4236.922973,4218.461435,4210.769128,4234.871691,4237.948614
122,0,4244.10246,4213.846051,4212.307589,4239.999896,4219.487076,4226.666563,4232.307589,4222.563999,4236.410153,4245.128101,4218.461435,4214.358871,4235.384512,4232.307589
123,0,4245.128101,4224.102461,4216.410153,4246.153742,4221.538358,4226.666563,4232.307589,4224.615281,4247.692204,4243.58964,4226.153743,4222.563999,4237.948614,4232.820409
124,0,4221.025538,4229.230666,4218.461435,4238.461435,4225.640922,4234.358871,4230.769127,4220.512717,4244.615281,4232.820409,4222.051179,4214.871692,4234.358871,4230.769127
125,0,4214.358871,4219.487076,4208.717846,4232.307589,4220.512717,4227.179384,4228.205025,4211.794769,4228.205025,4223.58964,4214.871692,4208.205025,4228.717845,4228.717845
126,0,4228.205025,4216.410153,4198.461436,4236.922973,4215.897333,4215.897333,4228.717845,4211.794769,4228.205025,4229.743486,4222.051179,4216.922974,4232.820409,4226.153743
127,0,4221.538358,4217.435794,4196.410154,4238.461435,4214.871692,4224.615281,4234.358871,4217.948615,4235.384512,4234.871691,4218.974256,4217.435794,4236.410153,4217.948615
128,0,4207.692205,4205.128102,4197.435795,4234.358871,4207.179384,4226.666563,4230.769127,4206.666564,4225.640922,4219.487076,4198.974256,4200.512718,4224.615281,4214.871692
0,0,4211.794769,4202.051179,4197.948615,4228.717845,4199.487077,4211.794769,4214.358871,4189.743487,4209.230666,4204.615282,4190.769128,4190.769128,4211.794769,4214.871692
1,0,4216.410153,4216.922974,4196.922974,4240.512717,4208.205025,4218.461435,4216.410153,4194.358872,4211.281948,4218.461435,4204.102461,4208.717846,4221.538358,4208.717846
2,0,4212.307589,4222.563999,4195.384513,4259.487075,4225.640922,4237.948614,4235.384512,4208.717846,4229.743486,4236.410153,4216.922974,4219.999897,4232.820409,4219.999897
3,0,4216.922974,4215.384512,4197.948615,4244.10246,4227.179384,4227.179384,4231.794768,4204.615282,4234.871691,4227.179384,4217.435794,4203.07682,4229.230666,4236.922973
4,0,4222.051179,4211.794769,4199.999897,4222.563999,4215.384512,4213.33323,4218.461435,4197.948615,4217.435794,4214.871692,4210.256307,4195.384513,4227.179384,4229.743486
5,0,4214.358871,4215.897333,4190.256308,4240.512717,4218.461435,4221.538358,4219.487076,4199.487077,4210.769128,4219.999897,4204.615282,4206.153743,4228.717845,4221.538358
6,0,4197.948615,4210.769128,4197.435795,4234.358871,4217.435794,4215.384512,4207.179384,4191.794769,4216.410153,4223.58964,4198.461436,4201.025538,4223.58964,4204.615282
7,0,4193.333231,4202.051179,4234.358871,4186.153744,4198.461436,4198.461436,4188.205026,4179.999898,4209.230666,4210.256307,4193.333231,4190.769128,4213.33323,4176.922975
8,0,4209.743487,4204.615282,4247.179383,4172.820411,4197.435795,4206.666564,4198.974256,4180.512718,4196.922974,4202.051179,4196.410154,4193.333231,4212.82041,4195.384513
9,0,4219.999897,4210.256307,4223.58964,4203.589641,4213.33323,4221.025538,4221.025538,4192.30759,4203.07682,4212.307589,4204.615282,4197.948615,4224.615281,4238.974255
10,0,4222.051179,4210.769128,4208.205025,4229.230666,4214.871692,4218.974256,4228.205025,4210.769128,4225.128102,4225.640922,4215.897333,4208.717846,4234.358871,4234.871691
11,0,4227.179384,4215.897333,4206.666564,4245.640922,4213.846051,4219.999897,4228.205025,4222.563999,4236.922973,4232.307589,4218.974256,4214.358871,4235.897332,4209.230666
12,0,4225.640922,4222.563999,4205.128102,4250.256306,4217.435794,4225.640922,4224.615281,4209.743487,4226.153743,4230.769127,4215.384512,4202.564,4233.33323,4215.384512
13,0,4218.461435,4219.999897,4214.871692,4231.281948,4217.435794,4220.512717,4214.871692,4187.179385,4214.358871,4222.051179,4213.846051,4193.846051,4231.794768,4222.051179
14,0,4217.435794,4216.410153,4217.948615,4217.948615,4217.948615,4221.538358,4215.384512,4182.564,4215.897333,4218.461435,4207.179384,4199.999897,4229.743486,4208.205025
15,0,4215.384512,4214.358871,4201.538359,4218.461435,4222.051179,4229.743486,4220.512717,4186.153744,4214.358871,4218.974256,4197.948615,4203.07682,4225.640922,4194.871692
16,0,4205.640923,4210.769128,4196.922974,4220.512717,4218.461435,4228.717845,4214.871692,4187.179385,4212.307589,4215.384512,4204.615282,4199.487077,4223.07682,4202.051179
17,0,4212.82041,4218.461435,4199.999897,4242.051178,4215.897333,4229.743486,4216.410153,4202.051179,4223.58964,4224.615281,4220.512717,4205.128102,4233.33323,4229.230666
18,0,4219.487076,4221.025538,4201.538359,4242.563999,4220.512717,4233.33323,4230.769127,4216.410153,4228.717845,4231.281948,4216.922974,4204.615282,4238.461435,4242.051178
19,0,4202.564,4205.128102,4221.025538,4198.461436,4215.384512,4224.615281,4229.743486,4207.692205,4214.871692,4211.281948,4201.538359,4192.82041,4221.538358,4199.999897
20,0,4195.384513,4198.974256,4235.384512,4182.564,4208.717846,4214.871692,4217.948615,4204.102461,4211.794769,4206.666564,4201.538359,4192.82041,4215.897333,4169.743488
21,0,4199.999897,4213.33323,4213.33323,4222.051179,4215.384512,4218.974256,4220.512717,4216.922974,4225.128102,4232.820409,4204.615282,4204.615282,4227.179384,4216.922974
22,0,4197.435795,4221.538358,4189.743487,4244.10246,4220.512717,4221.538358,4225.128102,4214.871692,4227.692204,4240.512717,4201.538359,4206.153743,4229.230666,4230.256307
23,0,4202.564,4218.461435,4203.07682,4225.640922,4219.999897,4216.410153,4212.82041,4194.871692,4213.846051,4219.487076,4205.640923,4200.512718,4227.692204,4191.281949
24,0,4225.128102,4219.487076,4220.512717,4216.922974,4219.999897,4216.410153,4199.999897,4183.589641,4202.564,4212.307589,4208.717846,4201.025538,4231.281948,4207.179384
25,0,4224.102461,4217.435794,4221.025538,4213.33323,4207.179384,4217.948615,4202.564,4183.589641,4198.461436,4216.922974,4198.461436,4200.512718,4229.230666,4223.07682
26,0,4201.025538,4214.358871,4214.358871,4206.666564,4200.512718,4216.410153,4213.33323,4188.205026,4202.564,4213.33323,4200.512718,4194.871692,4226.153743,4191.794769
27,0,4203.07682,4224.102461,4206.153743,4222.563999,4220.512717,4220.512717,4220.512717,4203.589641,4216.922974,4219.487076,4224.102461,4198.974256,4239.487076,4210.256307
28,0,4216.410153,4227.692204,4198.974256,4235.897332,4235.384512,4220.512717,4216.922974,4216.922974,4223.58964,4237.435794,4232.820409,4212.307589,4249.743486,4248.717845
29,0,4213.33323,4219.487076,4190.769128,4229.743486,4227.179384,4215.384512,4212.82041,4219.999897,4215.897333,4236.410153,4218.461435,4214.358871,4241.025537,4215.897333
30,0,4217.435794,4214.871692,4184.102462,4229.743486,4222.563999,4219.999897,4216.410153,4217.435794,4212.82041,4224.615281,4213.33323,4201.538359,4231.794768,4195.384513
31,0,4227.692204,4218.461435,4183.589641,4237.948614,4231.794768,4233.33323,4223.07682,4216.922974,4215.384512,4228.205025,4216.410153,4197.435795,4233.84605,4215.897333
32,0,4215.897333,4219.999897,4190.769128,4230.256307,4229.743486,4230.256307,4224.102461,4217.435794,4214.871692,4225.640922,4205.640923,4202.564,4232.307589,4220.512717
33,0,4210.769128,4216.410153,4200.512718,4227.692204,4217.948615,4219.487076,4217.948615,4213.846051,4213.846051,4214.871692,4202.051179,4203.07682,4229.743486,4224.615281
34,0,4223.58964,4217.435794,4207.692205,4238.974255,4214.871692,4226.666563,4219.487076,4210.769128,4216.410153,4218.461435,4213.33323,4204.102461,4233.84605,4225.640922
35,0,4216.922974,4220.512717,4217.435794,4226.666563,4217.435794,4229.743486,4220.512717,4206.153743,4213.846051,4215.384512,4207.692205,4204.102461,4225.640922,4216.410153
36,0,4213.846051,4219.999897,4224.102461,4203.07682,4215.384512,4213.33323,4204.615282,4192.82041,4207.179384,4199.999897,4192.82041,4198.461436,4215.897333,4214.358871
37,0,4231.794768,4217.948615,4206.666564,4219.999897,4218.461435,4210.769128,4196.922974,4189.230667,4209.230666,4208.205025,4203.07682,4198.974256,4228.205025,4221.538358
38,0,4230.769127,4218.974256,4198.974256,4230.256307,4225.128102,4226.153743,4211.794769,4199.487077,4211.281948,4226.666563,4221.025538,4202.564,4238.461435,4215.897333
39,0,4207.179384,4216.410153,4232.820409,4184.615282,4216.922974,4223.07682,4216.922974,4202.051179,4208.205025,4220.512717,4217.435794,4198.461436,4230.256307,4210.769128
40,0,4193.846051,4214.358871,4243.076819,4175.384513,4210.769128,4211.281948,4209.230666,4201.538359,4211.281948,4218.461435,4211.281948,4195.384513,4227.179384,4223.07682
41,0,4202.564,4218.461435,4206.666564,4231.281948,4217.948615,4220.512717,4213.846051,4215.384512,4223.58964,4235.384512,4213.33323,4202.051179,4234.871691,4222.563999
42,0,4212.307589,4222.051179,4186.666564,4251.794768,4219.487076,4230.256307,4222.563999,4225.640922,4226.666563,4235.897332,4209.743487,4202.051179,4232.307589,4201.538359
43,0,4201.538359,4216.922974,4187.179385,4228.205025,4215.384512,4219.487076,4220.512717,4217.435794,4213.33323,4213.846051,4193.846051,4187.692205,4221.538358,4194.358872
44,0,4193.846051,4207.179384,4183.589641,4211.794769,4214.358871,4212.307589,4218.461435,4212.307589,4200.512718,4200.512718,4184.615282,4178.461436,4213.33323,4216.410153
45,0,4209.230666,4202.564,4194.358872,4203.07682,4211.281948,4223.58964,4219.999897,4211.794769,4201.538359,4198.461436,4190.769128,4189.230667,4213.846051,4212.307589
46,0,4213.33323,4209.230666,4203.07682,4208.717846,4217.948615,4229.743486,4218.974256,4205.640923,4212.82041,4203.589641,4199.487077,4200.512718,4225.128102,4191.794769
47,0,4193.846051,4218.461435,4195.897333,4221.025538,4231.794768,4227.692204,4216.922974,4204.102461,4214.871692,4219.999897,4208.205025,4194.871692,4234.871691,4210.256307
48,0,4192.30759,4215.897333,4196.410154,4216.922974,4226.153743,4225.640922,4214.358871,4197.435795,4204.615282,4227.179384,4211.794769,4187.692205,4231.794768,4222.051179
49,0,4213.846051,4215.384512,4201.538359,4219.999897,4212.82041,4221.025538,4213.33323,4191.794769,4205.128102,4229.230666,4214.358871,4199.487077,4232.820409,4209.230666
50,0,4222.563999,4228.717845,4197.948615,4241.025537,4222.563999,4219.999897,4216.922974,4202.051179,4219.487076,4238.974255,4225.128102,4209.743487,4244.10246,4231.281948
51,0,4213.846051,4229.230666,4190.769128,4248.205024,4234.358871,4227.692204,4229.743486,4216.410153,4221.025538,4241.538358,4229.230666,4204.102461,4248.717845,4253.84605
52,0,4209.743487,4215.384512,4185.128103,4239.487076,4232.307589,4235.897332,4244.615281,4226.153743,4216.922974,4234.871691,4221.538358,4209.743487,4243.58964,4229.743486
53,0,4216.410153,4218.974256,4188.205026,4231.281948,4227.692204,4234.871691,4240.512717,4232.307589,4224.102461,4236.922973,4217.948615,4216.410153,4238.461435,4222.563999
54,0,4227.179384,4227.179384,4198.974256,4225.128102,4222.051179,4231.281948,4231.794768,4225.128102,4224.615281,4234.871691,4212.307589,4204.615282,4233.33323,4238.461435
55,0,4228.717845,4222.051179,4199.999897,4226.666563,4217.948615,4231.794768,4236.922973,4214.358871,4221.025538,4224.102461,4203.07682,4199.999897,4231.281948,4229.230666
56,0,4227.179384,4226.153743,4202.051179,4233.33323,4229.743486,4234.358871,4241.025537,4224.615281,4222.051179,4230.256307,4219.487076,4213.846051,4239.487076,4234.358871
57,0,4242.051178,4244.615281,4217.435794,4236.410153,4238.461435,4232.820409,4232.820409,4234.871691,4224.102461,4249.743486,4246.666563,4226.666563,4254.871691,4251.794768
58,0,4254.35887,4247.179383,4222.563999,4237.948614,4221.538358,4228.205025,4228.205025,4228.205025,4226.153743,4251.794768,4244.615281,4229.230666,4259.487075,4237.435794
59,0,4246.666563,4240.512717,4218.974256,4247.692204,4213.846051,4238.461435,4242.563999,4227.179384,4229.743486,4245.128101,4237.948614,4229.743486,4257.435793,4245.128101
60,0,4252.820409,4250.256306,4231.281948,4259.999896,4241.025537,4257.435793,4262.051178,4243.076819,4243.58964,4264.10246,4257.435793,4233.84605,4271.794767,4272.820408
61,0,4272.820408,4264.61528,4240.512717,4265.128101,4255.384511,4262.051178,4270.256306,4262.563998,4258.974255,4285.640921,4269.743485,4235.897332,4283.589639,4268.717844
62,0,4264.61528,4265.128101,4224.102461,4266.153742,4244.615281,4259.999896,4267.692203,4262.051178,4254.871691,4272.820408,4252.820409,4222.563999,4271.281947,4262.563998
63,0,4246.666563,4258.974255,4213.33323,4257.435793,4248.205024,4259.487075,4265.640921,4249.743486,4245.128101,4256.410152,4241.538358,4210.256307,4259.487075,4256.410152
64,0,4242.051178,4259.487075,4219.487076,4250.769127,4255.897332,4253.333229,4265.640921,4247.692204,4248.205024,4262.563998,4248.205024,4217.435794,4262.051178,4228.205025
65,0,4234.871691,4261.025537,4219.487076,4256.922973,4246.153742,4251.794768,4263.589639,4247.179383,4239.487076,4265.128101,4239.487076,4219.487076,4263.076819,4225.128102
66,0,4234.358871,4259.487075,4213.846051,4258.974255,4243.58964,4261.025537,4261.538357,4235.384512,4229.230666,4256.410152,4226.153743,4212.82041,4260.512716,4247.692204
67,0,4249.743486,4259.999896,4210.769128,4256.410152,4247.692204,4259.487075,4256.410152,4227.179384,4236.922973,4254.35887,4236.922973,4215.897333,4265.128101,4247.179383
68,0,4262.051178,4262.563998,4209.743487,4264.61528,4243.58964,4249.743486,4249.230665,4233.33323,4238.974255,4253.84605,4248.717845,4217.948615,4266.666562,4253.333229
69,0,4259.999896,4265.128101,4214.871692,4264.61528,4243.076819,4248.205024,4244.615281,4234.871691,4232.307589,4248.717845,4246.666563,4212.82041,4263.589639,4272.307588
70,0,4263.076819,4265.128101,4221.025538,4250.769127,4250.769127,4246.666563,4243.58964,4222.563999,4230.256307,4244.615281,4246.666563,4213.846051,4267.692203,4267.179383
71,0,4269.743485,4264.61528,4216.922974,4250.256306,4245.128101,4246.666563,4245.640922,4214.358871,4230.256307,4246.153742,4245.128101,4215.384512,4269.743485,4254.871691
72,0,4267.692203,4269.230665,4219.999897,4256.922973,4232.307589,4247.692204,4247.692204,4215.897333,4229.230666,4252.820409,4243.58964,4217.948615,4270.256306,4269.743485
73,0,4291.281946,4275.897331,4242.051178,4246.666563,4233.33323,4238.974255,4241.538358,4218.974256,4230.256307,4252.820409,4253.333229,4227.179384,4286.153741,4293.846049
74,0,4334.871689,4282.563998,4254.871691,4241.538358,4229.743486,4230.256307,4232.820409,4217.948615,4231.794768,4247.692204,4262.051178,4230.769127,4304.615279,4303.076818
75,0,4338.461432,4291.281946,4247.692204,4248.717845,4220.512717,4231.794768,4230.769127,4217.435794,4227.692204,4244.10246,4262.563998,4233.84605,4311.281946,4299.487074
76,0,4325.128099,4296.410151,4248.717845,4246.153742,4235.897332,4234.871691,4234.358871,4222.051179,4225.640922,4245.640922,4272.307588,4245.640922,4325.128099,4318.974253
77,0,4359.487073,4299.999895,4259.487075,4253.333229,4255.897332,4237.435794,4240.512717,4230.256307,4232.820409,4254.871691,4289.743485,4250.256306,4350.256304,4376.410149
78,0,4389.743482,4304.615279,4255.384511,4270.769126,4244.10246,4235.384512,4241.025537,4228.717845,4233.33323,4262.563998,4298.974254,4250.256306,4362.051175,4403.589636
79,0,4378.974252,4297.948613,4244.615281,4258.974255,4223.58964,4229.743486,4233.84605,4217.948615,4219.999897,4260.512716,4297.948613,4250.769127,4358.974252,4382.051175
80,0,4376.410149,4285.640921,4249.743486,4237.435794,4223.07682,4230.769127,4230.769127,4218.974256,4223.58964,4256.922973,4289.743485,4241.538358,4353.333227,4363.589637
81,0,4359.487073,4277.948613,4256.922973,4228.205025,4217.948615,4228.205025,4232.307589,4219.487076,4231.281948,4250.769127,4277.948613,4231.794768,4342.563996,4356.41015
82,0,4315.89733,4266.666562,4262.563998,4208.717846,4210.256307,4217.435794,4228.717845,4209.230666,4219.999897,4239.999896,4268.205024,4232.307589,4328.205022,4339.999894
83,0,4308.205023,4256.922973,4275.384511,4186.666564,4217.435794,4219.487076,4225.128102,4208.717846,4214.871692,4241.025537,4263.076819,4230.256307,4319.999894,4336.922971
84,0,4327.179381,4261.538357,4270.256306,4203.589641,4215.897333,4229.743486,4228.717845,4215.897333,4219.999897,4249.230665,4264.61528,4225.128102,4321.025535,4336.922971
85,0,4316.922971,4264.61528,4252.820409,4225.128102,4217.435794,4231.281948,4232.307589,4214.358871,4217.948615,4246.666563,4262.051178,4230.769127,4313.333228,4298.974254
86,0,4285.640921,4252.820409,4266.153742,4202.051179,4244.10246,4229.230666,4231.794768,4213.846051,4219.487076,4242.563999,4250.256306,4230.769127,4294.358869,4277.435793
87,0,4270.769126,4243.58964,4280.512716,4185.640923,4252.307588,4232.820409,4232.307589,4224.102461,4228.717845,4244.10246,4242.051178,4221.025538,4286.666562,4285.1281
88,0,4285.1281,4245.128101,4255.384511,4215.897333,4232.307589,4233.33323,4232.307589,4231.794768,4231.281948,4250.256306,4245.640922,4221.538358,4291.794767,4281.538357
89,0,4295.38451,4242.051178,4229.230666,4237.948614,4231.794768,4231.794768,4233.33323,4232.820409,4232.307589,4246.666563,4253.84605,4228.205025,4290.769126,4281.538357
90,0,4267.179383,4230.256307,4231.281948,4227.179384,4226.153743,4230.256307,4233.84605,4230.769127,4234.358871,4235.384512,4248.205024,4224.102461,4281.025536,4285.640921
91,0,4246.666563,4226.153743,4237.948614,4218.974256,4203.07682,4225.640922,4226.153743,4221.025538,4231.794768,4237.435794,4232.820409,4217.948615,4274.35887,4271.794767
92,0,4258.461434,4231.281948,4232.820409,4229.230666,4217.948615,4226.153743,4219.999897,4215.384512,4229.743486,4241.025537,4234.358871,4219.999897,4277.435793,4254.35887
93,0,4256.922973,4234.358871,4216.410153,4243.58964,4243.076819,4233.33323,4230.256307,4221.538358,4232.820409,4240.512717,4244.615281,4216.410153,4281.025536,4256.922973
94,0,4241.025537,4232.307589,4210.769128,4235.384512,4233.84605,4234.358871,4236.410153,4219.487076,4228.717845,4244.615281,4236.922973,4213.33323,4272.307588,4247.692204
95,0,4230.769127,4224.615281,4218.974256,4209.230666,4227.179384,4228.205025,4222.563999,4207.179384,4217.435794,4241.025537,4222.563999,4218.461435,4262.051178,4232.307589
96,0,4225.128102,4222.563999,4210.256307,4220.512717,4230.256307,4228.717845,4217.948615,4208.205025,4218.461435,4230.769127,4227.692204,4219.999897,4267.692203,4249.743486
97,0,4243.076819,4230.256307,4196.922974,4256.922973,4232.307589,4234.871691,4232.820409,4226.153743,4232.820409,4242.563999,4244.10246,4218.461435,4281.538357,4271.281947
98,0,4266.666562,4236.922973,4206.666564,4255.384511,4246.153742,4238.974255,4241.025537,4233.33323,4237.948614,4258.974255,4248.717845,4218.974256,4284.102459,4263.076819
99,0,4250.256306,4231.794768,4218.974256,4240.512717,4239.487076,4231.794768,4229.743486,4222.051179,4228.717845,4244.615281,4236.410153,4215.384512,4272.307588,4234.358871
100,0,4228.205025,4217.435794,4213.846051,4241.025537,4199.487077,4218.461435,4216.922974,4211.281948,4217.435794,4222.563999,4223.58964,4210.769128,4259.487075,4224.102461
101,0,4247.692204,4219.999897,4213.846051,4236.410153,4202.051179,4219.487076,4223.07682,4214.358871,4214.871692,4225.640922,4226.153743,4219.999897,4257.435793,4247.179383
102,0,4254.35887,4235.897332,4225.128102,4237.435794,4244.10246,4232.307589,4235.384512,4220.512717,4223.58964,4246.666563,4234.871691,4237.435794,4265.640921,4261.025537
103,0,4228.205025,4235.384512,4228.205025,4246.153742,4245.128101,4232.820409,4234.871691,4218.974256,4231.281948,4249.230665,4231.794768,4233.84605,4269.743485,4256.922973
104,0,4225.640922,4226.153743,4226.153743,4238.461435,4222.051179,4227.179384,4231.794768,4218.461435,4230.256307,4231.281948,4221.025538,4218.974256,4264.10246,4242.051178
105,0,4249.230665,4231.281948,4231.794768,4227.692204,4231.794768,4231.281948,4235.897332,4225.640922,4226.153743,4227.179384,4221.538358,4224.615281,4262.051178,4229.230666
106,0,4265.640921,4237.435794,4232.307589,4242.051178,4238.461435,4234.358871,4236.410153,4231.794768,4226.666563,4239.487076,4238.461435,4232.820409,4274.35887,4241.025537
107,0,4256.922973,4235.897332,4218.974256,4253.333229,4223.07682,4234.871691,4234.871691,4234.358871,4232.820409,4245.128101,4243.076819,4222.563999,4281.025536,4266.153742
108,0,4231.281948,4230.256307,4213.846051,4238.974255,4225.128102,4239.487076,4234.358871,4229.230666,4235.897332,4235.897332,4229.743486,4216.410153,4265.128101,4260.512716
109,0,4224.615281,4221.025538,4215.897333,4235.897332,4239.999896,4240.512717,4232.820409,4223.58964,4237.435794,4228.717845,4221.025538,4219.487076,4252.820409,4232.307589
110,0,4231.281948,4215.384512,4213.33323,4241.025537,4229.230666,4231.794768,4231.794768,4222.563999,4237.948614,4235.384512,4216.922974,4216.410153,4259.999896,4225.640922
111,0,4227.179384,4223.58964,4224.615281,4229.230666,4212.307589,4227.179384,4230.256307,4219.999897,4233.84605,4247.179383,4219.999897,4222.051179,4271.281947,4231.794768
112,0,4225.640922,4232.307589,4251.281947,4207.179384,4224.615281,4230.256307,4230.256307,4219.999897,4230.256307,4246.666563,4232.820409,4233.33323,4273.846049,4234.871691
113,0,4235.384512,4224.615281,4259.487075,4201.025538,4236.922973,4231.281948,4231.281948,4226.666563,4232.307589,4236.922973,4236.410153,4223.07682,4271.794767,4243.58964
114,0,4227.692204,4211.794769,4243.076819,4203.07682,4231.281948,4231.281948,4233.84605,4230.769127,4237.435794,4232.307589,4220.512717,4211.281948,4264.61528,4245.640922
115,0,4209.230666,4210.256307,4226.666563,4206.153743,4230.256307,4232.307589,4231.794768,4225.128102,4236.410153,4234.871691,4211.281948,4218.461435,4252.307588,4235.384512
116,0,4209.743487,4212.82041,4228.205025,4208.717846,4226.153743,4227.692204,4222.563999,4222.563999,4225.640922,4231.281948,4215.897333,4223.07682,4246.153742,4215.897333
117,0,4211.281948,4203.07682,4253.333229,4183.076821,4208.717846,4217.435794,4210.769128,4212.82041,4212.82041,4215.897333,4209.230666,4215.897333,4248.205024,4209.743487
118,0,4205.128102,4195.897333,4270.769126,4165.128103,4218.461435,4215.384512,4209.230666,4197.435795,4211.794769,4209.743487,4199.999897,4214.871692,4250.769127,4225.128102
119,0,4209.743487,4204.102461,4253.333229,4188.717846,4236.922973,4224.615281,4214.358871,4203.07682,4216.410153,4222.051179,4210.256307,4217.435794,4255.384511,4233.84605
120,0,4229.230666,4215.384512,4248.205024,4202.564,4219.999897,4228.205025,4217.948615,4216.410153,4217.948615,4231.794768,4224.615281,4217.435794,4263.589639,4244.615281
121,0,4235.384512,4223.58964,4262.051178,4202.564,4213.846051,4223.07682,4221.538358,4218.974256,4225.128102,4232.307589,4229.743486,4223.58964,4267.692203,4262.563998
122,0,4220.512717,4227.179384,4247.692204,4226.666563,4239.999896,4219.999897,4220.512717,4216.922974,4231.281948,4236.922973,4229.230666,4226.153743,4267.179383,4251.794768
123,0,4206.666564,4222.051179,4222.051179,4243.076819,4237.435794,4218.974256,4216.410153,4216.410153,4222.051179,4231.794768,4218.974256,4215.897333,4264.10246,4212.307589
124,0,4209.743487,4211.794769,4224.615281,4227.179384,4211.281948,4216.922974,4213.846051,4214.871692,4214.871692,4216.410153,4210.256307,4214.358871,4257.435793,4188.205026
125,0,4225.640922,4220.512717,4242.563999,4221.025538,4229.230666,4223.58964,4218.974256,4217.435794,4223.07682,4224.615281,4224.102461,4224.102461,4264.61528,4215.384512
126,0,4226.666563,4234.871691,4250.256306,4225.640922,4256.410152,4236.922973,4225.640922,4221.538358,4226.153743,4235.897332,4231.281948,4222.051179,4271.281947,4249.230665
127,0,4214.871692,4219.999897,4239.999896,4217.435794,4232.307589,4232.307589,4222.051179,4215.384512,4215.897333,4217.435794,4206.153743,4209.743487,4254.871691,4229.230666
128,0,4214.871692,4204.102461,4234.871691,4201.025538,4208.717846,4216.922974,4215.897333,4210.769128,4213.846051,4209.230666,4191.281949,4210.769128,4242.051178,4196.922974
0,0,4201.538359,4207.692205,4262.051178,4186.666564,4229.230666,4215.384512,4218.461435,4216.410153,4221.025538,4221.538358,4207.692205,4219.487076,4246.666563,4213.33323
1,0,4180.512718,4206.666564,4282.051177,4177.435795,4237.435794,4220.512717,4216.922974,4214.871692,4218.461435,4218.974256,4214.871692,4213.846051,4249.230665,4230.769127
2,0,4192.30759,4198.974256,4267.179383,4178.974257,4214.871692,4218.461435,4209.743487,4202.051179,4205.128102,4211.794769,4207.692205,4204.615282,4246.666563,4208.717846
3,0,4208.205025,4203.589641,4248.717845,4195.384513,4218.461435,4215.384512,4214.358871,4199.999897,4202.564,4214.358871,4211.794769,4205.640923,4252.820409,4211.281948
4,0,4200.512718,4204.102461,4244.10246,4200.512718,4227.179384,4214.871692,4211.794769,4199.487077,4204.615282,4204.102461,4208.717846,4204.102461,4248.717845,4237.435794
5,0,4201.025538,4195.897333,4245.128101,4190.769128,4206.153743,4213.33323,4199.487077,4190.256308,4198.974256,4196.410154,4196.410154,4203.589641,4238.461435,4216.922974
6,0,4203.589641,4202.564,4253.333229,4191.281949,4200.512718,4215.384512,4203.589641,4191.281949,4200.512718,4210.256307,4201.025538,4214.871692,4244.10246,4190.769128
7,0,4194.871692,4214.358871,4264.61528,4199.999897,4231.281948,4224.615281,4218.461435,4208.205025,4216.922974,4226.153743,4213.33323,4221.025538,4251.794768,4215.897333
8,0,4196.410154,4215.897333,4252.307588,4208.205025,4248.717845,4232.820409,4227.179384,4227.692204,4231.794768,4235.384512,4218.974256,4217.948615,4255.384511,4243.58964
9,0,4215.384512,4213.33323,4232.820409,4218.974256,4239.999896,4230.769127,4229.743486,4233.33323,4235.384512,4234.358871,4219.999897,4218.974256,4262.051178,4231.281948
10,0,4225.640922,4211.281948,4240.512717,4214.358871,4230.256307,4225.640922,4230.769127,4221.538358,4230.256307,4223.07682,4212.82041,4218.461435,4255.897332,4217.948615
11,0,4223.58964,4213.33323,4243.076819,4218.461435,4221.538358,4227.692204,4231.281948,4220.512717,4228.205025,4222.563999,4209.230666,4213.33323,4246.666563,4215.384512
12,0,4217.948615,4216.410153,4220.512717,4242.563999,4217.948615,4230.769127,4234.358871,4234.871691,4231.281948,4228.717845,4216.410153,4215.384512,4255.897332,4223.07682
13,0,4209.230666,4215.897333,4219.999897,4240.512717,4216.410153,4224.615281,4233.84605,4230.256307,4225.640922,4222.051179,4217.435794,4225.640922,4257.435793,4242.051178
14,0,4209.743487,4212.82041,4246.153742,4223.07682,4210.769128,4216.410153,4225.128102,4213.33323,4213.846051,4214.871692,4212.307589,4231.794768,4244.615281,4234.871691
15,0,4228.205025,4214.871692,4254.35887,4223.58964,4217.435794,4214.871692,4222.563999,4212.82041,4213.33323,4217.435794,4214.358871,4230.769127,4252.307588,4227.692204
16,0,4238.974255,4217.435794,4245.128101,4232.820409,4236.922973,4219.487076,4227.692204,4218.974256,4217.435794,4217.435794,4218.974256,4232.307589,4265.128101,4252.820409
17,0,4219.487076,4208.205025,4243.076819,4216.922974,4233.33323,4218.461435,4222.563999,4212.82041,4214.871692,4214.871692,4215.384512,4224.615281,4254.871691,4230.256307
18,0,4196.410154,4193.846051,4253.84605,4179.999898,4210.769128,4211.794769,4211.281948,4207.179384,4212.82041,4213.846051,4211.281948,4210.769128,4244.10246,4193.846051
19,0,4200.512718,4198.461436,4249.743486,4193.846051,4215.897333,4213.33323,4212.307589,4213.33323,4215.897333,4213.846051,4214.358871,4215.897333,4250.256306,4232.820409
20,0,4202.564,4206.666564,4243.076819,4219.487076,4222.051179,4216.922974,4216.410153,4218.461435,4213.33323,4214.358871,4213.846051,4226.153743,4249.743486,4256.410152
21,0,4193.846051,4189.743487,4268.205024,4183.589641,4205.640923,4213.33323,4223.58964,4218.461435,4212.82041,4212.307589,4208.717846,4220.512717,4239.999896,4218.974256
22,0,4214.358871,4186.153744,4271.794767,4176.922975,4207.179384,4214.358871,4231.794768,4222.051179,4216.410153,4212.307589,4216.410153,4216.922974,4245.640922,4223.07682
23,0,4238.461435,4211.794769,4241.538358,4224.102461,4222.563999,4214.358871,4225.640922,4221.538358,4211.281948,4215.384512,4220.512717,4218.461435,4250.256306,4245.640922
24,0,4219.999897,4221.025538,4247.179383,4211.281948,4220.512717,4212.307589,4220.512717,4214.871692,4206.153743,4212.82041,4202.564,4215.384512,4237.948614,4219.999897
25,0,4198.461436,4214.871692,4264.61528,4182.05118,4223.07682,4216.922974,4227.692204,4216.922974,4217.948615,4214.871692,4197.435795,4212.82041,4236.922973,4197.948615
26,0,4192.82041,4216.922974,4238.461435,4212.307589,4238.461435,4226.666563,4230.769127,4224.615281,4225.640922,4227.692204,4215.897333,4212.82041,4249.230665,4200.512718
27,0,4176.410154,4214.358871,4213.846051,4234.358871,4236.410153,4227.179384,4228.717845,4229.743486,4221.538358,4236.922973,4217.948615,4210.256307,4250.256306,4212.82041
28,0,4164.615283,4210.769128,4215.897333,4235.384512,4222.051179,4222.051179,4233.33323,4232.307589,4222.563999,4228.717845,4204.102461,4215.384512,4243.076819,4206.666564
29,0,4167.692206,4214.871692,4217.435794,4233.84605,4213.33323,4221.025538,4229.743486,4222.563999,4225.128102,4217.435794,4203.589641,4222.051179,4235.897332,4168.717847
30,0,4161.025539,4207.692205,4237.435794,4197.435795,4211.794769,4215.384512,4213.33323,4205.640923,4215.897333,4215.384512,4206.666564,4210.256307,4228.205025,4167.692206
31,0,4154.871693,4194.871692,4274.35887,4151.79477,4217.435794,4203.07682,4201.025538,4196.410154,4198.974256,4206.153743,4190.256308,4195.897333,4227.179384,4193.846051
32,0,4169.743488,4195.384513,4291.281946,4144.102463,4216.922974,4195.384513,4197.948615,4198.974256,4194.358872,4193.846051,4180.512718,4196.922974,4228.205025,4190.769128
33,0,4180.512718,4205.128102,4281.025536,4163.076821,4212.307589,4203.589641,4205.128102,4207.179384,4207.179384,4202.051179,4194.358872,4201.025538,4229.230666,4192.30759
34,0,4184.102462,4211.794769,4262.563998,4184.615282,4219.999897,4216.410153,4221.538358,4213.846051,4216.410153,4219.487076,4205.640923,4204.102461,4240.512717,4221.538358
35,0,4191.281949,4215.897333,4247.692204,4208.717846,4234.871691,4220.512717,4232.307589,4223.58964,4214.358871,4221.025538,4206.153743,4214.871692,4249.743486,4221.025538
36,0,4195.897333,4214.871692,4241.025537,4222.051179,4232.307589,4217.435794,4229.743486,4233.33323,4216.922974,4217.948615,4212.82041,4220.512717,4245.640922,4189.743487
37,0,4186.666564,4207.692205,4248.717845,4213.33323,4217.435794,4215.897333,4227.692204,4238.461435,4222.051179,4222.563999,4215.897333,4214.871692,4239.487076,4188.205026
38,0,4181.538359,4201.025538,4247.692204,4211.281948,4221.025538,4219.487076,4234.358871,4244.10246,4217.435794,4227.692204,4203.07682,4215.384512,4239.487076,4210.256307
39,0,4192.82041,4207.179384,4229.230666,4224.102461,4231.281948,4217.948615,4235.897332,4249.230665,4225.128102,4231.281948,4199.487077,4217.435794,4244.10246,4217.948615
40,0,4189.230667,4215.897333,4236.410153,4205.640923,4222.563999,4212.307589,4226.666563,4238.974255,4231.794768,4226.666563,4207.692205,4206.153743,4246.666563,4209.230666
41,0,4185.128103,4213.846051,4262.563998,4179.487077,4214.871692,4211.794769,4222.563999,4227.179384,4220.512717,4215.897333,4212.82041,4201.538359,4248.205024,4223.07682
42,0,4195.384513,4216.922974,4244.615281,4216.922974,4217.435794,4216.922974,4230.769127,4234.871691,4222.051179,4222.563999,4222.563999,4223.07682,4253.84605,4220.512717
43,0,4192.82041,4219.487076,4214.358871,4248.717845,4215.384512,4219.999897,4235.384512,4238.461435,4230.256307,4234.358871,4225.128102,4233.84605,4248.717845,4173.846052
44,0,4182.05118,4208.717846,4234.358871,4206.153743,4219.487076,4214.871692,4229.230666,4220.512717,4218.974256,4222.563999,4207.179384,4206.666564,4233.84605,4187.179385
45,0,4181.025539,4203.07682,4261.025537,4173.846052,4232.820409,4214.871692,4226.153743,4209.230666,4215.384512,4209.743487,4195.384513,4191.281949,4234.871691,4228.717845
46,0,4185.640923,4212.307589,4247.179383,4203.07682,4236.410153,4226.153743,4234.871691,4226.666563,4231.794768,4224.102461,4207.179384,4209.743487,4247.179383,4207.179384
47,0,4189.743487,4217.948615,4236.410153,4221.025538,4230.769127,4226.666563,4236.410153,4235.384512,4236.410153,4235.897332,4213.846051,4219.487076,4248.717845,4198.974256
48,0,4197.948615,4215.384512,4236.922973,4210.769128,4226.153743,4212.82041,4223.58964,4216.922974,4227.179384,4230.256307,4213.33323,4210.256307,4246.666563,4225.640922
49,0,4197.948615,4218.974256,4217.435794,4222.563999,4224.615281,4210.256307,4214.358871,4209.743487,4219.999897,4233.33323,4220.512717,4214.358871,4252.820409,4193.846051
50,0,4179.999898,4223.58964,4223.58964,4214.358871,4225.640922,4216.410153,4217.435794,4216.410153,4217.948615,4235.384512,4215.897333,4218.461435,4252.820409,4167.179385
51,0,4163.076821,4214.871692,4263.589639,4173.333231,4225.128102,4210.256307,4214.358871,4208.205025,4216.410153,4221.025538,4201.025538,4200.512718,4239.999896,4210.256307
52,0,4164.615283,4198.974256,4265.128101,4166.153744,4216.922974,4206.666564,4210.256307,4201.025538,4206.153743,4209.230666,4193.846051,4187.692205,4228.717845,4215.897333
53,0,4175.384513,4199.487077,4228.717845,4198.461436,4211.281948,4215.384512,4220.512717,4213.33323,4203.589641,4211.794769,4196.922974,4197.948615,4230.256307,4181.025539
54,0,4175.897334,4210.256307,4211.281948,4221.538358,4221.538358,4218.974256,4225.640922,4224.102461,4217.435794,4216.922974,4202.564,4205.128102,4239.999896,4176.410154
55,0,4173.333231,4203.07682,4216.410153,4212.82041,4234.871691,4213.846051,4216.410153,4221.025538,4223.58964,4215.897333,4198.974256,4200.512718,4236.922973,4185.128103
56,0,4175.384513,4194.871692,4215.384512,4207.692205,4230.769127,4213.846051,4217.435794,4221.538358,4216.922974,4215.384512,4192.82041,4207.179384,4230.256307,4194.871692
57,0,4183.076821,4209.230666,4205.128102,4235.897332,4221.025538,4218.974256,4232.307589,4229.743486,4216.410153,4226.153743,4204.102461,4215.897333,4241.538358,4223.58964
58,0,4201.538359,4224.615281,4204.102461,4262.051178,4230.769127,4221.025538,4236.922973,4233.84605,4229.743486,4237.948614,4221.538358,4218.974256,4255.384511,4237.948614
59,0,4202.564,4219.999897,4228.205025,4232.820409,4238.974255,4212.82041,4222.051179,4225.640922,4233.33323,4235.897332,4219.999897,4221.025538,4252.820409,4207.692205
60,0,4192.82041,4212.82041,4246.666563,4194.358872,4220.512717,4208.205025,4212.307589,4215.384512,4219.487076,4228.717845,4214.358871,4222.051179,4247.179383,4173.846052
61,0,4198.974256,4216.922974,4233.84605,4211.794769,4207.692205,4215.897333,4221.538358,4218.461435,4213.846051,4231.281948,4217.435794,4226.666563,4250.256306,4191.281949
62,0,4198.461436,4218.974256,4232.307589,4225.640922,4227.179384,4216.922974,4224.102461,4223.58964,4220.512717,4235.897332,4216.922974,4225.640922,4252.820409,4238.974255
63,0,4187.179385,4213.33323,4245.640922,4203.589641,4239.487076,4212.82041,4214.871692,4224.102461,4219.999897,4229.743486,4213.846051,4214.358871,4249.743486,4232.820409
64,0,4186.666564,4212.307589,4237.948614,4201.025538,4223.58964,4217.435794,4223.58964,4225.640922,4213.846051,4217.948615,4213.846051,4212.82041,4247.692204,4181.538359
65,0,4187.179385,4211.794769,4226.666563,4218.461435,4221.025538,4221.538358,4235.384512,4225.128102,4211.281948,4209.230666,4207.692205,4213.33323,4245.640922,4181.025539
66,0,4181.025539,4208.717846,4226.153743,4221.025538,4239.487076,4219.999897,4232.307589,4226.153743,4217.435794,4213.846051,4201.538359,4206.153743,4238.974255,4219.999897
67,0,4185.640923,4206.153743,4228.205025,4210.256307,4239.999896,4222.563999,4228.717845,4229.230666,4225.640922,4221.025538,4203.589641,4206.153743,4233.33323,4204.102461
68,0,4191.281949,4204.102461,4240.512717,4195.897333,4220.512717,4212.82041,4217.435794,4222.563999,4218.974256,4216.410153,4197.948615,4210.769128,4230.769127,4169.230667
69,0,4198.461436,4207.179384,4250.769127,4191.281949,4208.717846,4198.461436,4197.435795,4208.205025,4210.256307,4208.717846,4189.743487,4208.717846,4231.794768,4198.974256
70,0,4206.666564,4215.897333,4242.563999,4210.256307,4219.999897,4208.205025,4202.564,4212.307589,4212.307589,4216.922974,4202.051179,4216.410153,4241.025537,4229.743486
71,0,4196.410154,4217.948615,4226.153743,4231.794768,4233.33323,4216.922974,4225.640922,4230.769127,4217.435794,4230.769127,4218.974256,4229.743486,4251.281947,4202.051179
72,0,4192.30759,4213.846051,4218.974256,4233.33323,4230.769127,4212.82041,4231.794768,4237.948614,4225.128102,4233.84605,4219.487076,4227.692204,4251.281947,4195.897333
73,0,4199.487077,4217.435794,4225.640922,4234.358871,4230.256307,4222.563999,4230.769127,4237.435794,4231.794768,4230.769127,4216.410153,4219.999897,4250.256306,4219.487076
74,0,4189.743487,4216.410153,4236.410153,4232.307589,4234.358871,4229.743486,4236.410153,4238.461435,4227.179384,4228.205025,4214.871692,4217.948615,4245.640922,4204.102461
75,0,4183.589641,4204.615282,4231.281948,4218.461435,4224.615281,4217.948615,4243.076819,4233.33323,4218.974256,4215.384512,4204.615282,4212.307589,4234.871691,4181.538359
76,0,4199.487077,4199.999897,4215.384512,4216.410153,4219.999897,4218.974256,4238.974255,4223.07682,4216.410153,4200.512718,4192.82041,4205.128102,4230.769127,4198.974256
77,0,4204.102461,4207.179384,4215.384512,4226.666563,4229.230666,4227.692204,4231.794768,4221.025538,4216.410153,4210.256307,4200.512718,4209.743487,4236.922973,4208.717846
78,0,4197.435795,4224.102461,4225.128102,4243.076819,4233.84605,4226.666563,4239.487076,4232.820409,4225.640922,4238.461435,4224.102461,4225.128102,4251.794768,4207.179384
79,0,4218.461435,4234.358871,4230.769127,4260.512716,4235.384512,4231.281948,4248.205024,4242.563999,4234.871691,4250.769127,4239.487076,4235.384512,4268.205024,4217.435794
80,0,4224.615281,4227.179384,4231.281948,4261.538357,4235.897332,4230.769127,4237.948614,4237.948614,4230.769127,4238.974255,4230.256307,4235.384512,4260.512716,4206.153743
81,0,4197.435795,4222.563999,4230.769127,4247.179383,4233.33323,4222.051179,4228.717845,4229.230666,4229.230666,4231.281948,4217.435794,4228.717845,4245.128101,4193.333231
82,0,4201.538359,4232.307589,4234.871691,4245.128101,4244.615281,4228.717845,4234.358871,4232.820409,4234.358871,4236.410153,4223.58964,4226.666563,4254.871691,4225.640922
83,0,4224.102461,4234.358871,4236.922973,4247.692204,4249.743486,4234.358871,4234.871691,4233.84605,4226.153743,4232.820409,4227.179384,4227.692204,4266.153742,4248.717845
84,0,4214.358871,4227.692204,4229.230666,4241.025537,4235.384512,4228.717845,4231.281948,4230.256307,4216.922974,4226.153743,4219.999897,4225.640922,4258.974255,4211.281948
85,0,4216.410153,4232.307589,4221.025538,4251.281947,4235.897332,4230.769127,4241.025537,4239.999896,4228.205025,4236.922973,4224.102461,4228.717845,4257.435793,4198.461436
86,0,4243.076819,4237.435794,4216.410153,4268.717844,4244.10246,4237.948614,4252.307588,4254.35887,4245.640922,4248.717845,4233.84605,4233.84605,4266.666562,4236.410153
87,0,4227.692204,4232.307589,4216.410153,4266.153742,4240.512717,4241.538358,4249.230665,4250.769127,4248.717845,4246.666563,4231.281948,4234.358871,4266.153742,4229.230666
88,0,4199.487077,4227.692204,4225.128102,4258.974255,4247.692204,4244.615281,4244.615281,4246.153742,4243.58964,4242.563999,4226.153743,4235.384512,4259.999896,4202.564
89,0,4212.307589,4225.640922,4234.358871,4252.820409,4258.461434,4238.461435,4248.205024,4248.205024,4235.897332,4237.948614,4223.58964,4235.384512,4258.974255,4222.051179
90,0,4211.281948,4224.102461,4230.769127,4245.640922,4250.769127,4228.205025,4247.692204,4246.153742,4231.794768,4234.358871,4220.512717,4229.743486,4258.974255,4230.769127
91,0,4194.358872,4227.692204,4223.07682,4253.84605,4243.58964,4229.743486,4242.051178,4245.128101,4238.974255,4238.461435,4227.179384,4228.717845,4262.563998,4210.769128
92,0,4222.051179,4230.769127,4218.461435,4274.87169,4245.128101,4232.307589,4242.051178,4249.743486,4246.153742,4244.615281,4226.666563,4233.84605,4265.640921,4212.82041
93,0,4253.84605,4234.871691,4207.692205,4289.230664,4243.58964,4233.33323,4248.717845,4252.820409,4251.281947,4243.076819,4218.974256,4236.410153,4264.61528,4218.974256
94,0,4228.717845,4232.820409,4213.33323,4273.846049,4246.666563,4238.974255,4251.794768,4250.769127,4245.128101,4232.820409,4222.051179,4232.307589,4263.589639,4218.461435
95,0,4197.435795,4219.487076,4237.435794,4234.358871,4247.179383,4235.384512,4245.128101,4244.615281,4230.256307,4222.051179,4223.07682,4225.640922,4261.538357,4237.435794
96,0,4210.256307,4215.897333,4234.871691,4230.769127,4247.692204,4231.281948,4244.615281,4247.179383,4230.769127,4226.666563,4222.051179,4232.307589,4261.538357,4235.384512
97,0,4231.794768,4231.794768,4211.281948,4272.820408,4257.948614,4243.58964,4257.435793,4265.128101,4248.205024,4244.615281,4233.84605,4247.692204,4273.846049,4214.871692
98,0,4235.384512,4237.435794,4211.281948,4289.230664,4261.025537,4250.769127,4262.563998,4272.307588,4252.820409,4250.769127,4241.538358,4246.153742,4281.538357,4233.33323
99,0,4226.666563,4222.051179,4225.128102,4262.051178,4243.58964,4234.358871,4251.281947,4256.410152,4241.025537,4240.512717,4229.743486,4233.84605,4270.256306,4238.974255
100,0,4214.358871,4213.846051,4230.256307,4235.897332,4226.153743,4223.58964,4244.10246,4244.615281,4231.281948,4229.230666,4217.435794,4232.820409,4260.512716,4203.07682
101,0,4212.307589,4217.435794,4235.384512,4231.794768,4230.769127,4228.205025,4246.666563,4245.640922,4231.281948,4229.743486,4221.025538,4233.84605,4263.589639,4197.435795
102,0,4220.512717,4216.410153,4222.051179,4248.717845,4246.153742,4231.281948,4242.051178,4246.666563,4239.999896,4235.897332,4230.769127,4229.743486,4264.10246,4210.256307
103,0,4215.384512,4214.358871,4197.948615,4265.128101,4250.769127,4231.281948,4232.820409,4250.256306,4242.563999,4234.358871,4229.230666,4230.769127,4263.589639,4210.256307
104,0,4202.051179,4215.897333,4199.999897,4263.589639,4245.640922,4224.615281,4228.205025,4244.10246,4235.384512,4234.871691,4217.948615,4231.794768,4265.640921,4228.717845
105,0,4200.512718,4215.897333,4208.717846,4259.999896,4241.538358,4221.538358,4227.692204,4233.33323,4230.769127,4233.84605,4213.33323,4229.230666,4262.563998,4234.358871
106,0,4209.230666,4211.794769,4200.512718,4267.692203,4237.435794,4232.307589,4232.307589,4237.435794,4228.717845,4223.58964,4218.974256,4231.794768,4260.512716,4213.33323
107,0,4210.256307,4212.307589,4200.512718,4265.128101,4233.33323,4231.281948,4234.871691,4239.999896,4229.230666,4221.538358,4224.102461,4232.820409,4266.153742,4224.102461
108,0,4203.07682,4214.871692,4219.999897,4251.794768,4231.794768,4217.948615,4232.307589,4232.307589,4229.230666,4233.84605,4220.512717,4228.717845,4265.128101,4218.461435
109,0,4204.615282,4217.948615,4228.205025,4252.820409,4229.743486,4218.974256,4234.871691,4236.922973,4227.179384,4236.410153,4221.025538,4230.256307,4263.589639,4183.589641
110,0,4215.897333,4216.922974,4228.205025,4252.307588,4236.410153,4231.794768,4248.717845,4250.256306,4229.230666,4226.666563,4230.769127,4236.410153,4273.333229,4209.230666
111,0,4219.487076,4214.871692,4238.461435,4235.897332,4250.256306,4237.435794,4255.384511,4253.333229,4235.897332,4228.717845,4235.897332,4229.743486,4282.051177,4263.076819
112,0,4210.769128,4222.563999,4245.640922,4229.230666,4251.794768,4231.281948,4241.538358,4245.640922,4233.84605,4235.897332,4230.256307,4220.512717,4275.897331,4254.35887
113,0,4213.33323,4229.230666,4238.974255,4233.33323,4239.999896,4224.615281,4228.205025,4232.820409,4223.07682,4226.153743,4219.999897,4223.58964,4264.61528,4211.281948
114,0,4223.07682,4227.692204,4231.281948,4236.410153,4233.84605,4228.717845,4229.743486,4228.205025,4216.922974,4213.846051,4212.82041,4223.07682,4259.999896,4203.07682
115,0,4206.666564,4215.384512,4233.84605,4232.307589,4233.33323,4228.205025,4229.743486,4232.307589,4216.922974,4210.769128,4211.281948,4215.897333,4256.410152,4216.922974
116,0,4184.615282,4202.051179,4234.871691,4225.128102,4229.743486,4217.948615,4223.58964,4224.102461,4213.33323,4206.666564,4212.82041,4212.82041,4251.794768,4213.33323
117,0,4200.512718,4212.82041,4226.153743,4238.974255,4231.794768,4221.025538,4224.615281,4217.948615,4210.256307,4206.153743,4212.82041,4216.922974,4252.820409,4194.358872
118,0,4221.025538,4232.307589,4223.07682,4264.61528,4240.512717,4233.33323,4230.769127,4228.205025,4216.410153,4217.948615,4218.461435,4226.153743,4261.538357,4197.435795
119,0,4207.692205,4224.615281,4221.538358,4261.538357,4238.461435,4231.794768,4231.794768,4233.33323,4221.025538,4220.512717,4219.487076,4232.307589,4264.61528,4223.07682
120,0,4199.487077,4210.769128,4214.871692,4246.153742,4233.84605,4228.717845,4231.794768,4230.769127,4219.999897,4215.384512,4212.82041,4228.205025,4257.435793,4233.84605
121,0,4224.615281,4217.435794,4217.435794,4256.922973,4240.512717,4230.256307,4235.897332,4241.538358,4226.153743,4228.205025,4220.512717,4234.358871,4265.640921,4227.179384
122,0,4249.743486,4222.051179,4231.281948,4266.153742,4235.384512,4229.743486,4238.974255,4252.820409,4234.358871,4236.410153,4237.435794,4250.769127,4279.999895,4229.743486
123,0,4245.128101,4218.974256,4234.358871,4257.435793,4224.102461,4231.794768,4240.512717,4248.205024,4231.794768,4225.128102,4234.871691,4246.153742,4274.87169,4243.58964
124,0,4212.307589,4213.846051,4254.35887,4218.461435,4228.205025,4229.743486,4236.410153,4237.948614,4222.051179,4209.230666,4218.461435,4227.692204,4259.999896,4217.435794
125,0,4188.717846,4198.461436,4329.230663,4131.28195,4231.794768,4216.922974,4218.461435,4221.025538,4207.179384,4197.948615,4204.102461,4218.461435,4250.256306,4176.922975
126,0,4204.615282,4197.435795,4378.974252,4084.102464,4226.153743,4210.256307,4206.153743,4208.205025,4194.358872,4196.410154,4193.846051,4216.922974,4244.10246,4192.30759
127,0,4217.435794,4213.846051,4354.358868,4125.640925,4230.256307,4215.897333,4211.794769,4211.281948,4197.435795,4200.512718,4201.538359,4216.922974,4250.256306,4235.384512
128,0,4204.615282,4220.512717,4316.410151,4167.692206,4236.922973,4220.512717,4209.230666,4209.743487,4203.07682,4201.025538,4215.897333,4216.410153,4262.563998,4238.974255
0,0,4204.102461,4214.871692,4306.666561,4170.769129,4233.84605,4215.897333,4195.897333,4198.461436,4197.435795,4197.435795,4207.179384,4215.897333,4256.922973,4206.666564
1,0,4217.435794,4214.871692,4299.999895,4178.974257,4229.743486,4215.384512,4204.615282,4199.999897,4194.871692,4197.435795,4199.487077,4217.435794,4246.153742,4190.769128
2,0,4213.33323,4217.948615,4277.948613,4191.794769,4227.692204,4225.128102,4223.07682,4214.871692,4202.051179,4200.512718,4209.230666,4213.846051,4251.281947,4204.102461
3,0,4198.461436,4214.358871,4264.61528,4183.589641,4232.307589,4231.794768,4226.666563,4219.999897,4203.589641,4202.051179,4206.666564,4211.794769,4252.307588,4203.589641
4,0,4193.846051,4206.666564,4268.205024,4179.487077,4232.307589,4222.563999,4222.051179,4215.897333,4198.461436,4197.948615,4192.82041,4215.384512,4245.128101,4189.743487
5,0,4202.051179,4201.538359,4275.897331,4188.205026,4214.358871,4212.307589,4213.846051,4216.922974,4202.051179,4198.461436,4194.871692,4212.82041,4246.153742,4203.07682
6,0,4213.33323,4206.153743,4274.35887,4195.384513,4214.358871,4221.025538,4221.538358,4230.769127,4215.897333,4211.794769,4210.256307,4213.846051,4257.948614,4223.58964
7,0,4216.410153,4219.487076,4278.974254,4197.435795,4242.563999,4234.871691,4242.563999,4245.640922,4229.230666,4227.179384,4225.640922,4227.692204,4274.35887,4219.999897
8,0,4215.384512,4228.205025,4285.1281,4209.230666,4255.384511,4236.922973,4244.10246,4250.256306,4235.897332,4233.84605,4232.307589,4237.435794,4280.512716,4219.999897
9,0,4217.948615,4228.717845,4271.794767,4231.281948,4244.10246,4232.820409,4232.307589,4250.256306,4236.410153,4233.84605,4231.794768,4234.871691,4271.281947,4227.692204
10,0,4225.640922,4230.256307,4258.974255,4232.307589,4243.58964,4234.358871,4236.410153,4239.999896,4229.743486,4228.205025,4228.717845,4231.281948,4266.153742,4216.922974
11,0,4236.922973,4231.281948,4248.717845,4238.974255,4252.307588,4242.051178,4247.692204,4231.281948,4227.692204,4226.153743,4229.743486,4229.743486,4274.35887,4214.871692
12,0,4241.025537,4233.33323,4218.461435,4281.025536,4246.666563,4243.58964,4244.10246,4239.999896,4239.999896,4233.84605,4234.871691,4231.281948,4282.563998,4230.256307
13,0,4232.820409,4235.384512,4197.948615,4293.846049,4236.410153,4236.410153,4234.358871,4246.666563,4246.153742,4237.948614,4235.897332,4235.897332,4282.051177,4235.897332
14,0,4219.487076,4229.230666,4205.128102,4269.230665,4233.84605,4230.256307,4233.33323,4243.076819,4235.897332,4233.84605,4230.256307,4231.281948,4278.461434,4242.051178
15,0,4209.230666,4226.153743,4208.205025,4272.307588,4233.84605,4231.794768,4233.84605,4243.076819,4231.794768,4233.84605,4233.33323,4230.769127,4279.999895,4239.487076
16,0,4212.307589,4227.179384,4203.589641,4278.974254,4232.307589,4233.84605,4231.794768,4240.512717,4235.897332,4236.922973,4234.871691,4240.512717,4277.948613,4217.435794
17,0,4229.743486,4221.025538,4208.205025,4259.999896,4233.84605,4230.769127,4229.743486,4234.358871,4228.717845,4228.717845,4223.07682,4233.33323,4269.230665,4217.948615
18,0,4235.897332,4214.871692,4231.794768,4233.33323,4229.230666,4221.538358,4223.07682,4227.692204,4216.410153,4222.051179,4217.435794,4214.871692,4267.692203,4233.84605
19,0,4224.615281,4216.922974,4263.076819,4212.82041,4222.563999,4212.307589,4213.33323,4217.948615,4213.846051,4221.538358,4222.051179,4217.948615,4275.384511,4223.07682
20,0,4223.58964,4223.58964,4256.922973,4224.615281,4230.256307,4214.871692,4213.846051,4216.410153,4217.948615,4219.487076,4223.58964,4236.410153,4276.410152,4219.999897
21,0,4217.435794,4227.692204,4229.230666,4249.743486,4238.974255,4217.948615,4214.871692,4217.435794,4216.922974,4218.974256,4222.563999,4233.84605,4270.769126,4234.358871
22,0,4201.538359,4227.692204,4229.230666,4246.666563,4231.794768,4217.435794,4211.794769,4208.717846,4209.743487,4217.948615,4215.384512,4218.461435,4263.076819,4220.512717
23,0,4212.307589,4229.230666,4229.230666,4249.230665,4228.205025,4225.128102,4211.794769,4208.205025,4215.897333,4213.846051,4207.692205,4221.025538,4261.538357,4205.640923
24,0,4235.897332,4235.897332,4199.999897,4281.538357,4239.999896,4234.871691,4216.922974,4218.974256,4234.871691,4222.051179,4216.922974,4231.794768,4272.307588,4220.512717
25,0,4235.897332,4233.84605,4187.692205,4284.102459,4243.58964,4236.410153,4222.051179,4221.025538,4238.461435,4235.897332,4223.07682,4221.538358,4272.820408,4225.128102
26,0,4227.692204,4227.692204,4204.102461,4264.10246,4230.769127,4232.307589,4222.563999,4221.025538,4227.692204,4235.897332,4216.410153,4209.230666,4265.640921,4230.769127
27,0,4225.128102,4234.358871,4215.897333,4272.307588,4236.410153,4230.256307,4225.128102,4228.205025,4229.230666,4231.794768,4224.102461,4219.999897,4273.333229,4248.205024
28,0,4219.487076,4237.948614,4230.256307,4259.487075,4257.435793,4229.743486,4228.205025,4233.33323,4234.871691,4233.84605,4231.281948,4226.153743,4278.974254,4222.051179
29,0,4215.384512,4232.307589,4253.333229,4214.358871,4257.948614,4224.102461,4224.102461,4233.33323,4232.307589,4232.820409,4217.948615,4215.384512,4267.692203,4176.410154
30,0,4213.33323,4230.256307,4246.153742,4215.384512,4240.512717,4216.922974,4216.410153,4223.58964,4226.666563,4221.025538,4204.615282,4213.846051,4261.025537,4188.717846
31,0,4218.461435,4229.743486,4212.82041,4251.281947,4229.230666,4216.922974,4215.897333,4215.897333,4222.051179,4214.358871,4212.307589,4215.897333,4267.692203,4224.615281
32,0,4227.179384,4225.640922,4203.07682,4253.84605,4228.717845,4224.615281,4222.563999,4224.615281,4217.435794,4223.07682,4225.128102,4215.897333,4272.307588,4233.84605
33,0,4222.563999,4227.692204,4212.307589,4254.871691,4239.999896,4233.84605,4230.769127,4232.820409,4225.640922,4233.33323,4234.358871,4227.179384,4279.487075,4238.461435
34,0,4222.051179,4236.410153,4198.974256,4276.410152,4253.84605,4237.948614,4234.871691,4224.615281,4234.871691,4233.33323,4238.461435,4235.384512,4279.999895,4224.615281
35,0,4225.640922,4231.281948,4186.153744,4262.563998,4248.717845,4232.307589,4220.512717,4207.179384,4225.640922,4229.743486,4228.205025,4218.974256,4269.743485,4197.435795
36,0,4215.384512,4217.948615,4203.07682,4235.384512,4237.948614,4230.256307,4207.692205,4197.435795,4214.871692,4226.666563,4215.897333,4201.538359,4267.179383,4203.07682
37,0,4210.769128,4217.948615,4214.358871,4246.666563,4243.076819,4231.281948,4210.769128,4206.666564,4217.948615,4219.999897,4215.384512,4206.153743,4269.230665,4219.487076
38,0,4219.487076,4221.538358,4210.769128,4249.743486,4243.076819,4222.051179,4208.205025,4219.487076,4222.051179,4219.487076,4218.461435,4215.897333,4262.563998,4225.128102
39,0,4219.487076,4216.410153,4217.435794,4224.102461,4232.820409,4212.307589,4195.897333,4218.461435,4218.461435,4226.666563,4217.435794,4214.358871,4260.512716,4219.999897
40,0,4214.358871,4220.512717,4235.384512,4218.974256,4229.230666,4213.33323,4196.922974,4221.538358,4217.948615,4230.769127,4216.922974,4215.384512,4265.640921,4204.615282
41,0,4217.435794,4233.33323,4236.922973,4240.512717,4235.897332,4222.051179,4213.846051,4230.256307,4221.025538,4229.230666,4219.487076,4217.948615,4266.666562,4198.974256
42,0,4226.666563,4233.84605,4223.58964,4246.153742,4240.512717,4227.179384,4219.487076,4224.615281,4219.487076,4219.999897,4222.563999,4207.692205,4267.179383,4225.128102
43,0,4236.410153,4236.410153,4216.922974,4241.025537,4242.563999,4228.717845,4216.922974,4213.846051,4212.82041,4216.410153,4228.205025,4201.538359,4272.307588,4248.205024
44,0,4229.743486,4248.717845,4207.179384,4262.051178,4246.153742,4231.794768,4225.128102,4215.384512,4214.358871,4225.640922,4234.358871,4214.871692,4276.410152,4234.871691
45,0,4220.512717,4246.153742,4195.897333,4276.922972,4236.922973,4233.84605,4226.153743,4215.897333,4221.538358,4225.128102,4229.230666,4219.487076,4272.307588,4210.256307
46,0,4227.179384,4233.84605,4197.948615,4261.538357,4231.794768,4230.769127,4216.410153,4209.743487,4221.025538,4223.58964,4219.999897,4207.692205,4265.640921,4213.846051
47,0,4223.07682,4234.358871,4194.358872,4263.076819,4243.58964,4231.281948,4215.384512,4206.153743,4219.487076,4234.871691,4219.487076,4204.102461,4267.179383,4234.871691
48,0,4208.205025,4233.33323,4179.999898,4273.846049,4241.538358,4229.230666,4214.871692,4201.538359,4215.897333,4226.153743,4217.435794,4205.128102,4266.666562,4217.435794
49,0,4221.025538,4227.179384,4182.564,4262.563998,4225.128102,4223.07682,4210.769128,4205.640923,4211.794769,4208.717846,4210.769128,4198.974256,4258.974255,4202.564
50,0,4238.461435,4238.974255,4191.281949,4266.666562,4233.84605,4226.153743,4222.563999,4225.640922,4225.128102,4223.58964,4212.82041,4207.692205,4260.512716,4228.717845
51,0,4226.153743,4250.769127,4185.640923,4289.743485,4257.435793,4235.897332,4237.435794,4241.025537,4235.897332,4235.384512,4219.487076,4226.666563,4270.256306,4221.025538
52,0,4206.666564,4236.410153,4192.30759,4269.743485,4249.230665,4232.307589,4233.33323,4229.743486,4220.512717,4214.871692,4215.384512,4219.999897,4267.179383,4194.358872
53,0,4208.205025,4224.102461,4210.256307,4237.435794,4227.692204,4219.999897,4227.179384,4216.410153,4207.179384,4209.743487,4211.281948,4199.999897,4258.974255,4226.153743
54,0,4223.58964,4237.435794,4204.102461,4262.563998,4233.33323,4223.58964,4233.84605,4223.58964,4216.410153,4225.640922,4220.512717,4205.640923,4265.640921,4259.999896
55,0,4239.487076,4251.794768,4183.589641,4295.897331,4251.794768,4236.410153,4240.512717,4226.666563,4222.563999,4225.640922,4227.692204,4222.563999,4273.333229,4234.871691
56,0,4232.307589,4248.205024,4183.076821,4284.61528,4247.179383,4234.358871,4230.769127,4213.846051,4217.948615,4216.410153,4223.58964,4217.435794,4267.179383,4220.512717
57,0,4221.025538,4235.384512,4190.256308,4267.692203,4227.692204,4225.640922,4215.897333,4201.025538,4213.33323,4215.384512,4214.871692,4207.179384,4262.051178,4233.84605
58,0,4225.128102,4230.769127,4178.461436,4279.999895,4225.128102,4228.717845,4215.384512,4202.051179,4218.461435,4223.58964,4217.435794,4212.82041,4264.10246,4209.743487
59,0,4219.487076,4241.025537,4172.820411,4286.666562,4234.358871,4231.281948,4219.487076,4208.717846,4232.307589,4232.307589,4226.153743,4215.897333,4267.179383,4191.794769
60,0,4212.82041,4248.205024,4190.769128,4265.640921,4233.84605,4228.205025,4217.948615,4215.384512,4234.358871,4235.897332,4227.692204,4202.051179,4270.769126,4235.897332
61,0,4226.153743,4238.974255,4204.102461,4246.666563,4234.358871,4232.307589,4226.153743,4225.128102,4229.230666,4234.358871,4228.205025,4194.871692,4272.307588,4258.974255
62,0,4235.384512,4231.281948,4207.179384,4245.128101,4236.922973,4232.307589,4231.794768,4232.820409,4232.820409,4229.743486,4230.256307,4208.205025,4269.230665,4219.999897
63,0,4232.307589,4236.922973,4214.358871,4250.769127,4236.410153,4228.205025,4222.563999,4230.769127,4235.384512,4233.33323,4231.794768,4219.487076,4272.820408,4208.205025
64,0,4227.179384,4245.128101,4212.82041,4251.794768,4238.461435,4229.230666,4220.512717,4223.58964,4228.205025,4239.999896,4232.820409,4214.871692,4278.461434,4237.948614
65,0,4227.179384,4245.640922,4204.102461,4253.333229,4247.179383,4231.281948,4231.794768,4226.153743,4224.615281,4237.948614,4233.33323,4210.256307,4275.897331,4236.410153
66,0,4237.948614,4248.717845,4201.025538,4274.35887,4246.153742,4232.307589,4235.384512,4236.410153,4231.794768,4230.769127,4233.33323,4215.384512,4272.820408,4221.538358
67,0,4255.384511,4256.410152,4196.922974,4296.922972,4235.384512,4232.307589,4230.769127,4242.051178,4238.974255,4237.435794,4238.461435,4223.07682,4280.512716,4246.153742
68,0,4264.10246,4263.589639,4196.922974,4294.87169,4238.974255,4229.743486,4227.692204,4235.897332,4236.922973,4250.769127,4256.410152,4229.743486,4294.87169,4277.435793
69,0,4272.820408,4267.692203,4204.102461,4284.61528,4250.256306,4229.743486,4226.666563,4219.999897,4229.743486,4245.640922,4261.538357,4232.307589,4296.410151,4281.025536
70,0,4287.179382,4274.35887,4201.025538,4292.820408,4248.205024,4237.435794,4228.205025,4213.846051,4229.743486,4237.948614,4249.230665,4232.820409,4289.743485,4279.999895
71,0,4309.230664,4287.179382,4198.461436,4308.205023,4242.563999,4237.948614,4231.281948,4222.051179,4233.84605,4244.10246,4255.384511,4238.974255,4304.615279,4304.615279
72,0,4337.948612,4300.512715,4210.769128,4306.153741,4242.051178,4227.692204,4228.717845,4229.230666,4231.281948,4251.794768,4277.948613,4246.666563,4329.743484,4317.948612
73,0,4350.769124,4305.1281,4220.512717,4294.358869,4233.33323,4225.640922,4226.153743,4229.230666,4226.153743,4249.743486,4283.589639,4250.256306,4340.512714,4305.64092
74,0,4351.794765,4302.563997,4218.461435,4292.820408,4215.897333,4227.692204,4229.743486,4233.84605,4229.230666,4237.435794,4275.384511,4250.769127,4339.999894,4325.64092
75,0,4365.128098,4305.1281,4212.82041,4304.615279,4221.025538,4221.538358,4234.871691,4241.025537,4230.769127,4229.743486,4275.384511,4250.256306,4341.025535,4362.051175
76,0,4392.307585,4314.871689,4214.358871,4308.205023,4246.153742,4221.538358,4232.307589,4241.538358,4225.128102,4238.461435,4279.487075,4251.281947,4349.230663,4373.846047
77,0,4405.640918,4316.922971,4225.128102,4298.974254,4252.820409,4231.281948,4229.743486,4242.051178,4223.07682,4243.58964,4285.1281,4252.820409,4354.871688,4383.589636
78,0,4391.281944,4310.769125,4226.666563,4292.307587,4235.897332,4227.179384,4227.692204,4242.563999,4222.051179,4230.769127,4281.538357,4248.205024,4344.102458,4388.205021
79,0,4372.307585,4304.102459,4216.922974,4291.281946,4231.794768,4215.897333,4215.897333,4228.205025,4214.358871,4222.563999,4268.205024,4244.10246,4327.179381,4376.410149
80,0,4373.846047,4301.538356,4214.871692,4295.897331,4240.512717,4221.538358,4212.82041,4213.846051,4214.871692,4229.230666,4263.589639,4248.205024,4324.102458,4360.512714
81,0,4370.769124,4291.281946,4221.025538,4290.769126,4229.743486,4228.205025,4225.128102,4221.538358,4223.58964,4233.33323,4265.128101,4243.076819,4320.512715,4331.281945
82,0,4336.41015,4276.922972,4220.512717,4277.435793,4217.948615,4224.615281,4229.743486,4230.769127,4227.179384,4232.307589,4260.512716,4232.307589,4307.179382,4303.589638
83,0,4320.512715,4272.820408,4217.948615,4275.897331,4233.33323,4226.666563,4225.640922,4226.666563,4225.640922,4230.769127,4258.461434,4231.281948,4296.922972,4314.871689
84,0,4328.205022,4272.820408,4219.999897,4278.974254,4249.230665,4235.384512,4236.922973,4233.33323,4221.025538,4230.769127,4257.435793,4233.33323,4293.846049,4311.794766
85,0,4301.025536,4261.538357,4211.794769,4274.87169,4235.384512,4235.897332,4245.640922,4249.230665,4221.538358,4232.307589,4250.769127,4230.256307,4287.179382,4277.435793
86,0,4277.435793,4248.205024,4201.538359,4274.87169,4228.205025,4230.256307,4235.384512,4249.743486,4227.692204,4235.384512,4246.153742,4230.769127,4276.410152,4272.307588
87,0,4296.922972,4247.692204,4203.07682,4275.384511,4233.33323,4229.743486,4228.717845,4243.076819,4228.717845,4233.84605,4245.640922,4231.281948,4270.769126,4289.230664
88,0,4308.717843,4254.871691,4211.794769,4267.692203,4229.230666,4231.281948,4233.84605,4249.230665,4230.256307,4234.358871,4246.666563,4231.794768,4275.897331,4294.358869
89,0,4286.153741,4255.897332,4222.051179,4267.179383,4237.435794,4233.33323,4236.922973,4255.384511,4235.384512,4244.10246,4250.256306,4236.922973,4282.563998,4275.384511
90,0,4274.35887,4248.717845,4226.153743,4265.128101,4248.205024,4231.281948,4233.84605,4244.10246,4231.281948,4243.076819,4251.794768,4232.820409,4281.538357,4259.999896
91,0,4278.461434,4247.692204,4220.512717,4251.794768,4234.358871,4226.666563,4231.794768,4235.384512,4228.717845,4230.256307,4245.128101,4225.128102,4273.333229,4270.256306
92,0,4272.820408,4250.769127,4218.974256,4253.333229,4229.230666,4227.179384,4235.384512,4242.051178,4233.84605,4232.820409,4236.922973,4228.205025,4267.692203,4278.461434
93,0,4265.128101,4243.076819,4237.435794,4242.563999,4237.948614,4225.128102,4231.281948,4243.076819,4227.179384,4234.871691,4228.717845,4222.563999,4262.051178,4259.487075
94,0,4258.461434,4223.58964,4269.230665,4179.999898,4221.538358,4214.871692,4214.358871,4227.692204,4212.82041,4210.769128,4217.948615,4202.564,4248.717845,4242.051178
95,0,4249.230665,4216.922974,4299.999895,4128.205027,4207.692205,4211.794769,4201.025538,4216.922974,4209.230666,4201.025538,4213.33323,4201.025538,4243.076819,4239.487076
96,0,4234.871691,4222.563999,4320.512715,4129.230668,4217.435794,4217.435794,4202.051179,4214.358871,4206.666564,4215.384512,4215.897333,4217.435794,4247.179383,4217.435794
97,0,4228.205025,4221.538358,4328.205022,4134.358873,4221.025538,4215.384512,4207.692205,4212.307589,4203.07682,4215.384512,4216.922974,4219.999897,4247.179383,4198.974256
98,0,4235.897332,4219.999897,4325.64092,4130.76913,4225.128102,4216.410153,4213.846051,4221.025538,4209.743487,4211.794769,4218.461435,4211.794769,4243.076819,4230.256307
99,0,4247.179383,4230.256307,4307.179382,4151.28195,4233.33323,4228.717845,4218.974256,4231.794768,4220.512717,4226.153743,4228.717845,4211.281948,4245.128101,4274.35887
100,0,4245.640922,4234.871691,4287.692203,4170.256308,4232.820409,4232.307589,4222.051179,4236.922973,4224.615281,4237.948614,4235.897332,4217.948615,4253.333229,4251.794768
101,0,4222.563999,4221.025538,4290.256305,4158.461437,4229.230666,4222.051179,4217.435794,4232.307589,4219.999897,4221.025538,4224.615281,4209.743487,4251.281947,4199.999897
102,0,4219.999897,4210.256307,4299.487074,4148.717847,4224.615281,4214.358871,4206.666564,4218.974256,4211.794769,4197.948615,4208.205025,4195.384513,4236.410153,4215.897333
103,0,4246.153742,4223.58964,4279.999895,4174.871693,4222.563999,4218.974256,4210.769128,4219.999897,4214.871692,4204.615282,4216.410153,4205.128102,4234.358871,4258.974255
104,0,4253.84605,4234.358871,4266.666562,4183.076821,4233.84605,4221.538358,4220.512717,4232.307589,4221.025538,4219.999897,4232.307589,4219.487076,4249.230665,4252.307588
105,0,4239.999896,4225.640922,4312.307587,4128.205027,4235.897332,4213.846051,4207.692205,4228.717845,4209.230666,4209.743487,4226.666563,4207.179384,4248.717845,4233.84605
106,0,4223.07682,4214.358871,4349.743483,4096.410156,4219.487076,4210.256307,4193.846051,4214.358871,4199.999897,4192.82041,4213.33323,4195.897333,4231.281948,4214.871692
107,0,4206.666564,4215.897333,4315.89733,4136.410155,4217.948615,4218.461435,4207.179384,4214.871692,4206.666564,4197.948615,4216.410153,4207.692205,4228.205025,4198.461436
108,0,4207.179384,4223.07682,4274.87169,4178.974257,4231.281948,4220.512717,4218.974256,4224.102461,4213.33323,4210.769128,4227.692204,4215.384512,4241.025537,4222.051179
109,0,4244.10246,4231.794768,4271.794767,4194.358872,4234.871691,4215.897333,4214.358871,4231.794768,4215.384512,4218.974256,4232.307589,4215.897333,4250.256306,4254.871691
110,0,4267.692203,4234.871691,4264.10246,4205.640923,4231.794768,4217.948615,4215.384512,4233.84605,4217.948615,4216.922974,4227.692204,4214.871692,4246.153742,4258.461434
111,0,4235.897332,4224.615281,4249.743486,4202.564,4230.769127,4219.487076,4219.999897,4227.692204,4213.846051,4204.102461,4218.461435,4205.128102,4232.820409,4242.563999
112,0,4205.128102,4217.435794,4244.10246,4195.384513,4229.230666,4223.07682,4224.615281,4230.769127,4210.769128,4203.589641,4215.384512,4196.922974,4228.205025,4219.487076
113,0,4221.025538,4224.102461,4232.820409,4218.974256,4232.307589,4230.256307,4232.307589,4242.051178,4225.640922,4218.461435,4225.640922,4205.640923,4242.051178,4215.897333
114,0,4247.179383,4235.384512,4226.666563,4237.948614,4246.153742,4233.33323,4237.948614,4247.179383,4235.384512,4222.051179,4233.84605,4218.974256,4250.256306,4232.820409
115,0,4242.563999,4230.256307,4230.769127,4219.999897,4250.256306,4238.461435,4235.384512,4244.10246,4219.999897,4204.102461,4225.128102,4212.82041,4233.33323,4216.922974
116,0,4222.051179,4214.358871,4229.743486,4209.230666,4232.307589,4245.128101,4233.84605,4243.076819,4212.82041,4199.999897,4216.922974,4202.564,4223.58964,4208.717846
117,0,4222.563999,4218.974256,4226.153743,4231.794768,4228.205025,4241.538358,4239.487076,4249.743486,4235.384512,4227.179384,4234.358871,4209.743487,4243.076819,4243.58964
118,0,4243.58964,4234.871691,4232.307589,4238.461435,4248.717845,4232.307589,4244.615281,4252.820409,4247.692204,4239.999896,4248.717845,4217.435794,4254.871691,4245.640922
119,0,4251.794768,4235.897332,4237.435794,4223.07682,4253.333229,4231.281948,4242.051178,4249.230665,4232.307589,4228.717845,4243.58964,4215.384512,4246.666563,4235.384512
120,0,4245.640922,4230.769127,4226.153743,4235.384512,4245.640922,4239.999896,4241.025537,4249.230665,4228.717845,4231.281948,4245.640922,4214.871692,4245.640922,4257.948614
121,0,4246.666563,4234.358871,4209.743487,4252.820409,4247.692204,4246.153742,4244.615281,4251.794768,4236.410153,4233.33323,4248.717845,4216.922974,4249.743486,4252.820409
122,0,4238.461435,4235.384512,4212.82041,4235.384512,4250.256306,4241.538358,4237.435794,4246.153742,4232.820409,4217.948615,4232.307589,4213.846051,4244.615281,4209.743487
123,0,4211.281948,4229.230666,4224.102461,4223.07682,4239.999896,4230.769127,4227.692204,4237.435794,4227.692204,4218.461435,4219.487076,4209.230666,4241.538358,4191.794769
124,0,4217.948615,4234.871691,4219.487076,4242.563999,4227.179384,4231.794768,4232.307589,4243.076819,4232.820409,4230.769127,4226.153743,4202.051179,4246.153742,4227.692204
125,0,4256.410152,4247.179383,4211.794769,4253.333229,4238.461435,4243.58964,4235.897332,4245.640922,4234.871691,4230.256307,4233.33323,4198.461436,4249.230665,4274.35887
126,0,4263.589639,4247.692204,4218.974256,4245.128101,4268.717844,4245.128101,4229.743486,4234.358871,4226.666563,4226.153743,4236.922973,4208.205025,4247.692204,4271.281947
127,0,4248.717845,4245.128101,4222.051179,4245.640922,4271.794767,4242.563999,4237.435794,4238.461435,4230.769127,4234.358871,4247.692204,4221.538358,4253.84605,4234.358871
128,0,4245.128101,4247.179383,4215.384512,4246.666563,4249.230665,4246.666563,4247.692204,4254.35887,4242.563999,4242.563999,4251.281947,4215.897333,4259.487075,4236.410153
0,0,4240.512717,4242.051178,4223.07682,4233.33323,4239.999896,4242.051178,4238.974255,4246.153742,4233.84605,4236.410153,4234.358871,4201.025538,4249.230665,4235.384512
1,0,4227.692204,4237.948614,4234.871691,4225.128102,4249.230665,4230.256307,4227.179384,4231.281948,4221.538358,4226.666563,4229.230666,4207.692205,4242.563999,4206.153743
2,0,4226.153743,4242.563999,4226.153743,4231.281948,4251.281947,4237.948614,4231.281948,4237.435794,4228.205025,4229.230666,4241.538358,4215.897333,4249.230665,4227.692204
3,0,4227.179384,4236.410153,4213.33323,4235.897332,4235.897332,4250.769127,4242.051178,4244.615281,4231.281948,4232.307589,4239.999896,4198.974256,4247.179383,4256.410152
4,0,4229.743486,4228.717845,4212.82041,4241.538358,4235.384512,4247.692204,4245.640922,4246.153742,4228.717845,4232.820409,4231.794768,4196.410154,4243.076819,4243.076819
5,0,4244.615281,4239.487076,4209.743487,4262.563998,4257.435793,4246.153742,4248.205024,4255.897332,4241.538358,4243.58964,4246.666563,4222.563999,4258.461434,4246.153742
6,0,4249.230665,4250.769127,4201.538359,4280.512716,4259.999896,4251.794768,4255.897332,4267.692203,4253.333229,4251.794768,4264.61528,4236.922973,4270.256306,4256.922973
7,0,4251.794768,4244.10246,4202.051179,4270.769126,4241.538358,4247.692204,4256.410152,4266.153742,4247.179383,4249.743486,4257.948614,4230.256307,4258.974255,4240.512717
8,0,4259.999896,4232.820409,4217.948615,4247.179383,4245.128101,4235.384512,4246.153742,4253.333229,4235.897332,4244.615281,4245.640922,4223.07682,4247.692204,4244.615281
9,0,4251.281947,4236.922973,4229.230666,4248.205024,4256.922973,4238.461435,4244.10246,4250.769127,4237.948614,4237.435794,4246.153742,4218.974256,4250.769127,4256.922973
10,0,4233.33323,4246.153742,4216.410153,4266.666562,4254.35887,4247.692204,4251.281947,4262.051178,4244.615281,4234.358871,4246.666563,4217.948615,4252.307588,4246.666563
11,0,4228.717845,4238.461435,4197.435795,4265.640921,4245.128101,4241.538358,4251.794768,4266.666562,4237.435794,4235.897332,4236.410153,4216.410153,4247.179383,4253.333229
12,0,4237.435794,4230.769127,4196.410154,4260.512716,4236.410153,4235.384512,4245.640922,4257.948614,4231.794768,4233.33323,4229.743486,4216.410153,4245.640922,4242.563999
13,0,4249.230665,4240.512717,4209.230666,4268.205024,4244.10246,4238.974255,4236.922973,4247.179383,4232.820409,4227.179384,4233.33323,4214.871692,4245.128101,4213.846051
14,0,4249.230665,4241.025537,4217.435794,4252.307588,4253.84605,4234.871691,4228.717845,4234.871691,4223.07682,4221.025538,4232.820409,4204.615282,4235.897332,4238.974255
15,0,4227.692204,4227.179384,4211.281948,4228.205025,4238.974255,4227.179384,4227.179384,4229.230666,4212.82041,4215.384512,4227.179384,4195.897333,4231.281948,4263.076819
16,0,4217.435794,4227.179384,4199.487077,4244.615281,4231.281948,4232.820409,4232.307589,4234.358871,4222.563999,4221.538358,4227.692204,4198.461436,4238.974255,4233.33323
17,0,4241.538358,4247.692204,4199.487077,4273.846049,4249.743486,4235.897332,4234.358871,4235.897332,4230.256307,4231.281948,4241.025537,4208.205025,4251.794768,4226.153743
18,0,4260.512716,4257.435793,4217.948615,4252.820409,4252.307588,4231.281948,4231.794768,4232.307589,4220.512717,4225.640922,4246.153742,4215.384512,4258.461434,4255.897332
19,0,4264.10246,4250.256306,4238.974255,4210.256307,4230.769127,4228.717845,4230.769127,4224.102461,4212.82041,4214.871692,4233.84605,4211.794769,4255.897332,4262.563998
20,0,4297.435792,4272.307588,4250.256306,4218.974256,4227.179384,4227.692204,4227.692204,4218.974256,4214.358871,4213.846051,4236.410153,4214.358871,4269.230665,4286.153741
21,0,4362.563996,4321.025535,4251.794768,4265.128101,4236.410153,4221.538358,4218.461435,4224.615281,4217.435794,4218.461435,4261.025537,4234.358871,4302.051177,4351.794765
22,0,4413.333225,4351.281945,4250.256306,4291.281946,4231.794768,4213.33323,4212.307589,4229.230666,4215.384512,4216.410153,4271.794767,4251.794768,4320.512715,4391.281944
23,0,4438.46143,4365.128098,4250.256306,4294.358869,4226.666563,4215.384512,4216.922974,4223.58964,4205.640923,4209.230666,4266.153742,4248.717845,4313.846048,4396.922969
24,0,4453.846045,4388.205021,4245.640922,4304.615279,4229.230666,4213.33323,4217.435794,4211.281948,4193.846051,4197.435795,4257.435793,4235.897332,4302.563997,4408.717841
25,0,4470.256301,4407.179379,4234.871691,4324.102458,4229.743486,4207.179384,4211.281948,4205.128102,4190.256308,4189.230667,4253.84605,4237.948614,4299.999895,4427.179379
26,0,4494.358864,4415.897328,4230.256307,4339.487073,4228.717845,4213.33323,4214.358871,4215.384512,4197.435795,4196.922974,4258.974255,4258.974255,4304.102459,4437.948609
27,0,4513.846043,4429.230661,4241.025537,4335.384509,4233.33323,4221.025538,4227.692204,4231.794768,4210.769128,4204.615282,4257.435793,4267.179383,4303.589638,4455.897327
28,0,4506.666556,4435.384507,4251.281947,4325.128099,4234.871691,4217.435794,4233.33323,4234.358871,4214.871692,4198.974256,4245.128101,4247.692204,4286.153741,4466.153737
29,0,4503.076813,4434.871686,4248.717845,4339.999894,4234.871691,4216.922974,4229.743486,4229.230666,4203.589641,4195.897333,4246.666563,4235.897332,4277.948613,4443.076814
30,0,4499.99989,4435.897327,4243.076819,4353.846047,4246.153742,4229.230666,4231.794768,4233.33323,4204.102461,4207.179384,4256.410152,4248.717845,4282.563998,4419.999892
31,0,4465.128096,4424.615276,4245.640922,4333.846048,4249.230665,4229.230666,4235.897332,4234.871691,4216.410153,4215.384512,4247.692204,4251.281947,4267.179383,4415.897328
32,0,4427.692199,4401.538354,4252.307588,4310.256305,4235.384512,4217.435794,4232.307589,4230.256307,4216.410153,4211.794769,4234.358871,4240.512717,4247.692204,4392.307585
33,0,4414.871687,4383.076816,4244.10246,4316.410151,4237.948614,4221.025538,4230.769127,4233.33323,4213.846051,4209.743487,4236.922973,4238.974255,4245.640922,4349.230663
34,0,4406.153738,4367.17938,4230.256307,4324.615279,4251.281947,4231.794768,4236.922973,4241.025537,4222.051179,4218.461435,4244.10246,4241.025537,4251.281947,4351.794765
35,0,4378.974252,4351.794765,4230.256307,4317.948612,4247.692204,4234.871691,4247.179383,4247.692204,4229.230666,4230.769127,4249.230665,4242.051178,4256.410152,4371.281944
36,0,4344.615278,4337.435791,4237.435794,4305.1281,4241.538358,4235.897332,4254.35887,4248.717845,4231.281948,4232.820409,4252.820409,4243.076819,4262.051178,4340.512714
37,0,4324.102458,4319.999894,4244.10246,4278.974254,4246.153742,4236.410153,4247.692204,4239.487076,4227.179384,4229.743486,4253.333229,4233.33323,4261.025537,4307.692202
38,0,4316.922971,4303.589638,4254.871691,4253.333229,4237.948614,4227.692204,4231.794768,4227.179384,4222.051179,4229.230666,4245.128101,4227.179384,4251.281947,4297.435792
39,0,4297.948613,4291.794767,4252.307588,4253.333229,4225.640922,4227.179384,4227.692204,4230.256307,4227.179384,4234.871691,4236.410153,4230.256307,4240.512717,4284.102459
40,0,4274.87169,4280.512716,4230.256307,4268.205024,4238.461435,4236.410153,4234.358871,4242.051178,4233.33323,4241.025537,4235.384512,4224.102461,4234.871691,4272.820408
41,0,4277.435793,4273.846049,4215.384512,4262.051178,4250.256306,4232.820409,4231.794768,4237.435794,4229.230666,4237.435794,4231.794768,4210.256307,4233.33323,4269.743485
42,0,4281.538357,4276.410152,4210.769128,4255.384511,4234.871691,4229.230666,4226.153743,4226.153743,4227.179384,4230.256307,4227.179384,4210.769128,4229.230666,4264.10246
43,0,4270.256306,4276.410152,4207.179384,4275.384511,4231.281948,4235.384512,4231.794768,4227.692204,4229.743486,4231.281948,4228.717845,4214.871692,4227.692204,4261.538357
44,0,4258.461434,4270.769126,4207.179384,4288.717844,4240.512717,4236.410153,4233.84605,4233.84605,4229.743486,4231.281948,4231.794768,4215.897333,4231.794768,4265.128101
45,0,4259.487075,4265.640921,4203.07682,4281.538357,4234.358871,4236.922973,4228.717845,4232.307589,4230.769127,4228.205025,4230.769127,4220.512717,4232.307589,4265.640921
46,0,4267.692203,4262.563998,4196.410154,4279.999895,4238.461435,4242.051178,4232.307589,4232.307589,4231.794768,4238.461435,4231.281948,4221.025538,4229.230666,4261.025537
47,0,4261.025537,4262.563998,4196.410154,4288.717844,4251.281947,4238.974255,4239.999896,4237.948614,4234.871691,4250.256306,4234.358871,4217.948615,4230.769127,4244.10246
48,0,4239.487076,4259.999896,4200.512718,4281.538357,4241.025537,4233.33323,4238.461435,4245.640922,4243.076819,4249.743486,4233.84605,4218.974256,4231.794768,4224.102461
49,0,4227.179384,4252.307588,4201.025538,4263.589639,4233.33323,4234.358871,4232.820409,4248.205024,4248.717845,4248.717845,4233.33323,4215.897333,4225.640922,4231.281948
50,0,4231.281948,4247.692204,4199.999897,4261.538357,4239.487076,4234.871691,4233.84605,4245.128101,4247.179383,4245.128101,4231.281948,4207.179384,4221.025538,4244.10246
51,0,4224.102461,4249.230665,4199.487077,4263.589639,4231.794768,4234.358871,4237.435794,4246.153742,4241.538358,4235.384512,4228.717845,4207.179384,4219.999897,4218.974256
52,0,4208.717846,4245.640922,4201.538359,4254.871691,4221.025538,4232.307589,4234.358871,4244.615281,4233.33323,4227.179384,4219.487076,4211.794769,4216.922974,4195.897333
53,0,4214.871692,4241.025537,4201.025538,4244.10246,4226.666563,4232.820409,4231.281948,4235.897332,4227.179384,4222.051179,4207.692205,4201.538359,4214.358871,4216.922974
54,0,4218.974256,4241.025537,4195.897333,4247.179383,4240.512717,4238.461435,4231.281948,4228.717845,4225.128102,4216.410153,4200.512718,4187.179385,4213.33323,4219.999897
55,0,4204.102461,4237.435794,4194.358872,4250.769127,4246.666563,4237.435794,4230.256307,4229.743486,4224.615281,4217.948615,4202.051179,4189.230667,4209.230666,4196.922974
56,0,4197.435795,4239.999896,4200.512718,4242.051178,4238.974255,4229.230666,4230.769127,4239.487076,4237.435794,4233.33323,4211.794769,4201.538359,4212.307589,4211.794769
57,0,4203.589641,4247.179383,4210.256307,4227.692204,4230.769127,4233.84605,4233.84605,4245.640922,4246.666563,4244.10246,4218.974256,4201.538359,4218.974256,4231.281948
58,0,4204.615282,4241.538358,4217.435794,4222.051179,4230.769127,4238.974255,4233.84605,4241.538358,4237.435794,4232.307589,4216.410153,4198.461436,4208.205025,4205.640923
59,0,4201.538359,4241.025537,4217.948615,4231.794768,4232.820409,4236.922973,4233.33323,4242.051178,4238.461435,4226.153743,4214.358871,4211.794769,4203.07682,4194.358872
60,0,4206.153743,4249.230665,4207.692205,4238.974255,4233.84605,4239.487076,4236.922973,4250.769127,4249.743486,4243.076819,4219.487076,4214.871692,4216.922974,4221.025538
61,0,4209.743487,4238.461435,4195.897333,4233.33323,4231.281948,4238.461435,4234.871691,4248.717845,4242.051178,4248.717845,4224.615281,4199.999897,4217.948615,4220.512717
62,0,4209.743487,4227.179384,4198.974256,4231.794768,4229.743486,4236.410153,4229.230666,4241.025537,4231.794768,4235.897332,4228.205025,4198.461436,4206.666564,4194.871692
63,0,4210.769128,4239.487076,4213.33323,4234.358871,4233.33323,4240.512717,4230.256307,4244.10246,4238.461435,4232.820409,4230.256307,4205.128102,4209.743487,4205.640923
64,0,4214.871692,4251.281947,4223.07682,4232.307589,4235.897332,4245.128101,4235.384512,4248.717845,4248.717845,4235.384512,4230.769127,4207.692205,4213.846051,4240.512717
65,0,4215.897333,4245.640922,4230.769127,4219.999897,4236.410153,4245.128101,4234.871691,4245.128101,4246.666563,4236.410153,4232.820409,4214.358871,4211.281948,4237.435794
66,0,4217.435794,4236.410153,4237.948614,4210.769128,4234.358871,4235.897332,4229.230666,4242.563999,4237.948614,4240.512717,4232.820409,4218.461435,4214.871692,4210.769128
67,0,4222.563999,4237.435794,4228.205025,4219.487076,4232.820409,4229.230666,4230.256307,4241.538358,4233.33323,4238.974255,4230.769127,4211.794769,4216.922974,4218.461435
68,0,4216.922974,4246.153742,4212.307589,4234.871691,4235.897332,4240.512717,4235.897332,4237.948614,4234.358871,4231.281948,4231.281948,4203.589641,4212.82041,4238.974255
69,0,4212.82041,4246.666563,4219.999897,4234.871691,4233.33323,4251.794768,4235.384512,4232.820409,4231.794768,4229.743486,4233.33323,4202.564,4216.410153,4236.922973
70,0,4219.487076,4239.487076,4239.487076,4226.153743,4233.84605,4243.076819,4230.769127,4231.794768,4229.230666,4230.769127,4229.743486,4208.717846,4214.358871,4228.717845
71,0,4218.974256,4239.487076,4234.358871,4227.692204,4243.58964,4235.384512,4231.794768,4239.487076,4233.84605,4230.256307,4224.615281,4209.230666,4203.589641,4222.051179
72,0,4224.102461,4239.487076,4208.205025,4237.435794,4241.538358,4236.922973,4234.871691,4247.692204,4237.435794,4231.794768,4226.153743,4201.538359,4201.538359,4215.897333
73,0,4234.871691,4234.358871,4199.487077,4238.974255,4231.794768,4235.897332,4234.871691,4247.179383,4234.871691,4231.794768,4228.205025,4199.487077,4206.153743,4215.897333
74,0,4215.384512,4231.281948,4203.589641,4236.922973,4227.692204,4233.33323,4235.897332,4240.512717,4232.820409,4228.205025,4223.07682,4203.07682,4203.07682,4217.435794
75,0,4182.564,4229.230666,4201.025538,4237.435794,4217.435794,4231.794768,4229.743486,4233.33323,4229.230666,4219.487076,4213.33323,4199.999897,4195.897333,4211.794769
76,0,4184.615282,4230.256307,4206.153743,4230.769127,4216.410153,4230.256307,4222.563999,4228.717845,4222.051179,4213.33323,4213.846051,4197.435795,4197.948615,4209.230666
77,0,4200.512718,4234.871691,4217.948615,4226.153743,4243.076819,4231.794768,4227.179384,4227.179384,4216.922974,4219.487076,4220.512717,4202.564,4199.487077,4202.051179
78,0,4203.07682,4232.307589,4218.461435,4232.307589,4253.333229,4243.58964,4235.384512,4228.205025,4218.974256,4218.461435,4214.871692,4204.615282,4189.743487,4187.179385
79,0,4194.871692,4216.410153,4217.948615,4220.512717,4235.384512,4248.717845,4234.871691,4228.205025,4218.974256,4201.025538,4204.615282,4197.948615,4179.487077,4195.897333
80,0,4194.358872,4212.82041,4221.538358,4210.256307,4227.692204,4236.410153,4228.205025,4231.281948,4216.922974,4198.974256,4210.769128,4196.922974,4188.205026,4214.871692
81,0,4210.769128,4224.615281,4210.256307,4235.897332,4232.307589,4228.205025,4225.128102,4231.794768,4219.999897,4216.922974,4219.999897,4203.589641,4204.102461,4222.051179
82,0,4219.999897,4225.640922,4193.333231,4254.871691,4230.769127,4231.281948,4221.538358,4219.999897,4219.487076,4221.538358,4216.410153,4203.589641,4201.025538,4217.435794
83,0,4205.640923,4214.358871,4195.897333,4237.435794,4229.230666,4231.794768,4218.461435,4212.307589,4214.358871,4213.846051,4216.410153,4201.538359,4192.82041,4198.974256
84,0,4195.384513,4212.307589,4206.153743,4224.615281,4231.794768,4224.615281,4215.897333,4217.435794,4217.435794,4214.871692,4222.563999,4201.538359,4198.461436,4191.281949
85,0,4201.025538,4217.948615,4203.589641,4231.794768,4232.307589,4224.102461,4214.871692,4220.512717,4224.102461,4223.07682,4223.07682,4197.435795,4205.640923,4207.179384
86,0,4193.333231,4216.922974,4196.410154,4234.358871,4231.794768,4230.256307,4216.410153,4216.410153,4221.538358,4223.58964,4217.435794,4191.281949,4199.999897,4207.692205
87,0,4179.487077,4214.871692,4195.897333,4230.256307,4231.281948,4234.871691,4218.974256,4215.897333,4214.871692,4215.384512,4212.307589,4189.230667,4193.846051,4189.230667
88,0,4186.666564,4217.435794,4192.30759,4232.307589,4233.33323,4233.84605,4217.948615,4218.461435,4216.922974,4215.897333,4216.410153,4189.230667,4198.461436,4198.461436
89,0,4198.974256,4215.384512,4182.564,4236.410153,4237.948614,4230.769127,4215.897333,4217.948615,4221.025538,4224.102461,4223.58964,4188.717846,4204.102461,4208.717846
90,0,4196.410154,4210.256307,4189.743487,4219.999897,4232.307589,4230.256307,4219.999897,4217.948615,4216.922974,4222.563999,4221.025538,4189.230667,4201.538359,4176.922975
91,0,4177.435795,4208.717846,4213.846051,4196.410154,4219.999897,4225.640922,4216.410153,4216.410153,4213.846051,4223.07682,4216.922974,4186.153744,4197.948615,4169.230667
92,0,4168.205026,4210.769128,4226.153743,4192.82041,4223.58964,4218.461435,4205.128102,4212.82041,4217.948615,4233.33323,4221.025538,4184.102462,4200.512718,4209.743487
93,0,4186.666564,4212.307589,4217.948615,4201.538359,4236.410153,4215.384512,4205.128102,4212.82041,4217.948615,4236.410153,4225.128102,4195.897333,4201.538359,4218.974256
94,0,4203.589641,4213.846051,4205.128102,4207.692205,4230.256307,4223.07682,4213.33323,4216.410153,4215.897333,4233.33323,4221.025538,4201.538359,4197.948615,4176.922975
95,0,4192.30759,4214.871692,4211.794769,4206.153743,4220.512717,4228.205025,4216.410153,4219.487076,4225.128102,4231.794768,4214.871692,4188.205026,4197.948615,4176.922975
96,0,4181.025539,4213.33323,4221.538358,4198.461436,4228.205025,4224.615281,4213.33323,4216.410153,4232.307589,4227.692204,4216.922974,4181.025539,4201.538359,4206.153743
97,0,4195.897333,4214.871692,4203.589641,4208.717846,4233.33323,4226.153743,4214.871692,4212.307589,4226.666563,4227.692204,4218.974256,4188.205026,4201.025538,4174.871693
98,0,4193.333231,4216.410153,4181.538359,4233.84605,4225.640922,4232.307589,4224.102461,4217.948615,4226.666563,4233.33323,4213.33323,4187.179385,4193.846051,4154.871693
99,0,4167.179385,4215.384512,4184.615282,4238.974255,4231.281948,4233.84605,4226.666563,4219.999897,4233.84605,4230.769127,4211.281948,4181.025539,4192.82041,4205.640923
100,0,4165.128103,4217.435794,4199.999897,4213.846051,4237.948614,4228.205025,4213.33323,4206.153743,4225.640922,4224.615281,4218.461435,4185.640923,4199.999897,4226.666563
101,0,4190.256308,4213.33323,4209.230666,4187.179385,4220.512717,4223.58964,4200.512718,4196.410154,4212.307589,4218.461435,4218.461435,4186.666564,4196.410154,4175.897334
102,0,4197.435795,4206.153743,4216.922974,4181.025539,4210.769128,4217.948615,4199.487077,4199.999897,4211.794769,4217.435794,4210.256307,4178.974257,4185.128103,4147.692206
103,0,4173.333231,4206.153743,4221.025538,4185.640923,4226.153743,4214.871692,4199.487077,4200.512718,4214.358871,4222.051179,4209.230666,4178.461436,4188.717846,4186.666564
104,0,4169.743488,4209.743487,4219.487076,4185.640923,4228.717845,4223.58964,4202.051179,4202.564,4213.33323,4219.999897,4213.33323,4183.076821,4199.487077,4210.256307
105,0,4185.128103,4211.794769,4216.922974,4190.256308,4215.384512,4225.640922,4208.717846,4212.307589,4213.846051,4219.999897,4216.922974,4187.179385,4199.487077,4183.076821
106,0,4168.717847,4212.307589,4218.974256,4196.410154,4216.922974,4217.435794,4215.384512,4217.948615,4216.922974,4227.692204,4221.025538,4191.281949,4196.922974,4178.974257
107,0,4155.384514,4206.666564,4223.58964,4195.897333,4232.307589,4221.025538,4219.487076,4216.922974,4216.922974,4225.640922,4221.025538,4188.717846,4201.538359,4207.692205
108,0,4181.538359,4199.999897,4216.410153,4196.922974,4233.84605,4230.769127,4219.999897,4215.384512,4214.871692,4216.410153,4215.384512,4183.076821,4200.512718,4201.025538
109,0,4195.384513,4204.615282,4203.589641,4202.564,4218.974256,4227.692204,4217.435794,4214.358871,4214.358871,4216.922974,4213.33323,4189.230667,4190.769128,4173.846052
110,0,4178.974257,4212.307589,4201.538359,4210.769128,4220.512717,4226.666563,4217.435794,4216.922974,4217.435794,4222.563999,4214.358871,4192.30759,4190.256308,4187.692205
111,0,4178.974257,4209.743487,4204.615282,4217.435794,4233.84605,4234.358871,4223.58964,4221.538358,4221.025538,4228.205025,4212.82041,4184.615282,4199.487077,4210.256307
112,0,4184.102462,4206.153743,4202.564,4215.897333,4216.922974,4229.230666,4225.128102,4217.435794,4219.487076,4229.743486,4215.384512,4188.205026,4200.512718,4195.897333
113,0,4183.076821,4210.256307,4198.461436,4213.33323,4200.512718,4223.58964,4216.922974,4215.384512,4216.922974,4221.538358,4221.025538,4200.512718,4196.410154,4182.05118
114,0,4190.769128,4216.410153,4199.487077,4219.487076,4226.666563,4229.743486,4220.512717,4223.07682,4219.999897,4216.922974,4215.897333,4197.435795,4196.410154,4193.846051
115,0,4196.922974,4214.358871,4201.025538,4220.512717,4244.10246,4233.33323,4232.307589,4223.07682,4216.410153,4215.384512,4208.205025,4191.281949,4194.358872,4197.435795
116,0,4196.922974,4211.794769,4203.589641,4215.897333,4229.230666,4229.230666,4228.717845,4216.410153,4202.051179,4211.794769,4213.33323,4198.974256,4195.897333,4195.897333
117,0,4195.897333,4214.358871,4207.179384,4222.563999,4225.128102,4225.640922,4222.051179,4214.871692,4202.051179,4215.384512,4219.999897,4206.153743,4201.538359,4209.230666
118,0,4203.07682,4216.922974,4206.153743,4230.256307,4228.205025,4230.769127,4229.743486,4219.487076,4212.307589,4217.435794,4216.922974,4202.051179,4194.871692,4207.692205
119,0,4214.358871,4224.102461,4205.640923,4233.33323,4219.487076,4234.871691,4234.871691,4226.153743,4207.179384,4212.307589,4212.307589,4202.051179,4188.717846,4193.333231
120,0,4216.922974,4230.256307,4203.589641,4241.025537,4216.410153,4235.897332,4232.307589,4233.84605,4204.615282,4214.871692,4212.307589,4203.589641,4196.922974,4213.846051
121,0,4222.563999,4230.769127,4202.051179,4240.512717,4219.487076,4231.281948,4228.717845,4231.794768,4218.461435,4215.897333,4213.846051,4199.487077,4204.102461,4238.461435
122,0,4241.538358,4238.974255,4208.205025,4230.769127,4213.846051,4218.461435,4220.512717,4220.512717,4217.435794,4205.640923,4216.410153,4198.461436,4203.589641,4223.07682
123,0,4256.410152,4251.794768,4216.922974,4234.871691,4206.153743,4213.846051,4215.897333,4214.871692,4202.051179,4196.410154,4210.256307,4199.999897,4199.487077,4222.563999
124,0,4271.281947,4260.512716,4214.871692,4248.717845,4216.410153,4218.461435,4217.435794,4213.846051,4202.051179,4201.538359,4208.205025,4203.589641,4204.615282,4265.640921
125,0,4302.051177,4275.897331,4214.871692,4261.025537,4232.307589,4222.563999,4224.615281,4223.58964,4218.461435,4217.435794,4237.435794,4221.538358,4236.410153,4287.692203
126,0,4322.051176,4287.179382,4227.692204,4264.61528,4230.256307,4222.563999,4231.281948,4229.743486,4219.999897,4225.640922,4259.999896,4235.897332,4265.640921,4278.974254
127,0,4329.743484,4285.1281,4237.948614,4252.307588,4217.948615,4221.025538,4222.563999,4219.487076,4205.128102,4214.871692,4248.205024,4225.640922,4268.205024,4303.589638
128,0,4337.948612,4282.563998,4226.153743,4256.922973,4213.846051,4222.051179,4217.948615,4221.025538,4210.256307,4212.82041,4249.743486,4218.461435,4276.410152,4348.205022
0,0,4332.820407,4265.640921,4222.051179,4250.256306,4208.717846,4223.58964,4222.051179,4224.615281,4216.410153,4220.512717,4261.538357,4214.358871,4281.025536,4341.025535
1,0,4305.1281,4235.384512,4264.61528,4178.974257,4198.461436,4216.410153,4209.230666,4208.717846,4202.564,4208.205025,4241.025537,4195.384513,4256.410152,4290.769126
2,0,4266.666562,4227.179384,4302.563997,4132.820412,4205.640923,4210.256307,4197.435795,4204.615282,4199.487077,4200.512718,4230.256307,4196.410154,4248.205024,4249.230665
3,0,4249.743486,4231.281948,4280.512716,4179.999898,4228.717845,4223.07682,4212.82041,4221.025538,4208.717846,4223.07682,4251.281947,4216.410153,4268.205024,4241.538358
4,0,4258.974255,4220.512717,4251.281947,4211.281948,4241.025537,4236.410153,4229.230666,4221.025538,4211.281948,4237.435794,4255.384511,4212.307589,4266.153742,4254.35887
5,0,4253.84605,4210.256307,4250.769127,4189.743487,4230.256307,4232.820409,4228.205025,4214.358871,4212.307589,4224.102461,4237.435794,4194.358872,4247.692204,4247.692204
6,0,4227.692204,4209.743487,4233.33323,4200.512718,4217.435794,4228.205025,4227.179384,4223.07682,4218.974256,4220.512717,4232.307589,4194.871692,4244.10246,4232.307589
7,0,4230.769127,4210.256307,4211.281948,4226.666563,4224.102461,4238.461435,4231.281948,4232.307589,4225.640922,4231.281948,4243.076819,4207.179384,4248.717845,4237.948614
8,0,4247.179383,4214.871692,4224.615281,4223.07682,4233.84605,4247.692204,4232.820409,4241.025537,4233.33323,4233.33323,4251.794768,4216.410153,4250.256306,4243.58964
9,0,4232.820409,4217.435794,4234.871691,4222.563999,4230.769127,4243.58964,4233.84605,4248.717845,4234.871691,4237.435794,4248.717845,4215.384512,4249.230665,4230.256307
10,0,4214.358871,4210.256307,4217.435794,4230.256307,4231.281948,4241.025537,4237.435794,4249.230665,4236.410153,4247.179383,4246.153742,4208.205025,4247.179383,4213.33323
11,0,4213.33323,4200.512718,4213.33323,4216.922974,4232.820409,4237.948614,4236.922973,4248.717845,4246.153742,4248.717845,4247.179383,4208.717846,4243.076819,4214.871692
12,0,4214.871692,4202.564,4233.33323,4201.025538,4219.999897,4232.820409,4235.384512,4253.333229,4248.717845,4246.666563,4242.563999,4213.846051,4241.538358,4215.384512
13,0,4208.205025,4213.33323,4233.84605,4211.794769,4219.999897,4238.974255,4244.10246,4259.999896,4245.128101,4247.692204,4244.615281,4213.846051,4246.666563,4202.051179
14,0,4194.871692,4212.82041,4225.640922,4224.615281,4247.179383,4250.769127,4251.281947,4259.999896,4247.692204,4250.256306,4252.820409,4215.897333,4250.769127,4197.435795
15,0,4187.179385,4203.589641,4228.205025,4212.82041,4253.84605,4251.281947,4246.153742,4258.974255,4256.410152,4257.948614,4251.281947,4212.82041,4248.205024,4189.743487
16,0,4191.794769,4199.487077,4222.051179,4201.538359,4235.384512,4250.769127,4247.179383,4262.051178,4261.025537,4260.512716,4244.10246,4201.025538,4241.538358,4187.179385
17,0,4201.025538,4201.025538,4210.769128,4210.769128,4236.922973,4253.84605,4252.307588,4267.179383,4258.461434,4256.410152,4247.179383,4202.564,4237.948614,4213.846051
18,0,4200.512718,4201.538359,4213.33323,4214.871692,4244.615281,4249.743486,4248.717845,4267.179383,4257.435793,4261.538357,4249.743486,4217.435794,4236.922973,4224.615281
19,0,4187.179385,4198.461436,4223.07682,4200.512718,4233.33323,4247.179383,4250.256306,4267.692203,4262.051178,4262.563998,4239.999896,4219.487076,4232.820409,4194.358872
20,0,4183.589641,4197.435795,4221.025538,4197.435795,4225.640922,4247.179383,4256.922973,4268.205024,4261.538357,4249.743486,4235.897332,4212.307589,4232.307589,4175.897334
21,0,4188.717846,4199.999897,4225.640922,4209.230666,4228.717845,4243.58964,4253.84605,4266.666562,4255.384511,4244.615281,4245.128101,4216.410153,4236.410153,4187.179385
22,0,4180.512718,4201.025538,4244.10246,4208.205025,4227.179384,4242.563999,4246.666563,4263.589639,4248.717845,4250.256306,4248.205024,4219.999897,4234.358871,4206.153743
23,0,4183.076821,4203.589641,4246.153742,4204.615282,4228.205025,4244.615281,4245.128101,4257.435793,4247.179383,4250.256306,4245.128101,4213.846051,4236.922973,4216.410153
24,0,4200.512718,4210.256307,4225.640922,4219.999897,4242.051178,4249.743486,4251.281947,4260.512716,4254.871691,4255.897332,4254.871691,4212.307589,4247.179383,4208.717846
25,0,4202.564,4214.871692,4213.33323,4235.897332,4249.230665,4258.974255,4264.61528,4275.384511,4265.640921,4271.281947,4265.128101,4224.102461,4250.769127,4190.256308
26,0,4206.666564,4217.948615,4217.435794,4237.948614,4248.717845,4263.076819,4268.717844,4277.435793,4267.179383,4281.025536,4266.666562,4237.948614,4254.871691,4195.897333
27,0,4225.640922,4215.897333,4225.128102,4228.205025,4242.563999,4248.205024,4253.333229,4262.051178,4258.461434,4269.743485,4268.717844,4238.461435,4262.051178,4221.025538
28,0,4219.999897,4205.640923,4231.794768,4217.435794,4233.33323,4232.820409,4242.051178,4248.717845,4245.128101,4249.743486,4261.538357,4226.666563,4253.84605,4226.153743
29,0,4194.871692,4206.666564,4231.281948,4213.846051,4228.205025,4234.358871,4243.58964,4241.538358,4231.794768,4245.128101,4248.717845,4218.461435,4239.999896,4213.846051
30,0,4196.922974,4219.999897,4238.461435,4208.717846,4230.769127,4233.84605,4238.461435,4236.410153,4230.769127,4244.10246,4246.153742,4220.512717,4236.410153,4218.974256
31,0,4211.281948,4217.948615,4259.999896,4195.384513,4242.051178,4229.230666,4231.794768,4232.307589,4232.307589,4235.384512,4242.563999,4219.487076,4231.281948,4211.281948
32,0,4205.640923,4206.666564,4261.025537,4192.82041,4250.769127,4239.487076,4238.974255,4232.820409,4222.051179,4228.717845,4230.769127,4213.846051,4230.769127,4183.076821
33,0,4195.384513,4203.07682,4246.153742,4202.564,4242.563999,4246.666563,4248.717845,4239.999896,4215.897333,4225.640922,4230.256307,4223.07682,4233.33323,4183.589641
34,0,4195.897333,4201.538359,4243.58964,4202.564,4226.666563,4235.897332,4243.58964,4238.461435,4219.487076,4215.384512,4235.897332,4232.307589,4221.538358,4181.025539
35,0,4195.384513,4199.487077,4245.128101,4194.871692,4228.205025,4228.717845,4233.84605,4230.769127,4223.58964,4211.281948,4230.769127,4221.538358,4216.410153,4175.897334
36,0,4198.461436,4201.025538,4238.461435,4198.974256,4229.743486,4233.33323,4233.84605,4241.538358,4228.717845,4226.153743,4231.281948,4217.948615,4231.281948,4208.717846
37,0,4199.487077,4201.538359,4225.640922,4213.846051,4221.025538,4228.205025,4233.84605,4251.281947,4234.871691,4230.256307,4237.948614,4225.128102,4230.769127,4222.051179
38,0,4183.589641,4197.948615,4213.846051,4221.538358,4225.128102,4223.58964,4230.769127,4237.948614,4233.33323,4218.974256,4234.358871,4215.384512,4214.871692,4191.794769
39,0,4188.205026,4200.512718,4214.871692,4217.948615,4235.897332,4232.307589,4232.820409,4229.743486,4229.230666,4219.999897,4233.84605,4213.846051,4216.410153,4173.846052
40,0,4212.307589,4205.128102,4219.487076,4214.871692,4227.692204,4232.820409,4234.871691,4235.897332,4228.717845,4228.205025,4236.410153,4228.717845,4223.58964,4184.615282
41,0,4197.948615,4196.410154,4216.410153,4208.205025,4213.846051,4231.281948,4235.384512,4232.820409,4227.692204,4215.384512,4228.717845,4224.102461,4215.384512,4199.487077
42,0,4176.922975,4182.564,4216.922974,4201.025538,4221.025538,4244.10246,4244.615281,4236.410153,4231.281948,4207.692205,4224.615281,4218.461435,4212.307589,4203.589641
43,0,4189.230667,4177.435795,4213.846051,4204.615282,4231.794768,4249.743486,4252.307588,4246.153742,4234.358871,4223.07682,4234.871691,4228.205025,4224.615281,4197.435795
44,0,4189.230667,4189.230667,4203.07682,4216.922974,4221.538358,4232.820409,4239.999896,4237.435794,4233.84605,4225.640922,4237.948614,4222.051179,4231.281948,4205.640923
45,0,4189.743487,4211.281948,4205.128102,4228.205025,4208.205025,4225.640922,4226.153743,4224.102461,4231.794768,4220.512717,4229.743486,4209.743487,4221.538358,4218.974256
46,0,4213.33323,4223.58964,4209.230666,4236.410153,4219.487076,4232.820409,4229.230666,4228.717845,4230.769127,4227.692204,4229.230666,4216.922974,4213.33323,4200.512718
47,0,4211.281948,4218.461435,4204.102461,4235.897332,4237.435794,4232.820409,4233.84605,4233.84605,4232.820409,4234.871691,4232.307589,4223.07682,4216.410153,4174.358872
48,0,4202.564,4214.871692,4204.102461,4232.307589,4236.410153,4235.897332,4232.307589,4229.743486,4233.33323,4234.358871,4229.743486,4217.435794,4219.999897,4190.769128
49,0,4213.33323,4221.025538,4207.179384,4234.358871,4232.820409,4248.205024,4239.487076,4232.820409,4232.307589,4232.820409,4231.794768,4216.922974,4217.948615,4215.384512
50,0,4210.769128,4221.025538,4203.589641,4233.84605,4238.461435,4250.769127,4249.230665,4237.948614,4236.410153,4231.281948,4240.512717,4217.948615,4219.487076,4203.589641
51,0,4208.205025,4221.538358,4198.974256,4233.33323,4236.922973,4245.640922,4240.512717,4233.33323,4242.051178,4232.307589,4238.974255,4217.435794,4221.025538,4207.179384
52,0,4212.82041,4229.743486,4197.948615,4242.051178,4233.33323,4246.153742,4231.794768,4233.84605,4247.179383,4234.871691,4228.717845,4218.974256,4219.487076,4208.205025
53,0,4197.948615,4234.358871,4208.205025,4239.487076,4237.435794,4248.205024,4237.435794,4244.615281,4249.230665,4233.33323,4232.820409,4217.435794,4221.538358,4173.333231
54,0,4207.179384,4234.358871,4222.563999,4228.205025,4240.512717,4247.692204,4245.640922,4248.205024,4247.179383,4241.025537,4248.205024,4216.922974,4230.256307,4194.358872
55,0,4239.999896,4233.33323,4217.948615,4233.84605,4240.512717,4250.256306,4246.666563,4246.666563,4253.333229,4251.794768,4249.743486,4228.717845,4235.897332,4260.512716
56,0,4219.487076,4224.615281,4210.256307,4235.897332,4237.948614,4248.717845,4244.10246,4251.281947,4261.538357,4248.205024,4235.384512,4230.769127,4228.205025,4230.769127
57,0,4185.640923,4213.846051,4218.974256,4220.512717,4232.307589,4244.615281,4244.10246,4249.743486,4254.871691,4241.025537,4227.692204,4217.948615,4218.461435,4169.743488
58,0,4201.538359,4218.974256,4221.025538,4219.487076,4228.205025,4246.666563,4247.179383,4242.051178,4245.640922,4236.410153,4229.230666,4217.435794,4217.435794,4196.410154
59,0,4214.358871,4230.769127,4212.82041,4234.871691,4231.281948,4248.717845,4249.230665,4244.615281,4248.205024,4235.384512,4234.871691,4234.871691,4219.999897,4202.564
60,0,4199.487077,4233.33323,4217.948615,4238.974255,4236.922973,4246.153742,4248.205024,4251.794768,4251.794768,4239.487076,4239.487076,4238.461435,4219.999897,4164.615283
61,0,4206.153743,4230.769127,4231.281948,4221.538358,4233.33323,4244.615281,4242.563999,4247.692204,4246.666563,4236.922973,4234.871691,4223.58964,4217.948615,4199.999897
62,0,4222.563999,4227.179384,4238.974255,4201.538359,4229.230666,4243.58964,4232.307589,4236.410153,4237.948614,4230.256307,4228.205025,4221.025538,4218.461435,4245.640922
63,0,4217.435794,4224.102461,4231.281948,4209.230666,4236.922973,4245.640922,4229.743486,4232.820409,4232.820409,4231.794768,4230.256307,4225.128102,4218.974256,4218.461435
64,0,4212.307589,4222.051179,4225.640922,4222.563999,4235.897332,4244.615281,4234.358871,4235.897332,4232.307589,4226.153743,4232.307589,4219.999897,4217.435794,4198.974256
65,0,4215.897333,4217.948615,4239.999896,4207.179384,4219.999897,4235.897332,4228.717845,4233.84605,4233.33323,4217.948615,4227.179384,4216.922974,4216.410153,4219.999897
66,0,4217.435794,4215.897333,4255.384511,4185.640923,4219.999897,4230.769127,4223.58964,4229.743486,4240.512717,4227.179384,4230.256307,4228.205025,4223.58964,4224.102461
67,0,4217.948615,4222.563999,4253.84605,4191.281949,4223.58964,4234.871691,4228.717845,4233.33323,4248.205024,4237.948614,4238.974255,4235.384512,4228.717845,4210.256307
68,0,4208.205025,4224.615281,4246.666563,4201.538359,4214.358871,4231.794768,4232.820409,4236.922973,4247.179383,4232.820409,4233.33323,4223.58964,4220.512717,4199.487077
69,0,4193.333231,4213.846051,4240.512717,4192.82041,4220.512717,4229.230666,4229.743486,4232.307589,4239.999896,4229.230666,4226.666563,4215.384512,4214.358871,4198.461436
70,0,4199.999897,4210.256307,4232.820409,4191.794769,4234.871691,4238.974255,4227.692204,4228.717845,4234.871691,4230.256307,4227.692204,4214.871692,4220.512717,4217.948615
71,0,4207.179384,4224.615281,4230.769127,4210.256307,4233.84605,4248.205024,4237.948614,4237.948614,4238.461435,4232.307589,4232.307589,4214.871692,4229.743486,4218.461435
72,0,4196.410154,4236.410153,4227.179384,4226.153743,4232.820409,4250.256306,4251.794768,4250.769127,4248.205024,4239.999896,4242.051178,4215.384512,4235.384512,4197.948615
73,0,4210.256307,4233.84605,4217.948615,4223.07682,4237.948614,4249.230665,4250.769127,4249.743486,4250.769127,4243.58964,4246.153742,4221.538358,4233.33323,4199.999897
74,0,4241.538358,4241.025537,4216.410153,4229.743486,4235.897332,4253.84605,4245.128101,4246.666563,4254.35887,4250.256306,4244.10246,4232.820409,4231.794768,4212.82041
75,0,4234.358871,4249.743486,4217.435794,4246.666563,4235.897332,4262.051178,4251.281947,4252.820409,4266.666562,4261.538357,4247.179383,4236.922973,4241.025537,4231.281948
76,0,4210.256307,4239.487076,4218.461435,4242.563999,4235.897332,4257.435793,4252.820409,4253.333229,4261.538357,4258.974255,4251.281947,4230.256307,4245.640922,4252.820409
77,0,4216.410153,4236.410153,4220.512717,4229.230666,4228.205025,4246.153742,4243.58964,4245.128101,4246.153742,4249.230665,4253.84605,4227.179384,4241.538358,4250.256306
78,0,4219.999897,4244.615281,4218.974256,4230.769127,4223.58964,4242.563999,4239.487076,4244.10246,4253.333229,4247.179383,4259.999896,4230.769127,4243.076819,4233.33323
79,0,4205.640923,4238.974255,4212.307589,4243.58964,4227.692204,4244.10246,4242.563999,4250.256306,4267.179383,4253.84605,4259.999896,4232.820409,4250.769127,4221.538358
80,0,4211.794769,4232.307589,4210.769128,4243.58964,4237.948614,4247.179383,4242.563999,4247.692204,4256.922973,4257.948614,4252.820409,4231.281948,4246.666563,4209.743487
81,0,4224.615281,4232.820409,4213.33323,4222.563999,4231.794768,4244.10246,4234.358871,4234.358871,4242.051178,4251.794768,4239.999896,4229.230666,4231.794768,4207.179384
82,0,4215.897333,4232.307589,4216.410153,4213.846051,4213.846051,4233.84605,4228.717845,4228.205025,4243.58964,4241.538358,4234.871691,4226.666563,4229.743486,4232.307589
83,0,4226.153743,4238.974255,4227.179384,4233.84605,4222.051179,4239.487076,4241.025537,4238.974255,4248.717845,4245.128101,4250.769127,4229.743486,4244.10246,4252.307588
84,0,4251.281947,4241.025537,4232.820409,4246.153742,4241.538358,4253.333229,4251.281947,4245.128101,4247.692204,4252.307588,4261.538357,4235.384512,4248.717845,4253.84605
85,0,4237.435794,4229.230666,4219.999897,4230.769127,4235.897332,4250.256306,4242.051178,4235.384512,4246.666563,4243.58964,4248.205024,4230.256307,4236.410153,4245.128101
86,0,4220.512717,4229.743486,4210.256307,4224.102461,4222.563999,4246.153742,4234.358871,4229.230666,4246.153742,4235.897332,4241.538358,4229.743486,4234.358871,4232.820409
87,0,4223.58964,4231.794768,4212.307589,4228.717845,4222.051179,4247.179383,4236.922973,4231.794768,4239.999896,4233.33323,4239.487076,4233.33323,4231.281948,4218.974256
88,0,4203.589641,4214.871692,4217.948615,4211.281948,4218.461435,4237.435794,4232.307589,4231.794768,4234.358871,4229.230666,4225.128102,4222.563999,4214.358871,4198.974256
89,0,4187.179385,4207.692205,4220.512717,4197.435795,4212.307589,4228.717845,4224.102461,4226.153743,4234.358871,4226.666563,4223.58964,4211.794769,4211.794769,4204.615282
90,0,4209.230666,4216.922974,4212.82041,4215.384512,4215.384512,4229.743486,4226.153743,4221.025538,4232.820409,4224.102461,4228.717845,4216.410153,4223.07682,4222.051179
91,0,4213.33323,4212.82041,4213.846051,4216.922974,4218.974256,4232.820409,4230.769127,4217.435794,4228.205025,4215.384512,4214.358871,4215.384512,4213.846051,4204.615282
92,0,4196.922974,4205.128102,4242.051178,4190.769128,4220.512717,4234.871691,4231.794768,4216.410153,4228.717845,4213.33323,4212.307589,4213.33323,4209.230666,4203.589641
