title:JTA                                                                             , recorded:03.07.20 13.19.50, sampling:128, subject:JTA                                                                             , labels:COUNTER INTERPOLATED AF3 F7 F3 FC5 T7 P7 O1 O2 P8 T8 FC6 F4 F8 AF4,, units:emotiv,,,,,,,,,
13,0,4225.128102,4215.384512,4208.205025,4228.717845,4125.128104,4208.205025,4212.82041,4213.33323,4211.281948,4232.307589,4221.538358,4215.897333,4234.871691,4228.205025
14,0,4235.384512,4224.615281,4216.410153,4223.58964,5471.794738,4224.102461,4216.410153,4215.897333,4211.794769,4228.205025,4223.58964,4218.974256,4237.948614,4225.128102
15,0,4234.871691,4229.743486,4217.435794,4216.410153,6699.999836,4233.84605,4216.922974,4217.435794,4208.205025,4208.717846,4218.461435,4221.538358,4239.487076,4233.33323
16,0,4227.692204,4226.666563,4215.897333,4216.410153,6166.666516,4219.999897,4213.33323,4211.794769,4208.717846,4212.82041,4214.871692,4218.461435,4236.410153,4246.666563
17,0,4230.769127,4226.153743,4216.922974,4216.922974,5263.076794,4212.82041,4211.281948,4204.102461,4213.846051,4227.692204,4215.384512,4217.948615,4233.84605,4248.205024
18,0,4231.794768,4230.769127,4217.948615,4222.051179,5140.512695,4224.102461,4216.410153,4205.128102,4212.82041,4226.153743,4216.410153,4223.07682,4236.922973,4238.974255
19,0,4232.820409,4235.384512,4225.128102,4224.102461,5024.615262,4235.897332,4224.102461,4212.82041,4212.82041,4226.153743,4222.563999,4225.640922,4243.58964,4229.230666
20,0,4239.487076,4234.871691,4229.743486,4219.999897,4769.743473,4235.384512,4222.051179,4213.33323,4217.435794,4230.256307,4229.743486,4221.538358,4248.717845,4239.487076
21,0,4236.922973,4233.33323,4231.794768,4207.692205,4525.128094,4223.58964,4214.358871,4207.179384,4213.33323,4218.974256,4229.230666,4221.025538,4250.769127,4255.384511
22,0,4227.692204,4234.871691,4243.076819,4191.794769,4066.666567,4219.487076,4213.846051,4209.743487,4207.179384,4209.230666,4228.205025,4223.07682,4248.205024,4236.922973
23,0,4232.820409,4237.948614,4248.205024,4192.82041,3870.256316,4230.256307,4223.07682,4214.871692,4212.307589,4223.58964,4233.33323,4223.07682,4248.717845,4228.717845
24,0,4235.897332,4232.820409,4233.84605,4213.33323,3965.128108,4234.871691,4228.205025,4213.846051,4216.922974,4234.358871,4236.922973,4223.07682,4251.281947,4258.461434
25,0,4223.07682,4229.230666,4222.051179,4224.615281,3869.230675,4229.230666,4229.743486,4221.538358,4227.692204,4231.794768,4237.435794,4223.07682,4254.35887,4266.153742
26,0,4219.487076,4226.666563,4215.897333,4226.153743,3657.435808,4231.794768,4231.281948,4231.281948,4230.769127,4233.33323,4232.820409,4218.461435,4248.717845,4234.871691
27,0,4219.999897,4218.974256,4206.153743,4228.205025,3650.769141,4231.281948,4228.717845,4230.256307,4218.974256,4231.281948,4221.538358,4213.846051,4236.922973,4224.102461
28,0,4202.564,4210.769128,4206.153743,4224.102461,3762.05119,4221.538358,4222.051179,4230.256307,4219.487076,4223.07682,4219.999897,4214.358871,4234.358871,4235.384512
29,0,4195.384513,4204.102461,4210.769128,4219.999897,3785.128113,4219.487076,4218.974256,4235.384512,4228.717845,4217.948615,4224.102461,4211.281948,4236.922973,4233.84605
30,0,4221.538358,4205.128102,4210.256307,4214.358871,3792.82042,4221.538358,4218.974256,4229.743486,4218.974256,4215.897333,4222.051179,4208.717846,4234.358871,4225.128102
31,0,4237.435794,4213.33323,4213.33323,4216.922974,3836.922983,4218.461435,4219.999897,4223.07682,4211.794769,4217.435794,4224.102461,4216.410153,4237.435794,4225.640922
32,0,4220.512717,4215.897333,4217.948615,4227.179384,3863.076829,4214.358871,4220.512717,4222.051179,4219.999897,4218.974256,4230.769127,4219.487076,4246.666563,4235.384512
33,0,4217.435794,4213.33323,4218.974256,4225.128102,3878.974264,4220.512717,4217.948615,4213.33323,4215.897333,4219.999897,4230.769127,4215.897333,4247.179383,4248.205024
34,0,4239.487076,4214.358871,4219.487076,4216.922974,3905.64093,4227.692204,4219.999897,4211.281948,4212.307589,4227.179384,4231.794768,4217.948615,4246.153742,4251.794768
35,0,4232.307589,4207.692205,4221.538358,4211.281948,3928.717853,4221.538358,4225.640922,4219.999897,4215.897333,4228.717845,4232.820409,4219.999897,4247.179383,4244.10246
36,0,4211.281948,4197.435795,4220.512717,4206.153743,3950.769134,4217.948615,4230.769127,4231.794768,4219.487076,4226.153743,4229.230666,4216.922974,4245.640922,4237.948614
37,0,4214.871692,4198.461436,4217.435794,4202.564,3974.358877,4219.487076,4232.820409,4243.076819,4227.179384,4231.281948,4226.666563,4215.897333,4241.538358,4227.692204
38,0,4211.281948,4197.948615,4215.897333,4205.128102,3982.564005,4213.846051,4227.692204,4245.128101,4228.205025,4230.256307,4226.666563,4219.999897,4234.871691,4222.051179
39,0,4201.025538,4197.435795,4216.410153,4213.33323,4003.589646,4219.999897,4228.205025,4248.717845,4234.871691,4234.871691,4231.281948,4223.07682,4237.948614,4247.692204
40,0,4215.897333,4204.102461,4219.999897,4216.410153,4034.358876,4232.307589,4237.435794,4254.35887,4247.692204,4247.692204,4234.871691,4221.538358,4248.205024,4254.871691
41,0,4238.461435,4213.33323,4226.153743,4214.871692,4038.97426,4222.051179,4234.871691,4244.10246,4237.435794,4241.538358,4235.897332,4223.58964,4250.769127,4231.281948
42,0,4242.563999,4218.461435,4233.84605,4222.563999,4050.256311,4211.794769,4223.58964,4223.07682,4214.358871,4228.717845,4242.051178,4229.743486,4249.230665,4240.512717
43,0,4243.076819,4219.999897,4231.794768,4235.384512,4084.102464,4218.974256,4226.153743,4221.025538,4212.82041,4230.769127,4242.051178,4224.615281,4251.281947,4263.076819
44,0,4240.512717,4219.999897,4222.051179,4237.435794,4103.589643,4227.692204,4233.33323,4231.794768,4222.051179,4231.794768,4235.384512,4216.410153,4252.820409,4250.256306
45,0,4225.128102,4219.999897,4217.948615,4231.281948,4110.76913,4229.230666,4232.307589,4230.256307,4217.948615,4227.692204,4230.769127,4217.435794,4247.692204,4238.461435
46,0,4212.307589,4213.33323,4217.948615,4223.58964,4126.666566,4223.58964,4230.256307,4226.153743,4212.82041,4224.615281,4221.538358,4214.871692,4235.897332,4237.435794
47,0,4212.82041,4202.564,4213.846051,4215.384512,4138.974258,4215.384512,4228.205025,4230.769127,4223.07682,4222.563999,4213.846051,4209.743487,4227.179384,4218.461435
48,0,4218.461435,4198.974256,4210.256307,4210.256307,4148.205027,4219.487076,4228.205025,4234.871691,4234.358871,4228.717845,4219.487076,4210.256307,4233.33323,4207.692205
49,0,4212.82041,4203.589641,4219.487076,4204.102461,4158.974257,4231.281948,4231.281948,4232.820409,4230.769127,4226.666563,4217.948615,4211.281948,4236.922973,4225.128102
50,0,4211.794769,4209.743487,4233.84605,4199.487077,4167.692206,4233.33323,4235.384512,4236.410153,4229.230666,4215.897333,4214.358871,4213.33323,4232.307589,4238.461435
51,0,4228.205025,4213.846051,4234.871691,4201.025538,4173.846052,4221.538358,4230.769127,4242.051178,4235.384512,4215.384512,4225.128102,4216.922974,4237.948614,4221.538358
52,0,4237.948614,4214.871692,4230.256307,4205.128102,4176.922975,4212.307589,4223.58964,4228.717845,4226.153743,4215.897333,4228.205025,4217.435794,4245.640922,4207.179384
53,0,4231.281948,4217.948615,4232.307589,4216.410153,4190.256308,4228.205025,4228.205025,4216.410153,4211.281948,4214.871692,4218.974256,4218.974256,4238.974255,4234.358871
54,0,4224.102461,4221.025538,4233.33323,4218.974256,4211.281948,4236.410153,4232.820409,4224.615281,4214.358871,4220.512717,4211.281948,4212.307589,4229.743486,4244.10246
55,0,4222.051179,4217.435794,4235.384512,4198.461436,4225.128102,4218.974256,4226.666563,4229.743486,4219.999897,4213.846051,4209.743487,4201.025538,4228.717845,4216.922974
56,0,4219.999897,4213.846051,4241.025537,4189.230667,4229.743486,4218.974256,4224.102461,4224.102461,4218.461435,4208.205025,4212.307589,4207.179384,4233.84605,4223.07682
57,0,4226.666563,4221.538358,4235.384512,4210.256307,4230.256307,4232.820409,4230.256307,4224.615281,4215.897333,4221.538358,4218.974256,4225.640922,4243.58964,4256.410152
58,0,4239.999896,4232.820409,4228.205025,4227.692204,4233.33323,4230.769127,4234.358871,4231.794768,4221.538358,4223.58964,4228.205025,4233.33323,4251.281947,4243.58964
59,0,4241.538358,4234.358871,4234.871691,4223.58964,4250.256306,4229.743486,4234.358871,4234.358871,4232.307589,4216.410153,4236.410153,4232.820409,4252.820409,4209.743487
60,0,4234.871691,4223.07682,4236.922973,4218.974256,4264.10246,4230.256307,4230.769127,4233.33323,4234.871691,4227.692204,4236.410153,4233.33323,4251.281947,4224.102461
61,0,4229.230666,4215.384512,4231.794768,4216.410153,4256.410152,4220.512717,4227.692204,4230.769127,4227.179384,4236.922973,4232.820409,4230.769127,4248.205024,4257.435793
62,0,4231.281948,4225.128102,4239.999896,4215.897333,4264.10246,4219.999897,4229.743486,4231.794768,4227.692204,4227.692204,4234.871691,4228.205025,4246.666563,4250.769127
63,0,4242.563999,4231.281948,4245.128101,4219.487076,4309.230664,4228.717845,4232.307589,4235.897332,4234.871691,4229.230666,4235.897332,4233.33323,4248.717845,4237.948614
64,0,4246.666563,4221.538358,4244.615281,4208.205025,4346.15374,4226.666563,4229.743486,4232.307589,4233.33323,4239.487076,4234.358871,4235.384512,4250.256306,4252.307588
65,0,4230.769127,4214.871692,4247.692204,4195.897333,4346.66656,4227.692204,4229.230666,4228.205025,4230.256307,4226.153743,4234.358871,4231.794768,4248.717845,4244.10246
66,0,4217.435794,4215.897333,4240.512717,4210.256307,4338.974253,4231.794768,4232.307589,4232.307589,4230.769127,4209.230666,4228.205025,4230.256307,4241.538358,4211.794769
67,0,4223.58964,4213.33323,4229.230666,4216.922974,4345.640919,4222.051179,4226.666563,4227.692204,4227.692204,4219.999897,4219.999897,4228.717845,4236.410153,4215.384512
68,0,4220.512717,4213.846051,4232.820409,4199.999897,4361.538355,4214.358871,4216.410153,4215.897333,4223.58964,4230.769127,4215.897333,4228.205025,4233.84605,4226.153743
69,0,4215.384512,4217.948615,4235.384512,4205.640923,4372.820406,4224.615281,4219.487076,4217.435794,4230.769127,4228.205025,4216.922974,4227.692204,4233.84605,4214.871692
70,0,4226.153743,4219.487076,4223.07682,4230.769127,4371.794765,4232.307589,4229.230666,4229.743486,4234.871691,4234.871691,4224.102461,4223.07682,4240.512717,4223.07682
71,0,4229.743486,4225.128102,4219.999897,4237.948614,4369.743483,4229.743486,4233.84605,4234.358871,4234.358871,4245.128101,4231.794768,4219.999897,4249.230665,4241.538358
72,0,4223.58964,4235.384512,4226.153743,4234.871691,4378.974252,4230.769127,4238.461435,4233.84605,4240.512717,4238.974255,4232.820409,4229.743486,4250.256306,4232.820409
73,0,4229.230666,4231.281948,4221.538358,4233.84605,4385.128098,4234.871691,4239.999896,4233.33323,4239.999896,4230.256307,4228.205025,4230.769127,4246.153742,4230.769127
74,0,4233.84605,4219.999897,4213.846051,4233.33323,4382.051175,4232.820409,4233.33323,4231.281948,4231.281948,4232.820409,4228.205025,4219.999897,4246.666563,4245.640922
75,0,4219.999897,4222.051179,4213.846051,4233.33323,4383.076816,4233.84605,4229.230666,4229.230666,4229.230666,4232.307589,4230.256307,4222.563999,4244.615281,4233.84605
76,0,4217.435794,4228.717845,4219.487076,4233.33323,4393.333226,4235.897332,4232.820409,4232.307589,4234.358871,4230.769127,4229.230666,4236.410153,4244.10246,4216.410153
77,0,4236.410153,4230.769127,4225.128102,4238.461435,4403.589636,4234.358871,4238.461435,4241.025537,4239.999896,4239.487076,4234.871691,4245.128101,4252.307588,4225.128102
78,0,4256.410152,4237.435794,4225.128102,4244.10246,4410.256302,4239.487076,4245.128101,4247.179383,4242.051178,4251.281947,4249.230665,4248.205024,4266.153742,4245.640922
79,0,4252.820409,4235.384512,4218.461435,4237.948614,4402.563995,4247.692204,4248.205024,4245.640922,4236.922973,4247.692204,4248.205024,4246.153742,4262.563998,4264.61528
80,0,4227.692204,4218.461435,4216.410153,4230.256307,4380.512713,4247.692204,4249.230665,4246.153742,4238.974255,4231.794768,4229.230666,4235.384512,4239.999896,4259.999896
81,0,4222.563999,4214.871692,4219.487076,4231.281948,4385.128098,4239.999896,4248.205024,4247.179383,4246.153742,4227.179384,4229.743486,4231.794768,4239.999896,4243.58964
82,0,4243.076819,4224.102461,4218.974256,4233.84605,4413.333225,4237.435794,4244.615281,4244.615281,4245.640922,4244.615281,4248.205024,4242.563999,4263.076819,4253.84605
83,0,4250.256306,4224.102461,4218.974256,4234.871691,4418.974251,4240.512717,4245.128101,4245.640922,4246.153742,4261.538357,4253.84605,4248.205024,4271.794767,4256.410152
84,0,4243.076819,4223.58964,4228.205025,4233.84605,4407.179379,4237.948614,4242.051178,4246.666563,4241.538358,4253.84605,4247.692204,4247.179383,4270.256306,4237.435794
85,0,4256.922973,4232.307589,4234.358871,4232.307589,4405.640918,4231.281948,4233.33323,4242.563999,4231.794768,4246.153742,4249.743486,4249.230665,4281.025536,4257.435793
86,0,4269.743485,4231.794768,4224.615281,4235.384512,4404.102456,4229.743486,4232.820409,4241.538358,4235.897332,4248.717845,4250.769127,4247.692204,4283.589639,4284.102459
87,0,4251.281947,4218.974256,4215.384512,4233.84605,4394.358867,4231.794768,4235.897332,4242.563999,4245.128101,4236.922973,4236.410153,4237.948614,4266.153742,4263.076819
88,0,4247.692204,4214.871692,4223.07682,4231.794768,4398.461431,4233.33323,4235.384512,4243.076819,4241.538358,4232.820409,4230.256307,4236.922973,4258.974255,4256.922973
89,0,4266.153742,4217.435794,4226.153743,4235.897332,4415.384507,4239.487076,4238.461435,4243.076819,4234.871691,4247.179383,4243.076819,4244.10246,4266.666562,4287.692203
90,0,4253.84605,4217.948615,4215.384512,4239.487076,4414.871687,4239.487076,4238.974255,4236.922973,4233.84605,4243.076819,4244.615281,4241.538358,4262.563998,4273.333229
91,0,4231.794768,4212.82041,4214.358871,4234.358871,4398.461431,4230.769127,4232.307589,4234.871691,4232.820409,4225.128102,4225.128102,4234.358871,4247.179383,4215.384512
92,0,4239.999896,4204.615282,4222.563999,4225.640922,4396.410149,4230.769127,4231.281948,4242.051178,4232.820409,4224.615281,4218.974256,4230.769127,4242.051178,4215.897333
93,0,4251.281947,4201.538359,4222.563999,4228.205025,4398.974251,4236.410153,4235.384512,4242.563999,4235.384512,4234.358871,4232.307589,4235.384512,4250.256306,4271.794767
94,0,4244.615281,4203.07682,4221.538358,4230.769127,4390.769123,4227.179384,4233.33323,4233.33323,4232.307589,4229.743486,4234.871691,4241.538358,4256.410152,4280.512716
95,0,4239.999896,4199.999897,4218.974256,4222.051179,4390.769123,4215.384512,4229.743486,4227.692204,4218.461435,4215.384512,4223.58964,4237.948614,4248.717845,4234.871691
96,0,4243.076819,4196.410154,4216.410153,4214.358871,4398.974251,4222.051179,4235.384512,4236.922973,4214.358871,4209.230666,4223.58964,4237.948614,4245.640922,4238.974255
97,0,4237.948614,4202.564,4227.692204,4218.461435,4397.43579,4232.820409,4247.692204,4251.794768,4228.717845,4216.410153,4236.922973,4251.281947,4258.974255,4281.538357
98,0,4233.33323,4204.102461,4234.871691,4223.07682,4384.102457,4231.281948,4250.256306,4251.794768,4233.84605,4224.615281,4237.435794,4249.230665,4259.999896,4259.999896
99,0,4249.743486,4203.589641,4230.256307,4219.999897,4381.538354,4227.692204,4239.999896,4237.435794,4229.230666,4229.743486,4228.205025,4234.871691,4248.205024,4225.128102
100,0,4259.487075,4207.692205,4232.307589,4214.358871,4388.717841,4231.281948,4231.281948,4229.743486,4224.102461,4228.205025,4228.717845,4230.769127,4249.230665,4252.820409
101,0,4239.487076,4206.153743,4235.384512,4211.794769,4381.025534,4228.717845,4230.256307,4233.33323,4222.563999,4216.922974,4232.307589,4234.358871,4253.333229,4276.922972
102,0,4225.640922,4208.205025,4223.07682,4224.615281,4371.281944,4225.128102,4231.794768,4234.358871,4231.794768,4222.563999,4230.256307,4232.820409,4247.692204,4246.153742
103,0,4236.922973,4212.307589,4206.666564,4233.33323,4377.948611,4228.717845,4227.179384,4232.820409,4241.025537,4237.435794,4229.743486,4233.33323,4246.666563,4223.07682
104,0,4238.461435,4207.179384,4204.615282,4223.58964,4377.43579,4228.717845,4219.487076,4230.256307,4237.435794,4231.794768,4230.256307,4234.358871,4249.743486,4236.922973
105,0,4232.307589,4198.974256,4210.769128,4219.487076,4363.076816,4219.487076,4214.871692,4221.025538,4224.102461,4212.307589,4224.615281,4230.256307,4245.640922,4233.33323
106,0,4228.205025,4200.512718,4214.871692,4225.128102,4357.435791,4212.82041,4212.82041,4208.205025,4209.743487,4209.230666,4217.948615,4226.666563,4243.58964,4209.230666
107,0,4227.692204,4206.153743,4214.871692,4230.256307,4356.41015,4222.563999,4218.461435,4210.769128,4215.897333,4226.153743,4223.07682,4228.717845,4247.692204,4224.615281
108,0,4242.563999,4205.128102,4214.358871,4231.281948,4354.871688,4232.307589,4229.230666,4218.974256,4229.230666,4235.384512,4231.281948,4233.84605,4250.769127,4268.717844
109,0,4250.769127,4201.025538,4216.410153,4229.743486,4361.538355,4228.717845,4230.769127,4216.410153,4222.051179,4228.205025,4229.743486,4232.307589,4247.179383,4267.179383
110,0,4233.84605,4199.487077,4224.615281,4226.666563,4370.769124,4224.615281,4227.692204,4219.487076,4219.999897,4228.717845,4229.230666,4233.33323,4247.692204,4235.384512
111,0,4221.538358,4203.589641,4229.230666,4230.256307,4373.333226,4230.256307,4233.84605,4233.84605,4234.871691,4234.871691,4234.871691,4244.10246,4252.307588,4225.640922
112,0,4233.84605,4204.615282,4220.512717,4236.410153,4358.974252,4234.871691,4237.435794,4237.948614,4233.84605,4223.58964,4231.794768,4243.076819,4248.205024,4222.563999
113,0,4246.666563,4203.07682,4212.82041,4232.820409,4353.333227,4230.769127,4232.307589,4234.871691,4225.640922,4212.82041,4227.179384,4230.769127,4244.10246,4222.563999
114,0,4239.487076,4203.589641,4216.410153,4225.640922,4361.538355,4230.256307,4230.769127,4235.384512,4230.769127,4224.615281,4229.743486,4230.769127,4249.743486,4236.922973
115,0,4229.743486,4203.07682,4215.384512,4226.666563,4347.692201,4227.692204,4229.230666,4233.33323,4230.769127,4230.769127,4230.769127,4235.384512,4252.820409,4247.179383
116,0,4228.205025,4204.102461,4212.82041,4231.794768,4336.922971,4222.051179,4228.205025,4231.281948,4227.179384,4219.999897,4230.769127,4230.256307,4252.820409,4252.307588
117,0,4218.974256,4204.102461,4215.384512,4224.615281,4357.435791,4223.07682,4228.717845,4227.692204,4225.640922,4215.384512,4232.307589,4229.743486,4253.84605,4243.076819
118,0,4211.281948,4202.564,4212.82041,4215.897333,4358.461432,4221.538358,4228.717845,4217.948615,4217.948615,4218.974256,4226.153743,4232.307589,4249.743486,4219.999897
119,0,4223.07682,4208.717846,4210.769128,4224.615281,4339.999894,4218.974256,4225.640922,4212.82041,4215.384512,4214.871692,4219.487076,4227.179384,4246.666563,4215.384512
120,0,4237.435794,4217.435794,4216.410153,4234.871691,4351.794765,4224.102461,4221.538358,4218.461435,4222.563999,4216.410153,4223.07682,4226.666563,4248.205024,4230.256307
121,0,4234.871691,4218.461435,4217.948615,4233.84605,4365.640919,4226.666563,4218.461435,4221.538358,4224.615281,4227.179384,4229.230666,4230.256307,4250.256306,4237.948614
122,0,4229.230666,4216.922974,4213.846051,4231.281948,4350.769124,4216.410153,4214.358871,4216.410153,4213.33323,4223.58964,4231.281948,4231.281948,4256.410152,4244.10246
123,0,4224.615281,4219.487076,4215.897333,4235.897332,4341.025535,4212.82041,4213.846051,4213.33323,4207.692205,4215.897333,4233.33323,4231.281948,4265.128101,4255.384511
124,0,4219.487076,4218.461435,4219.487076,4233.33323,4342.051176,4220.512717,4217.948615,4214.871692,4214.871692,4221.025538,4234.871691,4232.820409,4262.563998,4253.84605
125,0,4220.512717,4215.384512,4222.051179,4217.435794,4334.358868,4216.922974,4217.948615,4214.871692,4213.846051,4224.102461,4227.692204,4232.307589,4254.35887,4226.666563
126,0,4217.435794,4212.307589,4224.615281,4208.205025,4334.358868,4206.666564,4212.82041,4216.410153,4211.281948,4214.358871,4219.999897,4225.640922,4247.179383,4203.589641
127,0,4208.717846,4204.615282,4230.256307,4194.358872,4342.051176,4207.179384,4210.769128,4213.33323,4211.281948,4202.564,4212.307589,4215.897333,4236.410153,4204.615282
128,0,4210.769128,4199.487077,4232.820409,4177.435795,4335.89733,4212.82041,4212.307589,4202.564,4203.589641,4199.999897,4202.051179,4211.281948,4228.205025,4216.922974
0,0,4219.487076,4202.051179,4224.615281,4190.769128,4319.999894,4212.82041,4214.358871,4203.07682,4206.153743,4207.179384,4206.666564,4215.384512,4233.84605,4225.640922
1,0,4211.281948,4205.640923,4253.84605,4162.564001,4313.333228,4208.717846,4211.794769,4211.281948,4216.410153,4207.692205,4212.82041,4216.922974,4235.897332,4219.487076
2,0,4198.974256,4197.435795,4318.974253,4066.153747,4312.307587,4197.435795,4198.461436,4204.615282,4205.640923,4193.846051,4202.564,4210.769128,4229.230666,4204.615282
3,0,4206.153743,4191.794769,4320.512715,4058.461439,4310.256305,4192.30759,4192.30759,4203.07682,4201.538359,4194.871692,4204.615282,4216.410153,4233.84605,4208.717846
4,0,4216.410153,4205.640923,4260.512716,4163.589642,4319.999894,4208.205025,4206.666564,4217.435794,4222.563999,4215.897333,4229.230666,4233.33323,4249.230665,4225.640922
5,0,4222.563999,4218.974256,4234.358871,4224.102461,4328.205022,4218.974256,4216.922974,4219.487076,4223.58964,4221.538358,4236.922973,4236.922973,4256.410152,4226.666563
6,0,4231.794768,4220.512717,4236.410153,4224.102461,4328.717843,4216.410153,4222.563999,4214.871692,4213.846051,4216.410153,4231.794768,4230.769127,4257.948614,4235.897332
7,0,4223.58964,4223.07682,4218.974256,4235.897332,4326.15374,4215.384512,4227.692204,4217.948615,4218.461435,4224.615281,4232.307589,4232.307589,4257.948614,4242.563999
8,0,4208.205025,4227.179384,4209.743487,4245.640922,4322.563997,4220.512717,4224.615281,4215.384512,4220.512717,4230.769127,4232.307589,4234.871691,4258.461434,4213.33323
9,0,4228.717845,4234.358871,4222.051179,4249.743486,4335.384509,4227.179384,4224.615281,4218.461435,4223.07682,4229.743486,4242.051178,4238.974255,4270.256306,4217.948615
10,0,4264.61528,4246.666563,4226.153743,4255.897332,4350.769124,4223.07682,4228.717845,4227.692204,4232.307589,4232.307589,4252.820409,4244.10246,4279.999895,4264.61528
11,0,4262.051178,4249.743486,4218.461435,4252.307588,4344.615278,4217.948615,4227.692204,4228.717845,4232.820409,4230.769127,4248.717845,4241.538358,4273.333229,4268.205024
12,0,4248.205024,4247.692204,4219.487076,4250.769127,4335.89733,4228.717845,4230.769127,4230.256307,4230.769127,4237.948614,4254.35887,4244.10246,4275.384511,4242.051178
13,0,4248.717845,4249.230665,4226.153743,4251.281947,4337.948612,4231.794768,4231.281948,4235.897332,4232.820409,4249.230665,4261.538357,4248.717845,4281.538357,4244.10246
14,0,4240.512717,4242.563999,4216.410153,4248.717845,4331.281945,4216.410153,4216.922974,4234.358871,4231.281948,4244.615281,4250.769127,4238.461435,4270.256306,4256.410152
15,0,4230.256307,4229.743486,4199.999897,4248.717845,4316.410151,4211.794769,4213.846051,4226.153743,4228.717845,4237.948614,4243.58964,4228.717845,4259.999896,4247.692204
16,0,4231.794768,4229.230666,4197.948615,4254.35887,4313.333228,4219.999897,4225.128102,4225.128102,4229.230666,4242.563999,4248.205024,4233.84605,4266.153742,4222.563999
17,0,4234.358871,4239.999896,4200.512718,4262.563998,4321.538356,4222.563999,4226.666563,4231.281948,4232.307589,4247.692204,4248.717845,4239.999896,4270.769126,4219.999897
18,0,4233.84605,4242.051178,4200.512718,4253.84605,4323.076817,4217.948615,4216.410153,4226.666563,4231.794768,4241.538358,4244.10246,4231.281948,4260.512716,4242.051178
19,0,4227.692204,4232.307589,4200.512718,4238.974255,4310.769125,4212.307589,4204.615282,4209.230666,4219.999897,4221.538358,4232.307589,4216.410153,4243.076819,4243.58964
20,0,4212.307589,4227.692204,4201.025538,4240.512717,4306.153741,4216.410153,4199.487077,4199.999897,4211.281948,4210.769128,4223.07682,4213.846051,4231.794768,4223.58964
21,0,4210.256307,4228.205025,4223.58964,4218.461435,4313.846048,4212.307589,4199.487077,4200.512718,4210.769128,4217.435794,4229.743486,4219.487076,4218.461435,4219.999897
22,0,4222.051179,4219.487076,4262.563998,4158.974257,4305.1281,4200.512718,4199.487077,4198.461436,4205.640923,4208.205025,4230.769127,4215.897333,4188.205026,4223.58964
23,0,4216.922974,4212.307589,4276.922972,4132.820412,4292.307587,4205.128102,4199.999897,4199.999897,4201.025538,4196.410154,4219.487076,4213.846051,4149.743488,4209.230666
24,0,4210.256307,4216.922974,4260.512716,4163.589642,4292.307587,4211.794769,4203.589641,4203.07682,4204.102461,4211.281948,4216.410153,4221.538358,4122.051181,4197.435795
25,0,4217.435794,4214.871692,4242.051178,4185.640923,4293.333228,4201.025538,4203.07682,4202.051179,4203.589641,4219.487076,4217.435794,4214.358871,4101.025541,4207.179384
26,0,4216.410153,4208.717846,4237.435794,4175.384513,4295.38451,4195.897333,4195.384513,4199.487077,4198.461436,4207.692205,4212.307589,4202.564,4079.9999,4229.230666
27,0,4211.794769,4212.82041,4234.871691,4179.487077,4292.820408,4202.051179,4191.794769,4199.999897,4201.538359,4202.051179,4210.769128,4209.743487,4065.640926,4230.769127
28,0,4211.794769,4216.922974,4219.999897,4214.871692,4284.61528,4201.538359,4195.897333,4199.487077,4206.153743,4202.051179,4213.33323,4215.897333,4054.871696,4210.769128
29,0,4214.871692,4216.410153,4200.512718,4250.769127,4285.640921,4206.666564,4205.640923,4198.974256,4205.640923,4199.487077,4220.512717,4213.33323,4048.71785,4215.384512
30,0,4230.769127,4226.666563,4200.512718,4256.410152,4294.87169,4217.435794,4215.384512,4208.205025,4212.82041,4208.717846,4232.307589,4217.435794,4052.307593,4241.025537
31,0,4239.999896,4235.384512,4204.102461,4249.230665,4305.1281,4218.974256,4219.487076,4219.999897,4226.666563,4231.281948,4236.410153,4222.563999,4055.897337,4232.820409
32,0,4223.07682,4225.128102,4192.82041,4248.205024,4314.358869,4217.948615,4216.922974,4220.512717,4227.179384,4237.948614,4228.205025,4217.948615,4044.615286,4199.999897
33,0,4210.256307,4213.846051,4182.05118,4245.128101,4312.820407,4217.948615,4214.871692,4216.410153,4219.999897,4221.538358,4221.538358,4209.230666,4031.794773,4202.051179
34,0,4212.307589,4215.897333,4186.153744,4241.025537,4304.615279,4215.384512,4214.358871,4215.897333,4217.948615,4211.281948,4219.487076,4202.051179,4030.769132,4224.102461
35,0,4213.846051,4219.487076,4192.82041,4245.128101,4304.615279,4215.384512,4212.307589,4216.922974,4217.948615,4217.948615,4218.974256,4199.999897,4032.307594,4226.666563
36,0,4214.871692,4217.948615,4191.281949,4245.640922,4301.538356,4218.461435,4213.846051,4212.82041,4217.435794,4219.999897,4218.974256,4202.051179,4027.179389,4220.512717
37,0,4215.384512,4215.897333,4190.256308,4238.974255,4292.307587,4217.435794,4213.846051,4205.640923,4217.948615,4214.358871,4217.435794,4198.974256,4020.512722,4214.871692
38,0,4213.846051,4216.922974,4198.461436,4241.025537,4291.794767,4217.435794,4214.358871,4208.717846,4217.435794,4212.82041,4216.410153,4198.461436,4023.589645,4210.769128
39,0,4219.999897,4218.974256,4203.589641,4249.230665,4295.897331,4218.461435,4215.384512,4216.410153,4218.974256,4215.384512,4217.435794,4202.564,4028.71785,4216.410153
40,0,4222.563999,4215.897333,4198.461436,4243.076819,4294.87169,4215.384512,4206.666564,4206.153743,4217.948615,4216.922974,4215.897333,4202.564,4024.102466,4212.82041
41,0,4218.461435,4215.384512,4194.871692,4233.33323,4292.820408,4212.307589,4203.07682,4195.384513,4212.82041,4217.435794,4216.410153,4202.051179,4021.538363,4204.102461
42,0,4216.410153,4217.435794,4197.948615,4236.922973,4290.769126,4213.846051,4214.358871,4210.769128,4212.82041,4218.461435,4222.563999,4201.538359,4029.743491,4216.410153
43,0,4218.461435,4214.871692,4199.999897,4237.948614,4284.102459,4214.871692,4215.384512,4222.051179,4216.922974,4216.410153,4223.58964,4199.487077,4031.281953,4221.538358
44,0,4219.999897,4214.358871,4196.410154,4231.794768,4279.487075,4212.82041,4199.999897,4206.153743,4215.897333,4215.384512,4217.435794,4197.435795,4027.692209,4209.230666
45,0,4211.794769,4214.358871,4191.281949,4233.33323,4273.846049,4211.794769,4197.948615,4197.435795,4211.794769,4216.410153,4216.922974,4196.922974,4030.256312,4212.82041
46,0,4206.153743,4208.717846,4191.281949,4235.384512,4265.128101,4213.846051,4208.205025,4209.743487,4212.82041,4214.871692,4216.922974,4195.384513,4030.256312,4218.974256
47,0,4215.897333,4207.179384,4194.358872,4230.256307,4268.717844,4215.897333,4207.179384,4210.769128,4214.871692,4214.871692,4214.358871,4194.358872,4031.281953,4203.589641
48,0,4223.07682,4211.794769,4198.974256,4227.179384,4277.948613,4212.307589,4202.564,4204.615282,4216.410153,4218.974256,4214.358871,4194.871692,4036.922978,4200.512718
49,0,4219.999897,4215.384512,4202.051179,4230.769127,4276.922972,4211.794769,4207.179384,4211.281948,4220.512717,4218.974256,4218.461435,4195.897333,4038.97426,4221.538358
50,0,4217.435794,4216.922974,4201.025538,4233.84605,4276.922972,4216.922974,4214.358871,4210.769128,4218.974256,4212.82041,4219.999897,4194.358872,4039.487081,4219.487076
51,0,4216.410153,4217.948615,4197.435795,4233.84605,4277.435793,4216.922974,4214.871692,4205.640923,4211.794769,4212.307589,4218.974256,4196.410154,4043.589645,4203.07682
52,0,4223.58964,4217.435794,4197.948615,4233.33323,4274.87169,4216.410153,4215.384512,4213.33323,4213.33323,4218.461435,4220.512717,4196.922974,4048.71785,4211.794769
53,0,4232.820409,4218.974256,4199.487077,4232.820409,4283.589639,4217.948615,4216.410153,4217.948615,4218.461435,4223.07682,4220.512717,4192.30759,4046.666568,4220.512717
54,0,4215.897333,4214.358871,4197.435795,4226.153743,4283.589639,4215.897333,4215.897333,4213.846051,4216.410153,4214.358871,4206.666564,4186.666564,4037.948619,4201.538359
55,0,4201.538359,4207.692205,4197.435795,4219.999897,4265.640921,4214.871692,4214.871692,4215.384512,4214.358871,4201.025538,4195.384513,4186.666564,4033.846055,4192.82041
56,0,4215.897333,4210.769128,4201.025538,4217.948615,4261.538357,4219.487076,4216.410153,4219.487076,4217.435794,4204.615282,4205.128102,4189.743487,4041.025542,4211.794769
57,0,4222.051179,4214.871692,4202.051179,4217.435794,4270.256306,4222.051179,4220.512717,4222.563999,4221.025538,4211.281948,4219.999897,4191.794769,4049.23067,4214.871692
58,0,4211.794769,4213.33323,4197.948615,4224.615281,4266.153742,4209.743487,4213.33323,4218.461435,4215.897333,4205.128102,4219.999897,4193.333231,4050.769132,4203.589641
59,0,4220.512717,4213.33323,4197.948615,4232.820409,4262.051178,4198.974256,4199.487077,4203.07682,4204.102461,4202.564,4215.897333,4191.794769,4051.281952,4213.33323
60,0,4231.281948,4216.922974,4197.948615,4233.84605,4265.640921,4207.179384,4203.589641,4196.410154,4203.07682,4207.179384,4214.871692,4186.153744,4054.358875,4223.07682
61,0,4225.128102,4222.563999,4195.897333,4232.820409,4266.153742,4217.948615,4215.384512,4203.07682,4215.384512,4206.153743,4212.82041,4183.076821,4056.410157,4210.256307
62,0,4228.205025,4227.692204,4197.435795,4234.358871,4264.10246,4213.846051,4210.769128,4202.051179,4215.384512,4204.102461,4211.281948,4189.743487,4060.512721,4211.281948
63,0,4245.128101,4233.33323,4199.999897,4233.84605,4264.61528,4210.256307,4207.692205,4199.999897,4207.692205,4202.564,4212.82041,4198.974256,4072.307593,4229.230666
64,0,4253.333229,4237.435794,4197.435795,4234.358871,4264.10246,4216.410153,4218.461435,4209.230666,4212.82041,4201.025538,4213.33323,4196.922974,4075.384516,4224.615281
65,0,4256.410152,4240.512717,4198.461436,4238.974255,4255.897332,4217.435794,4222.563999,4219.487076,4220.512717,4210.769128,4213.846051,4194.358872,4071.281952,4229.230666
66,0,4275.384511,4251.794768,4209.743487,4244.10246,4245.640922,4217.435794,4218.461435,4217.435794,4215.897333,4216.922974,4221.538358,4204.615282,4087.179387,4256.922973
67,0,4306.153741,4265.128101,4212.307589,4258.974255,4238.461435,4219.487076,4215.384512,4209.743487,4208.717846,4207.179384,4232.820409,4216.410153,4111.281951,4263.076819
68,0,4327.179381,4266.666562,4214.358871,4256.410152,4246.153742,4210.769128,4207.692205,4209.743487,4212.82041,4198.461436,4233.33323,4215.897333,4116.410156,4268.205024
69,0,4341.025535,4264.10246,4233.84605,4219.999897,4258.974255,4200.512718,4199.487077,4213.846051,4215.384512,4201.025538,4230.256307,4211.794769,4121.538361,4297.435792
70,0,4355.384509,4273.333229,4245.128101,4215.897333,4246.666563,4204.615282,4203.07682,4217.948615,4213.33323,4214.871692,4240.512717,4212.82041,4139.999899,4323.076817
71,0,4374.358867,4286.153741,4234.358871,4259.999896,4246.153742,4218.974256,4216.922974,4228.717845,4224.102461,4228.717845,4259.999896,4222.563999,4157.435796,4342.051176
72,0,4394.871687,4283.589639,4229.743486,4271.281947,4261.025537,4215.384512,4220.512717,4231.794768,4235.384512,4232.820409,4272.307588,4233.84605,4168.717847,4349.230663
73,0,4395.897328,4269.743485,4237.435794,4243.076819,4258.974255,4204.102461,4213.846051,4223.07682,4232.307589,4235.897332,4272.820408,4238.461435,4174.358872,4334.871689
74,0,4372.820406,4262.563998,4238.974255,4243.58964,4254.871691,4207.179384,4215.384512,4215.897333,4226.153743,4236.410153,4266.666562,4231.794768,4168.205026,4324.615279
75,0,4356.41015,4261.538357,4227.179384,4253.333229,4253.84605,4210.256307,4215.897333,4209.743487,4218.461435,4213.846051,4251.794768,4218.974256,4152.307591,4316.410151
76,0,4347.179381,4248.717845,4214.358871,4236.922973,4236.410153,4201.025538,4202.564,4194.871692,4203.07682,4190.256308,4230.769127,4207.179384,4134.358873,4295.897331
77,0,4329.743484,4234.871691,4212.82041,4228.717845,4224.615281,4197.435795,4195.897333,4189.743487,4197.948615,4190.769128,4218.974256,4198.461436,4127.692207,4288.205023
78,0,4308.717843,4232.307589,4212.82041,4235.384512,4231.794768,4204.615282,4204.102461,4197.948615,4207.179384,4202.051179,4218.461435,4197.435795,4126.666566,4281.025536
79,0,4278.974254,4219.487076,4204.615282,4234.358871,4221.025538,4211.281948,4208.717846,4202.564,4211.794769,4208.717846,4220.512717,4206.153743,4121.02554,4249.230665
80,0,4257.435793,4202.051179,4201.538359,4237.948614,4217.435794,4213.33323,4209.743487,4208.717846,4218.974256,4217.948615,4225.128102,4216.922974,4125.128104,4235.897332
81,0,4271.281947,4204.102461,4207.692205,4239.487076,4244.615281,4214.871692,4217.948615,4219.487076,4233.33323,4225.128102,4234.358871,4215.897333,4135.897335,4253.84605
82,0,4271.281947,4203.589641,4222.051179,4204.102461,4245.640922,4210.256307,4219.999897,4216.410153,4234.871691,4222.563999,4231.794768,4204.615282,4131.28195,4256.922973
83,0,4242.563999,4188.717846,4243.076819,4159.999898,4220.512717,4204.102461,4208.717846,4203.07682,4219.487076,4215.384512,4220.512717,4197.948615,4119.487079,4244.10246
84,0,4249.743486,4188.205026,4241.025537,4178.461436,4219.999897,4209.230666,4210.256307,4207.179384,4217.435794,4211.794769,4222.051179,4198.461436,4123.589643,4243.076819
85,0,4271.281947,4201.025538,4210.256307,4229.230666,4237.435794,4219.487076,4222.563999,4221.538358,4233.33323,4215.384512,4233.84605,4202.051179,4137.435796,4243.58964
86,0,4251.281947,4201.538359,4194.871692,4242.563999,4231.281948,4216.410153,4221.538358,4222.051179,4236.410153,4218.461435,4234.871691,4208.205025,4141.53836,4232.820409
87,0,4237.948614,4203.589641,4205.128102,4235.897332,4225.640922,4210.769128,4219.999897,4216.410153,4222.563999,4216.410153,4230.256307,4217.435794,4137.948617,4226.666563
88,0,4253.84605,4213.33323,4205.128102,4256.922973,4234.871691,4214.871692,4227.692204,4214.358871,4213.846051,4216.410153,4232.307589,4218.974256,4139.999899,4234.871691
89,0,4245.640922,4211.794769,4199.999897,4255.384511,4226.153743,4212.82041,4227.179384,4211.281948,4216.922974,4217.435794,4229.743486,4207.179384,4143.589642,4240.512717
90,0,4220.512717,4196.922974,4228.717845,4189.230667,4211.281948,4199.999897,4209.743487,4202.564,4218.974256,4206.666564,4218.461435,4197.948615,4134.871694,4224.615281
91,0,4208.205025,4184.615282,4252.307588,4149.743488,4211.794769,4195.897333,4198.974256,4197.948615,4213.846051,4187.692205,4213.33323,4201.538359,4122.564002,4213.33323
92,0,4202.564,4188.717846,4226.153743,4195.897333,4213.846051,4206.153743,4207.179384,4206.666564,4212.82041,4186.666564,4216.410153,4204.102461,4126.666566,4227.692204
93,0,4206.153743,4197.948615,4198.461436,4244.615281,4212.82041,4216.410153,4218.974256,4219.999897,4229.230666,4201.025538,4219.999897,4202.564,4138.974258,4214.871692
94,0,4206.666564,4191.281949,4206.153743,4230.769127,4213.846051,4214.358871,4217.948615,4221.025538,4234.358871,4211.794769,4216.922974,4205.640923,4137.948617,4185.640923
95,0,4200.512718,4180.512718,4224.102461,4201.025538,4215.897333,4213.33323,4213.33323,4214.871692,4218.974256,4212.82041,4213.33323,4206.153743,4132.820412,4205.128102
96,0,4209.743487,4191.794769,4239.487076,4197.948615,4216.410153,4216.410153,4218.461435,4219.487076,4223.07682,4215.897333,4222.563999,4209.230666,4147.179386,4233.33323
97,0,4218.974256,4204.102461,4244.10246,4204.615282,4213.846051,4212.307589,4217.435794,4221.025538,4235.384512,4216.410153,4230.769127,4215.384512,4154.871693,4218.461435
98,0,4198.461436,4194.871692,4232.820409,4204.615282,4210.769128,4210.256307,4213.33323,4207.179384,4220.512717,4205.640923,4217.948615,4208.717846,4139.999899,4209.230666
99,0,4184.615282,4185.128103,4226.153743,4195.897333,4211.794769,4214.358871,4214.871692,4203.589641,4207.692205,4194.871692,4208.717846,4199.487077,4135.384514,4222.563999
100,0,4190.769128,4186.153744,4225.640922,4189.230667,4206.666564,4214.871692,4215.897333,4212.82041,4218.974256,4194.871692,4212.307589,4202.051179,4144.102463,4214.358871
101,0,4180.512718,4185.640923,4211.794769,4198.461436,4196.922974,4214.358871,4220.512717,4214.871692,4223.58964,4205.640923,4211.281948,4201.538359,4141.53836,4198.461436
102,0,4172.30759,4187.179385,4197.435795,4221.538358,4208.717846,4218.974256,4230.256307,4214.358871,4225.640922,4212.307589,4210.769128,4200.512718,4143.076822,4200.512718
103,0,4179.999898,4195.384513,4198.461436,4229.230666,4233.84605,4221.025538,4233.84605,4221.538358,4238.461435,4217.948615,4218.461435,4204.615282,4153.846052,4203.589641
104,0,4183.076821,4199.999897,4198.461436,4226.153743,4240.512717,4219.487076,4225.128102,4221.025538,4239.999896,4225.640922,4225.640922,4204.102461,4153.846052,4197.948615
105,0,4182.05118,4198.974256,4197.435795,4229.743486,4229.743486,4217.435794,4214.871692,4212.82041,4231.281948,4225.640922,4228.205025,4205.128102,4153.846052,4208.205025
106,0,4189.743487,4199.999897,4209.230666,4223.07682,4222.051179,4215.897333,4214.358871,4214.358871,4227.179384,4225.128102,4232.307589,4213.846051,4165.640924,4225.128102
107,0,4197.435795,4203.07682,4214.871692,4220.512717,4218.461435,4220.512717,4226.153743,4226.153743,4234.358871,4230.769127,4240.512717,4221.025538,4179.487077,4215.897333
108,0,4197.435795,4207.692205,4202.051179,4239.999896,4223.07682,4224.615281,4235.384512,4237.435794,4246.666563,4237.948614,4252.820409,4217.948615,4187.692205,4212.82041
109,0,4184.615282,4204.615282,4195.897333,4232.820409,4219.999897,4217.435794,4224.102461,4229.743486,4245.128101,4232.820409,4245.128101,4204.102461,4179.999898,4222.563999
110,0,4164.615283,4195.897333,4199.487077,4206.666564,4196.410154,4209.743487,4210.256307,4215.384512,4228.717845,4223.58964,4221.025538,4197.435795,4162.564001,4209.743487
111,0,4164.615283,4194.358872,4206.153743,4201.538359,4192.30759,4214.871692,4215.384512,4215.897333,4221.538358,4219.487076,4216.410153,4205.128102,4160.512719,4195.897333
112,0,4175.384513,4191.281949,4231.281948,4176.922975,4209.230666,4215.384512,4217.948615,4212.82041,4217.435794,4204.615282,4215.384512,4207.179384,4157.435796,4202.564
113,0,4168.205026,4181.538359,4254.35887,4133.846053,4200.512718,4204.615282,4204.615282,4198.974256,4203.07682,4185.128103,4196.410154,4196.922974,4139.999899,4205.128102
114,0,4154.871693,4178.461436,4253.84605,4127.179386,4181.538359,4199.999897,4198.974256,4197.435795,4198.461436,4178.974257,4183.589641,4189.230667,4133.846053,4193.846051
115,0,4149.230668,4178.461436,4247.179383,4137.435796,4190.769128,4203.07682,4207.692205,4203.589641,4205.640923,4183.076821,4186.666564,4188.205026,4139.487078,4166.153744
116,0,4155.384514,4180.512718,4241.025537,4147.692206,4205.640923,4206.153743,4214.871692,4202.564,4204.102461,4190.256308,4192.82041,4188.717846,4141.02554,4151.28195
117,0,4163.076821,4183.589641,4230.769127,4163.589642,4196.922974,4205.640923,4214.358871,4199.999897,4201.025538,4202.051179,4196.410154,4185.640923,4144.102463,4183.589641
118,0,4159.487078,4177.435795,4231.281948,4158.974257,4184.102462,4201.025538,4212.307589,4202.051179,4207.692205,4202.564,4196.410154,4185.128103,4150.769129,4207.692205
119,0,4157.435796,4175.384513,4236.922973,4148.717847,4180.512718,4197.435795,4212.307589,4209.230666,4212.307589,4196.410154,4199.999897,4194.358872,4155.897334,4188.205026
120,0,4166.153744,4188.205026,4235.897332,4170.769129,4184.615282,4206.666564,4216.922974,4216.410153,4215.384512,4210.769128,4211.794769,4204.102461,4159.999898,4187.692205
121,0,4163.076821,4191.794769,4234.871691,4189.743487,4195.384513,4216.410153,4223.07682,4216.922974,4223.07682,4218.461435,4210.769128,4197.435795,4158.974257,4214.871692
122,0,4156.922975,4184.102462,4230.256307,4184.102462,4199.487077,4218.461435,4224.615281,4216.922974,4224.615281,4200.512718,4198.461436,4185.640923,4154.871693,4193.333231
123,0,4167.179385,4183.589641,4221.025538,4181.025539,4190.769128,4212.307589,4217.435794,4213.846051,4216.410153,4193.846051,4198.974256,4189.743487,4161.53836,4147.692206
124,0,4166.153744,4185.128103,4215.897333,4195.384513,4185.128103,4202.564,4213.33323,4210.769128,4209.743487,4211.794769,4212.82041,4198.974256,4175.384513,4167.179385
125,0,4158.974257,4189.230667,4213.846051,4212.82041,4185.640923,4206.666564,4225.128102,4215.384512,4215.384512,4222.563999,4227.179384,4207.179384,4185.640923,4225.640922
126,0,4170.256308,4197.435795,4214.871692,4224.615281,4179.487077,4216.410153,4229.230666,4213.846051,4225.128102,4217.435794,4232.820409,4222.563999,4193.333231,4224.615281
127,0,4177.435795,4202.051179,4212.307589,4233.33323,4178.974257,4214.358871,4219.999897,4208.717846,4228.205025,4216.922974,4232.307589,4229.743486,4196.922974,4190.769128
128,0,4176.922975,4199.487077,4204.615282,4237.948614,4189.230667,4211.281948,4218.974256,4213.33323,4219.487076,4215.897333,4227.692204,4211.281948,4190.769128,4207.179384
0,0,4170.769129,4190.256308,4198.461436,4230.769127,4182.564,4215.897333,4223.58964,4215.897333,4211.794769,4205.640923,4217.435794,4203.589641,4181.025539,4190.769128
1,0,4156.410155,4187.692205,4202.051179,4226.153743,4171.79477,4217.435794,4223.58964,4218.461435,4217.435794,4206.666564,4213.33323,4226.666563,4183.589641,4127.692207
2,0,4158.461437,4199.487077,4205.128102,4234.358871,4182.564,4223.58964,4227.692204,4228.205025,4228.717845,4226.666563,4224.615281,4228.717845,4195.897333,4165.128103
3,0,4174.871693,4200.512718,4200.512718,4231.794768,4194.358872,4232.307589,4232.307589,4226.153743,4234.358871,4233.84605,4230.769127,4201.025538,4199.487077,4247.692204
4,0,4173.846052,4188.717846,4197.948615,4221.538358,4188.717846,4225.640922,4230.256307,4215.384512,4233.84605,4227.179384,4228.205025,4198.461436,4196.922974,4225.640922
5,0,4169.743488,4193.846051,4199.999897,4226.666563,4185.128103,4221.538358,4231.794768,4218.974256,4232.307589,4236.922973,4231.794768,4216.410153,4203.07682,4187.692205
6,0,4176.410154,4201.025538,4200.512718,4233.33323,4191.281949,4228.205025,4228.205025,4220.512717,4230.769127,4243.58964,4228.205025,4209.743487,4202.564,4205.128102
7,0,4168.717847,4191.281949,4197.948615,4228.717845,4185.640923,4227.179384,4221.538358,4211.281948,4227.179384,4223.07682,4212.82041,4195.384513,4187.692205,4191.281949
8,0,4154.358873,4184.102462,4198.974256,4225.128102,4176.922975,4224.615281,4228.205025,4219.999897,4232.820409,4215.384512,4209.743487,4201.025538,4185.128103,4167.179385
9,0,4152.820411,4186.666564,4202.051179,4222.051179,4182.05118,4227.179384,4233.84605,4238.974255,4242.563999,4235.384512,4222.051179,4206.666564,4200.512718,4191.281949
10,0,4157.948616,4187.179385,4203.07682,4214.871692,4189.743487,4224.102461,4232.820409,4235.897332,4238.461435,4242.051178,4229.230666,4203.07682,4204.102461,4206.153743
11,0,4158.461437,4187.692205,4202.564,4215.384512,4183.076821,4217.948615,4230.769127,4222.051179,4231.281948,4233.84605,4226.666563,4202.051179,4199.487077,4190.769128
12,0,4151.79477,4187.692205,4200.512718,4221.025538,4170.769129,4218.461435,4225.640922,4217.435794,4232.307589,4227.692204,4223.58964,4202.564,4202.564,4186.153744
13,0,4138.461437,4183.589641,4197.948615,4213.846051,4164.102462,4211.794769,4215.384512,4210.256307,4224.102461,4221.025538,4221.538358,4201.025538,4204.102461,4185.128103
14,0,4130.76913,4180.512718,4197.435795,4206.666564,4163.589642,4201.025538,4212.307589,4196.410154,4215.897333,4219.487076,4218.461435,4198.461436,4199.999897,4165.128103
15,0,4145.128104,4186.666564,4199.999897,4212.82041,4173.333231,4207.692205,4215.897333,4197.435795,4223.07682,4224.615281,4216.410153,4199.487077,4199.999897,4156.410155
16,0,4159.999898,4189.743487,4201.538359,4219.487076,4171.281949,4212.307589,4213.846051,4206.153743,4225.640922,4214.358871,4212.82041,4198.461436,4202.051179,4170.769129
17,0,4151.28195,4186.153744,4199.999897,4216.410153,4158.461437,4203.07682,4209.743487,4202.564,4211.281948,4192.82041,4203.07682,4193.846051,4198.974256,4171.281949
18,0,4144.615283,4189.743487,4198.974256,4215.384512,4160.512719,4203.07682,4211.281948,4197.435795,4198.461436,4185.128103,4197.435795,4190.769128,4192.82041,4170.769129
19,0,4154.871693,4199.999897,4199.487077,4219.487076,4172.820411,4213.846051,4215.384512,4207.179384,4208.205025,4197.435795,4201.025538,4190.256308,4194.358872,4195.384513
20,0,4159.999898,4195.384513,4200.512718,4216.922974,4171.79477,4216.410153,4216.922974,4216.922974,4226.666563,4211.281948,4200.512718,4193.846051,4197.435795,4196.410154
21,0,4150.256309,4183.589641,4198.461436,4214.871692,4159.999898,4216.410153,4223.07682,4219.999897,4232.820409,4215.897333,4197.435795,4198.461436,4197.435795,4172.30759
22,0,4149.230668,4190.256308,4201.538359,4213.846051,4158.461437,4222.051179,4232.820409,4231.794768,4241.538358,4228.205025,4209.743487,4199.999897,4207.179384,4177.435795
23,0,4164.102462,4199.999897,4210.256307,4207.692205,4161.53836,4216.922974,4229.743486,4236.922973,4251.281947,4239.999896,4223.58964,4202.051179,4222.051179,4190.256308
24,0,4166.666565,4190.769128,4213.33323,4200.512718,4162.564001,4207.179384,4213.846051,4216.922974,4232.820409,4221.538358,4214.871692,4202.051179,4218.461435,4182.564
25,0,4158.974257,4183.589641,4211.794769,4195.897333,4162.564001,4207.179384,4205.640923,4202.564,4212.82041,4201.538359,4201.538359,4196.922974,4208.205025,4183.076821
26,0,4163.589642,4194.358872,4215.897333,4197.948615,4168.717847,4212.307589,4211.281948,4212.82041,4227.179384,4210.256307,4210.256307,4195.897333,4215.897333,4205.128102
27,0,4172.820411,4204.102461,4215.384512,4204.102461,4174.358872,4219.999897,4221.025538,4222.051179,4238.974255,4224.102461,4223.07682,4201.025538,4223.58964,4220.512717
28,0,4170.769129,4197.435795,4206.666564,4205.640923,4161.53836,4217.435794,4222.051179,4216.922974,4226.666563,4220.512717,4217.948615,4199.999897,4218.461435,4207.692205
29,0,4169.230667,4189.230667,4215.384512,4196.922974,4147.692206,4205.128102,4215.384512,4211.794769,4221.025538,4215.897333,4213.33323,4197.948615,4219.999897,4186.666564
30,0,4171.79477,4187.692205,4235.897332,4183.076821,4156.922975,4205.640923,4213.33323,4214.871692,4225.640922,4219.487076,4216.410153,4203.07682,4227.692204,4187.692205
31,0,4168.205026,4185.640923,4232.820409,4173.846052,4166.153744,4216.922974,4218.974256,4219.487076,4224.102461,4215.384512,4208.205025,4199.487077,4222.051179,4191.281949
32,0,4165.128103,4181.538359,4216.922974,4170.769129,4152.820411,4210.769128,4218.974256,4216.922974,4217.435794,4204.102461,4194.358872,4187.179385,4208.717846,4172.820411
33,0,4165.640924,4182.564,4216.410153,4169.743488,4140.512719,4198.461436,4213.33323,4212.307589,4212.82041,4197.948615,4197.435795,4186.666564,4210.256307,4177.435795
34,0,4167.692206,4184.615282,4221.538358,4173.333231,4147.692206,4208.205025,4220.512717,4222.051179,4219.999897,4201.025538,4207.179384,4194.871692,4216.922974,4202.564
35,0,4168.717847,4184.615282,4214.358871,4180.512718,4152.307591,4219.487076,4234.358871,4232.307589,4229.743486,4208.205025,4204.615282,4191.281949,4215.384512,4198.974256
36,0,4167.179385,4191.281949,4210.256307,4188.717846,4148.205027,4212.307589,4230.256307,4224.615281,4230.256307,4219.487076,4206.153743,4189.743487,4220.512717,4190.769128
37,0,4173.333231,4202.051179,4218.461435,4189.743487,4143.076822,4199.999897,4216.410153,4215.897333,4229.230666,4224.615281,4216.410153,4199.999897,4232.307589,4192.82041
38,0,4178.461436,4203.07682,4231.794768,4172.820411,4136.410155,4197.948615,4214.871692,4219.999897,4225.640922,4213.33323,4214.358871,4200.512718,4233.33323,4188.205026
39,0,4184.615282,4200.512718,4243.076819,4167.692206,4143.589642,4207.692205,4219.487076,4223.07682,4217.435794,4211.794769,4210.769128,4200.512718,4228.717845,4192.30759
40,0,4197.435795,4206.153743,4246.153742,4187.179385,4157.435796,4211.794769,4217.948615,4224.615281,4222.051179,4227.692204,4222.051179,4215.897333,4236.410153,4204.615282
41,0,4192.30759,4204.102461,4248.205024,4176.410154,4151.79477,4205.640923,4216.410153,4227.692204,4232.307589,4223.58964,4222.563999,4213.33323,4237.948614,4203.07682
42,0,4171.79477,4189.743487,4254.871691,4137.948617,4138.974258,4201.538359,4216.410153,4218.974256,4222.051179,4199.999897,4202.564,4189.743487,4223.07682,4197.948615
43,0,4170.256308,4182.05118,4250.769127,4139.487078,4139.487078,4203.589641,4209.743487,4207.179384,4209.743487,4191.794769,4193.846051,4178.461436,4212.82041,4191.281949
44,0,4176.410154,4184.615282,4236.410153,4161.53836,4138.974258,4204.615282,4206.666564,4205.640923,4209.743487,4200.512718,4197.435795,4185.640923,4217.435794,4182.05118
45,0,4162.564001,4186.153744,4230.256307,4167.692206,4134.871694,4201.025538,4212.82041,4212.82041,4212.82041,4203.07682,4197.948615,4194.871692,4221.538358,4192.30759
46,0,4152.820411,4185.128103,4233.84605,4169.230667,4136.922976,4199.487077,4218.974256,4217.948615,4211.794769,4198.461436,4197.435795,4196.410154,4221.025538,4185.128103
47,0,4158.461437,4187.692205,4248.205024,4149.230668,4136.410155,4198.461436,4217.435794,4216.922974,4207.692205,4195.897333,4199.999897,4189.230667,4223.58964,4170.256308
48,0,4155.897334,4183.076821,4271.281947,4108.205028,4132.820412,4193.846051,4213.33323,4212.82041,4205.640923,4192.82041,4193.333231,4180.512718,4223.07682,4189.230667
49,0,4152.307591,4171.79477,4281.025536,4087.692208,4139.487078,4189.230667,4211.281948,4213.846051,4212.307589,4190.256308,4183.589641,4184.102462,4215.384512,4193.846051
50,0,4154.358873,4172.30759,4276.410152,4094.871695,4137.435796,4190.256308,4211.794769,4219.999897,4219.487076,4192.82041,4186.666564,4191.794769,4215.897333,4172.820411
51,0,4157.948616,4182.05118,4279.999895,4098.461438,4119.999899,4188.717846,4215.384512,4219.487076,4216.922974,4197.948615,4196.410154,4188.717846,4225.128102,4171.281949
52,0,4161.53836,4185.128103,4284.102459,4100.51272,4123.589643,4185.640923,4213.33323,4218.461435,4214.358871,4201.538359,4199.999897,4190.769128,4230.769127,4195.384513
53,0,4158.974257,4182.564,4270.769126,4124.615284,4141.53836,4194.358872,4213.33323,4227.179384,4215.384512,4203.589641,4198.461436,4202.051179,4229.743486,4202.564
54,0,4155.384514,4184.102462,4244.10246,4161.025539,4136.922976,4204.102461,4224.102461,4227.692204,4215.384512,4199.999897,4198.974256,4201.025538,4228.717845,4187.179385
55,0,4165.640924,4190.769128,4218.461435,4189.230667,4126.153745,4202.564,4232.820409,4221.025538,4215.384512,4196.410154,4203.589641,4193.846051,4234.358871,4188.205026
56,0,4177.948616,4198.974256,4216.410153,4200.512718,4134.358873,4201.538359,4231.281948,4226.153743,4217.435794,4204.615282,4210.769128,4205.128102,4243.58964,4209.230666
57,0,4184.102462,4203.589641,4230.769127,4198.974256,4139.999899,4203.07682,4230.256307,4233.33323,4221.538358,4213.846051,4213.846051,4215.897333,4248.205024,4199.487077
58,0,4189.230667,4204.102461,4231.794768,4193.333231,4139.999899,4204.102461,4234.871691,4233.33323,4230.256307,4221.538358,4215.384512,4209.230666,4247.692204,4176.410154
59,0,4178.461436,4200.512718,4231.281948,4172.30759,4136.922976,4204.615282,4231.281948,4233.33323,4233.33323,4228.717845,4217.948615,4199.487077,4249.230665,4202.051179
60,0,4161.53836,4194.358872,4239.999896,4150.769129,4121.538361,4199.487077,4216.410153,4227.692204,4222.051179,4220.512717,4215.897333,4192.82041,4254.871691,4228.717845
61,0,4167.692206,4195.897333,4241.538358,4161.53836,4121.02554,4196.410154,4212.82041,4226.666563,4223.07682,4215.897333,4215.897333,4198.461436,4261.025537,4210.769128
62,0,4182.05118,4206.153743,4231.281948,4193.846051,4147.179386,4203.589641,4227.692204,4241.538358,4238.974255,4232.307589,4221.025538,4210.769128,4265.128101,4195.384513
63,0,4182.564,4214.358871,4217.435794,4213.846051,4161.025539,4211.281948,4236.922973,4243.58964,4240.512717,4237.435794,4218.974256,4205.640923,4263.589639,4203.07682
64,0,4183.076821,4217.435794,4207.179384,4223.07682,4147.179386,4211.281948,4229.743486,4229.230666,4228.717845,4223.58964,4212.82041,4198.974256,4258.974255,4201.538359
65,0,4194.871692,4217.435794,4209.230666,4235.384512,4143.589642,4212.82041,4227.692204,4230.769127,4229.230666,4223.58964,4221.538358,4210.769128,4261.025537,4191.281949
66,0,4206.153743,4218.461435,4213.33323,4236.922973,4154.871693,4216.410153,4235.384512,4243.58964,4240.512717,4233.84605,4232.820409,4211.794769,4270.769126,4213.33323
67,0,4198.461436,4217.948615,4215.384512,4219.999897,4148.205027,4207.179384,4229.230666,4232.307589,4231.794768,4228.717845,4224.102461,4199.999897,4269.230665,4235.897332
68,0,4186.153744,4213.33323,4227.179384,4201.538359,4129.230668,4192.30759,4212.82041,4213.33323,4211.794769,4213.33323,4212.307589,4207.179384,4259.999896,4218.974256
69,0,4202.051179,4214.871692,4235.384512,4206.666564,4139.487078,4197.948615,4217.435794,4224.615281,4221.025538,4210.769128,4223.07682,4221.025538,4268.717844,4215.897333
70,0,4219.999897,4219.487076,4231.281948,4221.025538,4165.128103,4209.743487,4229.743486,4238.461435,4236.410153,4217.435794,4236.410153,4221.025538,4283.076818,4241.025537
71,0,4207.179384,4219.487076,4230.256307,4217.435794,4165.128103,4205.640923,4224.615281,4232.307589,4223.58964,4220.512717,4229.230666,4217.435794,4277.435793,4228.205025
72,0,4196.410154,4214.871692,4227.692204,4210.256307,4148.205027,4202.564,4217.948615,4226.153743,4213.33323,4217.435794,4220.512717,4214.871692,4266.666562,4200.512718
73,0,4201.025538,4204.615282,4215.897333,4208.205025,4135.897335,4202.051179,4216.410153,4220.512717,4215.897333,4205.640923,4214.358871,4201.538359,4263.589639,4212.82041
74,0,4198.974256,4199.487077,4215.897333,4202.564,4133.846053,4198.974256,4215.384512,4213.846051,4212.307589,4199.999897,4210.769128,4196.410154,4265.640921,4227.179384
75,0,4192.82041,4209.230666,4226.666563,4201.025538,4138.974258,4207.692205,4225.128102,4225.128102,4221.538358,4214.871692,4222.051179,4207.692205,4275.384511,4211.794769
76,0,4197.435795,4217.435794,4228.717845,4207.179384,4142.051181,4212.82041,4228.717845,4235.384512,4232.307589,4226.153743,4230.769127,4210.769128,4283.076818,4208.717846
77,0,4210.769128,4214.871692,4216.922974,4216.922974,4138.974258,4206.153743,4222.051179,4228.717845,4222.563999,4224.102461,4224.615281,4206.666564,4279.487075,4230.256307
78,0,4216.922974,4215.384512,4210.256307,4223.58964,4140.512719,4209.743487,4229.230666,4229.743486,4222.563999,4220.512717,4224.615281,4212.307589,4279.487075,4223.07682
79,0,4205.640923,4218.974256,4224.102461,4206.153743,4144.102463,4209.743487,4231.281948,4234.358871,4236.410153,4217.435794,4229.743486,4211.281948,4285.1281,4205.128102
80,0,4181.025539,4215.384512,4239.487076,4181.025539,4138.974258,4198.974256,4220.512717,4230.769127,4235.897332,4224.102461,4228.717845,4199.999897,4283.076818,4219.999897
81,0,4175.897334,4212.307589,4234.358871,4191.281949,4134.871694,4205.640923,4224.102461,4230.769127,4229.743486,4233.84605,4229.743486,4208.205025,4284.102459,4230.256307
82,0,4202.564,4213.846051,4225.128102,4213.846051,4137.435796,4213.33323,4227.692204,4230.769127,4229.743486,4230.769127,4233.84605,4218.974256,4291.794767,4217.435794
83,0,4218.461435,4215.384512,4227.179384,4207.179384,4142.051181,4205.128102,4221.025538,4227.179384,4230.769127,4231.281948,4232.307589,4212.307589,4293.846049,4226.153743
84,0,4205.640923,4214.871692,4234.871691,4193.333231,4141.53836,4205.640923,4224.615281,4232.307589,4235.897332,4234.358871,4234.358871,4207.179384,4290.769126,4243.58964
85,0,4191.281949,4212.82041,4231.794768,4204.615282,4137.435796,4214.871692,4231.281948,4233.33323,4235.897332,4224.102461,4234.358871,4212.307589,4289.743485,4226.666563
86,0,4192.30759,4212.307589,4221.025538,4217.948615,4138.974258,4217.435794,4230.256307,4226.666563,4231.281948,4216.410153,4225.128102,4213.33323,4289.743485,4208.205025
87,0,4186.153744,4210.769128,4213.33323,4218.461435,4140.512719,4215.384512,4230.256307,4230.256307,4229.230666,4216.922974,4216.410153,4206.666564,4291.794767,4214.871692
88,0,4177.435795,4210.769128,4214.358871,4216.922974,4138.461437,4211.794769,4230.256307,4231.794768,4222.051179,4214.871692,4215.897333,4200.512718,4294.358869,4222.563999
89,0,4188.205026,4216.410153,4213.33323,4218.974256,4138.974258,4213.846051,4231.794768,4222.051179,4217.948615,4213.33323,4215.897333,4202.564,4292.820408,4219.999897
90,0,4192.82041,4213.846051,4203.07682,4216.922974,4132.820412,4215.384512,4227.692204,4216.410153,4222.563999,4208.205025,4207.179384,4202.564,4288.205023,4214.871692
91,0,4172.30759,4201.025538,4194.871692,4214.871692,4130.256309,4213.33323,4216.410153,4214.871692,4219.999897,4204.102461,4198.461436,4192.30759,4285.1281,4208.717846
92,0,4162.05118,4202.564,4196.410154,4221.538358,4146.153745,4222.051179,4221.538358,4215.384512,4219.487076,4210.256307,4205.128102,4194.358872,4288.717844,4191.281949
93,0,4181.025539,4221.538358,4200.512718,4233.33323,4160.512719,4231.794768,4232.820409,4221.538358,4232.307589,4218.974256,4217.435794,4203.07682,4297.435792,4188.717846
94,0,4189.743487,4233.33323,4202.564,4241.025537,4163.589642,4229.743486,4232.307589,4227.179384,4238.461435,4224.615281,4220.512717,4202.564,4306.153741,4214.871692
95,0,4187.692205,4232.820409,4204.615282,4245.640922,4164.102462,4226.153743,4229.743486,4228.205025,4230.769127,4232.307589,4220.512717,4202.564,4310.769125,4232.820409
96,0,4200.512718,4231.281948,4205.128102,4248.205024,4159.487078,4223.58964,4225.128102,4225.640922,4228.205025,4237.948614,4221.538358,4203.589641,4309.743484,4230.256307
97,0,4204.615282,4230.769127,4201.538359,4246.666563,4150.256309,4217.435794,4219.999897,4219.487076,4231.794768,4232.307589,4219.487076,4201.538359,4309.743484,4232.820409
98,0,4199.999897,4230.256307,4200.512718,4247.179383,4141.53836,4214.358871,4224.102461,4217.435794,4229.743486,4221.538358,4218.974256,4208.205025,4312.307587,4228.205025
99,0,4203.589641,4230.256307,4202.051179,4252.307588,4132.307591,4212.82041,4222.051179,4218.974256,4219.999897,4216.922974,4218.461435,4212.82041,4311.281946,4213.846051
100,0,4206.666564,4231.281948,4203.07682,4258.974255,4139.999899,4212.307589,4215.897333,4215.897333,4214.358871,4216.922974,4217.435794,4210.256307,4313.333228,4218.461435
101,0,4207.692205,4233.33323,4201.538359,4259.999896,4152.307591,4215.384512,4217.948615,4213.33323,4216.410153,4215.897333,4218.461435,4210.769128,4317.948612,4224.615281
102,0,4213.33323,4232.820409,4199.999897,4251.281947,4144.615283,4213.846051,4216.922974,4216.410153,4216.410153,4221.025538,4217.435794,4208.205025,4317.948612,4223.58964
103,0,4212.82041,4232.820409,4205.128102,4250.256306,4142.051181,4214.871692,4217.435794,4217.948615,4219.999897,4227.692204,4217.948615,4201.025538,4320.512715,4230.769127
104,0,4207.692205,4239.487076,4213.846051,4261.538357,4161.53836,4225.640922,4231.281948,4224.102461,4231.794768,4230.769127,4227.179384,4208.717846,4332.820407,4235.384512
105,0,4224.615281,4250.256306,4218.974256,4272.820408,4171.79477,4234.358871,4245.128101,4239.999896,4243.58964,4242.051178,4241.025537,4228.717845,4347.179381,4240.512717
106,0,4246.666563,4253.84605,4219.999897,4276.410152,4159.999898,4233.84605,4246.153742,4249.743486,4247.692204,4247.692204,4251.794768,4236.922973,4353.846047,4251.794768
107,0,4241.538358,4249.743486,4219.487076,4270.769126,4150.769129,4230.256307,4241.538358,4247.692204,4247.179383,4242.051178,4249.230665,4229.230666,4350.769124,4249.230665
108,0,4235.384512,4250.769127,4218.974256,4263.076819,4152.820411,4230.769127,4242.563999,4247.692204,4248.205024,4243.076819,4239.487076,4225.640922,4347.692201,4239.487076
109,0,4252.307588,4258.461434,4221.025538,4269.230665,4154.358873,4233.33323,4248.205024,4250.769127,4249.743486,4248.205024,4245.128101,4234.358871,4354.358868,4255.384511
110,0,4255.897332,4259.487075,4219.999897,4274.35887,4152.820411,4233.33323,4247.179383,4249.743486,4247.692204,4247.179383,4252.820409,4232.820409,4362.051175,4273.846049
111,0,4226.666563,4251.281947,4214.871692,4266.153742,4155.897334,4233.33323,4242.051178,4247.179383,4245.640922,4244.10246,4239.487076,4216.410153,4353.333227,4258.974255
112,0,4213.846051,4239.999896,4212.82041,4258.461434,4158.974257,4235.384512,4244.615281,4247.179383,4247.179383,4235.384512,4226.153743,4215.384512,4340.512714,4229.230666
113,0,4222.563999,4234.358871,4212.82041,4254.35887,4154.358873,4233.84605,4243.58964,4246.153742,4246.153742,4228.717845,4230.256307,4221.025538,4342.563996,4228.717845
114,0,4222.051179,4236.922973,4213.33323,4248.717845,4151.28195,4228.717845,4236.410153,4241.538358,4238.461435,4233.84605,4232.820409,4217.948615,4347.692201,4242.563999
115,0,4222.051179,4238.461435,4214.871692,4248.205024,4147.692206,4228.717845,4233.84605,4235.897332,4229.743486,4229.743486,4229.230666,4213.33323,4345.640919,4234.358871
116,0,4233.33323,4238.974255,4215.897333,4252.307588,4141.53836,4228.205025,4233.84605,4229.230666,4227.692204,4214.871692,4229.230666,4213.846051,4347.179381,4226.153743
117,0,4230.769127,4243.58964,4214.871692,4254.35887,4141.02554,4225.640922,4228.717845,4224.615281,4228.205025,4217.948615,4227.692204,4212.82041,4353.846047,4232.820409
118,0,4216.410153,4249.230665,4215.384512,4257.435793,4153.333232,4229.743486,4231.794768,4229.743486,4232.307589,4239.487076,4233.84605,4215.384512,4358.974252,4238.461435
119,0,4228.205025,4248.205024,4217.435794,4260.512716,4162.05118,4235.897332,4242.051178,4240.512717,4242.563999,4253.333229,4247.692204,4219.487076,4364.615278,4255.897332
120,0,4250.769127,4250.256306,4216.922974,4259.999896,4156.410155,4232.307589,4237.948614,4236.410153,4238.974255,4248.205024,4249.230665,4215.897333,4366.66656,4269.743485
121,0,4252.307588,4261.025537,4217.948615,4265.128101,4148.717847,4228.205025,4228.205025,4225.128102,4231.794768,4243.076819,4244.10246,4213.846051,4367.692201,4256.922973
122,0,4244.615281,4262.563998,4215.384512,4272.820408,4152.307591,4233.33323,4234.871691,4233.33323,4241.538358,4247.179383,4246.666563,4222.051179,4367.692201,4238.974255
123,0,4228.717845,4251.794768,4210.769128,4265.128101,4152.307591,4230.769127,4236.922973,4239.487076,4245.640922,4244.615281,4243.076819,4224.102461,4360.512714,4228.205025
124,0,4214.871692,4243.58964,4214.358871,4243.076819,4140.512719,4218.461435,4219.999897,4224.102461,4232.820409,4234.871691,4230.256307,4211.794769,4353.846047,4220.512717
125,0,4224.102461,4246.153742,4220.512717,4233.84605,4145.128104,4215.384512,4211.794769,4213.33323,4226.666563,4232.820409,4228.717845,4204.102461,4354.871688,4232.820409
126,0,4227.179384,4245.128101,4212.307589,4236.922973,4153.846052,4220.512717,4216.922974,4217.948615,4228.717845,4233.33323,4232.820409,4205.640923,4356.41015,4253.84605
127,0,4213.846051,4243.076819,4213.33323,4232.307589,4142.564001,4219.999897,4217.435794,4219.487076,4229.743486,4227.179384,4231.281948,4206.666564,4357.435791,4244.615281
128,0,4223.07682,4248.205024,4231.281948,4227.179384,4137.435796,4217.948615,4217.435794,4216.410153,4231.281948,4232.307589,4231.281948,4205.128102,4358.461432,4231.281948
0,0,4234.358871,4247.692204,4232.307589,4231.281948,4142.051181,4215.384512,4214.871692,4215.384512,4232.820409,4245.640922,4231.794768,4206.153743,4356.41015,4233.84605
1,0,4218.974256,4237.435794,4221.025538,4234.358871,4134.358873,4214.871692,4214.871692,4217.948615,4238.974255,4249.230665,4230.769127,4210.256307,4355.897329,4217.948615
2,0,4207.179384,4232.820409,4220.512717,4229.743486,4130.76913,4218.461435,4221.538358,4221.025538,4241.025537,4245.640922,4232.820409,4212.82041,4359.487073,4210.256307
3,0,4218.461435,4237.435794,4220.512717,4230.256307,4140.512719,4220.512717,4222.563999,4216.410153,4231.794768,4244.615281,4233.84605,4209.743487,4357.948611,4246.666563
4,0,4228.205025,4243.58964,4214.358871,4241.538358,4140.512719,4216.410153,4222.051179,4216.410153,4232.820409,4242.563999,4229.743486,4206.666564,4356.92297,4268.205024
5,0,4226.666563,4246.666563,4212.307589,4252.307588,4137.435796,4219.487076,4233.33323,4229.230666,4246.666563,4240.512717,4231.281948,4209.743487,4361.538355,4251.281947
6,0,4216.922974,4246.153742,4213.33323,4251.281947,4139.999899,4224.102461,4236.922973,4238.974255,4251.794768,4244.10246,4236.410153,4214.871692,4362.563996,4242.051178
7,0,4211.281948,4242.563999,4214.871692,4245.128101,4139.999899,4222.051179,4232.307589,4237.435794,4242.051178,4240.512717,4232.307589,4217.435794,4355.897329,4229.743486
8,0,4223.58964,4244.615281,4217.948615,4248.717845,4142.564001,4222.563999,4236.922973,4234.358871,4238.461435,4233.33323,4230.256307,4218.461435,4356.41015,4210.256307
9,0,4220.512717,4245.128101,4216.922974,4247.179383,4141.02554,4226.666563,4239.999896,4236.410153,4242.563999,4234.358871,4234.358871,4209.743487,4355.384509,4224.102461
10,0,4199.487077,4234.871691,4210.769128,4234.871691,4133.846053,4224.102461,4234.358871,4232.820409,4237.948614,4239.487076,4228.205025,4198.974256,4344.615278,4249.743486
11,0,4201.025538,4234.358871,4209.743487,4236.410153,4139.487078,4215.384512,4227.692204,4218.974256,4226.153743,4236.922973,4221.025538,4204.102461,4343.076817,4248.717845
12,0,4212.82041,4245.640922,4216.410153,4246.666563,4153.333232,4216.922974,4228.205025,4213.33323,4230.256307,4232.820409,4228.717845,4216.922974,4352.820406,4223.07682
13,0,4215.897333,4250.769127,4218.974256,4246.153742,4150.769129,4223.07682,4231.281948,4218.461435,4236.410153,4237.435794,4234.871691,4217.435794,4355.897329,4197.948615
14,0,4210.256307,4246.666563,4213.846051,4239.999896,4133.333232,4212.82041,4221.025538,4206.153743,4221.025538,4231.794768,4222.051179,4211.794769,4348.717842,4213.33323
15,0,4200.512718,4244.10246,4213.33323,4243.076819,4129.230668,4207.692205,4215.897333,4194.358872,4215.897333,4222.051179,4210.769128,4213.33323,4343.589637,4249.230665
16,0,4206.153743,4247.179383,4216.922974,4250.769127,4146.153745,4224.615281,4229.230666,4218.974256,4236.922973,4227.179384,4223.58964,4218.974256,4348.717842,4246.153742
17,0,4232.820409,4256.410152,4216.922974,4252.820409,4161.53836,4233.84605,4237.435794,4247.692204,4252.307588,4236.410153,4237.435794,4216.410153,4355.897329,4227.179384
18,0,4238.974255,4261.538357,4217.435794,4249.743486,4158.974257,4221.538358,4231.281948,4246.666563,4247.179383,4239.487076,4232.820409,4208.205025,4352.820406,4233.84605
19,0,4218.461435,4252.820409,4210.769128,4249.230665,4143.589642,4214.358871,4230.769127,4235.384512,4236.922973,4244.10246,4226.153743,4208.205025,4344.615278,4234.358871
20,0,4215.384512,4246.666563,4203.589641,4250.769127,4135.897335,4216.922974,4232.820409,4233.33323,4233.33323,4239.999896,4225.128102,4215.897333,4342.051176,4224.615281
21,0,4221.538358,4248.205024,4209.743487,4247.179383,4138.974258,4219.999897,4233.84605,4233.33323,4231.794768,4216.922974,4219.487076,4217.435794,4341.025535,4235.897332
22,0,4212.307589,4248.717845,4217.435794,4244.615281,4132.820412,4219.487076,4236.410153,4230.256307,4230.256307,4212.307589,4215.384512,4211.794769,4341.025535,4250.769127
23,0,4202.051179,4246.153742,4217.435794,4246.153742,4124.102463,4213.846051,4232.307589,4224.102461,4229.743486,4225.128102,4222.051179,4214.358871,4342.051176,4240.512717
24,0,4216.922974,4246.153742,4216.410153,4247.692204,4133.333232,4214.358871,4232.307589,4219.487076,4229.743486,4223.58964,4226.666563,4226.666563,4340.512714,4225.128102
25,0,4233.33323,4250.256306,4216.410153,4252.307588,4143.589642,4219.487076,4231.794768,4211.794769,4227.692204,4213.33323,4226.153743,4228.205025,4342.051176,4234.871691
26,0,4215.897333,4245.128101,4212.307589,4247.692204,4136.410155,4218.461435,4218.974256,4203.589641,4227.179384,4214.358871,4221.538358,4215.897333,4339.487073,4235.384512
27,0,4200.512718,4234.358871,4211.281948,4234.871691,4137.948617,4214.871692,4216.922974,4210.256307,4229.743486,4222.563999,4211.281948,4211.281948,4329.230663,4210.769128
28,0,4203.589641,4236.922973,4215.897333,4232.307589,4146.666565,4218.461435,4233.33323,4234.871691,4233.84605,4229.230666,4206.153743,4213.846051,4323.589638,4218.461435
29,0,4199.487077,4238.461435,4212.307589,4236.410153,4138.461437,4224.102461,4239.487076,4247.692204,4235.384512,4229.743486,4211.794769,4211.281948,4325.128099,4241.538358
30,0,4200.512718,4232.820409,4202.564,4233.33323,4129.743489,4223.07682,4231.794768,4237.948614,4232.820409,4222.563999,4216.922974,4210.256307,4324.102458,4224.615281
31,0,4213.846051,4238.974255,4198.461436,4237.435794,4137.435796,4219.999897,4232.307589,4230.769127,4228.717845,4216.410153,4210.769128,4213.33323,4322.563997,4210.769128
32,0,4215.897333,4248.717845,4202.564,4244.615281,4139.999899,4218.461435,4234.871691,4231.794768,4228.205025,4213.33323,4206.666564,4212.307589,4325.128099,4232.307589
33,0,4214.871692,4244.615281,4209.230666,4238.461435,4133.333232,4217.948615,4231.794768,4232.820409,4230.769127,4217.435794,4212.307589,4210.256307,4326.666561,4239.487076
34,0,4219.999897,4242.563999,4214.871692,4233.84605,4133.846053,4219.999897,4229.230666,4230.769127,4231.794768,4222.563999,4218.461435,4215.384512,4327.179381,4216.410153
35,0,4214.358871,4245.128101,4214.871692,4236.410153,4132.820412,4219.487076,4223.07682,4222.563999,4228.717845,4217.435794,4217.948615,4224.615281,4326.15374,4207.692205
36,0,4215.384512,4242.563999,4215.384512,4234.358871,4125.128104,4213.33323,4220.512717,4215.897333,4228.205025,4220.512717,4220.512717,4226.666563,4328.717843,4231.281948
37,0,4223.07682,4245.640922,4221.538358,4233.84605,4133.846053,4220.512717,4230.769127,4223.07682,4232.307589,4233.84605,4231.281948,4221.538358,4334.871689,4253.84605
38,0,4219.999897,4252.307588,4221.538358,4237.435794,4143.076822,4235.384512,4237.435794,4231.794768,4233.84605,4234.871691,4233.84605,4219.487076,4333.333227,4251.281947
39,0,4218.974256,4245.128101,4213.846051,4237.435794,4143.076822,4232.820409,4231.794768,4228.717845,4229.743486,4227.179384,4221.538358,4217.948615,4327.179381,4244.615281
40,0,4209.743487,4231.794768,4211.794769,4231.281948,4141.53836,4227.179384,4236.922973,4235.384512,4232.307589,4222.563999,4212.307589,4216.922974,4319.999894,4233.84605
41,0,4198.461436,4230.256307,4215.897333,4230.769127,4122.051181,4230.256307,4249.230665,4250.769127,4243.076819,4216.922974,4209.743487,4223.58964,4311.281946,4194.358872
42,0,4214.358871,4233.84605,4223.07682,4230.256307,4106.153746,4228.717845,4249.743486,4256.410152,4247.179383,4217.948615,4204.102461,4230.256307,4311.794766,4181.025539
43,0,4236.922973,4233.84605,4231.794768,4221.025538,4142.051181,4232.307589,4252.307588,4257.435793,4246.666563,4227.692204,4204.102461,4229.743486,4319.487074,4237.435794
44,0,4233.33323,4239.999896,4235.897332,4221.538358,4177.435795,4242.563999,4257.948614,4263.076819,4247.692204,4238.974255,4214.358871,4238.461435,4321.025535,4249.743486
45,0,4230.256307,4256.922973,4229.230666,4241.025537,4167.692206,4239.999896,4248.717845,4265.640921,4249.743486,4251.794768,4225.640922,4250.769127,4326.666561,4193.333231
46,0,4249.743486,4263.589639,4222.051179,4252.820409,4147.179386,4226.153743,4232.820409,4255.384511,4251.281947,4251.281947,4231.281948,4237.948614,4338.461432,4215.897333
47,0,4273.333229,4264.10246,4228.717845,4244.10246,4143.589642,4218.461435,4225.128102,4232.820409,4241.538358,4239.487076,4236.410153,4217.435794,4344.102458,4306.666561
48,0,4277.435793,4264.10246,4233.84605,4234.871691,4142.051181,4216.410153,4217.948615,4204.102461,4218.461435,4229.743486,4236.410153,4221.025538,4344.615278,4311.281946
49,0,4274.35887,4258.461434,4231.794768,4230.256307,4128.717848,4216.922974,4216.410153,4192.30759,4207.179384,4222.563999,4229.230666,4234.358871,4344.102458,4278.461434
50,0,4296.410151,4265.640921,4235.384512,4229.743486,4115.384515,4212.307589,4223.07682,4209.743487,4218.974256,4216.410153,4231.794768,4238.974255,4352.307586,4312.820407
51,0,4326.666561,4289.230664,4242.563999,4234.871691,4116.922976,4202.051179,4220.512717,4231.281948,4231.281948,4214.358871,4242.051178,4249.743486,4371.794765,4341.538355
52,0,4333.333227,4305.64092,4245.128101,4239.487076,4125.640925,4204.615282,4219.487076,4233.84605,4231.794768,4215.384512,4240.512717,4259.999896,4376.92297,4333.846048
53,0,4335.89733,4310.256305,4242.563999,4249.230665,4130.76913,4217.435794,4231.794768,4232.307589,4228.205025,4219.999897,4226.666563,4253.84605,4359.999893,4349.230663
54,0,4348.717842,4312.307587,4236.410153,4258.461434,4137.948617,4216.922974,4237.435794,4240.512717,4228.717845,4215.897333,4222.051179,4247.179383,4352.820406,4357.435791
55,0,4352.820406,4312.307587,4231.794768,4260.512716,4138.461437,4209.230666,4229.743486,4239.999896,4226.153743,4203.589641,4230.769127,4247.179383,4358.974252,4340.512714
56,0,4344.102458,4313.846048,4233.84605,4262.051178,4125.640925,4210.769128,4229.230666,4236.410153,4226.153743,4204.102461,4232.820409,4247.692204,4352.820406,4336.41015
57,0,4329.230663,4306.153741,4228.717845,4259.999896,4120.51272,4217.435794,4229.230666,4236.922973,4234.358871,4214.358871,4223.58964,4246.153742,4336.922971,4326.666561
58,0,4307.692202,4287.179382,4216.922974,4253.333229,4128.717848,4216.410153,4219.999897,4227.692204,4233.33323,4215.897333,4215.897333,4245.128101,4327.692202,4291.281946
59,0,4285.1281,4277.948613,4215.384512,4252.307588,4138.974258,4209.230666,4213.33323,4212.82041,4216.410153,4213.33323,4216.410153,4246.153742,4326.666561,4273.846049
60,0,4266.153742,4273.846049,4219.487076,4248.205024,4137.948617,4206.666564,4211.794769,4211.281948,4209.230666,4207.179384,4215.384512,4242.051178,4319.487074,4277.948613
61,0,4262.563998,4259.999896,4218.461435,4233.84605,4124.102463,4211.794769,4218.461435,4216.922974,4223.07682,4200.512718,4212.82041,4232.307589,4310.256305,4278.974254
62,0,4266.153742,4248.205024,4214.871692,4228.205025,4123.589643,4217.435794,4230.256307,4218.461435,4233.33323,4207.179384,4212.82041,4227.692204,4304.102459,4273.333229
63,0,4250.256306,4246.153742,4212.82041,4230.769127,4127.692207,4219.999897,4237.435794,4223.07682,4224.102461,4212.307589,4203.07682,4226.666563,4296.922972,4253.333229
64,0,4225.128102,4241.025537,4212.82041,4221.025538,4114.871694,4218.461435,4234.871691,4228.717845,4213.846051,4203.07682,4189.743487,4219.487076,4289.230664,4233.84605
65,0,4232.307589,4238.974255,4222.051179,4203.589641,4122.051181,4216.410153,4229.743486,4229.230666,4219.999897,4196.410154,4190.769128,4217.435794,4287.179382,4231.281948
66,0,4248.205024,4246.666563,4237.435794,4196.922974,4151.79477,4217.435794,4229.743486,4232.307589,4234.358871,4204.615282,4196.410154,4228.205025,4292.307587,4218.461435
67,0,4227.692204,4251.281947,4242.051178,4199.999897,4148.717847,4217.435794,4227.179384,4237.435794,4237.435794,4214.358871,4196.410154,4233.33323,4294.358869,4203.07682
68,0,4218.974256,4249.743486,4245.128101,4198.974256,4128.717848,4213.846051,4219.487076,4233.84605,4227.692204,4216.410153,4197.948615,4225.128102,4293.846049,4229.230666
69,0,4249.230665,4249.230665,4249.743486,4192.30759,4134.358873,4211.794769,4213.846051,4225.128102,4225.128102,4215.897333,4201.538359,4218.974256,4296.922972,4262.051178
70,0,4262.051178,4250.256306,4235.384512,4207.692205,4143.076822,4211.281948,4210.256307,4222.051179,4232.307589,4217.948615,4203.07682,4226.666563,4303.589638,4256.922973
71,0,4241.538358,4249.743486,4211.281948,4236.410153,4138.461437,4210.769128,4203.07682,4215.897333,4223.58964,4218.461435,4203.07682,4230.256307,4305.1281,4242.051178
72,0,4231.794768,4246.666563,4219.487076,4218.461435,4139.487078,4212.82041,4208.205025,4210.256307,4209.743487,4208.717846,4201.025538,4223.07682,4299.999895,4236.922973
73,0,4228.717845,4237.435794,4240.512717,4177.948616,4138.461437,4223.58964,4228.205025,4224.615281,4220.512717,4205.128102,4197.948615,4216.410153,4289.743485,4217.435794
74,0,4216.410153,4232.820409,4226.666563,4192.30759,4135.384514,4236.410153,4237.435794,4244.615281,4235.384512,4213.846051,4198.974256,4218.974256,4286.153741,4190.256308
75,0,4212.82041,4235.384512,4204.615282,4231.794768,4137.948617,4229.743486,4232.820409,4244.10246,4233.33323,4221.025538,4201.538359,4226.666563,4293.333228,4198.974256
76,0,4217.948615,4234.358871,4214.358871,4222.051179,4130.76913,4214.871692,4232.820409,4241.538358,4235.384512,4220.512717,4204.615282,4231.794768,4297.435792,4234.358871
77,0,4225.128102,4233.33323,4231.794768,4195.384513,4124.102463,4214.871692,4231.794768,4245.640922,4240.512717,4218.974256,4204.615282,4225.640922,4295.38451,4246.153742
78,0,4226.666563,4232.820409,4231.281948,4198.461436,4132.820412,4214.871692,4219.487076,4239.487076,4233.84605,4216.922974,4201.538359,4216.922974,4294.358869,4226.666563
79,0,4221.538358,4233.84605,4232.820409,4205.128102,4142.051181,4209.743487,4211.794769,4231.281948,4231.794768,4216.922974,4206.666564,4222.051179,4296.922972,4218.974256
80,0,4218.461435,4239.999896,4243.076819,4196.922974,4141.02554,4211.281948,4215.897333,4227.692204,4233.84605,4218.974256,4212.82041,4233.84605,4296.922972,4221.025538
81,0,4211.281948,4238.461435,4251.281947,4172.820411,4137.435796,4210.256307,4211.794769,4209.743487,4212.82041,4205.640923,4198.461436,4225.128102,4285.640921,4201.538359
82,0,4202.051179,4228.717845,4259.487075,4142.564001,4136.410155,4199.487077,4197.435795,4192.30759,4192.82041,4186.666564,4178.461436,4202.564,4272.307588,4190.769128
83,0,4203.589641,4227.179384,4262.051178,4141.53836,4133.846053,4197.948615,4196.922974,4195.897333,4204.615282,4185.640923,4182.05118,4202.051179,4276.922972,4218.974256
84,0,4216.922974,4232.820409,4247.179383,4172.820411,4132.307591,4210.769128,4211.281948,4206.666564,4220.512717,4203.589641,4196.922974,4218.461435,4291.794767,4235.897332
85,0,4227.179384,4239.487076,4230.256307,4198.974256,4133.333232,4219.487076,4219.999897,4221.538358,4224.615281,4216.922974,4204.102461,4222.051179,4295.38451,4219.487076
86,0,4227.179384,4245.640922,4226.666563,4209.743487,4131.28195,4215.897333,4219.487076,4233.33323,4228.717845,4216.410153,4207.692205,4222.563999,4292.820408,4221.538358
87,0,4219.999897,4250.769127,4231.794768,4219.999897,4136.922976,4213.846051,4221.538358,4225.640922,4227.692204,4214.871692,4208.205025,4230.769127,4296.922972,4227.179384
88,0,4218.974256,4245.128101,4230.256307,4217.948615,4143.589642,4214.358871,4216.922974,4212.307589,4213.846051,4218.461435,4204.615282,4227.692204,4296.922972,4201.538359
89,0,4223.07682,4235.897332,4219.999897,4202.564,4128.205027,4206.666564,4206.153743,4211.281948,4208.205025,4216.922974,4203.589641,4214.871692,4288.717844,4203.589641
90,0,4218.461435,4239.999896,4222.051179,4202.564,4118.461438,4204.615282,4205.128102,4216.410153,4222.051179,4212.82041,4208.205025,4213.846051,4288.717844,4245.128101
91,0,4222.563999,4250.769127,4235.384512,4214.871692,4146.666565,4213.846051,4209.230666,4216.410153,4230.769127,4224.102461,4216.410153,4221.538358,4300.512715,4256.410152
92,0,4238.461435,4250.256306,4226.666563,4218.974256,4163.076821,4217.948615,4210.256307,4212.82041,4222.051179,4230.256307,4220.512717,4222.563999,4302.563997,4230.256307
93,0,4230.769127,4244.10246,4212.82041,4209.230666,4141.53836,4219.487076,4215.384512,4212.307589,4215.384512,4222.051179,4215.384512,4215.384512,4296.410151,4224.102461
94,0,4216.410153,4245.128101,4224.102461,4201.025538,4133.333232,4221.025538,4217.948615,4212.307589,4222.563999,4223.58964,4212.307589,4215.384512,4297.435792,4228.717845
95,0,4223.58964,4247.179383,4233.33323,4207.179384,4149.743488,4216.922974,4217.435794,4217.948615,4229.230666,4231.794768,4216.410153,4226.153743,4299.487074,4208.205025
96,0,4224.615281,4250.769127,4223.58964,4216.922974,4152.820411,4217.435794,4224.615281,4231.281948,4234.358871,4233.84605,4217.435794,4230.256307,4296.922972,4194.871692
97,0,4212.82041,4246.666563,4216.922974,4218.974256,4143.076822,4221.025538,4226.153743,4232.307589,4233.33323,4228.717845,4210.256307,4217.435794,4292.307587,4218.974256
98,0,4211.281948,4235.384512,4216.410153,4210.769128,4134.871694,4211.281948,4215.384512,4218.461435,4221.025538,4217.948615,4197.948615,4203.589641,4283.076818,4238.461435
99,0,4210.256307,4226.153743,4212.82041,4202.564,4123.076822,4199.487077,4207.179384,4207.692205,4209.743487,4200.512718,4187.692205,4199.999897,4272.307588,4218.461435
100,0,4199.999897,4219.487076,4213.33323,4199.487077,4121.02554,4195.897333,4202.564,4202.564,4203.589641,4195.384513,4181.538359,4202.051179,4266.153742,4202.051179
101,0,4192.82041,4221.025538,4213.846051,4203.07682,4135.897335,4198.461436,4205.128102,4201.538359,4204.102461,4197.435795,4180.512718,4206.666564,4262.051178,4202.051179
102,0,4198.974256,4229.743486,4207.179384,4222.051179,4135.897335,4208.717846,4215.384512,4210.769128,4213.33323,4199.487077,4190.256308,4216.922974,4264.61528,4182.05118
103,0,4210.769128,4232.820409,4207.179384,4231.794768,4127.692207,4216.922974,4221.538358,4221.538358,4222.051179,4210.769128,4200.512718,4222.563999,4275.897331,4182.05118
104,0,4212.307589,4229.743486,4215.897333,4217.435794,4139.487078,4214.871692,4217.948615,4215.384512,4214.358871,4215.384512,4196.922974,4211.794769,4273.846049,4221.025538
105,0,4208.205025,4232.307589,4216.922974,4217.948615,4147.179386,4212.82041,4217.435794,4207.179384,4203.07682,4213.846051,4194.358872,4204.615282,4265.128101,4236.922973
106,0,4215.897333,4235.384512,4209.743487,4235.897332,4136.922976,4215.384512,4221.538358,4212.82041,4205.640923,4213.33323,4200.512718,4213.846051,4269.743485,4214.358871
107,0,4213.33323,4234.358871,4214.358871,4224.102461,4139.487078,4214.871692,4219.487076,4219.487076,4218.461435,4208.717846,4201.538359,4220.512717,4275.897331,4209.230666
108,0,4199.487077,4231.794768,4223.58964,4204.615282,4148.717847,4212.82041,4216.410153,4217.435794,4226.153743,4207.179384,4198.461436,4216.410153,4273.333229,4218.974256
109,0,4207.692205,4232.820409,4216.410153,4226.153743,4150.256309,4215.384512,4223.07682,4215.897333,4221.538358,4216.922974,4199.999897,4215.384512,4272.307588,4205.640923
110,0,4221.025538,4240.512717,4199.487077,4253.333229,4150.769129,4216.410153,4223.58964,4214.871692,4213.846051,4221.025538,4200.512718,4217.435794,4275.384511,4191.794769
111,0,4215.897333,4246.153742,4195.384513,4252.307588,4145.640924,4217.948615,4217.948615,4214.358871,4212.82041,4214.871692,4204.615282,4215.384512,4276.922972,4198.461436
112,0,4215.897333,4247.692204,4207.179384,4248.717845,4138.974258,4220.512717,4222.051179,4223.07682,4224.615281,4217.435794,4214.358871,4216.922974,4279.487075,4217.948615
113,0,4218.461435,4247.179383,4214.358871,4252.307588,4144.615283,4218.461435,4223.58964,4228.717845,4230.769127,4229.230666,4216.922974,4222.051179,4280.512716,4231.281948
114,0,4214.871692,4247.692204,4212.307589,4255.897332,4154.358873,4217.435794,4222.563999,4229.230666,4229.230666,4231.794768,4216.410153,4224.102461,4282.051177,4236.410153
115,0,4227.179384,4248.717845,4211.281948,4259.999896,4157.435796,4218.974256,4228.717845,4229.743486,4230.256307,4221.025538,4217.948615,4225.640922,4283.076818,4231.281948
116,0,4242.051178,4249.230665,4214.871692,4264.10246,4158.461437,4220.512717,4232.820409,4230.256307,4230.769127,4219.999897,4217.948615,4232.820409,4281.538357,4213.33323
117,0,4236.922973,4250.769127,4215.384512,4264.10246,4161.53836,4223.58964,4234.871691,4230.769127,4235.384512,4230.256307,4216.410153,4233.84605,4281.538357,4207.692205
118,0,4226.153743,4246.666563,4205.128102,4256.922973,4150.256309,4222.051179,4232.820409,4223.07682,4230.769127,4220.512717,4207.692205,4218.974256,4273.846049,4215.384512
119,0,4215.384512,4237.435794,4197.948615,4249.743486,4133.333232,4211.794769,4222.051179,4208.717846,4213.33323,4203.589641,4194.358872,4212.82041,4260.512716,4216.410153
120,0,4212.82041,4237.435794,4208.205025,4251.794768,4142.051181,4213.33323,4223.07682,4212.82041,4214.871692,4212.307589,4201.538359,4224.102461,4265.640921,4226.153743
121,0,4229.230666,4246.153742,4222.051179,4261.025537,4164.102462,4225.128102,4235.897332,4233.33323,4236.410153,4230.769127,4228.717845,4235.384512,4281.538357,4242.051178
122,0,4245.128101,4248.205024,4221.025538,4264.61528,4171.281949,4222.563999,4233.84605,4236.922973,4239.999896,4239.487076,4237.435794,4241.538358,4283.076818,4225.640922
123,0,4233.84605,4239.999896,4212.307589,4259.999896,4165.128103,4216.922974,4229.230666,4226.666563,4231.281948,4241.538358,4222.563999,4238.974255,4279.487075,4204.102461
124,0,4217.948615,4226.666563,4210.769128,4248.205024,4154.871693,4219.999897,4234.358871,4222.051179,4231.794768,4234.358871,4213.846051,4225.128102,4279.999895,4218.461435
125,0,4225.128102,4228.205025,4214.871692,4242.563999,4147.179386,4218.974256,4231.281948,4219.487076,4230.256307,4229.743486,4218.461435,4218.974256,4275.384511,4236.410153
126,0,4233.33323,4250.256306,4214.871692,4257.435793,4152.820411,4215.384512,4223.58964,4219.999897,4230.256307,4231.281948,4214.871692,4223.07682,4268.717844,4226.153743
127,0,4216.922974,4255.384511,4207.179384,4264.61528,4160.512719,4216.410153,4227.179384,4224.102461,4233.84605,4224.615281,4201.538359,4218.974256,4261.025537,4198.974256
128,0,4203.589641,4236.922973,4201.025538,4248.717845,4146.666565,4218.461435,4231.794768,4222.563999,4226.666563,4211.794769,4196.410154,4212.82041,4249.743486,4190.256308
0,0,4214.871692,4229.743486,4202.051179,4243.076819,4132.820412,4216.922974,4224.615281,4212.82041,4214.871692,4214.358871,4199.487077,4212.82041,4248.717845,4212.82041
1,0,4219.999897,4233.84605,4201.025538,4251.794768,4149.743488,4218.461435,4221.025538,4206.153743,4213.846051,4218.461435,4197.948615,4214.871692,4257.948614,4206.666564
2,0,4213.846051,4232.307589,4200.512718,4249.230665,4166.666565,4223.07682,4227.692204,4206.153743,4216.410153,4214.871692,4204.102461,4218.461435,4263.076819,4178.461436
3,0,4211.281948,4234.358871,4204.102461,4249.743486,4160.512719,4229.230666,4229.230666,4206.153743,4216.410153,4224.102461,4216.922974,4217.435794,4265.128101,4203.07682
4,0,4206.666564,4236.922973,4201.538359,4262.051178,4156.922975,4229.743486,4222.051179,4201.538359,4221.025538,4233.84605,4211.794769,4212.307589,4262.051178,4230.256307
5,0,4216.410153,4231.794768,4195.384513,4258.461434,4156.922975,4216.410153,4214.358871,4197.435795,4219.487076,4223.58964,4198.974256,4214.358871,4254.35887,4201.538359
6,0,4228.717845,4230.769127,4205.640923,4243.076819,4151.28195,4212.307589,4218.461435,4207.692205,4215.384512,4223.07682,4205.640923,4219.999897,4258.974255,4194.358872
7,0,4216.410153,4232.820409,4213.33323,4244.615281,4154.358873,4225.640922,4232.820409,4222.563999,4226.666563,4236.410153,4211.794769,4216.410153,4264.10246,4225.640922
8,0,4205.640923,4231.794768,4205.640923,4246.666563,4155.897334,4225.128102,4231.794768,4215.897333,4228.205025,4225.640922,4201.025538,4209.743487,4253.333229,4211.281948
9,0,4214.358871,4229.230666,4208.205025,4231.794768,4147.692206,4213.33323,4219.999897,4205.640923,4216.410153,4211.794769,4202.564,4218.461435,4250.256306,4183.076821
10,0,4218.461435,4230.769127,4212.307589,4232.820409,4156.410155,4221.025538,4225.128102,4218.461435,4224.615281,4232.307589,4215.384512,4227.179384,4262.563998,4205.640923
11,0,4223.58964,4235.897332,4202.564,4250.769127,4170.769129,4235.897332,4236.922973,4235.897332,4239.999896,4253.333229,4220.512717,4223.58964,4266.666562,4227.179384
12,0,4236.922973,4236.922973,4198.461436,4254.871691,4168.717847,4235.897332,4236.922973,4234.358871,4236.922973,4245.128101,4221.025538,4220.512717,4259.487075,4219.487076
13,0,4227.692204,4234.358871,4202.564,4249.743486,4168.205026,4232.820409,4235.897332,4231.794768,4236.922973,4234.871691,4221.025538,4221.538358,4262.563998,4217.435794
14,0,4203.07682,4232.820409,4198.461436,4249.230665,4168.717847,4231.794768,4236.410153,4236.410153,4246.666563,4236.410153,4219.999897,4215.897333,4263.589639,4211.281948
15,0,4203.07682,4231.281948,4195.897333,4247.179383,4157.948616,4229.743486,4230.769127,4229.743486,4235.384512,4230.256307,4214.358871,4214.871692,4251.281947,4184.615282
16,0,4217.435794,4228.205025,4199.487077,4242.051178,4154.358873,4226.153743,4223.07682,4213.33323,4214.871692,4225.128102,4207.179384,4216.922974,4245.640922,4189.230667
17,0,4218.974256,4229.743486,4202.051179,4232.820409,4157.948616,4218.974256,4218.461435,4214.358871,4221.025538,4229.230666,4207.692205,4208.205025,4250.769127,4222.563999
18,0,4215.897333,4233.84605,4204.615282,4230.769127,4157.948616,4215.897333,4216.922974,4217.948615,4230.256307,4231.281948,4213.33323,4206.666564,4251.794768,4218.461435
19,0,4219.487076,4233.84605,4201.538359,4243.076819,4152.820411,4216.410153,4215.897333,4207.692205,4217.948615,4229.743486,4212.307589,4213.33323,4248.717845,4195.897333
20,0,4214.871692,4232.307589,4206.666564,4245.128101,4151.28195,4217.948615,4214.871692,4203.07682,4213.33323,4229.230666,4210.256307,4211.281948,4251.281947,4196.922974
21,0,4213.33323,4235.384512,4212.82041,4245.640922,4163.076821,4224.102461,4221.538358,4215.897333,4231.794768,4233.84605,4218.461435,4214.358871,4259.999896,4207.179384
22,0,4224.102461,4237.948614,4213.846051,4247.692204,4176.410154,4224.615281,4228.717845,4230.256307,4241.025537,4243.076819,4223.58964,4220.512717,4265.640921,4215.897333
23,0,4230.256307,4228.717845,4223.58964,4227.692204,4166.666565,4218.461435,4223.58964,4226.666563,4230.769127,4242.563999,4216.922974,4215.384512,4258.461434,4210.769128
24,0,4231.794768,4222.051179,4231.794768,4211.281948,4157.948616,4218.461435,4216.410153,4216.922974,4227.179384,4231.794768,4213.33323,4211.794769,4248.205024,4187.692205
25,0,4227.179384,4230.256307,4222.051179,4228.205025,4167.179385,4218.974256,4217.435794,4222.563999,4231.281948,4227.692204,4217.948615,4217.948615,4250.256306,4187.179385
26,0,4217.948615,4231.281948,4213.33323,4235.897332,4159.487078,4212.307589,4216.410153,4229.743486,4232.307589,4226.153743,4212.82041,4216.410153,4251.794768,4212.307589
27,0,4222.051179,4224.102461,4216.410153,4226.153743,4146.153745,4212.82041,4214.871692,4218.974256,4230.769127,4222.051179,4202.051179,4210.769128,4246.153742,4221.538358
28,0,4232.820409,4229.230666,4217.435794,4236.410153,4161.53836,4219.999897,4218.974256,4212.307589,4228.717845,4229.230666,4207.179384,4212.307589,4245.128101,4213.33323
29,0,4232.307589,4235.384512,4211.281948,4250.769127,4166.666565,4218.974256,4216.922974,4218.461435,4226.153743,4232.820409,4216.922974,4214.871692,4251.281947,4203.589641
30,0,4233.84605,4232.820409,4204.102461,4252.820409,4149.230668,4216.922974,4215.384512,4217.435794,4218.461435,4226.666563,4222.051179,4217.435794,4258.461434,4199.999897
31,0,4234.358871,4233.84605,4204.102461,4248.205024,4159.999898,4219.999897,4220.512717,4214.871692,4215.384512,4228.205025,4218.461435,4217.948615,4259.999896,4210.256307
32,0,4216.922974,4234.871691,4206.666564,4242.563999,4177.948616,4228.717845,4222.563999,4217.948615,4225.640922,4233.33323,4208.205025,4212.82041,4247.692204,4212.82041
33,0,4211.281948,4226.666563,4198.974256,4237.948614,4165.128103,4231.281948,4220.512717,4221.025538,4232.307589,4222.051179,4202.564,4203.07682,4234.358871,4195.897333
34,0,4219.487076,4216.410153,4202.564,4214.358871,4152.307591,4210.769128,4211.281948,4211.794769,4216.410153,4201.025538,4189.230667,4192.82041,4232.307589,4184.102462
35,0,4207.692205,4210.769128,4228.205025,4177.435795,4164.102462,4198.461436,4203.07682,4197.435795,4205.128102,4206.153743,4169.743488,4190.769128,4229.743486,4188.717846
36,0,4197.435795,4213.846051,4234.358871,4183.589641,4169.230667,4217.948615,4208.717846,4205.640923,4222.563999,4235.384512,4181.025539,4196.922974,4228.717845,4189.743487
37,0,4223.07682,4226.666563,4216.410153,4230.256307,4164.615283,4234.871691,4221.025538,4228.717845,4237.948614,4252.307588,4212.82041,4204.615282,4239.999896,4186.666564
38,0,4241.538358,4233.84605,4212.307589,4241.538358,4179.487077,4226.153743,4226.153743,4233.84605,4234.358871,4245.640922,4222.563999,4203.589641,4248.717845,4196.410154
39,0,4221.538358,4227.692204,4219.487076,4226.666563,4189.743487,4216.410153,4222.563999,4229.230666,4234.871691,4235.384512,4215.384512,4201.025538,4246.153742,4217.435794
40,0,4220.512717,4224.615281,4214.871692,4241.025537,4174.358872,4214.358871,4215.897333,4231.281948,4234.871691,4234.358871,4219.999897,4208.717846,4246.666563,4227.692204
41,0,4244.10246,4233.33323,4218.974256,4247.692204,4163.589642,4215.384512,4220.512717,4235.897332,4232.820409,4234.358871,4229.230666,4219.487076,4251.794768,4210.769128
42,0,4241.538358,4233.84605,4233.84605,4220.512717,4167.692206,4218.974256,4232.307589,4236.410153,4234.871691,4233.84605,4225.128102,4217.435794,4250.256306,4199.999897
43,0,4224.102461,4223.07682,4234.358871,4205.640923,4168.205026,4218.974256,4226.666563,4234.358871,4231.281948,4228.205025,4218.461435,4205.128102,4249.230665,4221.538358
44,0,4219.487076,4218.461435,4240.512717,4193.333231,4161.53836,4216.410153,4217.948615,4231.281948,4222.563999,4221.025538,4214.871692,4194.358872,4245.128101,4229.230666
45,0,4215.897333,4214.871692,4252.820409,4171.79477,4160.512719,4214.358871,4218.461435,4224.615281,4218.974256,4212.82041,4205.640923,4190.256308,4232.820409,4197.435795
46,0,4211.281948,4212.82041,4231.281948,4194.871692,4153.846052,4212.82041,4215.897333,4223.07682,4221.538358,4209.230666,4202.051179,4192.82041,4228.205025,4178.461436
47,0,4216.410153,4216.410153,4207.692205,4229.230666,4149.230668,4214.358871,4214.358871,4229.230666,4228.205025,4222.051179,4215.384512,4197.435795,4239.487076,4200.512718
48,0,4217.435794,4215.384512,4227.179384,4201.025538,4158.461437,4217.435794,4216.922974,4235.384512,4233.33323,4234.358871,4225.128102,4197.435795,4250.256306,4223.58964
49,0,4215.384512,4213.33323,4245.128101,4180.512718,4169.230667,4217.435794,4218.974256,4234.871691,4232.820409,4228.717845,4219.487076,4201.025538,4246.153742,4221.025538
50,0,4216.410153,4216.410153,4233.84605,4207.692205,4172.30759,4217.435794,4221.025538,4232.307589,4227.692204,4221.538358,4216.922974,4198.974256,4235.384512,4201.025538
51,0,4217.948615,4217.948615,4218.974256,4225.128102,4170.769129,4222.051179,4227.179384,4237.948614,4229.230666,4229.743486,4216.410153,4187.692205,4233.84605,4199.999897
52,0,4218.461435,4217.948615,4214.358871,4229.230666,4172.30759,4226.153743,4234.358871,4243.58964,4238.974255,4233.84605,4217.948615,4192.30759,4240.512717,4210.256307
53,0,4215.384512,4217.948615,4233.84605,4208.717846,4172.820411,4221.538358,4230.769127,4237.435794,4240.512717,4223.07682,4218.974256,4200.512718,4242.563999,4204.615282
54,0,4214.871692,4215.384512,4252.307588,4177.435795,4170.256308,4213.33323,4218.974256,4227.179384,4229.743486,4215.384512,4216.922974,4189.230667,4239.487076,4206.666564
55,0,4217.435794,4211.794769,4238.461435,4181.538359,4164.102462,4210.256307,4215.384512,4229.743486,4228.717845,4214.871692,4216.410153,4182.05118,4235.897332,4214.358871
56,0,4215.384512,4211.794769,4231.281948,4190.769128,4159.487078,4212.82041,4217.435794,4234.358871,4229.230666,4214.871692,4215.384512,4187.692205,4237.948614,4209.230666
57,0,4213.33323,4215.384512,4243.58964,4191.794769,4157.948616,4214.358871,4216.922974,4229.743486,4218.974256,4216.410153,4217.948615,4185.128103,4245.128101,4213.846051
58,0,4216.410153,4218.461435,4226.153743,4227.179384,4150.769129,4216.410153,4221.025538,4229.743486,4219.487076,4219.999897,4217.948615,4182.564,4246.666563,4219.487076
59,0,4223.07682,4218.461435,4197.948615,4264.10246,4159.487078,4225.640922,4232.307589,4239.999896,4234.871691,4228.205025,4218.461435,4191.794769,4247.179383,4208.717846
60,0,4219.487076,4219.999897,4201.538359,4256.410152,4186.153744,4230.256307,4236.922973,4252.820409,4245.128101,4237.948614,4224.102461,4192.30759,4249.743486,4213.33323
61,0,4204.615282,4218.461435,4203.07682,4249.230665,4187.692205,4222.051179,4226.666563,4250.256306,4239.487076,4227.179384,4217.435794,4184.615282,4238.461435,4208.717846
62,0,4198.461436,4209.230666,4190.769128,4254.35887,4160.512719,4212.307589,4214.358871,4230.256307,4220.512717,4201.025538,4199.999897,4182.05118,4219.487076,4181.025539
63,0,4210.769128,4202.051179,4199.487077,4239.999896,4149.743488,4210.256307,4216.922974,4227.692204,4213.846051,4201.025538,4202.051179,4184.102462,4223.07682,4189.230667
64,0,4217.435794,4202.564,4217.948615,4219.999897,4157.948616,4213.33323,4225.640922,4244.615281,4227.179384,4214.358871,4215.384512,4186.666564,4233.33323,4222.563999
65,0,4205.128102,4199.487077,4214.358871,4217.948615,4155.897334,4216.410153,4221.538358,4238.461435,4223.07682,4209.230666,4206.666564,4183.076821,4224.615281,4220.512717
66,0,4196.410154,4190.256308,4211.281948,4206.666564,4141.53836,4209.230666,4207.692205,4215.384512,4201.538359,4195.897333,4187.179385,4173.846052,4207.692205,4194.871692
67,0,4196.922974,4183.076821,4237.435794,4161.025539,4130.256309,4196.922974,4203.589641,4209.230666,4194.358872,4187.692205,4178.461436,4164.615283,4196.922974,4179.487077
68,0,4201.025538,4187.179385,4254.871691,4145.640924,4145.640924,4205.640923,4210.256307,4217.948615,4201.025538,4188.205026,4181.538359,4171.79477,4198.974256,4183.076821
69,0,4211.794769,4202.564,4239.999896,4190.256308,4163.589642,4213.846051,4211.794769,4225.128102,4210.256307,4199.487077,4192.82041,4185.128103,4210.769128,4202.564
70,0,4222.051179,4211.281948,4222.563999,4229.743486,4156.410155,4204.615282,4209.743487,4229.230666,4214.871692,4206.153743,4201.538359,4189.230667,4217.948615,4200.512718
71,0,4222.051179,4205.128102,4217.948615,4234.358871,4157.948616,4209.230666,4214.871692,4233.84605,4215.897333,4197.948615,4204.615282,4189.230667,4216.410153,4187.179385
72,0,4214.358871,4200.512718,4211.281948,4234.871691,4170.769129,4217.948615,4220.512717,4230.769127,4214.871692,4196.410154,4205.128102,4188.717846,4218.461435,4208.205025
73,0,4208.717846,4197.948615,4203.589641,4235.384512,4159.487078,4205.128102,4214.871692,4218.461435,4212.307589,4201.538359,4198.461436,4184.102462,4218.461435,4225.128102
74,0,4210.769128,4191.281949,4204.102461,4230.256307,4151.28195,4202.051179,4214.358871,4222.563999,4213.846051,4206.666564,4195.897333,4181.538359,4213.846051,4212.307589
75,0,4220.512717,4194.358872,4212.307589,4229.743486,4162.564001,4217.948615,4226.153743,4242.051178,4221.538358,4214.871692,4209.743487,4186.153744,4222.051179,4212.307589
76,0,4220.512717,4204.615282,4221.538358,4227.179384,4158.461437,4219.999897,4228.717845,4242.563999,4224.615281,4219.999897,4218.461435,4190.256308,4234.871691,4221.025538
77,0,4213.33323,4205.640923,4218.461435,4222.051179,4153.846052,4211.281948,4219.487076,4230.769127,4218.974256,4216.922974,4209.230666,4186.666564,4231.794768,4215.384512
78,0,4215.897333,4201.025538,4205.640923,4233.84605,4171.281949,4213.33323,4215.897333,4230.256307,4215.384512,4212.82041,4206.153743,4184.102462,4226.153743,4214.871692
79,0,4217.948615,4199.999897,4199.999897,4248.205024,4176.922975,4216.922974,4219.487076,4232.307589,4214.871692,4214.871692,4213.33323,4191.794769,4228.205025,4212.307589
80,0,4215.897333,4205.640923,4203.589641,4246.153742,4168.205026,4217.435794,4218.461435,4230.256307,4216.922974,4217.435794,4215.384512,4196.922974,4231.281948,4211.794769
81,0,4225.640922,4216.922974,4211.794769,4245.640922,4166.666565,4215.384512,4210.256307,4229.230666,4221.025538,4224.102461,4219.487076,4195.897333,4234.358871,4234.871691
82,0,4236.410153,4219.999897,4213.846051,4251.281947,4169.743488,4211.794769,4202.564,4227.179384,4218.461435,4231.794768,4226.153743,4195.384513,4237.435794,4236.922973
83,0,4228.205025,4215.897333,4207.692205,4250.256306,4172.820411,4215.384512,4208.205025,4228.717845,4218.461435,4233.33323,4224.102461,4193.333231,4233.84605,4209.230666
84,0,4226.153743,4219.999897,4200.512718,4251.281947,4172.30759,4219.999897,4223.58964,4234.358871,4224.102461,4231.281948,4219.487076,4186.153744,4233.33323,4217.435794
85,0,4238.461435,4218.461435,4201.025538,4254.35887,4166.666565,4218.974256,4223.58964,4234.358871,4221.538358,4223.58964,4217.435794,4187.179385,4234.358871,4236.922973
86,0,4223.58964,4207.179384,4203.07682,4248.717845,4169.230667,4215.384512,4210.256307,4225.640922,4213.846051,4216.922974,4213.846051,4193.846051,4227.692204,4219.999897
87,0,4195.384513,4200.512718,4201.025538,4232.820409,4165.640924,4207.179384,4205.128102,4214.871692,4214.358871,4215.897333,4212.307589,4187.692205,4218.461435,4208.205025
88,0,4206.153743,4198.461436,4205.640923,4229.230666,4152.307591,4205.640923,4212.82041,4217.435794,4216.922974,4215.384512,4212.82041,4184.102462,4214.871692,4214.358871
89,0,4226.153743,4206.153743,4212.82041,4243.58964,4163.589642,4224.615281,4229.230666,4230.769127,4215.384512,4223.07682,4215.384512,4194.358872,4224.615281,4208.717846
90,0,4217.435794,4215.384512,4214.871692,4245.640922,4189.743487,4236.410153,4236.922973,4236.922973,4216.922974,4230.256307,4220.512717,4196.410154,4231.281948,4202.564
91,0,4216.922974,4211.281948,4211.794769,4232.307589,4189.743487,4224.102461,4231.794768,4231.794768,4217.948615,4219.999897,4213.846051,4184.615282,4222.051179,4217.948615
92,0,4228.205025,4201.538359,4216.922974,4216.922974,4170.769129,4217.948615,4227.692204,4230.256307,4214.871692,4209.743487,4202.051179,4181.538359,4209.743487,4222.563999
93,0,4218.974256,4202.051179,4232.820409,4203.589641,4155.384514,4222.563999,4225.640922,4233.84605,4215.384512,4214.358871,4205.128102,4188.205026,4212.82041,4202.564
94,0,4211.281948,4204.615282,4234.358871,4205.128102,4155.897334,4214.358871,4217.948615,4233.33323,4216.410153,4216.922974,4209.230666,4185.128103,4216.410153,4193.333231
95,0,4215.384512,4202.051179,4225.128102,4216.410153,4169.743488,4205.640923,4213.33323,4229.743486,4215.897333,4214.358871,4199.487077,4182.05118,4209.230666,4191.281949
96,0,4208.205025,4202.051179,4224.615281,4210.256307,4172.820411,4210.256307,4218.974256,4223.58964,4212.82041,4211.281948,4193.846051,4182.564,4200.512718,4191.281949
97,0,4198.974256,4200.512718,4224.615281,4201.538359,4159.487078,4213.33323,4215.384512,4215.384512,4206.666564,4206.666564,4198.974256,4179.999898,4198.461436,4205.128102
98,0,4208.717846,4203.07682,4217.435794,4217.948615,4168.717847,4215.897333,4207.179384,4214.871692,4206.666564,4212.82041,4203.589641,4183.589641,4209.230666,4206.153743
99,0,4218.461435,4209.230666,4219.999897,4223.07682,4176.410154,4214.871692,4204.615282,4217.435794,4206.153743,4212.307589,4205.640923,4185.128103,4215.897333,4187.692205
100,0,4214.871692,4206.666564,4240.512717,4190.769128,4156.410155,4204.615282,4201.538359,4211.281948,4200.512718,4199.487077,4201.025538,4174.358872,4206.153743,4192.82041
101,0,4209.743487,4204.615282,4252.820409,4164.615283,4155.897334,4205.640923,4203.07682,4207.692205,4207.692205,4204.102461,4196.410154,4170.769129,4201.025538,4210.256307
102,0,4211.794769,4210.769128,4238.974255,4185.128103,4176.922975,4217.435794,4212.82041,4216.410153,4221.025538,4220.512717,4205.128102,4184.102462,4211.794769,4199.999897
103,0,4215.897333,4217.435794,4217.948615,4218.461435,4172.30759,4219.487076,4218.461435,4221.025538,4216.410153,4218.461435,4211.794769,4190.256308,4219.487076,4190.769128
104,0,4219.999897,4218.974256,4214.358871,4223.07682,4163.589642,4214.871692,4216.922974,4217.435794,4214.358871,4210.256307,4205.128102,4184.102462,4213.846051,4201.538359
105,0,4219.487076,4218.974256,4217.435794,4219.487076,4175.384513,4213.846051,4216.410153,4217.948615,4216.410153,4215.897333,4199.487077,4182.564,4208.717846,4199.487077
106,0,4212.82041,4216.922974,4212.307589,4231.794768,4177.435795,4215.384512,4216.410153,4219.487076,4207.179384,4218.974256,4203.07682,4184.615282,4209.743487,4192.30759
107,0,4221.538358,4223.07682,4210.256307,4249.743486,4175.384513,4218.461435,4216.922974,4217.948615,4208.205025,4215.384512,4209.230666,4185.640923,4214.871692,4210.256307
108,0,4230.769127,4232.307589,4217.948615,4247.692204,4184.615282,4218.461435,4215.897333,4217.435794,4216.922974,4216.922974,4213.846051,4187.692205,4221.025538,4223.58964
109,0,4218.974256,4226.666563,4221.025538,4232.307589,4183.076821,4216.410153,4214.358871,4215.897333,4208.717846,4218.974256,4214.358871,4188.717846,4217.948615,4202.051179
110,0,4216.410153,4220.512717,4209.230666,4237.948614,4171.79477,4217.435794,4214.358871,4212.82041,4201.538359,4215.897333,4211.794769,4187.179385,4214.871692,4190.769128
111,0,4231.794768,4227.179384,4195.897333,4254.871691,4167.692206,4215.897333,4210.256307,4210.256307,4207.179384,4215.384512,4211.281948,4182.564,4215.384512,4201.538359
112,0,4236.922973,4232.307589,4198.974256,4255.384511,4172.820411,4216.922974,4209.743487,4214.871692,4213.33323,4217.435794,4212.82041,4184.615282,4217.435794,4195.897333
113,0,4225.640922,4231.281948,4208.717846,4248.205024,4180.512718,4220.512717,4216.922974,4219.999897,4216.410153,4221.025538,4216.410153,4193.333231,4224.102461,4196.410154
114,0,4220.512717,4233.33323,4211.794769,4251.794768,4186.666564,4218.974256,4219.999897,4215.897333,4214.358871,4225.640922,4224.615281,4195.897333,4231.794768,4219.999897
115,0,4235.384512,4234.871691,4213.33323,4258.461434,4183.589641,4218.974256,4216.410153,4216.922974,4214.358871,4233.33323,4230.256307,4194.358872,4234.358871,4220.512717
116,0,4249.230665,4236.410153,4215.384512,4257.435793,4190.769128,4225.128102,4218.461435,4232.307589,4223.58964,4243.076819,4229.230666,4197.435795,4232.820409,4203.589641
117,0,4232.307589,4233.33323,4215.897333,4244.10246,4203.07682,4231.281948,4219.999897,4234.871691,4224.615281,4241.025537,4223.07682,4202.564,4226.153743,4196.922974
118,0,4208.717846,4221.025538,4213.846051,4236.410153,4193.333231,4229.743486,4215.897333,4220.512717,4216.410153,4224.102461,4212.307589,4196.410154,4215.384512,4196.922974
119,0,4216.922974,4214.871692,4207.692205,4243.076819,4173.333231,4221.025538,4213.33323,4219.999897,4214.871692,4215.384512,4206.666564,4184.102462,4212.82041,4206.153743
120,0,4227.692204,4222.563999,4201.538359,4248.205024,4176.922975,4214.871692,4214.358871,4228.205025,4215.384512,4219.999897,4212.82041,4187.692205,4217.435794,4213.33323
121,0,4226.153743,4231.281948,4199.999897,4252.307588,4195.384513,4219.487076,4218.461435,4224.102461,4213.33323,4219.487076,4219.487076,4201.538359,4218.974256,4214.358871
122,0,4232.820409,4226.666563,4209.743487,4242.051178,4181.025539,4215.897333,4212.307589,4216.922974,4212.307589,4212.307589,4214.358871,4199.487077,4216.922974,4210.256307
123,0,4233.84605,4223.07682,4216.410153,4231.281948,4165.128103,4213.33323,4203.07682,4216.922974,4210.769128,4210.769128,4213.33323,4189.230667,4216.410153,4211.281948
124,0,4218.461435,4229.743486,4213.33323,4239.999896,4189.230667,4225.128102,4209.230666,4219.487076,4215.384512,4220.512717,4224.102461,4197.435795,4221.025538,4214.358871
125,0,4212.307589,4231.281948,4215.897333,4244.10246,4203.07682,4223.07682,4208.205025,4213.846051,4213.33323,4227.179384,4223.58964,4205.640923,4220.512717,4198.974256
126,0,4226.153743,4226.153743,4216.410153,4239.487076,4189.743487,4213.846051,4198.461436,4209.743487,4202.564,4216.410153,4215.384512,4199.999897,4214.871692,4193.333231
127,0,4235.897332,4229.743486,4206.153743,4247.179383,4193.846051,4223.07682,4207.179384,4215.897333,4208.205025,4213.846051,4225.128102,4199.487077,4221.025538,4224.615281
128,0,4236.922973,4234.358871,4198.974256,4256.922973,4205.640923,4227.692204,4221.538358,4220.512717,4218.461435,4231.281948,4230.769127,4204.615282,4230.256307,4244.10246
0,0,4233.84605,4228.717845,4204.102461,4245.128101,4190.769128,4215.897333,4214.358871,4215.897333,4212.82041,4236.410153,4218.974256,4197.948615,4229.743486,4223.58964
1,0,4224.615281,4226.666563,4209.743487,4234.871691,4179.999898,4213.33323,4201.538359,4215.897333,4210.769128,4225.128102,4218.974256,4193.333231,4227.179384,4206.153743
2,0,4221.538358,4230.256307,4214.358871,4237.948614,4191.281949,4219.487076,4205.640923,4221.025538,4219.487076,4225.640922,4228.717845,4202.564,4229.230666,4204.102461
3,0,4232.307589,4233.84605,4215.897333,4241.538358,4201.538359,4221.025538,4215.897333,4222.051179,4219.999897,4233.33323,4230.769127,4206.666564,4230.769127,4207.179384
4,0,4235.384512,4229.230666,4208.205025,4239.999896,4192.30759,4219.487076,4210.769128,4216.410153,4214.358871,4234.358871,4227.179384,4201.538359,4230.769127,4226.153743
5,0,4226.153743,4219.999897,4207.179384,4229.230666,4170.769129,4214.871692,4198.461436,4212.82041,4215.384512,4231.281948,4222.051179,4199.487077,4230.256307,4241.538358
6,0,4226.666563,4221.025538,4223.58964,4214.871692,4178.461436,4214.358871,4204.615282,4222.051179,4218.974256,4229.743486,4222.563999,4198.974256,4227.179384,4234.871691
7,0,4231.794768,4231.281948,4231.794768,4216.922974,4206.666564,4224.615281,4217.948615,4227.179384,4216.922974,4230.256307,4227.179384,4201.538359,4226.153743,4219.487076
8,0,4236.410153,4236.410153,4218.461435,4230.256307,4206.153743,4228.717845,4217.435794,4223.58964,4221.025538,4232.820409,4230.256307,4210.256307,4230.256307,4212.307589
9,0,4232.307589,4227.179384,4213.33323,4223.58964,4183.589641,4221.025538,4211.794769,4223.58964,4229.230666,4234.358871,4227.692204,4208.717846,4228.717845,4215.897333
10,0,4214.358871,4213.846051,4216.410153,4215.384512,4177.948616,4218.974256,4210.769128,4222.051179,4225.640922,4227.692204,4222.051179,4197.948615,4221.538358,4210.769128
11,0,4213.846051,4215.897333,4206.666564,4234.871691,4187.179385,4224.615281,4214.358871,4215.384512,4213.33323,4224.615281,4217.435794,4199.487077,4222.051179,4210.769128
12,0,4231.281948,4226.153743,4206.153743,4241.538358,4187.692205,4224.102461,4213.846051,4211.794769,4211.281948,4228.205025,4220.512717,4204.615282,4226.153743,4226.666563
13,0,4222.563999,4222.051179,4217.435794,4219.487076,4184.615282,4216.410153,4204.615282,4207.692205,4215.384512,4219.487076,4218.974256,4197.948615,4215.384512,4221.025538
14,0,4197.435795,4208.205025,4217.948615,4192.82041,4182.05118,4209.743487,4192.82041,4197.435795,4209.743487,4208.205025,4201.538359,4187.179385,4199.487077,4188.717846
15,0,4196.410154,4210.256307,4214.871692,4186.666564,4181.025539,4209.230666,4196.922974,4197.948615,4206.153743,4212.307589,4196.922974,4188.205026,4204.102461,4184.615282
16,0,4200.512718,4217.948615,4214.358871,4206.666564,4185.128103,4217.435794,4209.230666,4209.743487,4214.358871,4219.999897,4204.102461,4191.794769,4213.846051,4199.487077
17,0,4199.999897,4213.33323,4211.281948,4215.384512,4179.487077,4218.461435,4206.666564,4213.33323,4217.435794,4216.410153,4203.589641,4186.153744,4208.205025,4192.82041
18,0,4213.846051,4213.33323,4211.794769,4212.307589,4165.128103,4210.769128,4204.102461,4211.794769,4214.358871,4213.33323,4206.153743,4189.743487,4207.692205,4201.538359
19,0,4226.153743,4228.717845,4212.307589,4230.256307,4174.871693,4218.974256,4219.487076,4226.666563,4227.692204,4223.58964,4217.948615,4206.666564,4219.487076,4228.717845
20,0,4211.281948,4232.307589,4218.974256,4228.205025,4197.435795,4228.205025,4221.025538,4233.33323,4232.820409,4233.84605,4218.461435,4207.692205,4219.487076,4217.948615
21,0,4201.538359,4224.615281,4231.281948,4204.615282,4193.333231,4220.512717,4207.179384,4215.897333,4216.922974,4233.33323,4219.999897,4201.538359,4219.999897,4198.974256
22,0,4223.07682,4230.256307,4225.128102,4216.922974,4183.589641,4218.461435,4212.307589,4212.307589,4222.051179,4233.33323,4233.84605,4208.717846,4233.33323,4223.07682
23,0,4238.461435,4234.358871,4217.435794,4228.205025,4189.230667,4218.974256,4213.846051,4217.435794,4228.205025,4228.205025,4226.153743,4205.640923,4226.153743,4230.769127
24,0,4229.743486,4227.179384,4234.871691,4205.128102,4182.564,4213.846051,4198.974256,4208.205025,4213.33323,4218.974256,4214.871692,4198.461436,4216.922974,4211.794769
25,0,4235.384512,4235.897332,4244.615281,4214.871692,4178.461436,4221.538358,4207.179384,4213.33323,4220.512717,4226.153743,4235.384512,4213.33323,4235.897332,4233.84605
26,0,4248.205024,4252.307588,4233.33323,4241.538358,4192.30759,4230.256307,4219.999897,4227.692204,4237.948614,4241.025537,4248.717845,4221.538358,4247.179383,4256.410152
27,0,4237.948614,4244.615281,4244.615281,4209.230666,4196.410154,4218.461435,4206.666564,4215.897333,4224.102461,4234.358871,4232.820409,4213.846051,4234.358871,4226.153743
28,0,4229.743486,4232.307589,4282.051177,4155.897334,4185.640923,4210.769128,4196.410154,4206.153743,4211.794769,4218.974256,4224.615281,4213.846051,4229.743486,4216.922974
29,0,4237.948614,4237.948614,4287.179382,4163.589642,4182.564,4214.871692,4202.564,4214.871692,4218.974256,4217.435794,4228.205025,4215.897333,4230.256307,4242.563999
30,0,4251.794768,4248.717845,4252.307588,4222.563999,4194.358872,4217.948615,4207.692205,4213.846051,4221.538358,4232.820409,4230.769127,4216.410153,4229.230666,4238.461435
31,0,4261.538357,4253.333229,4231.794768,4258.461434,4203.07682,4225.640922,4214.871692,4212.307589,4223.07682,4248.205024,4238.974255,4221.025538,4238.974255,4236.922973
32,0,4257.948614,4250.769127,4238.461435,4247.179383,4189.743487,4224.615281,4215.384512,4213.846051,4224.102461,4238.461435,4238.461435,4219.487076,4240.512717,4248.205024
33,0,4250.256306,4247.179383,4241.538358,4236.922973,4180.512718,4214.871692,4205.128102,4207.692205,4216.410153,4228.205025,4232.307589,4221.538358,4234.358871,4239.999896
34,0,4245.128101,4248.717845,4236.922973,4250.769127,4194.358872,4218.461435,4206.666564,4204.615282,4209.230666,4234.871691,4242.051178,4231.281948,4241.538358,4236.410153
35,0,4246.153742,4247.179383,4232.820409,4255.897332,4201.538359,4224.102461,4217.948615,4211.281948,4211.794769,4227.692204,4251.281947,4230.256307,4244.10246,4252.820409
36,0,4251.794768,4235.384512,4231.794768,4234.871691,4187.179385,4216.410153,4212.82041,4210.256307,4213.846051,4214.871692,4237.435794,4217.948615,4230.256307,4251.794768
37,0,4248.205024,4228.205025,4235.384512,4219.999897,4182.564,4213.33323,4202.564,4206.153743,4213.33323,4223.58964,4226.153743,4213.846051,4227.179384,4232.820409
38,0,4239.999896,4235.384512,4224.102461,4242.563999,4195.384513,4218.461435,4207.692205,4211.281948,4215.897333,4235.384512,4231.794768,4212.307589,4231.794768,4233.33323
39,0,4238.461435,4237.435794,4213.846051,4246.666563,4199.999897,4216.922974,4206.666564,4207.179384,4208.717846,4223.07682,4230.769127,4209.743487,4219.999897,4229.743486
40,0,4233.33323,4231.281948,4238.461435,4203.589641,4189.230667,4214.358871,4196.922974,4196.410154,4197.948615,4212.82041,4225.640922,4210.769128,4211.281948,4216.410153
41,0,4232.820409,4235.897332,4254.35887,4197.948615,4186.666564,4219.487076,4199.999897,4197.948615,4207.692205,4227.692204,4229.743486,4214.358871,4225.128102,4219.999897
42,0,4248.205024,4247.179383,4234.871691,4235.384512,4189.743487,4218.461435,4206.153743,4203.07682,4222.563999,4238.461435,4232.307589,4211.281948,4231.794768,4237.948614
43,0,4252.307588,4251.281947,4225.128102,4241.538358,4182.564,4214.358871,4201.025538,4199.999897,4213.846051,4222.563999,4228.717845,4203.589641,4218.974256,4248.205024
44,0,4244.615281,4248.717845,4230.256307,4235.897332,4187.692205,4224.102461,4201.538359,4197.948615,4201.538359,4211.794769,4230.769127,4207.692205,4216.922974,4226.153743
45,0,4239.999896,4241.025537,4234.871691,4224.102461,4204.102461,4227.692204,4207.692205,4199.999897,4206.666564,4221.025538,4228.205025,4209.743487,4218.974256,4201.538359
46,0,4222.051179,4221.538358,4268.205024,4140.512719,4189.230667,4207.179384,4191.794769,4188.717846,4202.051179,4207.692205,4200.512718,4187.179385,4197.948615,4203.589641
47,0,4202.051179,4208.205025,4307.692202,4063.589644,4166.153744,4191.281949,4172.30759,4171.281949,4186.153744,4179.999898,4177.435795,4166.153744,4175.897334,4219.999897
48,0,4205.640923,4218.461435,4295.38451,4107.179387,4167.692206,4198.974256,4177.435795,4173.333231,4183.589641,4188.717846,4187.692205,4176.922975,4181.025539,4218.974256
49,0,4225.128102,4232.820409,4254.871691,4186.666564,4183.589641,4211.794769,4193.846051,4189.743487,4196.922974,4211.281948,4199.999897,4191.281949,4194.871692,4198.461436
50,0,4235.384512,4234.358871,4235.897332,4203.07682,4201.538359,4217.435794,4201.025538,4203.07682,4209.743487,4212.307589,4198.974256,4188.205026,4197.948615,4197.435795
51,0,4222.051179,4227.179384,4230.769127,4198.974256,4199.487077,4221.025538,4202.564,4206.666564,4216.922974,4213.33323,4203.07682,4187.692205,4194.358872,4207.692205
52,0,4210.769128,4226.666563,4222.563999,4224.102461,4189.743487,4229.743486,4213.33323,4217.435794,4227.179384,4232.307589,4217.435794,4206.153743,4201.025538,4195.384513
53,0,4224.615281,4233.33323,4213.846051,4242.563999,4203.07682,4237.435794,4229.230666,4234.358871,4234.358871,4241.538358,4229.743486,4217.948615,4214.358871,4197.435795
54,0,4237.948614,4234.358871,4212.82041,4234.358871,4213.846051,4233.84605,4228.717845,4229.230666,4230.256307,4231.281948,4229.743486,4209.230666,4212.82041,4233.84605
55,0,4235.384512,4231.281948,4214.871692,4237.435794,4202.051179,4229.230666,4224.102461,4221.025538,4228.205025,4235.897332,4227.179384,4210.769128,4207.692205,4252.307588
56,0,4230.256307,4233.33323,4211.281948,4253.84605,4193.333231,4233.84605,4230.769127,4231.281948,4235.384512,4251.281947,4232.307589,4224.615281,4215.897333,4233.33323
57,0,4233.84605,4233.33323,4209.743487,4253.333229,4191.794769,4228.717845,4226.153743,4228.205025,4232.307589,4242.051178,4235.384512,4220.512717,4218.974256,4224.615281
58,0,4242.051178,4233.33323,4213.846051,4241.025537,4187.692205,4215.897333,4211.281948,4209.230666,4218.461435,4225.640922,4230.769127,4211.281948,4212.307589,4234.871691
59,0,4247.179383,4240.512717,4217.948615,4244.10246,4188.205026,4220.512717,4213.33323,4216.410153,4224.102461,4236.922973,4239.487076,4224.102461,4215.384512,4237.948614
60,0,4249.230665,4244.615281,4221.538358,4252.820409,4192.30759,4229.743486,4221.538358,4233.84605,4236.922973,4253.333229,4251.281947,4235.384512,4225.128102,4229.230666
61,0,4257.948614,4242.563999,4231.281948,4244.615281,4198.974256,4223.07682,4217.435794,4231.794768,4236.410153,4250.769127,4251.794768,4234.358871,4230.256307,4227.179384
62,0,4276.410152,4247.179383,4235.384512,4235.897332,4200.512718,4216.410153,4215.384512,4232.820409,4234.871691,4247.692204,4249.743486,4230.256307,4233.33323,4252.307588
63,0,4264.61528,4238.461435,4224.615281,4241.538358,4185.640923,4217.435794,4214.871692,4230.256307,4231.281948,4245.128101,4244.10246,4218.974256,4226.666563,4264.10246
64,0,4228.717845,4217.948615,4211.794769,4251.281947,4179.487077,4222.051179,4216.410153,4226.153743,4226.666563,4233.84605,4237.948614,4212.307589,4216.410153,4236.922973
65,0,4230.256307,4222.051179,4212.307589,4248.717845,4201.025538,4230.769127,4221.538358,4229.230666,4228.717845,4225.640922,4241.025537,4217.948615,4215.897333,4229.230666
