title:JTA                                                                             , recorded:03.07.20 13.17.36, sampling:128, subject:JTA                                                                             , labels:COUNTER INTERPOLATED AF3 F7 F3 FC5 T7 P7 O1 O2 P8 T8 FC6 F4 F8 AF4,, units:emotiv,,,,,,,,,
63,0,3820.512727,3941.025545,4006.666569,3966.66657,3959.487083,4015.897338,3967.692211,3957.948621,3972.307595,3967.692211,3990.769133,3990.769133,4077.435798,3927.179391
64,0,3813.33324,3940.512724,4005.128107,3959.999903,3959.487083,4011.281953,3959.487083,3964.102467,3976.410159,3976.410159,3983.589646,3997.4358,4072.307593,3903.076828
65,0,3815.897343,3935.384519,4004.102466,3945.128109,3944.615288,4010.769133,3967.17939,3963.589647,3969.743493,3965.128108,3972.820416,3996.410159,4058.97426,3898.974264
66,0,3824.102471,3931.794776,4006.153748,3946.66657,3936.922981,4007.179389,3967.692211,3955.384519,3966.66657,3955.384519,3973.846057,3987.69221,4057.948619,3931.281955
67,0,3827.692214,3934.358878,4008.20503,3966.153749,3943.589647,4005.128107,3962.051185,3959.487083,3972.307595,3958.461442,3976.410159,3991.794774,4062.564003,3928.717853
68,0,3819.487086,3928.717853,4007.179389,3963.076826,3946.66657,4003.589646,3965.128108,3968.717852,3972.307595,3959.487083,3976.410159,3997.94862,4059.48708,3913.846058
69,0,3813.33324,3921.538366,4004.615287,3949.743493,3944.102468,3999.487082,3968.205031,3970.256313,3974.871698,3969.230672,3975.897339,3995.897338,4056.410157,3925.128109
70,0,3814.358881,3923.589648,4003.076825,3952.307596,3939.487083,4001.025543,3969.230672,3972.307595,3986.153749,3977.4358,3974.358877,3993.846056,4055.384516,3917.948622
71,0,3813.33324,3925.64093,4003.076825,3954.358878,3937.435801,4009.743492,3972.307595,3977.948621,3992.820415,3963.076826,3979.999903,3995.384518,4057.435798,3905.64093
72,0,3822.564009,3925.64093,4005.128107,3962.051185,3942.564006,4002.564005,3971.281954,3979.487082,3986.666569,3959.487083,3993.846056,4003.076825,4064.615285,3914.358879
73,0,3831.794778,3927.179391,4006.666569,3968.717852,3945.128109,3988.717851,3968.717852,3973.846057,3974.871698,3976.410159,3990.256313,4007.179389,4063.076824,3901.025546
74,0,3823.07683,3924.615289,4004.615287,3953.846057,3943.076827,3994.871697,3972.820416,3969.743493,3972.307595,3975.897339,3973.333236,4003.076825,4052.307593,3893.846059
75,0,3819.999907,3925.64093,4004.615287,3956.41016,3954.871698,4005.640928,3975.384518,3969.743493,3979.999903,3961.025544,3970.769134,4001.025543,4051.794773,3913.846058
76,0,3821.538368,3934.871699,4006.153748,3976.92298,3961.538365,3998.974261,3971.794775,3966.66657,3981.538364,3957.435801,3975.384518,4001.025543,4054.871696,3922.564007
77,0,3819.487086,3942.564006,4005.128107,3969.743493,3946.15375,3997.94862,3970.769134,3955.897339,3971.794775,3960.512724,3972.307595,3997.94862,4048.205029,3918.974263
78,0,3828.717855,3941.538365,4008.20503,3954.358878,3943.589647,4005.640928,3973.333236,3956.41016,3968.717852,3957.435801,3971.281954,4002.051184,4044.615286,3917.435802
79,0,3831.794778,3934.871699,4013.846056,3957.948621,3950.769134,4001.538364,3973.846057,3970.256313,3978.461441,3956.92298,3974.871698,4009.230671,4051.281952,3909.743494
80,0,3817.435804,3931.281955,4014.358876,3960.512724,3946.15375,3999.487082,3975.897339,3975.897339,3981.025544,3964.102467,3974.871698,4009.743492,4048.71785,3906.666571
81,0,3816.410163,3928.717853,4011.281953,3957.435801,3942.564006,4005.128107,3979.487082,3973.846057,3975.384518,3967.692211,3971.794775,4009.743492,4041.538363,3917.435802
82,0,3834.871701,3926.666571,4013.846056,3958.974262,3940.512724,4000.512723,3975.384518,3973.846057,3974.871698,3956.41016,3972.307595,4015.897338,4045.640927,3906.666571
83,0,3835.897342,3930.769135,4015.897338,3955.897339,3939.487083,4002.051184,3976.410159,3973.846057,3982.051185,3954.358878,3980.512723,4016.922979,4053.333234,3892.307597
84,0,3816.922984,3939.487083,4011.794774,3957.435801,3952.307596,4015.897338,3990.769133,3974.358877,3988.717851,3974.871698,3983.076826,4012.820415,4052.307593,3919.999904
85,0,3814.871702,3940.512724,4013.846056,3961.538365,3962.051185,4014.358876,3988.205031,3975.384518,3987.69221,3983.076826,3974.358877,4015.384517,4048.71785,3935.89734
86,0,3834.871701,3930.769135,4022.051184,3955.384519,3953.846057,4002.564005,3970.769134,3973.846057,3983.076826,3964.102467,3973.333236,4018.974261,4049.743491,3913.333238
87,0,3841.025547,3929.743494,4018.974261,3959.999903,3951.794775,4004.102466,3972.307595,3972.820416,3980.512723,3958.974262,3978.974262,4017.435799,4048.71785,3916.410161
88,0,3826.153753,3939.999904,4011.281953,3978.974262,3958.974262,4008.20503,3984.615287,3972.820416,3986.153749,3981.025544,3977.948621,4017.435799,4046.666568,3929.743494
89,0,3826.153753,3944.615288,4013.846056,3977.4358,3957.948621,4006.153748,3987.17939,3975.897339,3989.230672,3990.256313,3979.487082,4022.051184,4051.281952,3902.564007
90,0,3834.871701,3944.102468,4021.025543,3958.461442,3955.384519,4007.179389,3988.205031,3983.589646,3989.230672,3977.4358,3988.717851,4024.102466,4053.333234,3889.743495
91,0,3821.025548,3946.15375,4022.051184,3954.871698,3965.128108,4009.743492,3991.281954,3983.589646,3990.256313,3973.846057,3987.17939,4020.512722,4047.179388,3910.769135
92,0,3819.999907,3944.102468,4018.46144,3961.025544,3965.128108,4005.128107,3986.666569,3970.769134,3979.999903,3970.256313,3978.461441,4016.922979,4042.051183,3918.461443
93,0,3844.615291,3938.974263,4013.333235,3957.948621,3945.128109,4002.564005,3983.076826,3967.692211,3975.897339,3966.153749,3981.538364,4019.999902,4048.71785,3925.64093
94,0,3849.230675,3942.051186,4010.769133,3962.564006,3951.794775,4008.20503,3989.230672,3976.92298,3987.69221,3978.461441,3982.051185,4018.974261,4050.256311,3928.205032
95,0,3830.256317,3945.128109,4011.794774,3965.128108,3979.487082,4006.666569,3989.743492,3975.384518,3992.820415,3985.128108,3973.846057,4011.281953,4038.46144,3908.717853
96,0,3827.692214,3942.564006,4013.846056,3948.205032,3972.820416,4001.025543,3986.666569,3974.871698,3989.230672,3972.820416,3971.794775,4012.307594,4033.846055,3910.769135
97,0,3834.358881,3938.461442,4015.384517,3941.538365,3953.846057,4006.666569,3995.897338,3985.128108,3990.769133,3971.281954,3974.871698,4024.102466,4042.564004,3916.922981
98,0,3829.230676,3941.025545,4018.974261,3957.948621,3964.615288,4008.20503,4002.051184,3983.589646,3990.769133,3980.512723,3979.487082,4031.281953,4045.640927,3893.333238
99,0,3831.281958,3944.615288,4019.999902,3957.948621,3975.897339,3999.999902,3989.743492,3972.307595,3986.153749,3976.92298,3986.666569,4028.20503,4043.589645,3902.051187
100,0,3840.512727,3945.128109,4019.999902,3943.076827,3971.281954,4002.051184,3984.615287,3970.769134,3987.17939,3972.820416,3982.564005,4022.051184,4044.102465,3944.102468
101,0,3846.666573,3942.564006,4021.538363,3948.205032,3971.794775,4011.281953,3995.384518,3975.384518,3988.205031,3973.333236,3970.769134,4021.538363,4041.025542,3938.974263
102,0,3855.384521,3943.076827,4023.589645,3961.025544,3971.794775,4007.179389,4000.512723,3980.512723,3991.794774,3971.794775,3977.4358,4030.769132,4043.589645,3924.102468
103,0,3862.051188,3951.794775,4023.589645,3959.999903,3969.743493,4002.051184,3999.487082,3988.717851,4000.512723,3981.025544,3997.94862,4041.025542,4059.48708,3945.128109
104,0,3864.61529,3954.871698,4022.051184,3958.461442,3972.820416,4007.179389,4003.076825,3991.794774,4007.179389,3996.922979,4005.128107,4046.666568,4067.179388,3947.692211
105,0,3862.051188,3945.128109,4021.025543,3959.487083,3971.794775,4011.281953,4007.179389,3988.717851,4004.102466,3996.410159,3996.410159,4041.538363,4056.922978,3936.922981
106,0,3863.589649,3946.66657,4020.512722,3958.974262,3974.871698,4009.230671,4009.743492,3990.256313,3997.94862,3985.640928,3987.69221,4035.384517,4049.743491,3943.076827
107,0,3861.538367,3957.435801,4019.999902,3957.435801,3974.358877,4001.025543,4002.051184,3990.256313,3996.410159,3986.153749,3989.743492,4039.999901,4051.794773,3931.794776
108,0,3848.205034,3950.256314,4018.974261,3957.948621,3957.435801,3995.897338,3995.897338,3986.666569,3997.4358,3989.743492,3988.205031,4039.487081,4046.666568,3921.025545
109,0,3847.179393,3945.128109,4018.974261,3955.897339,3959.487083,4006.153748,4005.640928,3992.820415,4006.666569,3991.794774,3988.205031,4033.846055,4043.589645,3945.640929
110,0,3862.564008,3954.871698,4022.051184,3954.871698,3986.666569,4018.974261,4016.410158,4006.153748,4017.94862,3987.69221,3999.999902,4039.999901,4049.23067,3947.692211
111,0,3874.35888,3963.076826,4022.051184,3966.153749,3992.820415,4018.46144,4014.871697,4009.743492,4021.025543,3983.076826,4000.512723,4043.589645,4048.71785,3925.64093
112,0,3870.256316,3964.102467,4018.46144,3979.999903,3982.051185,4018.46144,4013.846056,4003.589646,4017.435799,3993.333236,3988.205031,4033.333235,4045.640927,3932.820417
113,0,3863.076829,3962.051185,4021.538363,3972.820416,3989.743492,4024.615286,4017.435799,4004.102466,4017.435799,4005.640928,3989.743492,4032.820414,4050.256311,3946.66657
114,0,3862.051188,3963.589647,4028.71785,3959.487083,3998.461441,4023.076825,4015.384517,4005.640928,4024.102466,4002.564005,4001.538364,4040.512722,4054.358875,3939.999904
115,0,3868.717854,3970.256313,4027.692209,3966.66657,3990.256313,4018.974261,4011.281953,3998.974261,4024.102466,3996.922979,3997.4358,4039.999901,4051.281952,3929.743494
116,0,3875.384521,3974.358877,4023.589645,3976.92298,3978.461441,4019.999902,4011.794774,3994.358877,4015.897338,3994.358877,3992.820415,4039.999901,4049.23067,3941.025545
117,0,3879.487085,3971.281954,4027.692209,3975.384518,3972.820416,4015.897338,4013.846056,3998.974261,4012.820415,3988.205031,4001.538364,4043.076824,4048.205029,3964.615288
118,0,3882.564008,3969.230672,4030.256312,3972.307595,3975.384518,4019.487081,4018.974261,4005.640928,4017.435799,3990.256313,3998.974261,4045.128106,4045.640927,3964.615288
119,0,3876.922982,3967.692211,4024.102466,3974.358877,3979.999903,4024.615286,4018.46144,4006.666569,4015.384517,4001.025543,3988.717851,4045.640927,4047.179388,3943.076827
120,0,3869.743495,3967.17939,4018.46144,3974.871698,3974.871698,4013.333235,4011.794774,4005.128107,4011.794774,3996.922979,3995.897338,4043.589645,4050.769132,3924.615289
121,0,3872.820418,3966.66657,4022.564004,3969.743493,3968.205031,4012.820415,4011.281953,4002.051184,4011.281953,3984.102467,4002.564005,4046.153747,4049.743491,3935.384519
122,0,3875.384521,3967.692211,4028.71785,3972.307595,3978.461441,4028.20503,4020.512722,4001.538364,4013.333235,3987.17939,3993.333236,4052.307593,4048.205029,3970.769134
123,0,3882.051187,3978.461441,4030.256312,3983.589646,3997.4358,4029.230671,4029.230671,4012.820415,4023.589645,4003.076825,3997.4358,4057.435798,4053.333234,3974.871698
124,0,3894.358879,3984.102467,4029.230671,3982.564005,3998.461441,4019.487081,4029.230671,4019.487081,4030.256312,4006.666569,4012.307594,4056.410157,4059.48708,3944.615288
125,0,3889.743495,3979.999903,4031.281953,3973.846057,3980.512723,4022.051184,4029.230671,4013.333235,4027.692209,4005.128107,4010.769133,4052.307593,4058.97426,3953.333237
126,0,3875.897341,3980.512723,4027.179389,3976.92298,3973.333236,4028.20503,4034.871696,4011.281953,4028.20503,4005.640928,4001.538364,4050.256311,4051.281952,3975.897339
127,0,3881.538367,3983.589646,4018.46144,3976.410159,3982.564005,4025.128107,4031.281953,4012.820415,4030.769132,4004.102466,4001.025543,4052.820414,4045.128106,3950.256314
128,0,3893.846059,3982.051185,4020.512722,3973.333236,3987.69221,4023.076825,4026.153748,4010.256312,4031.281953,4011.281953,4004.102466,4058.461439,4046.153747,3935.89734
0,0,3892.307597,3984.102467,4025.640927,3984.615287,3992.820415,4028.20503,4031.794773,4011.281953,4033.333235,4025.128107,4005.128107,4058.461439,4050.769132,3967.692211
1,0,3890.769136,3992.820415,4026.153748,3989.230672,4002.051184,4031.281953,4032.820414,4014.871697,4033.846055,4018.46144,4005.640928,4054.871696,4055.897337,3989.230672
2,0,3894.8717,3993.333236,4028.20503,3976.92298,3997.94862,4022.051184,4023.589645,4011.281953,4030.256312,4001.025543,4008.20503,4055.897337,4058.461439,3971.281954
3,0,3895.897341,3987.17939,4030.769132,3973.846057,3984.615287,4019.999902,4032.307594,4013.846056,4032.820414,4009.230671,4006.153748,4059.999901,4053.333234,3943.589647
4,0,3894.358879,3989.230672,4027.692209,3976.92298,3992.307595,4032.820414,4041.025542,4021.538363,4036.922978,4020.512722,4005.640928,4061.025542,4051.281952,3962.564006
5,0,3891.281956,3993.333236,4025.640927,3975.897339,4010.256312,4029.230671,4026.153748,4018.974261,4034.871696,4016.922979,4014.871697,4057.948619,4057.948619,3999.999902
6,0,3891.794777,3994.358877,4030.256312,3976.92298,4006.153748,4015.897338,4019.487081,4015.384517,4034.871696,4017.94862,4021.025543,4059.48708,4063.076824,3976.92298
7,0,3895.38452,3990.256313,4031.281953,3973.846057,3988.205031,4016.922979,4032.307594,4015.384517,4031.794773,4013.333235,4013.333235,4059.48708,4057.435798,3948.717852
8,0,3894.8717,3990.256313,4027.692209,3968.205031,3985.128108,4022.051184,4033.846055,4007.69221,4022.051184,3999.999902,4004.615287,4059.48708,4050.769132,3977.948621
9,0,3893.333238,3993.333236,4027.692209,3969.743493,3994.871697,4018.974261,4022.564004,4004.102466,4023.076825,4009.743492,4006.666569,4059.48708,4054.358875,3990.769133
10,0,3899.487084,3993.333236,4029.743491,3973.333236,3993.333236,4019.487081,4027.179389,4015.384517,4031.794773,4024.615286,4012.820415,4057.435798,4059.48708,3967.692211
11,0,3897.435802,3993.333236,4030.256312,3968.717852,3988.717851,4021.538363,4037.435799,4017.94862,4027.692209,4016.922979,4020.512722,4061.025542,4057.435798,3968.717852
12,0,3892.820418,3997.4358,4030.256312,3967.17939,3995.384518,4019.999902,4029.743491,4010.256312,4023.076825,4018.974261,4021.538363,4064.102465,4058.461439,3991.281954
13,0,3897.948623,4001.025543,4032.820414,3971.281954,3995.384518,4019.999902,4023.076825,4008.20503,4025.640927,4031.281953,4009.230671,4058.97426,4061.025542,3995.384518
14,0,3899.487084,4003.076825,4038.97426,3975.897339,3985.640928,4016.922979,4031.281953,4014.871697,4024.615286,4020.512722,4009.743492,4061.025542,4058.461439,3972.307595
15,0,3904.615289,4008.717851,4045.640927,3981.538364,3994.358877,4016.410158,4041.538363,4027.179389,4030.256312,4013.846056,4029.230671,4076.410157,4061.538362,3970.256313
16,0,3925.64093,4010.256312,4044.102465,3980.512723,4011.281953,4027.179389,4046.666568,4029.743491,4038.46144,4029.743491,4031.794773,4079.48708,4067.692208,4011.281953
17,0,3934.358878,4006.666569,4036.410158,3974.358877,4007.69221,4031.794773,4047.179388,4015.897338,4032.307594,4032.307594,4020.512722,4063.076824,4066.153747,4022.564004
18,0,3927.179391,4009.743492,4038.97426,3975.897339,4002.564005,4023.076825,4037.948619,4013.333235,4027.692209,4018.46144,4027.179389,4063.589644,4064.615285,3986.153749
19,0,3925.128109,4013.333235,4044.615286,3980.512723,4008.717851,4020.512722,4034.358876,4023.076825,4033.333235,4021.025543,4032.307594,4074.358875,4066.153747,3984.615287
20,0,3917.948622,4003.589646,4041.538363,3968.205031,4008.717851,4023.076825,4038.46144,4015.897338,4027.179389,4029.743491,4019.999902,4065.640926,4060.512721,3999.487082
21,0,3903.589648,3991.281954,4034.871696,3953.846057,4001.538364,4013.846056,4028.71785,4001.538364,4015.897338,4023.589645,4009.230671,4055.384516,4053.846055,3975.897339
22,0,3904.102469,3988.717851,4030.769132,3954.871698,3996.922979,4004.615287,4014.358876,3996.410159,4016.410158,4007.69221,4004.615287,4059.48708,4049.23067,3969.743493
23,0,3906.666571,3988.205031,4028.20503,3962.564006,3993.333236,4005.128107,4020.512722,3998.461441,4020.512722,4000.512723,4007.69221,4062.564003,4049.23067,3995.384518
24,0,3909.230674,3988.205031,4027.179389,3968.205031,3989.743492,4008.20503,4030.769132,4008.20503,4023.076825,4005.640928,4018.974261,4058.461439,4053.846055,3990.256313
25,0,3909.230674,3990.256313,4029.743491,3968.205031,3988.205031,4008.20503,4024.102466,4012.307594,4021.025543,4010.769133,4014.871697,4059.48708,4048.205029,3969.743493
26,0,3897.948623,3988.717851,4030.769132,3962.564006,3990.256313,4006.666569,4017.435799,4004.615287,4011.794774,4009.230671,3999.999902,4057.948619,4037.435799,3976.410159
27,0,3898.461443,3986.153749,4029.743491,3959.487083,3997.94862,4007.179389,4023.076825,4004.102466,4013.333235,4011.794774,4006.666569,4059.48708,4045.128106,3972.820416
28,0,3913.846058,3988.717851,4034.358876,3965.640929,4006.153748,4013.333235,4030.769132,4015.384517,4024.615286,4016.922979,4017.435799,4065.128106,4056.410157,3959.487083
29,0,3915.89734,3995.384518,4037.435799,3972.307595,4006.666569,4021.025543,4030.769132,4014.358876,4024.615286,4007.179389,4011.281953,4062.051183,4047.179388,3977.4358
30,0,3911.281956,3997.94862,4031.794773,3973.333236,4003.076825,4020.512722,4025.640927,4006.666569,4019.487081,4004.102466,4012.820415,4057.435798,4045.640927,3998.974261
31,0,3914.358879,3993.846056,4025.640927,3973.333236,4003.589646,4015.897338,4024.102466,4000.512723,4018.974261,4018.46144,4016.410158,4057.435798,4054.871696,3990.769133
32,0,3912.307597,3993.846056,4030.256312,3975.384518,4005.640928,4015.897338,4027.692209,3998.974261,4018.46144,4017.94862,4004.615287,4056.410157,4046.153747,3976.410159
33,0,3910.769135,3996.922979,4031.794773,3974.871698,4003.076825,4023.589645,4031.281953,4006.153748,4017.94862,4012.307594,4005.128107,4054.358875,4044.615286,3977.948621
34,0,3919.487084,3990.769133,4024.615286,3966.153749,3998.974261,4022.564004,4023.076825,4007.69221,4016.410158,4016.410158,4017.435799,4049.743491,4057.948619,3979.487082
35,0,3913.333238,3988.205031,4024.615286,3969.743493,4003.589646,4012.307594,4017.435799,3999.999902,4012.307594,4011.281953,4016.922979,4049.23067,4058.97426,3959.999903
36,0,3904.615289,4001.538364,4036.410158,3974.871698,4007.69221,4011.794774,4023.076825,4000.512723,4017.435799,4005.640928,4014.871697,4059.999901,4054.358875,3947.179391
37,0,3926.666571,4009.230671,4046.666568,3961.025544,4001.538364,4021.025543,4031.281953,4011.281953,4030.256312,4023.589645,4022.051184,4066.666567,4061.025542,3987.17939
38,0,3953.846057,4003.076825,4043.076824,3956.41016,4005.640928,4028.20503,4039.999901,4023.076825,4034.871696,4047.692209,4032.820414,4059.48708,4072.307593,4023.589645
39,0,3944.615288,4002.051184,4036.410158,3969.230672,4024.102466,4032.820414,4045.640927,4029.230671,4034.871696,4046.666568,4039.487081,4056.922978,4076.922977,3999.487082
40,0,3923.076827,4007.69221,4036.922978,3972.307595,4029.743491,4041.025542,4048.205029,4028.20503,4034.358876,4029.743491,4029.743491,4059.999901,4067.692208,3979.999903
41,0,3929.230673,4004.615287,4036.922978,3967.17939,4022.051184,4046.666568,4053.333234,4028.20503,4036.922978,4025.640927,4020.512722,4056.922978,4054.358875,3992.820415
42,0,3944.102468,4003.076825,4036.922978,3963.589647,4017.435799,4044.615286,4053.333234,4031.794773,4037.435799,4028.71785,4027.179389,4055.897337,4059.999901,3992.307595
43,0,3941.538365,4011.281953,4042.051183,3962.564006,4012.307594,4042.564004,4050.769132,4026.666568,4028.71785,4024.615286,4028.71785,4059.48708,4068.717849,3981.025544
44,0,3940.512724,4014.358876,4043.589645,3971.281954,4013.333235,4043.589645,4056.410157,4025.128107,4027.179389,4025.640927,4027.179389,4061.538362,4068.717849,3988.717851
45,0,3940.512724,4008.20503,4039.999901,3981.025544,4029.230671,4042.564004,4056.922978,4029.230671,4031.794773,4027.179389,4032.307594,4058.97426,4068.717849,3998.974261
46,0,3927.692212,4010.256312,4037.948619,3974.871698,4031.794773,4039.999901,4047.692209,4024.102466,4029.743491,4024.615286,4027.179389,4052.307593,4064.102465,4001.025543
47,0,3922.051186,4018.974261,4035.897337,3968.205031,4017.435799,4036.410158,4042.564004,4017.94862,4028.20503,4030.256312,4015.897338,4046.153747,4057.948619,3985.128108
48,0,3940.512724,4021.538363,4036.922978,3970.769134,4019.487081,4030.256312,4039.487081,4019.999902,4031.281953,4033.846055,4021.538363,4043.076824,4057.948619,3975.897339
49,0,3957.435801,4021.538363,4042.564004,3976.410159,4034.871696,4034.358876,4043.589645,4025.640927,4029.230671,4027.692209,4033.333235,4045.128106,4066.153747,3997.4358
50,0,3951.281955,4022.051184,4043.076824,3977.948621,4031.794773,4043.589645,4057.948619,4037.435799,4029.743491,4028.20503,4029.230671,4047.179388,4069.23067,4002.564005
51,0,3943.076827,4021.538363,4041.538363,3967.17939,4025.128107,4042.564004,4061.538362,4047.692209,4041.025542,4036.922978,4028.71785,4047.692209,4067.692208,3994.358877
52,0,3946.66657,4021.538363,4044.615286,3967.692211,4028.71785,4035.384517,4049.23067,4040.512722,4043.589645,4042.051183,4043.589645,4046.666568,4070.256311,3996.922979
53,0,3947.179391,4024.102466,4045.640927,3986.666569,4025.640927,4033.846055,4047.179388,4033.846055,4040.512722,4039.487081,4044.102465,4045.128106,4071.794772,3992.307595
54,0,3941.538365,4029.230671,4043.076824,3994.871697,4029.743491,4036.922978,4054.871696,4039.487081,4044.102465,4041.538363,4030.769132,4044.615286,4069.74349,3989.743492
55,0,3939.999904,4032.820414,4042.564004,3989.743492,4042.564004,4042.564004,4060.512721,4038.97426,4043.076824,4054.358875,4041.025542,4042.564004,4077.948618,3995.897338
56,0,3942.564006,4034.871696,4044.102465,3990.769133,4042.564004,4047.179388,4063.076824,4038.46144,4043.076824,4060.512721,4058.461439,4039.999901,4089.230669,4005.128107
57,0,3943.589647,4036.922978,4044.615286,4001.025543,4044.615286,4045.128106,4062.051183,4045.128106,4047.692209,4050.256311,4048.205029,4036.922978,4085.128105,4009.743492
58,0,3947.692211,4042.564004,4043.589645,4001.538364,4060.512721,4050.769132,4058.461439,4044.615286,4044.102465,4047.692209,4044.102465,4034.871696,4083.589644,3992.820415
59,0,3960.512724,4049.743491,4046.153747,3999.487082,4065.128106,4058.97426,4058.97426,4047.692209,4048.71785,4065.640926,4065.640926,4042.564004,4093.846054,3990.769133
60,0,3972.820416,4051.794773,4047.692209,4006.153748,4054.871696,4053.846055,4062.051183,4061.025542,4062.051183,4072.820413,4069.23067,4047.692209,4094.871695,4032.307594
61,0,3957.948621,4046.666568,4041.538363,4006.666569,4053.846055,4051.794773,4061.538362,4057.948619,4055.384516,4061.538362,4052.307593,4037.948619,4088.205028,4027.179389
62,0,3943.076827,4044.615286,4038.46144,3999.487082,4057.435798,4059.48708,4062.564003,4048.71785,4043.076824,4057.948619,4050.256311,4032.820414,4090.25631,3977.948621
63,0,3955.384519,4041.538363,4045.128106,3991.281954,4052.307593,4059.48708,4066.153747,4050.256311,4049.23067,4064.615285,4053.846055,4033.846055,4093.333233,3992.307595
64,0,3944.102468,4036.410158,4045.640927,3981.538364,4045.640927,4050.769132,4064.615285,4045.128106,4046.153747,4052.307593,4041.025542,4022.564004,4078.974259,4015.897338
65,0,3926.15375,4039.999901,4041.538363,3985.128108,4054.871696,4048.71785,4059.999901,4041.538363,4037.948619,4040.512722,4040.512722,4021.538363,4075.897336,3983.589646
66,0,3948.717852,4047.179388,4042.051183,4005.640928,4056.410157,4051.794773,4060.512721,4051.281952,4051.794773,4054.358875,4057.948619,4036.410158,4093.333233,3976.92298
67,0,3973.333236,4049.743491,4043.076824,4015.384517,4043.589645,4055.384516,4062.564003,4054.358875,4061.025542,4062.564003,4061.538362,4034.358876,4096.410156,4015.897338
68,0,3971.794775,4061.025542,4045.128106,4013.333235,4056.922978,4054.358875,4065.128106,4052.820414,4052.307593,4057.435798,4054.358875,4025.640927,4090.25631,4032.307594
69,0,3976.410159,4073.846054,4046.666568,4023.076825,4079.48708,4054.871696,4071.794772,4058.461439,4050.769132,4059.48708,4059.999901,4034.358876,4102.564002,4029.743491
70,0,3999.999902,4078.461439,4047.692209,4030.769132,4076.410157,4061.025542,4072.307593,4061.538362,4056.410157,4064.102465,4072.820413,4047.179388,4122.051181,4046.153747
71,0,4026.153748,4084.102464,4052.307593,4028.20503,4061.538362,4061.025542,4068.717849,4059.48708,4051.281952,4059.999901,4066.153747,4044.102465,4122.564002,4064.615285
72,0,4055.897337,4096.922977,4058.461439,4030.769132,4052.307593,4051.281952,4068.717849,4059.999901,4049.23067,4063.076824,4066.153747,4040.512722,4129.743489,4088.717849
73,0,4094.871695,4120.51272,4061.025542,4040.512722,4053.846055,4044.615286,4063.589644,4061.025542,4059.48708,4072.307593,4094.871695,4052.307593,4166.153744,4141.53836
74,0,4130.76913,4142.564001,4066.153747,4049.23067,4061.025542,4048.71785,4061.538362,4057.948619,4058.461439,4075.897336,4112.307592,4063.076824,4193.333231,4179.487077
75,0,4137.948617,4143.589642,4069.74349,4051.794773,4058.461439,4052.820414,4064.615285,4052.307593,4049.23067,4066.666567,4106.153746,4059.999901,4192.82041,4170.256308
76,0,4118.461438,4132.820412,4066.153747,4054.358875,4060.512721,4055.384516,4058.97426,4048.71785,4050.256311,4053.333234,4104.615284,4062.051183,4183.589641,4161.025539
77,0,4100.51272,4116.922976,4063.076824,4046.666568,4070.769131,4055.384516,4053.333234,4047.179388,4054.358875,4058.97426,4105.128105,4068.205029,4178.974257,4154.871693
78,0,4082.564003,4095.897336,4061.025542,4029.230671,4069.74349,4054.871696,4058.461439,4043.589645,4049.743491,4070.769131,4091.281951,4053.846055,4168.205026,4144.615283
79,0,4062.051183,4087.692208,4057.948619,4028.71785,4067.179388,4052.820414,4061.538362,4044.615286,4050.769132,4078.974259,4087.179387,4039.999901,4156.410155,4144.102463
80,0,4051.794773,4090.25631,4057.435798,4034.871696,4065.128106,4051.281952,4058.97426,4047.179388,4061.538362,4085.640926,4089.74349,4043.589645,4144.615283,4121.02554
81,0,4042.564004,4076.922977,4055.897337,4025.640927,4059.999901,4056.410157,4059.999901,4039.487081,4057.435798,4077.948618,4076.922977,4039.999901,4125.640925,4080.512721
82,0,4022.051184,4063.589644,4047.692209,4033.333235,4073.333234,4064.615285,4064.615285,4037.948619,4049.23067,4059.999901,4070.256311,4028.20503,4119.487079,4072.820413
83,0,4000.512723,4058.461439,4045.640927,4033.846055,4077.948618,4061.025542,4061.025542,4046.666568,4058.97426,4059.999901,4074.871695,4026.666568,4118.974258,4069.23067
84,0,3987.17939,4044.615286,4063.589644,3976.92298,4058.461439,4044.615286,4045.640927,4041.538363,4056.410157,4056.922978,4059.999901,4021.538363,4099.9999,4045.128106
85,0,3971.281954,4035.384517,4076.922977,3942.564006,4056.922978,4041.025542,4036.922978,4031.794773,4038.97426,4035.384517,4036.922978,4008.20503,4078.461439,4035.384517
86,0,3957.948621,4038.46144,4064.615285,3986.666569,4067.179388,4050.256311,4046.666568,4039.487081,4045.640927,4042.051183,4043.589645,4014.358876,4083.076823,4023.076825
87,0,3969.743493,4041.025542,4046.666568,4027.692209,4065.128106,4049.23067,4051.794773,4049.23067,4057.435798,4065.128106,4062.051183,4031.794773,4099.487079,4010.769133
88,0,3987.17939,4045.128106,4049.23067,4019.999902,4069.23067,4042.564004,4049.23067,4052.307593,4052.307593,4064.615285,4063.076824,4029.230671,4096.410156,4034.358876
89,0,3989.743492,4050.769132,4064.615285,4003.076825,4077.435798,4039.999901,4053.846055,4059.48708,4054.871696,4054.358875,4058.97426,4019.487081,4088.205028,4056.410157
90,0,3980.512723,4045.640927,4065.640926,4001.025543,4074.871695,4048.205029,4061.538362,4060.512721,4059.999901,4054.871696,4058.97426,4022.051184,4090.25631,4045.640927
91,0,3974.871698,4043.589645,4053.846055,4012.307594,4073.846054,4057.948619,4065.128106,4056.922978,4060.512721,4065.640926,4061.025542,4027.179389,4096.410156,4036.922978
92,0,3979.487082,4055.384516,4051.281952,4035.897337,4081.538362,4063.076824,4079.9999,4075.384516,4074.871695,4073.846054,4067.692208,4032.820414,4099.9999,4043.076824
93,0,3981.538364,4059.999901,4060.512721,4048.205029,4082.564003,4065.128106,4095.897336,4097.435797,4086.666567,4072.820413,4075.384516,4040.512722,4105.128105,4044.102465
94,0,3984.102467,4061.538362,4064.102465,4045.128106,4081.025541,4063.076824,4086.666567,4085.128105,4078.974259,4079.48708,4078.461439,4041.025542,4109.743489,4034.871696
95,0,3984.102467,4061.538362,4058.97426,4040.512722,4077.435798,4057.435798,4069.74349,4063.589644,4069.74349,4088.205028,4072.820413,4033.333235,4102.051182,4022.051184
96,0,3973.846057,4050.769132,4053.333234,4039.999901,4074.871695,4061.025542,4078.461439,4068.205029,4064.615285,4069.23067,4062.051183,4030.256312,4090.769131,4016.922979
97,0,3965.128108,4050.256311,4053.846055,4044.102465,4074.871695,4066.666567,4084.615285,4078.974259,4065.640926,4053.846055,4057.948619,4033.333235,4086.666567,4015.897338
98,0,3969.230672,4058.97426,4059.999901,4037.435799,4073.846054,4061.025542,4076.410157,4075.897336,4072.820413,4071.281952,4058.461439,4034.871696,4083.589644,4009.743492
99,0,3973.333236,4050.256311,4062.564003,4031.281953,4072.820413,4055.897337,4081.538362,4074.871695,4072.820413,4076.410157,4061.025542,4033.333235,4083.589644,4006.153748
100,0,3973.846057,4040.512722,4058.461439,4040.512722,4073.846054,4057.435798,4092.307592,4078.461439,4071.281952,4064.102465,4066.666567,4031.794773,4088.717849,4017.435799
101,0,3975.384518,4051.281952,4057.435798,4039.999901,4077.435798,4059.999901,4089.74349,4078.974259,4076.410157,4071.794772,4069.23067,4033.333235,4093.333233,4028.71785
102,0,3972.307595,4052.820414,4062.051183,4030.256312,4071.794772,4058.461439,4087.692208,4074.871695,4073.333234,4073.333234,4060.512721,4035.897337,4089.230669,4007.179389
103,0,3974.871698,4042.051183,4061.538362,4041.538363,4065.128106,4058.97426,4091.794772,4077.435798,4066.666567,4055.897337,4059.999901,4037.948619,4085.128105,3995.897338
104,0,3982.051185,4043.076824,4064.615285,4045.128106,4075.384516,4063.589644,4093.333233,4087.692208,4070.769131,4057.435798,4066.153747,4034.871696,4082.564003,4029.230671
105,0,3975.897339,4049.743491,4073.846054,4020.512722,4084.102464,4060.512721,4090.769131,4091.281951,4076.410157,4072.307593,4059.999901,4032.307594,4083.076823,4033.333235
106,0,3970.769134,4052.307593,4072.307593,4016.410158,4078.974259,4055.384516,4090.25631,4088.717849,4079.9999,4074.871695,4062.051183,4042.564004,4089.74349,3996.410159
107,0,3977.4358,4053.333234,4059.48708,4038.97426,4078.974259,4063.076824,4094.871695,4085.128105,4085.640926,4078.461439,4072.307593,4048.71785,4092.820413,3999.487082
108,0,3973.846057,4051.281952,4059.999901,4038.46144,4079.9999,4065.128106,4088.205028,4077.435798,4084.615285,4083.076823,4064.615285,4032.820414,4089.74349,4019.487081
109,0,3964.102467,4053.333234,4061.025542,4038.46144,4076.922977,4056.410157,4074.358875,4071.794772,4077.948618,4079.48708,4056.410157,4025.640927,4089.74349,4014.358876
110,0,3977.4358,4061.025542,4051.794773,4055.897337,4085.640926,4064.102465,4076.922977,4074.358875,4077.948618,4075.384516,4066.666567,4039.999901,4092.307592,4007.179389
111,0,3984.102467,4056.410157,4066.666567,4021.025543,4088.717849,4073.846054,4083.589644,4071.794772,4074.871695,4073.846054,4064.615285,4041.538363,4082.564003,3993.846056
112,0,3973.846057,4042.051183,4089.74349,3974.871698,4074.871695,4069.23067,4084.102464,4073.846054,4074.358875,4075.897336,4054.871696,4035.897337,4079.9999,3994.871697
113,0,3980.512723,4038.46144,4078.974259,4005.128107,4073.846054,4066.666567,4091.281951,4088.717849,4085.640926,4078.461439,4063.589644,4045.640927,4089.230669,4026.153748
114,0,3976.410159,4045.128106,4061.025542,4054.871696,4085.640926,4067.179388,4098.461438,4089.74349,4089.230669,4075.897336,4071.281952,4052.820414,4089.230669,4029.743491
115,0,3954.358878,4045.640927,4067.692208,4052.820414,4085.640926,4060.512721,4093.846054,4076.410157,4078.974259,4081.538362,4071.281952,4053.333234,4088.205028,4002.051184
116,0,3974.871698,4037.435799,4082.564003,4015.897338,4074.358875,4055.384516,4089.230669,4071.281952,4073.333234,4084.615285,4068.205029,4051.281952,4087.179387,3997.94862
117,0,4007.179389,4032.820414,4082.564003,3996.922979,4071.281952,4056.410157,4088.205028,4067.692208,4076.922977,4073.846054,4059.999901,4038.97426,4083.589644,4008.717851
118,0,3983.076826,4042.564004,4073.333234,4024.102466,4079.48708,4057.435798,4076.922977,4058.461439,4072.307593,4068.205029,4055.384516,4031.794773,4079.48708,4011.794774
119,0,3963.076826,4047.692209,4062.564003,4061.025542,4075.897336,4057.948619,4071.281952,4055.897337,4067.179388,4075.384516,4058.461439,4043.076824,4076.922977,4008.717851
120,0,3989.743492,4035.897337,4058.97426,4047.179388,4061.025542,4057.435798,4083.076823,4057.948619,4069.74349,4086.153746,4063.076824,4045.640927,4083.076823,4008.717851
121,0,3992.307595,4034.871696,4058.97426,4041.025542,4071.794772,4065.640926,4094.358874,4064.102465,4076.410157,4090.25631,4061.538362,4039.487081,4088.717849,4006.153748
122,0,3973.333236,4052.307593,4058.97426,4070.256311,4097.435797,4075.897336,4094.871695,4078.461439,4086.153746,4091.281951,4057.948619,4048.71785,4083.076823,3991.281954
123,0,3973.333236,4051.794773,4076.922977,4029.230671,4090.25631,4070.256311,4090.769131,4078.974259,4084.615285,4083.589644,4061.025542,4051.794773,4082.564003,3997.4358
124,0,3973.846057,4035.384517,4103.076823,3952.307596,4067.179388,4060.512721,4087.692208,4070.256311,4076.410157,4071.281952,4067.692208,4038.97426,4094.358874,4025.128107
125,0,3983.589646,4037.435799,4109.230669,3946.15375,4064.102465,4058.97426,4082.051182,4072.820413,4071.794772,4066.153747,4051.794773,4038.46144,4077.948618,4018.974261
126,0,4005.128107,4045.640927,4101.025541,3973.846057,4072.820413,4060.512721,4074.871695,4073.333234,4072.820413,4070.256311,4039.487081,4046.153747,4063.076824,4021.025543
127,0,3995.897338,4033.333235,4090.769131,3980.512723,4079.48708,4060.512721,4072.307593,4066.153747,4072.307593,4078.461439,4061.538362,4044.615286,4084.102464,4037.435799
128,0,3972.307595,4022.051184,4075.384516,3997.4358,4074.871695,4060.512721,4080.512721,4072.307593,4076.922977,4084.102464,4078.461439,4049.743491,4087.179387,3988.205031
0,0,3987.69221,4035.384517,4068.205029,4030.769132,4065.128106,4065.640926,4089.74349,4087.179387,4088.717849,4089.74349,4073.333234,4063.589644,4067.179388,3971.794775
1,0,4014.871697,4051.794773,4075.897336,4046.666568,4079.48708,4077.435798,4096.410156,4092.307592,4095.384515,4092.820413,4073.846054,4062.051183,4065.640926,4056.410157
2,0,4012.307594,4052.820414,4078.461439,4045.128106,4097.948618,4081.538362,4105.640925,4094.358874,4091.794772,4088.717849,4085.640926,4059.999901,4074.358875,4093.846054
3,0,4005.128107,4046.153747,4072.820413,4036.410158,4081.538362,4072.307593,4109.230669,4092.307592,4078.974259,4080.512721,4090.25631,4066.666567,4078.461439,4050.256311
4,0,4017.435799,4053.846055,4071.794772,4037.948619,4068.717849,4068.717849,4104.102464,4087.692208,4071.281952,4076.922977,4083.076823,4063.076824,4082.564003,4039.999901
5,0,4046.153747,4075.897336,4074.358875,4057.435798,4088.717849,4074.871695,4105.128105,4100.51272,4085.128105,4087.179387,4080.512721,4063.076824,4088.205028,4073.333234
6,0,4069.74349,4083.076823,4079.9999,4060.512721,4099.487079,4077.435798,4109.230669,4113.846053,4102.564002,4097.948618,4090.25631,4083.076823,4101.025541,4104.615284
7,0,4107.179387,4097.435797,4084.102464,4055.897337,4085.640926,4065.128106,4095.897336,4096.410156,4093.846054,4094.358874,4103.076823,4095.384515,4128.717848,4136.922976
8,0,4183.589641,4137.948617,4086.153746,4074.871695,4079.9999,4052.820414,4075.897336,4068.717849,4073.333234,4079.9999,4107.692207,4089.74349,4152.307591,4184.102462
9,0,4230.256307,4163.589642,4095.897336,4093.333233,4082.051182,4056.922978,4079.48708,4071.281952,4073.846054,4080.512721,4122.051181,4104.102464,4178.974257,4232.307589
10,0,4217.948615,4164.102462,4109.743489,4092.820413,4081.538362,4063.076824,4094.358874,4080.512721,4082.564003,4093.846054,4137.435796,4125.640925,4203.07682,4254.871691
11,0,4240.512717,4173.846052,4110.76913,4092.307592,4088.205028,4059.999901,4093.846054,4069.23067,4070.256311,4081.025541,4128.717848,4115.384515,4201.538359,4266.666562
12,0,4298.461433,4176.922975,4096.922977,4093.333233,4091.794772,4058.461439,4086.153746,4062.051183,4054.871696,4061.025542,4114.358874,4095.384515,4190.769128,4274.35887
13,0,4313.333228,4169.743488,4092.820413,4096.410156,4085.640926,4057.435798,4087.179387,4068.717849,4059.999901,4070.256311,4117.435797,4102.051182,4195.897333,4277.948613
14,0,4295.38451,4176.922975,4105.640925,4103.076823,4085.640926,4054.871696,4090.769131,4083.589644,4072.307593,4082.051182,4125.640925,4120.51272,4213.33323,4274.35887
15,0,4282.051177,4181.538359,4114.358874,4104.615284,4088.717849,4063.589644,4093.846054,4092.820413,4077.435798,4077.435798,4126.666566,4127.692207,4226.153743,4269.743485
16,0,4280.512716,4173.846052,4108.205028,4101.538361,4078.974259,4063.589644,4087.692208,4083.589644,4068.205029,4074.358875,4124.102463,4121.02554,4223.07682,4276.922972
17,0,4271.281947,4170.256308,4107.179387,4089.74349,4068.205029,4048.205029,4075.384516,4070.256311,4054.358875,4069.74349,4119.487079,4120.51272,4215.384512,4245.128101
18,0,4242.563999,4170.256308,4121.02554,4081.025541,4076.922977,4050.256311,4075.897336,4072.307593,4058.461439,4063.589644,4119.999899,4131.794771,4216.410153,4203.589641
19,0,4233.33323,4170.256308,4126.666566,4088.205028,4084.102464,4065.128106,4083.076823,4082.051182,4077.948618,4067.179388,4121.02554,4124.615284,4220.512717,4246.153742
20,0,4264.61528,4172.820411,4112.820412,4098.461438,4076.922977,4063.589644,4078.974259,4076.410157,4077.948618,4064.102465,4113.333233,4109.230669,4210.769128,4299.487074
21,0,4283.589639,4171.281949,4094.358874,4094.871695,4077.948618,4057.948619,4072.820413,4059.999901,4057.435798,4049.23067,4106.666566,4113.846053,4186.153744,4268.205024
22,0,4263.589639,4164.615283,4096.410156,4079.48708,4086.666567,4059.48708,4072.307593,4057.435798,4057.435798,4052.307593,4108.717848,4112.820412,4167.692206,4246.153742
23,0,4222.051179,4155.897334,4110.25631,4053.846055,4083.589644,4060.512721,4081.025541,4072.307593,4077.435798,4074.871695,4112.307592,4094.358874,4170.769129,4240.512717
24,0,4172.820411,4138.461437,4109.743489,4030.256312,4071.794772,4059.48708,4092.307592,4078.974259,4077.435798,4082.564003,4106.153746,4088.717849,4161.53836,4182.564
25,0,4139.999899,4126.153745,4097.435797,4030.769132,4072.307593,4058.97426,4090.25631,4074.871695,4066.666567,4073.846054,4090.769131,4091.281951,4129.230668,4145.640924
26,0,4126.666566,4130.76913,4093.333233,4044.102465,4085.128105,4062.564003,4085.640926,4083.589644,4075.384516,4072.820413,4087.179387,4090.25631,4117.948617,4149.230668
27,0,4114.358874,4127.179386,4092.820413,4048.71785,4095.384515,4063.589644,4085.640926,4091.281951,4085.128105,4071.794772,4096.922977,4090.25631,4123.589643,4136.410155
28,0,4096.410156,4102.051182,4080.512721,4043.589645,4092.307592,4054.358875,4077.948618,4081.025541,4077.435798,4062.051183,4087.179387,4078.974259,4105.128105,4129.230668
29,0,4073.846054,4086.666567,4069.23067,4037.435799,4082.564003,4052.307593,4069.74349,4070.769131,4074.871695,4064.102465,4067.179388,4064.102465,4081.025541,4120.51272
30,0,4059.48708,4091.794772,4069.74349,4038.97426,4083.076823,4062.564003,4078.974259,4074.871695,4083.589644,4076.922977,4065.640926,4066.666567,4079.9999,4083.076823
31,0,4041.025542,4085.640926,4071.281952,4037.948619,4089.74349,4064.615285,4089.230669,4080.512721,4082.564003,4074.358875,4067.692208,4069.74349,4078.461439,4060.512721
32,0,4015.897338,4067.179388,4071.794772,4032.307594,4090.769131,4059.48708,4091.281951,4078.974259,4076.410157,4065.640926,4062.051183,4062.051183,4069.74349,4068.205029
33,0,4017.94862,4064.102465,4072.820413,4029.230671,4084.615285,4063.589644,4093.846054,4077.948618,4083.589644,4075.384516,4060.512721,4056.922978,4065.640926,4058.97426
34,0,4030.256312,4067.692208,4068.717849,4027.692209,4078.461439,4064.102465,4090.769131,4083.076823,4093.846054,4092.307592,4063.589644,4061.538362,4064.615285,4041.025542
35,0,4006.666569,4054.358875,4058.97426,4022.564004,4079.9999,4057.948619,4088.717849,4089.230669,4091.281951,4092.307592,4061.538362,4060.512721,4059.999901,4032.820414
36,0,3984.102467,4045.640927,4057.948619,4018.46144,4087.179387,4057.435798,4090.769131,4093.333233,4088.717849,4083.076823,4056.410157,4054.871696,4055.897337,4018.974261
37,0,3984.102467,4056.922978,4065.128106,4020.512722,4092.307592,4061.025542,4090.769131,4090.769131,4091.281951,4079.9999,4051.794773,4055.384516,4052.307593,4010.769133
38,0,3980.512723,4058.97426,4065.640926,4019.487081,4094.358874,4062.564003,4095.897336,4089.230669,4088.205028,4077.435798,4047.692209,4058.97426,4044.615286,4016.922979
39,0,3978.974262,4044.102465,4062.051183,4012.307594,4091.281951,4063.076824,4103.589643,4100.51272,4091.794772,4082.051182,4053.333234,4060.512721,4043.076824,4012.307594
40,0,3976.410159,4045.640927,4062.564003,4012.820415,4082.051182,4064.102465,4102.051182,4106.666566,4103.589643,4089.230669,4061.025542,4059.999901,4046.666568,4007.69221
41,0,3968.205031,4055.897337,4064.615285,4010.256312,4084.102464,4062.051183,4095.384515,4093.846054,4099.9999,4085.128105,4053.846055,4059.48708,4044.102465,4016.410158
42,0,3974.358877,4045.640927,4063.076824,4000.512723,4099.9999,4060.512721,4096.922977,4089.74349,4092.820413,4088.717849,4046.666568,4059.48708,4038.97426,4018.46144
43,0,3966.153749,4029.743491,4061.538362,3995.384518,4093.333233,4059.999901,4098.974259,4097.435797,4093.333233,4087.692208,4039.487081,4055.897337,4029.230671,3988.717851
44,0,3938.461442,4035.897337,4057.948619,4006.666569,4076.410157,4053.333234,4089.74349,4084.615285,4081.025541,4070.256311,4022.051184,4048.71785,4018.46144,3954.358878
45,0,3937.948622,4050.769132,4054.871696,4018.974261,4086.153746,4047.179388,4086.666567,4075.384516,4073.846054,4070.769131,4018.974261,4048.71785,4021.025543,3961.538365
46,0,3947.179391,4043.589645,4067.692208,3995.897338,4096.922977,4053.846055,4094.358874,4091.281951,4089.230669,4084.102464,4038.97426,4048.205029,4030.769132,3992.307595
47,0,3947.179391,4030.769132,4076.410157,3969.230672,4090.769131,4062.051183,4096.922977,4098.974259,4095.897336,4083.076823,4048.205029,4043.589645,4029.230671,4007.179389
48,0,3963.589647,4037.435799,4064.102465,3990.256313,4091.794772,4060.512721,4096.410156,4100.51272,4094.358874,4085.128105,4043.589645,4052.820414,4029.743491,4004.615287
49,0,3972.820416,4042.564004,4054.871696,4022.564004,4094.871695,4056.922978,4101.538361,4109.230669,4104.102464,4092.820413,4045.640927,4060.512721,4038.46144,3998.974261
50,0,3959.487083,4031.281953,4061.538362,4010.769133,4089.230669,4059.999901,4106.666566,4109.743489,4108.717848,4090.25631,4048.71785,4052.820414,4037.948619,3987.17939
51,0,3940.512724,4028.20503,4063.589644,3998.461441,4088.205028,4059.999901,4106.153746,4105.640925,4102.051182,4092.820413,4046.666568,4053.846055,4031.281953,3978.974262
52,0,3925.64093,4034.358876,4055.384516,4009.743492,4091.281951,4054.358875,4103.589643,4103.589643,4098.974259,4094.871695,4044.102465,4059.48708,4028.20503,3982.051185
53,0,3940.512724,4030.769132,4054.358875,4011.281953,4090.25631,4055.897337,4103.589643,4096.922977,4100.51272,4092.307592,4042.564004,4056.922978,4033.846055,3985.640928
54,0,3971.281954,4030.256312,4058.461439,4012.307594,4094.358874,4063.076824,4109.743489,4091.281951,4098.974259,4091.794772,4043.589645,4057.948619,4035.384517,3989.230672
55,0,3965.128108,4035.897337,4058.461439,4012.820415,4095.384515,4060.512721,4111.281951,4090.25631,4089.230669,4078.461439,4042.564004,4054.358875,4024.615286,3990.769133
56,0,3949.230673,4036.410158,4057.435798,4006.153748,4088.205028,4053.333234,4106.153746,4093.333233,4088.205028,4070.256311,4042.051183,4048.71785,4024.102466,3995.384518
57,0,3952.307596,4029.230671,4057.435798,4003.076825,4094.358874,4064.102465,4114.871694,4108.717848,4103.589643,4085.640926,4044.615286,4054.871696,4033.846055,4011.794774
58,0,3951.281955,4022.564004,4054.871696,3998.974261,4102.564002,4073.333234,4121.538361,4115.897335,4110.76913,4096.922977,4046.153747,4058.461439,4034.871696,4005.128107
59,0,3939.487083,4026.666568,4053.846055,3993.333236,4090.769131,4064.615285,4107.179387,4106.666566,4103.076823,4090.25631,4044.615286,4055.384516,4031.794773,3974.358877
60,0,3925.128109,4032.307594,4058.461439,4002.564005,4089.230669,4063.076824,4102.051182,4103.589643,4103.589643,4092.307592,4048.71785,4058.461439,4037.435799,3980.512723
61,0,3935.384519,4030.256312,4062.051183,4014.358876,4107.179387,4067.179388,4110.76913,4109.743489,4106.666566,4105.640925,4058.461439,4064.102465,4044.102465,4014.358876
62,0,3967.692211,4031.281953,4060.512721,4006.666569,4105.640925,4056.922978,4103.076823,4104.102464,4102.051182,4110.25631,4063.076824,4068.205029,4045.640927,4012.820415
63,0,3952.820416,4033.333235,4057.948619,3995.897338,4089.230669,4052.820414,4092.307592,4092.820413,4092.307592,4093.333233,4055.384516,4066.153747,4037.948619,3997.4358
64,0,3924.102468,4033.333235,4061.025542,4001.538364,4089.74349,4057.435798,4093.333233,4088.205028,4087.179387,4077.948618,4054.358875,4059.48708,4031.794773,4017.94862
65,0,3968.717852,4048.205029,4066.666567,4015.384517,4096.922977,4051.281952,4093.333233,4089.230669,4090.25631,4094.871695,4073.333234,4066.666567,4047.179388,4044.102465
66,0,4013.846056,4060.512721,4066.666567,4018.46144,4094.358874,4050.256311,4096.410156,4095.384515,4095.897336,4116.410156,4080.512721,4080.512721,4062.564003,4035.897337
67,0,3989.230672,4047.179388,4063.589644,4009.743492,4089.230669,4061.538362,4109.230669,4107.179387,4097.948618,4103.076823,4063.076824,4079.9999,4053.333234,4016.922979
68,0,3966.153749,4039.999901,4065.640926,4008.717851,4088.717849,4064.615285,4115.384515,4110.25631,4097.435797,4084.615285,4059.999901,4076.922977,4043.076824,4025.640927
69,0,3966.153749,4054.871696,4070.769131,4015.897338,4093.333233,4057.435798,4109.230669,4099.9999,4094.358874,4097.948618,4073.846054,4077.948618,4052.307593,4030.769132
70,0,3961.538365,4061.025542,4077.435798,4018.46144,4100.51272,4053.846055,4107.692207,4099.9999,4094.358874,4114.871694,4077.435798,4077.948618,4062.051183,4019.487081
71,0,3972.307595,4059.999901,4075.384516,4024.615286,4109.743489,4058.97426,4111.281951,4109.230669,4096.410156,4108.205028,4077.948618,4080.512721,4059.999901,4037.435799
72,0,3985.128108,4060.512721,4072.307593,4021.025543,4116.410156,4062.051183,4111.281951,4101.025541,4089.230669,4096.922977,4076.922977,4080.512721,4051.281952,4051.281952
73,0,3970.769134,4051.794773,4082.564003,3992.820415,4109.743489,4049.743491,4101.538361,4084.102464,4075.384516,4087.179387,4058.97426,4069.23067,4037.948619,4022.051184
74,0,3962.564006,4043.589645,4083.589644,3981.538364,4095.384515,4043.076824,4093.846054,4082.564003,4073.846054,4073.333234,4045.640927,4062.051183,4029.743491,4005.128107
75,0,3976.92298,4050.769132,4071.794772,4009.230671,4095.897336,4059.999901,4101.025541,4088.205028,4081.025541,4072.307593,4058.461439,4074.358875,4038.46144,4014.871697
76,0,3978.461441,4061.025542,4074.358875,4031.281953,4108.717848,4063.589644,4105.640925,4086.666567,4084.615285,4087.692208,4069.74349,4082.564003,4050.769132,4028.71785
77,0,3971.794775,4059.999901,4081.538362,4026.153748,4109.230669,4051.281952,4103.076823,4093.333233,4089.230669,4096.922977,4067.692208,4077.435798,4050.769132,4052.820414
78,0,3978.974262,4057.948619,4074.871695,4025.128107,4104.615284,4057.435798,4105.640925,4106.666566,4097.948618,4104.102464,4068.717849,4076.410157,4051.794773,4053.846055
79,0,3988.205031,4062.051183,4074.358875,4031.281953,4108.205028,4066.666567,4110.25631,4110.76913,4106.666566,4116.922976,4070.769131,4081.025541,4060.512721,4029.230671
80,0,3987.17939,4061.538362,4076.410157,4026.666568,4109.743489,4055.384516,4109.230669,4109.230669,4109.743489,4115.384515,4068.205029,4080.512721,4061.538362,4033.333235
81,0,3977.948621,4049.743491,4068.717849,4019.487081,4112.307592,4050.769132,4106.666566,4105.128105,4097.435797,4096.922977,4061.025542,4074.358875,4050.769132,4051.794773
82,0,3964.102467,4042.564004,4065.128106,4017.435799,4117.435797,4059.48708,4109.743489,4101.025541,4088.717849,4088.205028,4049.743491,4069.23067,4043.589645,4023.076825
83,0,3945.128109,4044.102465,4066.153747,4013.846056,4112.820412,4059.999901,4114.871694,4107.692207,4102.051182,4091.794772,4045.640927,4068.717849,4044.102465,3984.615287
84,0,3936.41016,4041.025542,4063.589644,4007.179389,4104.615284,4056.922978,4113.333233,4110.76913,4105.640925,4085.640926,4054.358875,4068.717849,4045.640927,4007.69221
85,0,3957.948621,4042.051183,4065.128106,4023.589645,4104.102464,4059.48708,4104.615284,4103.589643,4095.384515,4082.564003,4064.615285,4067.692208,4052.820414,4052.307593
86,0,3990.769133,4052.820414,4066.153747,4061.538362,4110.25631,4060.512721,4107.692207,4108.717848,4102.564002,4095.897336,4071.281952,4069.23067,4063.076824,4054.358875
87,0,3995.897338,4064.615285,4066.153747,4083.589644,4121.02554,4065.640926,4121.02554,4120.51272,4116.410156,4103.589643,4075.897336,4075.384516,4064.102465,4035.384517
88,0,3982.564005,4067.692208,4069.23067,4083.076823,4126.666566,4070.769131,4123.076822,4114.358874,4111.281951,4103.589643,4077.435798,4079.9999,4060.512721,4032.820414
89,0,3971.794775,4063.076824,4072.820413,4077.948618,4122.564002,4068.205029,4113.333233,4106.153746,4105.128105,4111.281951,4074.358875,4075.384516,4062.051183,4031.794773
90,0,3952.820416,4058.97426,4074.358875,4074.871695,4121.538361,4064.615285,4109.743489,4108.205028,4107.179387,4112.307592,4065.640926,4067.179388,4057.435798,4015.384517
91,0,3954.871698,4058.97426,4071.794772,4080.512721,4118.974258,4065.128106,4107.692207,4105.128105,4103.589643,4096.410156,4056.922978,4069.23067,4048.71785,4021.538363
92,0,3983.076826,4059.999901,4070.256311,4073.333234,4110.25631,4062.564003,4099.9999,4097.435797,4096.410156,4088.717849,4058.97426,4071.794772,4049.23067,4050.256311
93,0,3984.102467,4056.922978,4075.897336,4042.051183,4102.051182,4054.358875,4098.461438,4093.846054,4092.307592,4089.230669,4059.48708,4064.615285,4049.23067,4053.333234
94,0,3966.66657,4055.384516,4081.025541,4037.948619,4099.487079,4050.769132,4104.102464,4090.25631,4090.25631,4086.666567,4057.948619,4063.076824,4046.153747,4039.999901
95,0,3972.307595,4059.999901,4075.897336,4066.153747,4105.640925,4054.871696,4105.128105,4090.769131,4089.74349,4088.717849,4064.102465,4072.820413,4052.820414,4035.384517
96,0,3978.461441,4063.076824,4073.846054,4070.256311,4106.666566,4058.97426,4104.615284,4096.922977,4091.794772,4090.25631,4062.051183,4074.871695,4054.358875,4026.666568
97,0,3973.333236,4062.564003,4077.948618,4061.025542,4099.9999,4063.589644,4110.76913,4099.487079,4096.922977,4090.769131,4059.48708,4073.846054,4047.692209,4023.589645
98,0,3968.717852,4058.97426,4077.948618,4068.205029,4110.25631,4073.846054,4118.461438,4098.974259,4099.9999,4090.25631,4070.769131,4076.410157,4053.333234,4031.794773
99,0,3966.153749,4062.051183,4075.897336,4073.846054,4126.153745,4074.358875,4123.076822,4104.615284,4102.564002,4083.589644,4077.948618,4074.871695,4062.564003,4044.615286
100,0,3982.564005,4071.281952,4074.358875,4073.333234,4118.461438,4064.102465,4121.538361,4110.25631,4102.051182,4089.74349,4076.410157,4076.922977,4062.564003,4049.743491
101,0,4015.897338,4077.435798,4079.9999,4080.512721,4110.76913,4065.640926,4120.51272,4111.281951,4108.205028,4117.948617,4085.640926,4085.640926,4067.179388,4054.871696
102,0,4027.692209,4077.435798,4088.717849,4085.640926,4119.999899,4078.461439,4127.179386,4113.333233,4119.487079,4128.205027,4092.307592,4088.717849,4075.384516,4068.205029
103,0,4010.769133,4076.922977,4090.769131,4084.615285,4128.205027,4081.538362,4128.205027,4109.230669,4118.974258,4111.281951,4092.307592,4086.666567,4075.384516,4066.666567
104,0,3998.974261,4076.922977,4090.25631,4081.025541,4119.999899,4075.897336,4124.615284,4103.076823,4108.717848,4101.025541,4091.794772,4089.74349,4073.333234,4051.281952
105,0,4005.128107,4074.358875,4088.717849,4079.9999,4109.743489,4074.358875,4130.76913,4111.794771,4105.640925,4110.25631,4078.974259,4094.871695,4072.820413,4055.384516
106,0,4016.922979,4074.871695,4091.281951,4074.358875,4114.871694,4075.897336,4135.384514,4123.076822,4112.307592,4124.615284,4073.846054,4094.358874,4072.307593,4066.153747
107,0,4022.051184,4082.564003,4096.922977,4069.23067,4124.615284,4073.333234,4125.640925,4115.897335,4111.281951,4121.02554,4091.794772,4089.74349,4073.846054,4050.769132
108,0,4015.897338,4084.615285,4094.871695,4077.435798,4126.153745,4072.307593,4123.076822,4105.128105,4105.128105,4108.717848,4098.461438,4086.666567,4074.358875,4053.333234
109,0,4012.820415,4074.871695,4087.692208,4081.538362,4122.564002,4077.435798,4136.922976,4114.358874,4112.307592,4113.333233,4088.205028,4088.717849,4071.794772,4069.23067
110,0,4025.128107,4074.871695,4088.717849,4074.358875,4123.589643,4080.512721,4137.948617,4123.076822,4118.974258,4118.974258,4089.74349,4091.794772,4071.281952,4061.538362
111,0,4034.358876,4089.230669,4092.307592,4074.358875,4125.640925,4076.922977,4125.128104,4112.307592,4114.358874,4110.25631,4093.846054,4092.820413,4076.410157,4066.153747
112,0,4024.102466,4088.205028,4089.74349,4076.922977,4123.076822,4073.846054,4117.948617,4101.538361,4106.666566,4098.974259,4084.102464,4089.230669,4074.358875,4070.769131
113,0,4013.333235,4079.9999,4090.25631,4072.820413,4118.461438,4073.846054,4118.461438,4101.025541,4105.128105,4100.51272,4077.948618,4089.74349,4068.205029,4066.666567
114,0,4025.640927,4087.179387,4093.846054,4076.922977,4121.538361,4078.461439,4124.615284,4108.717848,4111.794771,4100.51272,4087.179387,4102.564002,4072.307593,4072.820413
115,0,4039.999901,4094.871695,4092.820413,4079.9999,4124.102463,4081.538362,4128.205027,4111.281951,4116.410156,4092.820413,4095.897336,4108.717848,4079.9999,4075.384516
116,0,4030.769132,4089.74349,4088.205028,4067.179388,4121.02554,4076.922977,4122.564002,4100.51272,4108.205028,4102.051182,4091.281951,4103.589643,4078.461439,4065.640926
117,0,4028.71785,4087.179387,4090.769131,4062.051183,4124.615284,4072.820413,4119.999899,4091.281951,4102.564002,4125.640925,4086.666567,4104.615284,4076.922977,4065.128106
118,0,4046.666568,4091.281951,4097.948618,4069.74349,4128.205027,4073.846054,4125.640925,4092.820413,4106.666566,4124.102463,4093.846054,4108.717848,4084.615285,4090.769131
119,0,4049.743491,4095.897336,4093.846054,4075.897336,4124.615284,4075.384516,4127.179386,4093.333233,4102.051182,4098.461438,4103.589643,4109.230669,4089.74349,4092.307592
120,0,4032.820414,4102.051182,4087.179387,4079.48708,4126.153745,4078.461439,4127.692207,4099.9999,4106.153746,4105.640925,4106.153746,4116.410156,4089.74349,4066.666567
121,0,4028.20503,4103.076823,4092.820413,4079.48708,4133.846053,4079.9999,4134.871694,4118.974258,4125.128104,4127.179386,4106.666566,4122.564002,4091.794772,4072.307593
122,0,4038.97426,4103.076823,4097.435797,4076.410157,4137.435796,4076.410157,4136.922976,4124.615284,4124.102463,4122.564002,4108.717848,4122.564002,4092.307592,4092.820413
123,0,4055.897337,4104.615284,4093.846054,4082.051182,4134.358873,4077.948618,4135.897335,4122.564002,4124.102463,4123.076822,4110.76913,4124.102463,4091.794772,4090.769131
124,0,4046.666568,4098.461438,4099.487079,4086.666567,4127.179386,4084.615285,4139.487078,4130.256309,4139.999899,4136.922976,4106.153746,4122.051181,4091.281951,4070.256311
125,0,4009.743492,4095.897336,4109.743489,4078.461439,4118.974258,4084.102464,4141.02554,4125.128104,4136.410155,4135.897335,4094.358874,4128.205027,4086.153746,4046.153747
126,0,4029.230671,4109.230669,4103.076823,4076.922977,4122.051181,4080.512721,4136.922976,4111.794771,4118.461438,4122.564002,4090.769131,4138.461437,4083.076823,4064.615285
127,0,4074.871695,4108.717848,4091.281951,4077.435798,4129.743489,4085.640926,4135.384514,4113.846053,4118.461438,4114.871694,4089.74349,4127.692207,4073.333234,4087.179387
128,0,4039.999901,4092.307592,4096.410156,4068.205029,4128.717848,4088.717849,4134.358873,4117.435797,4127.179386,4114.871694,4086.666567,4121.02554,4065.128106,4045.640927
0,0,4013.333235,4097.435797,4103.076823,4067.179388,4124.102463,4084.615285,4132.307591,4110.25631,4127.692207,4123.589643,4099.9999,4134.358873,4088.205028,4040.512722
1,0,4073.846054,4110.76913,4090.25631,4077.435798,4124.615284,4086.666567,4134.358873,4103.589643,4122.051181,4132.820412,4114.871694,4130.76913,4112.820412,4125.128104
2,0,4097.948618,4100.51272,4079.48708,4075.384516,4123.589643,4092.820413,4136.410155,4108.205028,4121.538361,4128.205027,4105.640925,4115.384515,4099.487079,4145.128104
3,0,4042.051183,4089.230669,4087.179387,4063.076824,4123.076822,4089.230669,4135.897335,4125.640925,4130.76913,4122.051181,4097.948618,4124.615284,4086.153746,4088.205028
4,0,4029.743491,4095.897336,4095.384515,4063.589644,4128.205027,4084.102464,4136.410155,4135.384514,4138.461437,4137.948617,4109.230669,4139.999899,4102.564002,4084.102464
5,0,4054.358875,4097.948618,4089.74349,4074.871695,4130.256309,4089.74349,4139.999899,4125.128104,4135.384514,4147.179386,4112.820412,4143.076822,4109.230669,4096.922977
6,0,4027.179389,4090.25631,4087.179387,4069.74349,4124.102463,4094.358874,4139.999899,4111.794771,4125.128104,4118.461438,4102.051182,4138.461437,4092.820413,4071.794772
7,0,4003.589646,4087.179387,4094.358874,4056.410157,4120.51272,4091.281951,4130.256309,4114.358874,4122.564002,4107.692207,4095.384515,4133.333232,4085.640926,4045.128106
8,0,4039.999901,4094.358874,4095.384515,4063.076824,4127.692207,4087.692208,4126.666566,4119.487079,4134.358873,4142.564001,4101.538361,4139.999899,4096.410156,4061.025542
9,0,4073.846054,4107.692207,4092.307592,4080.512721,4139.487078,4091.794772,4136.922976,4126.666566,4146.153745,4157.435796,4119.487079,4152.820411,4112.307592,4107.692207
10,0,4056.410157,4106.666566,4092.820413,4081.025541,4135.384514,4093.846054,4141.53836,4127.692207,4142.564001,4137.948617,4124.102463,4154.871693,4112.307592,4115.384515
11,0,4035.897337,4097.948618,4094.358874,4071.794772,4124.102463,4090.769131,4135.897335,4120.51272,4135.384514,4133.333232,4113.333233,4148.205027,4105.128105,4091.794772
12,0,4042.051183,4102.051182,4093.846054,4074.358875,4129.230668,4091.794772,4138.974258,4128.205027,4138.974258,4147.179386,4110.76913,4148.205027,4107.179387,4086.153746
13,0,4043.589645,4104.615284,4091.281951,4078.974259,4135.897335,4091.281951,4142.564001,4137.948617,4138.461437,4150.256309,4110.76913,4149.230668,4107.692207,4087.692208
14,0,4027.692209,4090.769131,4089.230669,4070.769131,4126.153745,4086.666567,4134.871694,4134.358873,4131.28195,4139.999899,4104.615284,4150.769129,4099.487079,4073.333234
15,0,4024.615286,4088.717849,4096.922977,4065.128106,4114.871694,4086.153746,4131.28195,4132.307591,4128.717848,4127.692207,4107.692207,4154.871693,4097.948618,4076.410157
16,0,4052.820414,4105.640925,4102.564002,4077.948618,4126.153745,4091.794772,4136.410155,4138.974258,4135.384514,4134.358873,4123.076822,4158.974257,4107.692207,4104.102464
17,0,4068.205029,4110.25631,4094.871695,4085.128105,4136.922976,4090.769131,4138.461437,4141.53836,4139.999899,4146.666565,4121.02554,4157.948616,4110.25631,4112.307592
18,0,4057.435798,4102.564002,4095.897336,4072.820413,4119.487079,4084.102464,4136.922976,4136.922976,4137.948617,4140.512719,4108.205028,4156.410155,4103.076823,4101.538361
19,0,4053.333234,4104.615284,4108.205028,4076.410157,4113.333233,4086.153746,4140.512719,4135.897335,4135.897335,4134.358873,4112.307592,4164.102462,4103.076823,4099.487079
20,0,4061.538362,4109.743489,4109.230669,4093.846054,4136.922976,4092.307592,4143.589642,4137.435796,4137.435796,4137.948617,4126.153745,4169.230667,4114.358874,4107.692207
21,0,4075.384516,4111.794771,4105.128105,4093.846054,4146.153745,4091.281951,4142.051181,4132.307591,4139.487078,4138.461437,4124.615284,4165.128103,4117.948617,4104.102464
22,0,4075.897336,4104.615284,4105.128105,4082.051182,4127.179386,4089.74349,4141.53836,4121.02554,4133.333232,4133.846053,4106.153746,4155.384514,4101.538361,4086.153746
23,0,4048.71785,4094.871695,4105.640925,4079.48708,4116.922976,4091.281951,4141.02554,4118.461438,4122.564002,4127.692207,4097.435797,4151.79477,4087.692208,4077.948618
24,0,4038.97426,4094.871695,4108.717848,4081.025541,4128.717848,4090.769131,4136.922976,4122.051181,4121.538361,4115.384515,4105.128105,4158.974257,4094.871695,4094.871695
25,0,4066.666567,4098.974259,4104.615284,4077.435798,4136.922976,4092.307592,4135.384514,4119.999899,4124.615284,4114.871694,4108.205028,4158.461437,4099.487079,4110.76913
26,0,4064.615285,4096.922977,4093.333233,4077.948618,4131.28195,4096.410156,4137.948617,4122.564002,4125.128104,4133.846053,4105.640925,4154.358873,4093.846054,4091.794772
27,0,4038.46144,4092.307592,4092.307592,4075.384516,4119.999899,4091.281951,4139.487078,4123.076822,4123.589643,4134.358873,4105.128105,4153.846052,4091.794772,4083.589644
28,0,4057.435798,4090.25631,4096.922977,4067.692208,4121.538361,4085.128105,4132.307591,4112.820412,4119.487079,4117.435797,4106.153746,4150.256309,4095.384515,4109.230669
29,0,4086.666567,4092.820413,4095.897336,4068.205029,4124.102463,4079.9999,4125.128104,4115.897335,4123.589643,4122.051181,4107.179387,4150.256309,4100.51272,4109.230669
30,0,4064.615285,4091.794772,4093.333233,4067.692208,4111.281951,4074.871695,4125.128104,4125.128104,4124.102463,4123.589643,4098.461438,4154.871693,4095.384515,4085.128105
31,0,4038.97426,4081.538362,4094.871695,4053.333234,4102.564002,4074.358875,4117.948617,4109.230669,4109.230669,4105.640925,4083.589644,4152.820411,4082.564003,4094.871695
32,0,4047.179388,4076.922977,4095.384515,4046.153747,4108.205028,4074.871695,4105.128105,4091.281951,4100.51272,4099.9999,4085.640926,4147.179386,4084.102464,4111.281951
33,0,4044.102465,4082.051182,4093.846054,4055.384516,4114.358874,4074.871695,4105.640925,4092.820413,4107.179387,4102.564002,4095.897336,4152.307591,4092.820413,4082.564003
34,0,4034.358876,4079.9999,4091.281951,4058.97426,4108.717848,4074.871695,4108.717848,4096.922977,4107.692207,4096.410156,4094.871695,4152.820411,4090.769131,4068.717849
35,0,4052.307593,4080.512721,4090.769131,4058.97426,4104.102464,4070.256311,4104.615284,4098.461438,4107.692207,4103.076823,4099.487079,4150.769129,4090.25631,4103.076823
36,0,4070.256311,4090.25631,4094.358874,4063.076824,4113.333233,4074.358875,4112.820412,4107.179387,4121.538361,4123.076822,4110.25631,4157.435796,4098.461438,4111.794771
37,0,4048.71785,4088.205028,4095.384515,4059.999901,4123.589643,4085.640926,4120.51272,4109.743489,4127.179386,4128.205027,4104.102464,4158.461437,4097.948618,4083.589644
38,0,4023.589645,4074.871695,4092.307592,4055.897337,4121.538361,4080.512721,4108.717848,4098.974259,4112.307592,4122.564002,4094.358874,4152.820411,4090.769131,4078.974259
39,0,4043.076824,4074.358875,4090.25631,4057.948619,4114.871694,4069.23067,4101.538361,4094.358874,4107.179387,4124.615284,4098.974259,4152.307591,4090.769131,4099.487079
40,0,4066.666567,4086.666567,4092.820413,4062.564003,4117.435797,4073.846054,4109.743489,4106.153746,4117.435797,4119.487079,4108.717848,4156.922975,4095.897336,4107.692207
41,0,4058.461439,4091.281951,4094.358874,4060.512721,4117.948617,4077.948618,4108.717848,4108.717848,4114.871694,4109.230669,4110.25631,4156.922975,4099.9999,4106.153746
42,0,4053.333234,4085.128105,4090.25631,4058.461439,4110.25631,4074.358875,4103.589643,4092.820413,4102.564002,4114.358874,4107.179387,4149.230668,4102.051182,4104.615284
43,0,4063.076824,4081.538362,4086.153746,4059.999901,4110.76913,4075.384516,4108.717848,4087.692208,4103.589643,4119.487079,4103.589643,4148.717847,4102.051182,4087.692208
44,0,4059.999901,4084.102464,4088.205028,4052.307593,4103.589643,4069.74349,4104.102464,4091.794772,4105.640925,4110.25631,4093.846054,4148.205027,4093.846054,4062.051183
45,0,4043.589645,4081.538362,4091.794772,4040.512722,4088.205028,4062.051183,4095.384515,4089.230669,4099.9999,4112.307592,4087.692208,4144.102463,4086.666567,4068.717849
46,0,4025.128107,4074.358875,4096.410156,4028.71785,4093.333233,4067.692208,4101.025541,4091.794772,4105.640925,4117.435797,4091.281951,4147.692206,4089.74349,4097.948618
47,0,4032.307594,4075.897336,4095.897336,4023.589645,4109.230669,4068.205029,4108.717848,4098.974259,4111.281951,4098.974259,4092.820413,4153.333232,4091.281951,4103.076823
48,0,4070.256311,4087.179387,4089.74349,4035.897337,4111.281951,4067.692208,4107.692207,4095.897336,4101.025541,4087.179387,4090.769131,4153.333232,4091.281951,4091.281951
49,0,4080.512721,4090.769131,4086.666567,4048.71785,4109.230669,4077.435798,4109.230669,4093.333233,4098.974259,4102.051182,4092.820413,4153.333232,4095.897336,4093.333233
50,0,4050.256311,4083.076823,4090.25631,4039.999901,4110.76913,4077.435798,4110.25631,4096.410156,4107.692207,4108.717848,4091.794772,4154.358873,4095.384515,4097.435797
51,0,4042.051183,4081.538362,4094.358874,4032.307594,4106.153746,4063.076824,4100.51272,4094.358874,4107.692207,4090.769131,4090.769131,4155.384514,4091.794772,4090.25631
52,0,4062.051183,4084.615285,4088.717849,4036.922978,4105.640925,4059.48708,4091.794772,4091.281951,4105.640925,4083.589644,4092.307592,4149.743488,4093.846054,4089.230669
53,0,4062.051183,4081.025541,4082.051182,4026.153748,4108.205028,4062.051183,4091.281951,4092.307592,4104.102464,4106.666566,4086.666567,4138.461437,4092.820413,4102.564002
54,0,4031.794773,4075.384516,4081.025541,4017.435799,4098.461438,4058.97426,4087.692208,4085.128105,4091.794772,4113.846053,4076.410157,4142.051181,4084.102464,4088.205028
55,0,4019.999902,4072.307593,4077.435798,4026.666568,4088.717849,4058.461439,4084.615285,4074.358875,4082.564003,4084.615285,4073.846054,4149.743488,4077.435798,4051.281952
56,0,4042.564004,4069.74349,4073.846054,4024.615286,4088.205028,4056.410157,4082.051182,4072.307593,4088.205028,4070.256311,4072.820413,4143.076822,4071.794772,4071.794772
57,0,4056.410157,4072.820413,4086.666567,4021.025543,4094.358874,4049.743491,4077.435798,4077.948618,4091.794772,4090.769131,4075.384516,4146.666565,4079.9999,4117.948617
58,0,4056.922978,4077.435798,4094.871695,4029.230671,4097.435797,4052.307593,4079.9999,4078.974259,4088.717849,4092.820413,4079.9999,4156.410155,4089.74349,4102.564002
59,0,4059.999901,4074.871695,4083.589644,4033.846055,4092.820413,4059.48708,4089.74349,4078.461439,4088.205028,4071.281952,4075.897336,4152.307591,4080.512721,4081.025541
60,0,4055.897337,4074.358875,4078.974259,4034.871696,4094.871695,4060.512721,4092.820413,4082.051182,4092.820413,4078.461439,4078.461439,4151.79477,4079.9999,4098.461438
61,0,4055.384516,4077.435798,4082.051182,4043.589645,4101.025541,4057.948619,4089.74349,4081.538362,4093.846054,4090.769131,4087.692208,4158.461437,4088.717849,4092.307592
62,0,4064.615285,4076.410157,4082.564003,4045.640927,4097.435797,4057.435798,4085.128105,4076.410157,4084.102464,4075.897336,4081.025541,4155.897334,4082.051182,4073.333234
63,0,4052.307593,4075.384516,4088.205028,4034.358876,4088.205028,4056.922978,4074.871695,4074.871695,4083.589644,4075.384516,4073.333234,4152.820411,4080.512721,4095.384515
64,0,4043.076824,4077.435798,4093.333233,4028.71785,4088.717849,4060.512721,4077.435798,4081.538362,4095.384515,4094.871695,4085.640926,4154.358873,4094.871695,4112.307592
65,0,4066.153747,4076.410157,4089.74349,4028.71785,4092.820413,4063.076824,4090.769131,4083.589644,4095.897336,4091.281951,4092.307592,4153.846052,4093.333233,4096.922977
66,0,4077.948618,4074.871695,4088.717849,4031.794773,4092.307592,4056.410157,4087.692208,4079.9999,4088.717849,4082.051182,4088.205028,4153.333232,4086.666567,4097.435797
67,0,4073.333234,4079.48708,4090.769131,4036.410158,4094.358874,4048.71785,4076.922977,4076.410157,4092.307592,4094.871695,4093.333233,4155.384514,4094.871695,4119.999899
68,0,4068.717849,4075.897336,4089.230669,4031.794773,4092.307592,4046.666568,4075.897336,4072.307593,4093.846054,4096.410156,4090.25631,4154.358873,4092.820413,4111.281951
69,0,4033.846055,4061.538362,4090.25631,4019.999902,4079.9999,4046.153747,4077.948618,4073.846054,4085.640926,4077.435798,4075.897336,4151.79477,4079.9999,4077.948618
70,0,4002.051184,4054.871696,4089.230669,4015.384517,4074.871695,4046.153747,4073.846054,4071.794772,4078.974259,4068.205029,4071.281952,4153.333232,4075.384516,4070.256311
71,0,4033.846055,4060.512721,4079.9999,4013.846056,4083.076823,4046.666568,4068.717849,4061.538362,4075.384516,4066.153747,4070.769131,4148.205027,4076.922977,4088.717849
72,0,4067.179388,4058.461439,4072.820413,4006.153748,4076.922977,4038.46144,4063.076824,4057.948619,4073.846054,4058.461439,4062.051183,4138.461437,4068.717849,4098.974259
73,0,4046.666568,4050.769132,4072.307593,4004.102466,4061.025542,4026.666568,4056.922978,4063.076824,4074.358875,4061.538362,4054.358875,4135.897335,4059.48708,4089.230669
74,0,4031.281953,4054.358875,4072.820413,4006.153748,4067.692208,4029.743491,4056.922978,4056.410157,4066.153747,4068.717849,4055.897337,4136.410155,4061.538362,4088.205028
75,0,4038.46144,4060.512721,4073.333234,4004.615287,4077.435798,4037.435799,4059.48708,4043.076824,4053.846055,4058.461439,4057.435798,4138.461437,4064.615285,4089.230669
76,0,4035.384517,4061.025542,4077.948618,4011.794774,4073.333234,4036.410158,4058.97426,4049.23067,4062.051183,4054.358875,4059.999901,4142.564001,4065.640926,4068.205029
77,0,4036.410158,4063.589644,4076.410157,4023.076825,4073.333234,4032.820414,4056.922978,4060.512721,4078.974259,4074.358875,4062.051183,4140.512719,4067.179388,4063.589644
78,0,4047.179388,4066.666567,4069.74349,4024.102466,4077.435798,4038.46144,4058.97426,4055.384516,4075.897336,4078.974259,4060.512721,4136.410155,4071.281952,4091.281951
79,0,4044.615286,4064.102465,4072.307593,4019.999902,4074.358875,4047.179388,4065.128106,4050.769132,4067.179388,4065.128106,4063.076824,4138.974258,4074.871695,4087.692208
80,0,4042.051183,4058.97426,4073.333234,4016.410158,4073.333234,4046.153747,4067.692208,4059.999901,4073.846054,4072.820413,4069.23067,4139.999899,4076.410157,4071.794772
81,0,4046.666568,4059.999901,4065.128106,4009.743492,4074.871695,4035.897337,4059.999901,4059.48708,4078.461439,4086.153746,4068.717849,4136.922976,4076.922977,4095.897336
82,0,4045.128106,4059.48708,4060.512721,3997.94862,4071.794772,4033.333235,4054.871696,4046.153747,4070.769131,4073.333234,4057.948619,4134.871694,4068.717849,4094.358874
83,0,4032.307594,4049.743491,4062.564003,3988.717851,4068.717849,4035.897337,4057.435798,4037.435799,4060.512721,4051.794773,4045.640927,4128.205027,4057.435798,4053.846055
84,0,4019.487081,4041.538363,4057.948619,3990.769133,4061.025542,4037.948619,4059.48708,4035.897337,4055.384516,4044.615286,4035.384517,4119.999899,4052.307593,4046.153747
85,0,4023.076825,4049.743491,4054.871696,4005.640928,4055.897337,4043.076824,4057.948619,4043.589645,4062.564003,4051.281952,4033.846055,4125.640925,4051.794773,4063.589644
86,0,4030.769132,4063.589644,4064.102465,4016.922979,4065.640926,4042.564004,4054.358875,4057.948619,4075.384516,4066.153747,4046.153747,4135.897335,4056.410157,4072.307593
87,0,4026.153748,4068.717849,4069.23067,4014.358876,4076.922977,4036.922978,4052.307593,4065.128106,4082.051182,4075.897336,4061.025542,4137.948617,4066.666567,4072.820413
88,0,4039.999901,4065.640926,4062.051183,4010.769133,4076.922977,4035.384517,4050.256311,4054.358875,4079.9999,4074.871695,4063.076824,4135.897335,4068.717849,4057.948619
89,0,4064.102465,4066.153747,4057.948619,4016.410158,4071.794772,4033.333235,4045.128106,4036.410158,4067.179388,4074.358875,4059.48708,4137.948617,4065.640926,4051.794773
90,0,4053.846055,4072.820413,4064.615285,4024.102466,4071.794772,4034.871696,4044.102465,4034.358876,4060.512721,4077.948618,4063.076824,4138.974258,4072.820413,4079.48708
91,0,4033.846055,4075.897336,4066.666567,4016.410158,4076.410157,4041.025542,4049.23067,4043.589645,4065.640926,4072.307593,4064.615285,4131.794771,4077.948618,4091.794772
92,0,4048.205029,4072.820413,4056.922978,4012.820415,4071.281952,4039.999901,4049.743491,4043.589645,4063.076824,4064.102465,4059.48708,4127.179386,4072.820413,4084.102464
93,0,4069.23067,4073.846054,4056.922978,4019.999902,4061.538362,4033.846055,4044.102465,4039.487081,4059.48708,4064.615285,4060.512721,4129.743489,4070.769131,4088.717849
94,0,4064.615285,4076.410157,4073.333234,4003.076825,4066.153747,4032.820414,4045.128106,4045.128106,4071.281952,4067.179388,4063.076824,4132.820412,4073.333234,4076.922977
95,0,4049.23067,4074.871695,4078.974259,3985.640928,4076.922977,4037.435799,4052.307593,4054.871696,4078.461439,4070.769131,4064.102465,4132.820412,4074.358875,4061.538362
96,0,4043.076824,4074.871695,4069.74349,4006.666569,4077.435798,4044.102465,4059.48708,4060.512721,4073.846054,4076.410157,4069.74349,4135.897335,4073.333234,4073.333234
97,0,4056.410157,4074.871695,4062.564003,4026.666568,4074.871695,4045.640927,4061.025542,4058.461439,4074.871695,4075.897336,4072.307593,4139.487078,4069.23067,4074.871695
98,0,4063.589644,4073.333234,4058.97426,4018.974261,4076.410157,4043.076824,4059.48708,4048.71785,4073.846054,4073.846054,4063.589644,4134.358873,4064.615285,4074.871695
99,0,4042.564004,4074.871695,4057.435798,4017.94862,4077.435798,4049.23067,4062.564003,4043.589645,4070.256311,4078.461439,4061.025542,4128.205027,4062.051183,4098.461438
100,0,4031.281953,4073.333234,4058.97426,4026.153748,4077.948618,4052.307593,4062.564003,4043.076824,4070.769131,4072.307593,4061.538362,4126.666566,4057.948619,4076.410157
101,0,4048.71785,4070.256311,4058.461439,4021.025543,4074.871695,4048.71785,4058.461439,4045.128106,4070.256311,4060.512721,4053.333234,4124.102463,4052.307593,4030.769132
102,0,4057.435798,4073.333234,4056.922978,4020.512722,4072.307593,4055.897337,4061.025542,4052.307593,4070.256311,4066.666567,4055.897337,4119.999899,4058.97426,4056.922978
103,0,4060.512721,4077.435798,4060.512721,4027.692209,4077.948618,4062.051183,4066.666567,4061.538362,4077.435798,4075.384516,4072.820413,4121.538361,4075.384516,4103.076823
104,0,4069.23067,4075.897336,4068.717849,4018.46144,4081.025541,4053.846055,4064.615285,4066.153747,4082.564003,4077.948618,4072.307593,4125.640925,4076.410157,4079.9999
105,0,4048.205029,4073.846054,4076.410157,4005.640928,4069.74349,4049.23067,4063.589644,4067.692208,4079.48708,4081.538362,4057.948619,4122.051181,4061.538362,4042.051183
106,0,4030.769132,4077.435798,4072.307593,4015.384517,4062.564003,4053.846055,4066.153747,4066.153747,4079.9999,4082.564003,4059.999901,4117.948617,4061.025542,4062.051183
107,0,4051.281952,4077.948618,4064.615285,4018.46144,4069.23067,4048.71785,4066.153747,4060.512721,4084.615285,4078.461439,4067.179388,4119.487079,4069.23067,4090.769131
108,0,4062.564003,4070.256311,4069.74349,4002.564005,4072.307593,4046.666568,4071.794772,4065.128106,4083.076823,4081.538362,4062.564003,4119.487079,4066.666567,4089.74349
109,0,4064.102465,4067.692208,4073.333234,4002.564005,4068.205029,4058.97426,4076.410157,4071.794772,4076.922977,4087.692208,4059.999901,4112.820412,4062.564003,4082.564003
110,0,4072.307593,4074.871695,4066.153747,4015.384517,4061.538362,4056.922978,4064.615285,4059.48708,4073.846054,4074.358875,4058.461439,4106.666566,4060.512721,4079.48708
111,0,4063.076824,4075.384516,4061.538362,4016.410158,4059.48708,4045.128106,4060.512721,4050.256311,4076.410157,4061.538362,4053.846055,4103.076823,4057.435798,4069.74349
112,0,4055.897337,4069.74349,4063.589644,4012.820415,4069.23067,4047.692209,4067.692208,4061.538362,4085.128105,4076.410157,4056.922978,4104.102464,4061.025542,4063.076824
113,0,4053.846055,4068.205029,4064.102465,4009.743492,4078.974259,4049.743491,4062.564003,4068.205029,4092.820413,4090.25631,4060.512721,4108.205028,4065.640926,4051.281952
114,0,4031.281953,4064.615285,4060.512721,4005.640928,4069.74349,4043.589645,4059.999901,4064.102465,4084.615285,4076.410157,4048.71785,4099.9999,4051.794773,4041.025542
115,0,4028.71785,4057.948619,4056.922978,4005.128107,4055.384516,4042.051183,4066.153747,4063.076824,4073.846054,4062.051183,4039.487081,4089.230669,4039.487081,4064.615285
116,0,4061.025542,4057.948619,4057.948619,4004.615287,4054.871696,4043.076824,4065.128106,4059.48708,4073.846054,4065.640926,4045.128106,4092.820413,4046.666568,4083.589644
117,0,4065.640926,4059.48708,4061.025542,4004.102466,4062.564003,4046.666568,4068.205029,4057.435798,4076.410157,4067.692208,4046.666568,4093.846054,4050.769132,4065.128106
118,0,4047.179388,4061.025542,4062.564003,4007.179389,4071.281952,4058.97426,4079.48708,4067.692208,4077.948618,4067.179388,4043.076824,4092.307592,4044.102465,4056.922978
119,0,4064.615285,4070.256311,4071.794772,4010.256312,4073.333234,4059.48708,4080.512721,4076.410157,4084.615285,4075.384516,4051.794773,4102.051182,4050.769132,4077.948618
120,0,4082.051182,4078.461439,4083.076823,4007.179389,4074.871695,4051.794773,4079.48708,4077.948618,4091.281951,4087.179387,4069.23067,4112.820412,4066.153747,4078.974259
121,0,4055.897337,4074.871695,4080.512721,4008.20503,4077.948618,4054.871696,4082.564003,4079.48708,4094.358874,4093.846054,4075.384516,4114.358874,4070.256311,4063.589644
122,0,4039.999901,4074.358875,4072.820413,4014.871697,4076.410157,4056.922978,4079.9999,4078.461439,4092.820413,4092.307592,4072.820413,4107.692207,4071.794772,4070.769131
123,0,4065.128106,4079.48708,4075.897336,4009.743492,4078.974259,4048.71785,4074.871695,4075.897336,4089.74349,4091.794772,4076.410157,4096.922977,4076.410157,4077.435798
124,0,4071.794772,4075.384516,4071.281952,4002.564005,4075.384516,4044.102465,4071.794772,4074.358875,4088.717849,4090.769131,4075.384516,4091.281951,4072.820413,4067.179388
125,0,4047.179388,4065.640926,4061.025542,4003.589646,4058.97426,4046.666568,4072.820413,4072.820413,4087.179387,4078.461439,4062.564003,4087.179387,4062.051183,4066.153747
126,0,4043.589645,4062.051183,4075.897336,3978.461441,4057.435798,4044.102465,4070.769131,4064.102465,4076.410157,4061.025542,4049.743491,4074.358875,4052.820414,4077.948618
127,0,4053.333234,4056.922978,4097.948618,3948.205032,4072.820413,4036.410158,4064.615285,4058.461439,4068.717849,4054.358875,4048.71785,4074.871695,4048.71785,4064.102465
128,0,4050.256311,4056.410157,4090.25631,3974.358877,4072.307593,4042.564004,4070.769131,4070.256311,4079.9999,4065.128106,4058.97426,4092.820413,4054.358875,4049.743491
0,0,4047.692209,4069.23067,4076.922977,4024.102466,4069.74349,4056.410157,4082.051182,4083.589644,4093.846054,4081.025541,4072.820413,4099.9999,4065.128106,4073.333234
1,0,4059.999901,4077.435798,4083.076823,4026.666568,4079.9999,4052.820414,4079.9999,4076.410157,4089.230669,4076.922977,4075.384516,4094.358874,4063.589644,4086.666567
2,0,4076.410157,4073.846054,4085.640926,4009.230671,4079.48708,4043.589645,4075.897336,4067.692208,4081.538362,4067.179388,4070.769131,4094.358874,4056.410157,4075.897336
3,0,4076.410157,4074.871695,4078.461439,4018.46144,4072.307593,4046.666568,4079.9999,4073.333234,4087.179387,4081.025541,4072.820413,4095.897336,4059.999901,4079.48708
4,0,4068.717849,4079.48708,4076.922977,4036.922978,4074.871695,4051.794773,4087.179387,4078.974259,4093.846054,4095.897336,4075.897336,4092.307592,4068.717849,4092.307592
5,0,4074.871695,4085.128105,4077.948618,4038.46144,4081.025541,4050.769132,4089.74349,4078.461439,4090.25631,4085.128105,4078.974259,4089.230669,4074.871695,4095.897336
6,0,4094.871695,4091.794772,4079.9999,4034.358876,4078.461439,4048.71785,4086.153746,4082.051182,4087.179387,4072.820413,4085.640926,4091.281951,4084.615285,4108.205028
7,0,4121.02554,4095.384515,4084.615285,4037.948619,4061.538362,4044.615286,4082.051182,4089.74349,4091.794772,4081.025541,4089.230669,4099.9999,4096.410156,4131.28195
8,0,4148.717847,4110.25631,4090.25631,4047.692209,4056.922978,4042.564004,4082.564003,4087.179387,4087.692208,4084.615285,4090.769131,4105.128105,4106.666566,4158.974257
9,0,4196.922974,4146.666565,4100.51272,4064.102465,4083.076823,4048.205029,4082.051182,4075.897336,4074.871695,4076.410157,4102.564002,4108.717848,4126.153745,4192.30759
10,0,4254.35887,4179.999898,4107.692207,4082.051182,4098.461438,4052.820414,4079.9999,4075.384516,4076.410157,4077.435798,4118.461438,4119.487079,4154.358873,4209.230666
11,0,4268.205024,4197.948615,4109.743489,4091.794772,4083.076823,4053.846055,4081.538362,4078.974259,4078.461439,4076.410157,4123.589643,4127.692207,4167.692206,4237.948614
12,0,4281.025536,4213.33323,4114.871694,4099.487079,4073.846054,4049.23067,4079.9999,4072.307593,4064.615285,4067.692208,4119.999899,4124.615284,4159.999898,4284.102459
13,0,4326.15374,4223.58964,4125.640925,4107.179387,4076.922977,4042.564004,4076.922977,4074.358875,4064.102465,4068.205029,4121.02554,4123.076822,4156.922975,4290.256305
14,0,4332.307586,4222.051179,4122.051181,4106.153746,4075.897336,4041.025542,4078.974259,4084.102464,4078.974259,4075.897336,4125.128104,4124.615284,4160.512719,4273.846049
15,0,4293.333228,4216.922974,4108.205028,4099.487079,4079.48708,4047.179388,4082.051182,4079.48708,4077.948618,4077.435798,4115.897335,4115.897335,4145.640924,4269.743485
16,0,4283.589639,4210.769128,4107.179387,4098.974259,4088.717849,4056.922978,4088.717849,4081.538362,4071.794772,4081.025541,4105.640925,4108.205028,4126.153745,4251.281947
17,0,4282.051177,4196.410154,4106.666566,4098.974259,4094.358874,4062.051183,4093.333233,4090.25631,4075.897336,4082.051182,4106.666566,4103.589643,4119.999899,4217.948615
18,0,4231.281948,4175.384513,4096.922977,4087.179387,4086.153746,4058.97426,4093.333233,4083.076823,4075.384516,4074.358875,4105.128105,4099.487079,4111.281951,4203.07682
19,0,4180.512718,4159.999898,4093.333233,4075.897336,4078.461439,4062.051183,4098.974259,4078.974259,4072.820413,4078.974259,4105.128105,4100.51272,4103.589643,4193.846051
20,0,4175.384513,4149.743488,4095.384515,4074.358875,4085.128105,4075.384516,4109.743489,4090.25631,4081.538362,4091.281951,4109.743489,4101.538361,4108.717848,4176.410154
21,0,4190.769128,4145.128104,4092.307592,4076.922977,4094.871695,4074.358875,4105.640925,4097.435797,4094.358874,4093.333233,4111.794771,4095.897336,4109.230669,4166.666565
22,0,4177.948616,4137.948617,4089.230669,4076.922977,4092.307592,4067.179388,4098.974259,4094.358874,4094.871695,4091.794772,4108.717848,4090.769131,4098.461438,4160.512719
23,0,4137.435796,4126.666566,4089.74349,4074.358875,4091.281951,4074.871695,4106.666566,4092.820413,4090.25631,4096.922977,4105.640925,4089.230669,4091.794772,4142.051181
24,0,4123.076822,4121.538361,4090.769131,4068.717849,4097.948618,4077.948618,4111.794771,4099.487079,4101.025541,4104.102464,4104.615284,4092.820413,4091.281951,4122.564002
25,0,4132.307591,4118.974258,4091.281951,4062.051183,4095.384515,4066.666567,4105.640925,4106.153746,4108.205028,4107.692207,4106.666566,4092.307592,4090.25631,4116.410156
26,0,4118.974258,4109.743489,4090.25631,4060.512721,4088.205028,4069.23067,4105.640925,4107.179387,4097.435797,4106.666566,4105.640925,4086.666567,4086.153746,4122.051181
27,0,4084.102464,4105.128105,4090.25631,4059.999901,4092.307592,4082.051182,4114.358874,4107.179387,4097.948618,4103.589643,4097.948618,4084.615285,4080.512721,4118.461438
28,0,4083.076823,4107.692207,4087.179387,4054.871696,4096.410156,4076.410157,4112.820412,4105.640925,4107.692207,4102.564002,4092.307592,4082.051182,4076.410157,4099.9999
29,0,4113.846053,4104.102464,4076.410157,4050.256311,4090.25631,4070.256311,4103.076823,4097.435797,4101.538361,4095.897336,4090.25631,4074.358875,4070.769131,4096.410156
30,0,4118.461438,4103.589643,4072.307593,4054.358875,4091.281951,4076.410157,4102.564002,4095.384515,4094.871695,4094.871695,4091.281951,4072.307593,4072.307593,4113.333233
31,0,4091.281951,4101.025541,4076.410157,4051.794773,4091.794772,4073.846054,4104.102464,4096.922977,4095.897336,4094.358874,4086.666567,4071.794772,4073.333234,4100.51272
32,0,4067.692208,4084.615285,4075.897336,4034.871696,4075.897336,4061.538362,4095.897336,4090.25631,4083.076823,4076.922977,4065.640926,4063.589644,4054.871696,4048.71785
33,0,4054.358875,4077.435798,4074.358875,4031.794773,4073.846054,4065.640926,4091.794772,4085.640926,4074.871695,4063.589644,4051.281952,4057.435798,4037.435799,4032.307594
34,0,4064.102465,4083.589644,4076.410157,4043.076824,4094.358874,4077.948618,4096.410156,4094.358874,4088.717849,4072.820413,4057.948619,4060.512721,4042.051183,4073.333234
35,0,4089.74349,4079.48708,4074.358875,4041.538363,4096.410156,4076.410157,4094.871695,4099.487079,4097.948618,4080.512721,4063.076824,4058.97426,4048.205029,4099.9999
36,0,4081.538362,4070.256311,4068.717849,4030.256312,4081.538362,4066.153747,4089.230669,4088.205028,4088.717849,4076.922977,4057.948619,4055.384516,4044.102465,4075.384516
37,0,4064.615285,4074.358875,4071.281952,4033.846055,4081.538362,4062.564003,4091.281951,4084.615285,4088.717849,4079.9999,4067.179388,4064.615285,4054.358875,4064.615285
38,0,4078.461439,4079.9999,4079.9999,4042.051183,4074.871695,4061.025542,4093.846054,4095.384515,4095.897336,4079.48708,4076.922977,4076.922977,4062.051183,4081.538362
39,0,4065.640926,4075.897336,4079.9999,4034.871696,4063.076824,4053.846055,4082.564003,4087.692208,4079.48708,4067.179388,4061.025542,4070.256311,4042.051183,4059.999901
40,0,4037.435799,4072.820413,4074.358875,4027.692209,4068.717849,4051.794773,4072.820413,4071.794772,4065.640926,4062.564003,4047.692209,4058.461439,4028.20503,4037.948619
41,0,4067.692208,4079.48708,4071.794772,4037.435799,4079.9999,4060.512721,4085.128105,4083.076823,4080.512721,4072.307593,4057.435798,4059.999901,4043.076824,4065.640926
42,0,4097.948618,4081.538362,4073.846054,4033.333235,4078.974259,4066.666567,4095.384515,4097.948618,4094.358874,4083.076823,4063.589644,4062.051183,4051.281952,4078.461439
43,0,4077.435798,4074.871695,4078.461439,4011.281953,4073.333234,4064.615285,4086.153746,4088.717849,4087.179387,4079.9999,4054.358875,4059.48708,4037.435799,4054.358875
44,0,4068.717849,4082.051182,4076.410157,4023.076825,4079.9999,4071.794772,4090.769131,4086.666567,4087.692208,4083.076823,4062.564003,4061.538362,4042.564004,4061.538362
45,0,4075.384516,4092.307592,4079.9999,4031.281953,4087.179387,4080.512721,4107.179387,4099.9999,4098.974259,4093.846054,4076.410157,4062.564003,4058.461439,4073.333234
46,0,4061.025542,4078.974259,4097.435797,3970.256313,4078.461439,4074.871695,4097.435797,4094.358874,4094.871695,4082.564003,4063.076824,4052.307593,4044.615286,4048.205029
47,0,4049.23067,4066.666567,4113.846053,3922.564007,4069.74349,4063.076824,4076.922977,4074.871695,4083.076823,4068.205029,4051.794773,4045.640927,4026.153748,4046.666568
48,0,4047.179388,4074.358875,4111.281951,3948.717852,4079.9999,4056.922978,4072.820413,4064.615285,4076.922977,4072.820413,4057.435798,4048.205029,4025.640927,4058.97426
49,0,4038.97426,4074.871695,4091.281951,3983.076826,4081.538362,4057.948619,4074.358875,4064.102465,4071.281952,4075.897336,4050.769132,4049.23067,4015.897338,4036.410158
50,0,4042.051183,4070.256311,4073.846054,4004.615287,4068.205029,4066.666567,4080.512721,4072.307593,4078.974259,4079.48708,4045.128106,4055.897337,4006.666569,4030.256312
51,0,4057.435798,4083.589644,4071.281952,4032.307594,4079.48708,4083.589644,4098.461438,4087.692208,4100.51272,4092.820413,4062.051183,4068.205029,4017.435799,4064.615285
52,0,4070.256311,4094.871695,4075.384516,4040.512722,4102.051182,4090.769131,4108.205028,4092.820413,4103.076823,4093.846054,4073.333234,4069.74349,4025.640927,4063.589644
53,0,4069.23067,4092.307592,4077.948618,4040.512722,4101.025541,4086.153746,4108.717848,4087.179387,4092.820413,4094.358874,4078.461439,4071.281952,4026.153748,4040.512722
54,0,4069.23067,4092.307592,4082.564003,4047.692209,4090.769131,4083.076823,4106.666566,4093.846054,4101.025541,4107.179387,4090.25631,4078.461439,4029.743491,4071.281952
55,0,4083.589644,4094.871695,4082.564003,4034.358876,4088.717849,4078.461439,4099.9999,4098.461438,4104.102464,4097.435797,4081.025541,4068.717849,4020.512722,4091.794772
56,0,4083.076823,4090.25631,4075.897336,4016.922979,4083.589644,4074.358875,4099.9999,4085.640926,4086.666567,4072.307593,4058.97426,4053.846055,4003.589646,4058.97426
57,0,4059.999901,4083.076823,4075.384516,4025.640927,4073.846054,4077.948618,4108.717848,4083.076823,4081.025541,4070.769131,4056.410157,4055.897337,3999.487082,4051.281952
58,0,4050.769132,4084.102464,4078.461439,4038.97426,4075.897336,4073.333234,4105.640925,4093.846054,4092.307592,4078.974259,4067.692208,4064.615285,4004.102466,4061.025542
59,0,4061.025542,4089.74349,4078.461439,4037.435799,4085.128105,4067.692208,4090.769131,4091.281951,4092.307592,4075.384516,4070.769131,4068.205029,4006.666569,4049.743491
60,0,4063.589644,4091.281951,4076.922977,4033.333235,4088.205028,4076.410157,4089.230669,4080.512721,4084.102464,4072.820413,4068.717849,4064.102465,4007.179389,4063.589644
61,0,4053.846055,4087.179387,4075.897336,4033.846055,4086.153746,4081.538362,4095.897336,4079.48708,4081.025541,4077.435798,4066.153747,4059.48708,4003.589646,4061.538362
62,0,4052.307593,4083.589644,4078.461439,4032.820414,4087.179387,4074.358875,4094.358874,4082.051182,4078.974259,4075.384516,4061.025542,4057.435798,3993.333236,4023.589645
63,0,4050.256311,4078.461439,4079.48708,4019.999902,4090.769131,4075.897336,4094.871695,4082.564003,4079.9999,4070.256311,4057.948619,4052.307593,3989.743492,4039.999901
64,0,4037.948619,4076.922977,4080.512721,4005.640928,4091.281951,4080.512721,4103.589643,4090.769131,4090.25631,4080.512721,4062.051183,4050.256311,3997.4358,4068.205029
65,0,4043.589645,4085.128105,4077.948618,4012.820415,4087.179387,4078.461439,4108.205028,4101.538361,4103.589643,4093.846054,4072.820413,4057.435798,4004.102466,4034.358876
66,0,4045.640927,4092.820413,4074.358875,4029.230671,4082.564003,4082.051182,4107.179387,4106.153746,4104.102464,4091.794772,4072.820413,4061.538362,4001.538364,4026.153748
67,0,4026.153748,4092.820413,4075.897336,4034.358876,4086.666567,4085.640926,4108.205028,4107.179387,4098.461438,4089.74349,4065.640926,4061.025542,3999.999902,4061.025542
68,0,4043.589645,4094.871695,4073.846054,4035.384517,4092.307592,4082.051182,4106.153746,4103.589643,4095.897336,4091.794772,4071.794772,4059.48708,4003.589646,4061.025542
69,0,4086.153746,4101.025541,4069.23067,4042.564004,4095.384515,4086.153746,4101.025541,4093.846054,4093.846054,4092.307592,4082.564003,4051.281952,4007.179389,4069.23067
70,0,4073.846054,4100.51272,4070.769131,4042.564004,4095.897336,4090.769131,4095.384515,4089.230669,4092.820413,4091.794772,4077.948618,4048.205029,4008.20503,4078.461439
71,0,4041.025542,4097.435797,4077.948618,4036.922978,4085.640926,4082.564003,4093.846054,4091.281951,4093.333233,4096.922977,4075.384516,4063.589644,4008.717851,4025.128107
72,0,4036.922978,4103.589643,4084.102464,4039.999901,4081.538362,4080.512721,4099.9999,4093.333233,4094.358874,4102.051182,4091.281951,4081.538362,4020.512722,4004.615287
73,0,4053.846055,4107.179387,4079.9999,4046.666568,4094.871695,4093.333233,4107.692207,4092.820413,4096.410156,4101.538361,4096.922977,4072.820413,4028.20503,4071.281952
74,0,4091.281951,4102.051182,4065.640926,4044.615286,4098.974259,4094.358874,4107.692207,4093.846054,4098.974259,4094.871695,4084.102464,4050.769132,4016.922979,4115.384515
75,0,4076.922977,4101.025541,4064.102465,4038.46144,4089.230669,4089.74349,4107.692207,4092.820413,4096.410156,4089.74349,4077.948618,4052.307593,4011.281953,4089.230669
76,0,4041.025542,4112.307592,4083.076823,4047.179388,4091.794772,4098.461438,4109.230669,4092.820413,4096.922977,4095.897336,4088.205028,4069.23067,4028.71785,4086.666567
77,0,4106.666566,4130.256309,4090.769131,4064.102465,4101.025541,4106.153746,4113.333233,4103.589643,4111.281951,4108.717848,4109.743489,4075.384516,4053.846055,4144.102463
78,0,4184.102462,4152.307591,4090.25631,4073.846054,4096.410156,4097.948618,4112.820412,4110.76913,4114.358874,4111.794771,4122.564002,4079.9999,4073.333234,4173.333231
79,0,4169.230667,4171.281949,4102.051182,4080.512721,4087.692208,4089.74349,4101.538361,4099.487079,4098.461438,4096.410156,4112.307592,4092.820413,4079.9999,4146.666565
80,0,4170.769129,4182.564,4109.743489,4089.74349,4087.692208,4089.74349,4092.820413,4086.666567,4084.615285,4084.615285,4104.102464,4093.333233,4081.538362,4169.230667
81,0,4232.307589,4194.871692,4105.640925,4092.820413,4091.794772,4087.692208,4093.333233,4086.153746,4079.9999,4096.410156,4122.564002,4088.205028,4110.76913,4249.743486
82,0,4260.512716,4205.640923,4107.179387,4094.871695,4088.205028,4083.589644,4095.384515,4090.769131,4083.589644,4105.128105,4144.615283,4098.974259,4147.692206,4265.640921
83,0,4256.410152,4207.179384,4111.281951,4102.564002,4085.128105,4089.230669,4099.9999,4091.281951,4090.769131,4104.102464,4144.615283,4105.128105,4148.717847,4246.666563
84,0,4250.256306,4204.102461,4109.230669,4105.128105,4095.384515,4101.538361,4107.692207,4088.717849,4094.358874,4109.743489,4139.487078,4092.820413,4139.487078,4267.179383
85,0,4232.820409,4193.846051,4107.179387,4094.871695,4101.538361,4105.128105,4109.743489,4088.205028,4092.820413,4110.25631,4141.02554,4086.666567,4141.53836,4259.999896
86,0,4209.743487,4167.692206,4103.076823,4082.051182,4091.281951,4098.974259,4106.666566,4093.846054,4093.846054,4100.51272,4139.487078,4087.692208,4132.307591,4217.948615
87,0,4187.692205,4150.769129,4097.948618,4083.076823,4083.589644,4099.9999,4113.333233,4106.666566,4102.051182,4112.307592,4134.358873,4084.102464,4115.384515,4204.102461
88,0,4183.076821,4157.435796,4097.948618,4088.717849,4094.358874,4108.717848,4123.076822,4118.461438,4109.743489,4129.230668,4135.897335,4075.384516,4112.820412,4204.102461
89,0,4179.487077,4153.846052,4094.358874,4081.538362,4103.589643,4110.25631,4119.487079,4115.897335,4107.692207,4116.922976,4136.922976,4068.205029,4110.25631,4190.769128
90,0,4139.999899,4134.871694,4090.25631,4069.74349,4097.948618,4105.640925,4105.640925,4108.717848,4102.564002,4103.589643,4131.794771,4067.692208,4099.487079,4157.948616
91,0,4105.128105,4128.205027,4093.846054,4073.333234,4092.307592,4106.153746,4107.179387,4116.922976,4113.846053,4117.435797,4133.333232,4074.358875,4095.897336,4142.564001
92,0,4112.820412,4125.128104,4095.897336,4077.948618,4093.333233,4110.25631,4120.51272,4126.153745,4125.640925,4137.435796,4136.922976,4076.922977,4094.871695,4134.871694
93,0,4110.76913,4110.25631,4091.794772,4066.153747,4096.922977,4117.435797,4122.051181,4120.51272,4121.02554,4134.358873,4126.153745,4072.820413,4083.589644,4090.769131
94,0,4084.102464,4102.051182,4090.25631,4056.922978,4091.794772,4119.487079,4121.02554,4121.538361,4117.948617,4123.076822,4119.487079,4068.717849,4074.871695,4097.948618
95,0,4090.769131,4109.230669,4090.25631,4062.564003,4086.153746,4111.794771,4120.51272,4126.666566,4123.589643,4128.717848,4125.640925,4066.666567,4079.48708,4158.974257
96,0,4111.794771,4109.743489,4089.74349,4065.640926,4098.461438,4112.820412,4120.51272,4122.564002,4124.102463,4139.999899,4126.666566,4068.205029,4083.589644,4139.999899
97,0,4097.948618,4102.564002,4091.281951,4058.461439,4109.743489,4121.02554,4124.102463,4127.692207,4129.230668,4133.846053,4122.051181,4065.128106,4078.974259,4091.794772
98,0,4079.9999,4106.666566,4091.794772,4057.948619,4101.025541,4121.538361,4126.153745,4138.974258,4136.922976,4123.589643,4123.589643,4060.512721,4074.871695,4110.76913
99,0,4090.769131,4110.76913,4089.230669,4062.564003,4091.794772,4119.487079,4123.589643,4134.871694,4130.76913,4123.589643,4122.564002,4058.97426,4074.871695,4120.51272
100,0,4106.153746,4106.153746,4095.384515,4057.435798,4099.9999,4118.974258,4119.487079,4120.51272,4119.487079,4122.051181,4117.435797,4055.897337,4073.846054,4093.846054
101,0,4099.9999,4109.743489,4105.128105,4059.48708,4107.179387,4116.922976,4123.076822,4123.076822,4121.538361,4128.717848,4124.102463,4062.051183,4074.871695,4103.076823
102,0,4083.589644,4119.487079,4099.9999,4074.358875,4106.666566,4121.02554,4130.76913,4137.435796,4132.820412,4137.948617,4136.922976,4075.384516,4080.512721,4125.128104
103,0,4082.564003,4116.410156,4090.769131,4080.512721,4107.179387,4125.640925,4129.743489,4142.564001,4140.512719,4138.974258,4133.846053,4074.871695,4080.512721,4122.051181
104,0,4086.153746,4108.205028,4093.333233,4070.769131,4106.153746,4124.102463,4129.743489,4140.512719,4138.974258,4140.512719,4120.51272,4065.640926,4074.871695,4103.589643
105,0,4084.102464,4108.717848,4095.384515,4067.179388,4106.153746,4127.179386,4137.948617,4138.461437,4137.435796,4139.999899,4118.974258,4065.640926,4073.846054,4095.897336
106,0,4084.615285,4111.794771,4090.769131,4075.384516,4110.25631,4126.666566,4135.897335,4138.974258,4139.999899,4134.871694,4125.640925,4068.717849,4076.410157,4108.717848
107,0,4079.9999,4108.205028,4091.281951,4076.410157,4110.76913,4120.51272,4124.615284,4136.410155,4134.871694,4121.538361,4119.999899,4065.128106,4069.74349,4099.487079
108,0,4067.179388,4105.640925,4097.948618,4066.666567,4108.205028,4117.435797,4125.640925,4128.205027,4123.076822,4110.25631,4108.717848,4064.102465,4058.461439,4070.256311
109,0,4064.102465,4103.589643,4098.974259,4061.538362,4102.051182,4113.333233,4126.666566,4123.076822,4123.076822,4110.76913,4107.692207,4066.666567,4057.435798,4072.307593
110,0,4074.871695,4098.974259,4092.820413,4059.48708,4092.820413,4103.589643,4117.948617,4117.948617,4123.076822,4112.820412,4110.25631,4059.48708,4061.538362,4085.640926
111,0,4082.051182,4095.897336,4087.179387,4059.48708,4089.74349,4102.051182,4116.922976,4112.820412,4115.384515,4116.410156,4108.205028,4055.897337,4063.589644,4077.435798
112,0,4075.384516,4097.948618,4089.74349,4063.076824,4096.922977,4114.358874,4124.615284,4117.948617,4117.435797,4127.692207,4105.640925,4061.538362,4061.538362,4079.48708
113,0,4068.205029,4094.358874,4091.281951,4047.692209,4097.435797,4117.435797,4123.589643,4122.051181,4123.589643,4119.487079,4098.974259,4052.820414,4052.307593,4098.461438
114,0,4064.615285,4086.153746,4090.25631,4033.333235,4090.25631,4113.846053,4119.487079,4116.922976,4119.487079,4091.794772,4088.717849,4038.97426,4043.076824,4085.128105
115,0,4063.589644,4091.794772,4090.769131,4051.794773,4099.9999,4121.02554,4131.28195,4121.02554,4120.51272,4091.794772,4096.410156,4047.692209,4046.666568,4059.48708
116,0,4074.871695,4097.948618,4089.74349,4064.102465,4111.281951,4127.692207,4137.435796,4126.666566,4125.128104,4112.820412,4108.717848,4058.97426,4054.871696,4068.205029
117,0,4092.307592,4092.307592,4089.230669,4055.897337,4102.564002,4113.333233,4118.461438,4110.25631,4115.384515,4111.794771,4105.128105,4055.384516,4057.948619,4086.666567
118,0,4095.384515,4095.384515,4088.717849,4062.564003,4097.948618,4101.025541,4108.205028,4103.076823,4112.820412,4096.922977,4104.102464,4056.922978,4058.461439,4081.538362
119,0,4086.666567,4106.153746,4093.846054,4062.051183,4109.230669,4112.820412,4118.461438,4113.333233,4123.589643,4103.076823,4110.25631,4063.589644,4058.97426,4069.74349
120,0,4087.179387,4106.666566,4104.102464,4039.487081,4114.358874,4120.51272,4119.487079,4110.76913,4119.487079,4127.179386,4104.102464,4059.999901,4056.410157,4078.461439
121,0,4078.974259,4102.564002,4108.205028,4035.384517,4109.230669,4116.410156,4117.948617,4105.128105,4106.153746,4127.179386,4094.871695,4052.820414,4054.871696,4088.205028
122,0,4063.076824,4103.589643,4106.153746,4045.640927,4108.205028,4115.384515,4125.640925,4112.307592,4110.76913,4108.205028,4102.051182,4055.897337,4057.948619,4079.9999
123,0,4077.948618,4106.153746,4106.153746,4044.102465,4106.666566,4112.820412,4122.564002,4117.435797,4122.051181,4104.615284,4110.76913,4063.076824,4061.538362,4084.102464
124,0,4108.205028,4106.153746,4107.692207,4044.102465,4104.102464,4108.205028,4123.589643,4118.974258,4122.564002,4109.230669,4114.358874,4069.23067,4065.640926,4097.435797
125,0,4109.230669,4104.102464,4107.179387,4051.794773,4106.666566,4117.435797,4140.512719,4126.153745,4122.051181,4110.76913,4122.564002,4074.358875,4074.871695,4093.333233
126,0,4097.435797,4108.717848,4107.692207,4063.076824,4107.692207,4123.589643,4140.512719,4128.205027,4124.615284,4119.999899,4128.717848,4076.922977,4079.48708,4103.589643
127,0,4099.487079,4115.897335,4108.205028,4074.358875,4107.692207,4109.743489,4124.615284,4122.564002,4122.051181,4123.076822,4125.128104,4076.922977,4077.948618,4107.692207
128,0,4096.922977,4113.333233,4108.205028,4076.922977,4108.205028,4103.589643,4123.076822,4121.538361,4118.974258,4120.51272,4124.102463,4081.025541,4078.461439,4064.615285
0,0,4094.871695,4107.692207,4108.717848,4074.871695,4104.102464,4109.230669,4128.717848,4121.02554,4120.51272,4122.051181,4125.640925,4083.076823,4077.435798,4062.051183
1,0,4103.076823,4110.25631,4106.666566,4077.435798,4104.615284,4106.666566,4123.589643,4118.461438,4116.410156,4115.897335,4123.589643,4077.435798,4074.358875,4120.51272
2,0,4101.025541,4113.333233,4106.666566,4075.384516,4109.230669,4103.589643,4119.487079,4114.871694,4108.717848,4104.615284,4122.564002,4072.820413,4074.871695,4127.692207
3,0,4095.897336,4109.230669,4107.692207,4066.153747,4104.615284,4107.179387,4121.538361,4107.179387,4105.128105,4105.640925,4123.589643,4069.74349,4075.897336,4088.205028
4,0,4090.25631,4104.102464,4106.666566,4067.179388,4097.948618,4110.25631,4124.102463,4105.640925,4103.589643,4108.205028,4121.02554,4067.692208,4072.820413,4085.128105
5,0,4090.25631,4112.820412,4109.230669,4083.076823,4105.128105,4110.25631,4127.692207,4117.948617,4112.307592,4107.692207,4121.02554,4074.358875,4074.358875,4096.922977
6,0,4111.794771,4122.051181,4106.666566,4094.871695,4113.846053,4110.25631,4130.76913,4125.128104,4121.02554,4114.871694,4126.666566,4082.051182,4087.179387,4092.820413
7,0,4123.589643,4114.358874,4093.846054,4091.794772,4111.794771,4114.871694,4134.871694,4120.51272,4119.487079,4124.102463,4127.692207,4079.48708,4092.307592,4090.25631
8,0,4105.640925,4107.692207,4088.205028,4088.205028,4110.25631,4120.51272,4137.948617,4122.051181,4114.871694,4124.615284,4123.589643,4071.794772,4083.589644,4080.512721
9,0,4097.948618,4112.820412,4094.358874,4090.769131,4111.794771,4120.51272,4138.974258,4128.717848,4111.794771,4115.384515,4120.51272,4070.256311,4075.897336,4077.435798
10,0,4107.692207,4111.794771,4097.948618,4092.820413,4109.230669,4117.948617,4139.487078,4129.743489,4116.922976,4107.179387,4122.564002,4073.333234,4077.435798,4092.820413
11,0,4094.358874,4105.640925,4095.384515,4089.74349,4105.640925,4118.461438,4131.28195,4123.076822,4119.487079,4109.230669,4123.076822,4069.23067,4076.410157,4088.205028
12,0,4068.717849,4103.589643,4093.333233,4087.692208,4105.640925,4120.51272,4125.128104,4113.846053,4113.333233,4109.743489,4119.487079,4061.538362,4073.846054,4073.333234
13,0,4079.9999,4107.179387,4095.897336,4091.794772,4109.743489,4121.02554,4132.820412,4115.897335,4111.794771,4103.589643,4122.051181,4068.205029,4077.435798,4085.128105
14,0,4108.717848,4111.281951,4098.461438,4092.307592,4108.717848,4118.974258,4138.974258,4123.589643,4118.974258,4108.205028,4124.615284,4076.410157,4081.538362,4092.820413
15,0,4104.615284,4103.589643,4096.922977,4086.666567,4106.153746,4121.538361,4137.435796,4125.640925,4122.051181,4116.410156,4116.922976,4071.281952,4076.922977,4080.512721
16,0,4088.205028,4102.564002,4094.358874,4086.666567,4114.871694,4126.666566,4139.999899,4125.128104,4120.51272,4109.230669,4105.128105,4064.102465,4068.205029,4077.435798
17,0,4099.9999,4118.974258,4098.461438,4093.846054,4127.179386,4125.640925,4143.589642,4125.128104,4118.974258,4101.025541,4103.076823,4068.205029,4067.179388,4076.922977
18,0,4111.281951,4122.051181,4102.051182,4093.846054,4126.153745,4124.102463,4141.02554,4125.640925,4114.871694,4104.615284,4112.820412,4074.358875,4077.435798,4081.025541
19,0,4096.410156,4110.76913,4104.615284,4091.794772,4115.384515,4123.076822,4138.974258,4120.51272,4106.666566,4110.25631,4121.02554,4076.922977,4086.666567,4087.179387
20,0,4086.153746,4109.743489,4107.179387,4094.871695,4112.307592,4116.922976,4133.333232,4110.25631,4098.974259,4105.128105,4116.410156,4078.461439,4083.589644,4076.410157
21,0,4096.410156,4113.333233,4103.589643,4095.384515,4113.846053,4112.307592,4125.128104,4106.153746,4100.51272,4093.846054,4108.205028,4071.794772,4077.948618,4077.948618
22,0,4100.51272,4110.76913,4099.9999,4086.666567,4111.794771,4110.25631,4120.51272,4106.153746,4101.538361,4090.25631,4107.692207,4062.051183,4077.948618,4090.25631
23,0,4095.384515,4108.717848,4097.435797,4090.25631,4111.794771,4117.948617,4123.589643,4103.589643,4095.897336,4096.922977,4106.153746,4066.153747,4076.410157,4070.769131
24,0,4099.9999,4108.205028,4099.9999,4090.769131,4114.871694,4124.615284,4129.743489,4109.230669,4103.589643,4099.487079,4107.179387,4076.922977,4073.333234,4060.512721
25,0,4105.640925,4104.102464,4125.128104,4040.512722,4107.179387,4107.692207,4120.51272,4113.333233,4105.640925,4094.358874,4106.153746,4068.717849,4072.307593,4073.333234
26,0,4091.281951,4091.281951,4154.358873,3975.384518,4091.794772,4094.871695,4106.153746,4101.025541,4086.666567,4086.666567,4091.794772,4055.897337,4067.692208,4064.615285
27,0,4077.948618,4085.640926,4151.79477,3980.512723,4099.9999,4106.153746,4111.281951,4096.410156,4079.9999,4088.717849,4087.692208,4063.589644,4066.153747,4057.948619
28,0,4087.692208,4101.025541,4129.230668,4041.538363,4121.02554,4110.25631,4124.102463,4109.743489,4093.846054,4104.102464,4111.281951,4077.948618,4081.538362,4083.589644
29,0,4093.333233,4111.281951,4113.333233,4081.025541,4118.974258,4108.717848,4126.153745,4122.051181,4105.640925,4107.179387,4126.153745,4078.461439,4092.820413,4084.102464
30,0,4088.717849,4105.128105,4097.435797,4089.74349,4110.25631,4118.461438,4125.640925,4122.051181,4105.640925,4101.025541,4115.384515,4068.717849,4084.615285,4053.846055
31,0,4092.820413,4109.743489,4089.230669,4095.384515,4117.948617,4118.461438,4125.640925,4111.794771,4089.230669,4102.564002,4111.281951,4068.205029,4082.051182,4058.461439
32,0,4104.615284,4123.076822,4102.051182,4095.897336,4126.666566,4115.897335,4123.076822,4104.102464,4080.512721,4109.230669,4123.076822,4075.384516,4092.820413,4084.615285
33,0,4107.179387,4122.564002,4108.205028,4093.333233,4124.102463,4124.102463,4122.564002,4107.692207,4094.358874,4113.333233,4127.179386,4076.410157,4096.922977,4089.74349
34,0,4101.538361,4118.974258,4103.076823,4096.922977,4120.51272,4118.974258,4122.051181,4111.281951,4102.051182,4113.846053,4122.051181,4073.846054,4096.410156,4075.384516
35,0,4104.102464,4125.640925,4105.128105,4105.640925,4119.487079,4112.820412,4125.128104,4109.230669,4093.846054,4110.25631,4122.051181,4076.922977,4101.538361,4064.102465
36,0,4111.281951,4126.666566,4104.102464,4109.743489,4119.999899,4121.02554,4129.743489,4108.717848,4091.794772,4113.333233,4127.179386,4081.025541,4104.615284,4073.333234
37,0,4112.307592,4120.51272,4096.410156,4107.179387,4123.589643,4124.102463,4125.128104,4109.743489,4098.461438,4124.102463,4128.205027,4076.922977,4102.564002,4094.871695
38,0,4108.717848,4118.974258,4097.948618,4104.102464,4122.564002,4120.51272,4122.051181,4109.230669,4099.487079,4117.435797,4124.102463,4073.846054,4102.051182,4101.538361
39,0,4110.25631,4122.051181,4107.179387,4105.640925,4118.461438,4118.974258,4123.589643,4107.179387,4092.820413,4107.692207,4126.153745,4078.461439,4104.615284,4089.74349
40,0,4119.487079,4124.615284,4107.692207,4107.179387,4119.487079,4116.410156,4122.051181,4104.102464,4092.307592,4117.948617,4135.897335,4080.512721,4106.666566,4089.230669
41,0,4126.153745,4125.128104,4106.153746,4105.640925,4123.589643,4119.999899,4129.230668,4110.76913,4102.564002,4128.717848,4140.512719,4076.922977,4109.230669,4089.230669
42,0,4118.461438,4123.589643,4107.179387,4105.128105,4127.179386,4127.179386,4136.922976,4122.051181,4110.25631,4120.51272,4131.794771,4077.435798,4108.205028,4082.051182
43,0,4105.640925,4122.051181,4104.615284,4096.922977,4124.615284,4120.51272,4126.153745,4112.307592,4102.564002,4106.666566,4123.589643,4073.846054,4099.487079,4083.589644
44,0,4104.615284,4118.461438,4105.640925,4078.974259,4119.487079,4107.692207,4114.871694,4093.333233,4087.179387,4106.666566,4120.51272,4066.666567,4093.846054,4082.564003
45,0,4103.589643,4112.307592,4110.76913,4073.846054,4119.487079,4107.692207,4118.974258,4097.435797,4085.128105,4108.717848,4114.871694,4066.153747,4094.358874,4058.97426
46,0,4090.25631,4104.102464,4102.564002,4079.9999,4117.948617,4116.410156,4123.076822,4107.692207,4093.333233,4097.435797,4104.102464,4063.589644,4085.640926,4035.384517
47,0,4090.25631,4104.615284,4093.846054,4086.153746,4106.153746,4116.922976,4117.948617,4098.974259,4090.769131,4089.74349,4104.102464,4059.999901,4079.48708,4056.410157
48,0,4112.820412,4117.435797,4102.051182,4099.9999,4106.666566,4116.922976,4118.974258,4096.922977,4090.769131,4107.179387,4120.51272,4066.666567,4094.871695,4095.897336
49,0,4127.692207,4133.846053,4111.281951,4113.846053,4130.256309,4130.256309,4130.76913,4117.948617,4107.692207,4123.589643,4129.743489,4077.948618,4108.205028,4093.333233
50,0,4119.999899,4137.435796,4109.230669,4114.358874,4141.53836,4137.435796,4138.974258,4127.692207,4114.358874,4115.384515,4127.179386,4083.076823,4104.615284,4068.717849
51,0,4106.666566,4128.205027,4107.179387,4108.205028,4128.717848,4128.205027,4132.820412,4117.435797,4105.128105,4108.717848,4124.102463,4078.461439,4102.564002,4075.897336
52,0,4110.76913,4122.051181,4107.692207,4105.640925,4123.076822,4123.076822,4123.589643,4113.333233,4105.128105,4116.922976,4123.589643,4065.640926,4106.153746,4093.333233
53,0,4113.333233,4124.102463,4107.179387,4107.179387,4131.28195,4128.205027,4126.153745,4115.384515,4107.692207,4119.999899,4123.589643,4058.97426,4106.666566,4079.9999
54,0,4108.717848,4123.076822,4108.205028,4108.205028,4135.384514,4127.692207,4132.820412,4109.230669,4103.589643,4111.794771,4124.102463,4068.717849,4103.589643,4059.48708
55,0,4108.717848,4121.538361,4107.692207,4105.128105,4135.897335,4122.564002,4129.743489,4105.128105,4103.589643,4106.666566,4125.128104,4072.820413,4105.128105,4058.461439
56,0,4110.76913,4127.179386,4106.153746,4111.281951,4136.410155,4123.076822,4121.538361,4105.640925,4101.025541,4107.692207,4124.102463,4063.589644,4103.589643,4058.461439
57,0,4114.358874,4127.692207,4106.666566,4122.051181,4135.897335,4126.153745,4123.076822,4104.615284,4092.307592,4107.692207,4121.538361,4057.948619,4095.897336,4056.922978
58,0,4119.999899,4119.487079,4106.666566,4122.564002,4135.384514,4124.102463,4127.179386,4101.025541,4088.717849,4105.640925,4119.487079,4059.999901,4094.871695,4075.897336
59,0,4120.51272,4118.461438,4105.640925,4126.666566,4134.358873,4117.948617,4116.922976,4097.435797,4091.794772,4108.717848,4120.51272,4058.461439,4102.051182,4097.435797
60,0,4119.999899,4131.28195,4105.640925,4139.999899,4133.846053,4118.461438,4110.25631,4098.974259,4103.589643,4119.999899,4126.666566,4061.538362,4108.205028,4094.871695
61,0,4127.692207,4138.461437,4107.179387,4144.615283,4137.948617,4124.615284,4118.461438,4106.666566,4109.230669,4126.666566,4129.743489,4072.307593,4111.794771,4082.564003
62,0,4124.102463,4130.76913,4106.666566,4132.307591,4142.051181,4122.051181,4121.02554,4108.205028,4100.51272,4120.51272,4125.640925,4069.74349,4112.820412,4077.435798
63,0,4109.230669,4127.179386,4107.179387,4123.076822,4141.02554,4118.461438,4117.948617,4106.153746,4102.564002,4121.538361,4122.564002,4060.512721,4108.205028,4077.435798
64,0,4106.666566,4128.717848,4110.25631,4122.564002,4138.974258,4124.615284,4123.589643,4108.205028,4109.743489,4125.640925,4123.589643,4058.461439,4107.179387,4072.307593
65,0,4117.435797,4123.076822,4107.179387,4117.948617,4137.948617,4129.743489,4129.230668,4108.205028,4096.922977,4112.820412,4122.564002,4056.410157,4108.205028,4068.717849
66,0,4112.820412,4122.051181,4107.692207,4111.794771,4138.461437,4126.153745,4126.666566,4106.153746,4090.25631,4104.615284,4120.51272,4056.410157,4107.179387,4062.051183
67,0,4089.230669,4134.871694,4116.922976,4117.435797,4140.512719,4126.153745,4130.256309,4108.717848,4108.717848,4122.051181,4122.051181,4063.076824,4108.717848,4044.615286
68,0,4095.897336,4139.999899,4115.384515,4132.820412,4140.512719,4133.846053,4136.410155,4108.205028,4112.307592,4129.743489,4122.564002,4064.102465,4107.179387,4054.871696
69,0,4131.794771,4138.974258,4105.128105,4141.53836,4142.051181,4138.461437,4134.871694,4103.589643,4099.9999,4117.948617,4122.051181,4057.435798,4105.128105,4099.487079
70,0,4144.102463,4142.564001,4106.153746,4142.051181,4143.589642,4136.922976,4134.358873,4103.589643,4102.564002,4121.538361,4124.102463,4058.461439,4111.794771,4112.820412
71,0,4138.461437,4139.487078,4109.230669,4140.512719,4144.102463,4131.794771,4139.487078,4111.281951,4109.743489,4126.666566,4123.589643,4060.512721,4112.820412,4084.102464
72,0,4145.128104,4141.02554,4106.153746,4144.102463,4141.02554,4125.640925,4139.487078,4113.333233,4108.205028,4109.743489,4119.999899,4060.512721,4108.717848,4078.461439
73,0,4132.820412,4138.461437,4106.666566,4142.564001,4128.717848,4123.076822,4137.435796,4109.743489,4100.51272,4101.538361,4114.871694,4061.025542,4104.102464,4083.589644
74,0,4100.51272,4111.794771,4108.205028,4123.589643,4116.410156,4124.102463,4141.53836,4117.435797,4098.974259,4110.76913,4104.102464,4055.897337,4090.25631,4063.076824
75,0,4111.794771,4108.717848,4110.76913,4123.076822,4124.615284,4123.589643,4143.589642,4127.179386,4102.564002,4106.666566,4101.025541,4052.307593,4085.128105,4050.256311
76,0,4147.179386,4146.666565,4118.974258,4149.743488,4141.02554,4126.153745,4141.53836,4122.564002,4107.179387,4099.9999,4116.410156,4066.153747,4104.615284,4066.666567
77,0,4149.743488,4158.461437,4121.538361,4155.897334,4142.051181,4134.871694,4143.076822,4118.461438,4109.743489,4112.820412,4127.179386,4079.48708,4116.922976,4089.230669
78,0,4135.384514,4137.948617,4120.51272,4138.974258,4135.384514,4137.948617,4143.076822,4122.564002,4108.205028,4124.615284,4120.51272,4069.74349,4107.692207,4092.307592
79,0,4135.384514,4133.333232,4126.666566,4137.435796,4137.435796,4135.384514,4139.999899,4124.102463,4113.846053,4122.051181,4117.948617,4062.564003,4104.102464,4091.794772
80,0,4143.076822,4132.820412,4122.051181,4142.051181,4137.435796,4134.871694,4139.487078,4123.589643,4120.51272,4119.999899,4123.589643,4068.205029,4108.717848,4106.666566
81,0,4146.666565,4122.051181,4108.205028,4135.384514,4125.128104,4135.384514,4139.487078,4123.076822,4115.384515,4119.999899,4123.076822,4063.589644,4106.666566,4109.230669
82,0,4144.615283,4121.02554,4112.820412,4135.897335,4116.922976,4135.384514,4139.999899,4125.640925,4111.794771,4116.922976,4118.461438,4058.461439,4103.076823,4090.769131
83,0,4144.615283,4128.717848,4125.640925,4139.487078,4120.51272,4137.435796,4141.02554,4132.820412,4121.02554,4119.487079,4121.538361,4071.281952,4106.666566,4088.205028
84,0,4152.307591,4133.333232,4126.153745,4139.999899,4126.153745,4138.461437,4139.999899,4136.922976,4126.153745,4124.102463,4133.333232,4081.025541,4118.461438,4107.179387
85,0,4154.871693,4137.435796,4123.589643,4148.717847,4130.76913,4138.461437,4138.974258,4136.922976,4121.538361,4121.538361,4142.051181,4078.461439,4126.666566,4114.358874
86,0,4154.871693,4141.53836,4124.102463,4153.333232,4138.461437,4137.948617,4139.999899,4134.358873,4118.461438,4125.640925,4139.487078,4075.897336,4126.666566,4106.666566
87,0,4158.974257,4143.589642,4121.538361,4145.128104,4137.948617,4140.512719,4142.051181,4134.358873,4124.102463,4137.435796,4137.435796,4075.384516,4129.230668,4104.102464
88,0,4153.846052,4145.128104,4118.974258,4145.128104,4130.256309,4142.051181,4143.589642,4141.02554,4137.435796,4143.076822,4142.564001,4074.358875,4133.333232,4118.974258
89,0,4150.256309,4141.53836,4114.358874,4149.743488,4125.640925,4138.974258,4144.615283,4147.179386,4138.461437,4135.897335,4138.974258,4068.717849,4129.743489,4125.128104
90,0,4157.948616,4137.948617,4107.692207,4145.128104,4119.487079,4145.128104,4146.153745,4145.128104,4124.615284,4126.666566,4128.717848,4060.512721,4123.589643,4111.281951
91,0,4155.384514,4141.53836,4108.205028,4144.102463,4123.589643,4152.307591,4144.615283,4138.461437,4123.589643,4126.666566,4126.666566,4061.025542,4124.615284,4106.153746
92,0,4139.999899,4143.076822,4110.76913,4143.589642,4134.871694,4143.076822,4134.871694,4130.76913,4125.640925,4125.640925,4124.102463,4061.025542,4122.051181,4106.153746
93,0,4134.871694,4131.794771,4109.230669,4137.948617,4129.230668,4135.384514,4126.153745,4119.999899,4110.76913,4109.743489,4112.307592,4050.769132,4109.743489,4093.333233
94,0,4141.53836,4123.589643,4107.179387,4133.333232,4112.820412,4134.871694,4122.051181,4110.25631,4106.153746,4098.974259,4106.153746,4046.666568,4104.102464,4073.846054
95,0,4137.435796,4123.076822,4106.153746,4127.179386,4110.76913,4125.640925,4118.974258,4107.692207,4120.51272,4111.281951,4108.717848,4048.71785,4106.153746,4069.74349
96,0,4123.589643,4121.02554,4107.179387,4122.051181,4120.51272,4127.179386,4121.02554,4115.897335,4124.102463,4125.640925,4109.230669,4049.743491,4106.153746,4079.9999
97,0,4123.076822,4119.999899,4108.205028,4126.153745,4125.640925,4138.461437,4125.128104,4121.02554,4114.871694,4128.205027,4109.230669,4054.358875,4107.692207,4086.153746
98,0,4128.717848,4120.51272,4109.230669,4126.666566,4124.102463,4132.307591,4122.564002,4111.794771,4110.76913,4122.051181,4109.230669,4053.333234,4111.281951,4086.666567
99,0,4119.487079,4124.102463,4109.230669,4126.666566,4121.538361,4125.128104,4117.948617,4101.538361,4108.717848,4115.897335,4110.25631,4045.128106,4112.307592,4093.333233
100,0,4108.205028,4125.640925,4109.230669,4127.692207,4122.564002,4135.384514,4123.589643,4108.717848,4110.25631,4113.846053,4112.820412,4050.256311,4112.820412,4091.794772
101,0,4112.820412,4119.999899,4110.76913,4123.076822,4122.564002,4138.461437,4129.230668,4121.538361,4116.922976,4109.743489,4109.230669,4061.538362,4108.717848,4074.871695
102,0,4123.589643,4123.076822,4109.743489,4128.205027,4121.02554,4133.333232,4126.153745,4120.51272,4120.51272,4107.692207,4110.76913,4054.358875,4110.76913,4076.410157
103,0,4130.256309,4139.487078,4109.743489,4136.922976,4121.02554,4138.974258,4125.128104,4115.897335,4121.02554,4111.794771,4118.461438,4044.615286,4121.538361,4099.9999
104,0,4142.051181,4141.02554,4111.281951,4130.76913,4122.051181,4142.564001,4126.153745,4118.461438,4117.948617,4111.281951,4115.897335,4050.256311,4123.076822,4109.230669
105,0,4147.179386,4128.205027,4111.794771,4124.102463,4126.666566,4135.897335,4123.589643,4119.487079,4112.820412,4116.922976,4114.358874,4058.97426,4116.922976,4090.25631
106,0,4126.153745,4124.102463,4115.384515,4124.102463,4129.230668,4133.846053,4122.564002,4119.999899,4115.897335,4130.76913,4123.076822,4057.435798,4121.02554,4076.922977
107,0,4112.307592,4129.230668,4122.051181,4123.589643,4124.615284,4136.922976,4129.230668,4127.179386,4131.28195,4133.846053,4128.205027,4055.384516,4127.692207,4091.794772
108,0,4123.076822,4129.230668,4119.487079,4123.589643,4121.02554,4137.435796,4137.948617,4131.28195,4138.461437,4125.640925,4126.153745,4060.512721,4126.666566,4111.281951
109,0,4130.76913,4123.589643,4109.230669,4122.051181,4124.102463,4138.461437,4142.051181,4126.666566,4130.256309,4122.564002,4126.153745,4060.512721,4124.102463,4102.051182
110,0,4125.640925,4121.538361,4107.692207,4120.51272,4127.179386,4143.076822,4139.487078,4127.692207,4125.128104,4134.358873,4125.128104,4057.435798,4123.076822,4070.769131
111,0,4110.76913,4119.999899,4112.307592,4123.589643,4123.076822,4141.53836,4141.02554,4135.384514,4129.230668,4134.358873,4118.461438,4058.97426,4117.435797,4070.256311
112,0,4099.487079,4109.743489,4110.76913,4118.461438,4114.871694,4136.410155,4142.564001,4129.230668,4124.615284,4116.410156,4108.717848,4057.948619,4107.692207,4091.794772
113,0,4103.076823,4104.102464,4106.153746,4108.717848,4115.897335,4136.410155,4130.76913,4111.281951,4108.717848,4102.051182,4102.564002,4051.794773,4105.640925,4077.435798
114,0,4112.307592,4108.717848,4104.102464,4110.76913,4126.666566,4135.897335,4128.205027,4112.307592,4104.102464,4094.871695,4098.974259,4048.205029,4105.128105,4057.948619
