title:JTA                                                                             , recorded:03.07.20 13.50.17, sampling:128, subject:JTA                                                                             , labels:COUNTER INTERPOLATED AF3 F7 F3 FC5 T7 P7 O1 O2 P8 T8 FC6 F4 F8 AF4,, units:emotiv,,,,,,,,,
110,0,4217.435794,4230.769127,4246.153742,4186.153744,4224.102461,4219.487076,4219.999897,4223.58964,4216.922974,4185.128103,4210.256307,4218.974256,4202.051179,4213.846051
111,0,4219.999897,4231.281948,4226.666563,4193.333231,4213.846051,4204.102461,4205.128102,4212.82041,4213.846051,4183.076821,4195.384513,4200.512718,4197.948615,4205.640923
112,0,4217.435794,4231.281948,4217.948615,4213.846051,4201.025538,4206.153743,4212.307589,4216.410153,4212.82041,4186.153744,4187.179385,4196.410154,4198.461436,4200.512718
113,0,4212.82041,4228.205025,4231.281948,4208.205025,4207.179384,4213.33323,4217.435794,4221.025538,4215.897333,4188.205026,4193.333231,4204.102461,4199.999897,4201.025538
114,0,4205.128102,4217.948615,4225.128102,4190.256308,4207.692205,4203.07682,4203.589641,4212.82041,4214.871692,4176.410154,4186.666564,4191.794769,4189.743487,4186.666564
115,0,4205.640923,4213.33323,4213.846051,4191.281949,4199.487077,4201.025538,4202.051179,4211.794769,4212.307589,4173.333231,4184.102462,4187.179385,4185.640923,4182.05118
116,0,4217.948615,4226.153743,4224.102461,4214.358871,4212.82041,4216.410153,4213.846051,4222.563999,4215.384512,4196.922974,4206.153743,4209.743487,4204.615282,4207.692205
117,0,4229.743486,4237.435794,4232.307589,4234.358871,4230.769127,4218.461435,4215.384512,4224.615281,4216.922974,4206.666564,4213.33323,4220.512717,4217.948615,4223.07682
118,0,4226.666563,4232.307589,4229.230666,4229.230666,4222.563999,4211.794769,4211.281948,4218.974256,4217.948615,4187.692205,4198.461436,4213.846051,4208.205025,4214.358871
119,0,4219.999897,4227.692204,4228.717845,4217.435794,4211.794769,4215.384512,4213.846051,4215.384512,4214.871692,4182.05118,4197.948615,4209.743487,4202.051179,4213.33323
120,0,4218.974256,4231.794768,4229.230666,4216.922974,4217.435794,4212.307589,4215.897333,4213.33323,4205.640923,4188.717846,4205.640923,4206.153743,4206.153743,4215.897333
121,0,4215.384512,4231.794768,4229.743486,4211.794769,4218.461435,4202.051179,4212.307589,4213.33323,4204.615282,4181.538359,4197.435795,4201.538359,4201.538359,4202.051179
122,0,4213.33323,4229.230666,4229.743486,4221.025538,4215.384512,4209.743487,4213.846051,4221.538358,4215.897333,4184.615282,4198.974256,4211.281948,4200.512718,4198.974256
123,0,4221.025538,4235.897332,4225.128102,4239.487076,4218.461435,4221.538358,4222.051179,4227.179384,4221.025538,4200.512718,4212.82041,4221.538358,4211.794769,4214.871692
124,0,4218.974256,4229.230666,4224.102461,4215.897333,4218.461435,4216.922974,4216.410153,4216.922974,4215.384512,4193.333231,4202.051179,4210.256307,4205.640923,4211.794769
125,0,4208.205025,4215.384512,4222.563999,4192.82041,4212.82041,4209.743487,4198.461436,4206.153743,4211.794769,4176.922975,4187.179385,4198.974256,4192.82041,4194.871692
126,0,4222.051179,4229.230666,4213.846051,4241.025537,4214.358871,4214.358871,4204.615282,4214.358871,4217.435794,4193.846051,4210.256307,4212.307589,4215.384512,4207.692205
127,0,4234.871691,4246.153742,4216.410153,4267.179383,4219.487076,4218.974256,4221.538358,4224.615281,4221.025538,4211.281948,4235.897332,4224.615281,4238.974255,4229.230666
128,0,4216.922974,4228.205025,4234.358871,4197.948615,4213.33323,4211.794769,4206.153743,4208.205025,4211.281948,4187.692205,4211.281948,4205.640923,4221.025538,4212.307589
0,0,4206.666564,4217.435794,4238.974255,4168.205026,4209.230666,4207.692205,4192.82041,4198.461436,4206.666564,4171.281949,4190.256308,4193.846051,4206.666564,4195.897333
1,0,4218.974256,4230.256307,4218.974256,4229.743486,4225.640922,4211.794769,4213.846051,4217.948615,4217.435794,4194.871692,4212.307589,4207.692205,4218.974256,4209.743487
2,0,4219.487076,4230.256307,4206.153743,4251.794768,4234.358871,4214.358871,4219.487076,4228.205025,4218.974256,4209.230666,4221.025538,4208.205025,4222.051179,4213.846051
3,0,4210.256307,4221.538358,4214.358871,4216.922974,4212.307589,4215.897333,4203.07682,4216.410153,4212.82041,4200.512718,4202.051179,4196.410154,4214.358871,4199.999897
4,0,4210.769128,4219.487076,4220.512717,4206.666564,4198.974256,4212.307589,4199.999897,4205.128102,4214.358871,4196.922974,4196.922974,4196.410154,4212.307589,4194.871692
5,0,4216.922974,4223.07682,4218.974256,4224.102461,4214.871692,4202.051179,4199.999897,4198.974256,4215.897333,4194.871692,4212.307589,4204.102461,4215.384512,4203.589641
6,0,4227.692204,4237.948614,4215.384512,4256.922973,4225.128102,4205.128102,4200.512718,4204.615282,4214.871692,4192.82041,4229.230666,4217.435794,4225.640922,4224.102461
7,0,4236.922973,4250.769127,4214.871692,4278.974254,4221.538358,4221.025538,4209.743487,4214.871692,4215.384512,4204.615282,4233.33323,4226.153743,4235.897332,4236.410153
8,0,4237.435794,4250.256306,4223.58964,4257.435793,4231.794768,4216.410153,4209.230666,4209.230666,4216.410153,4210.256307,4224.615281,4222.563999,4233.84605,4226.666563
9,0,4228.205025,4242.051178,4231.794768,4227.692204,4232.820409,4201.025538,4198.461436,4198.974256,4213.33323,4195.384513,4210.769128,4210.256307,4221.025538,4215.897333
10,0,4217.948615,4234.358871,4230.769127,4232.307589,4213.846051,4208.717846,4204.615282,4201.538359,4205.128102,4185.640923,4207.692205,4204.102461,4214.871692,4218.974256
11,0,4222.563999,4236.410153,4224.615281,4248.717845,4216.410153,4225.640922,4221.025538,4212.307589,4207.179384,4196.410154,4213.33323,4208.717846,4225.128102,4220.512717
12,0,4232.307589,4245.128101,4221.538358,4249.230665,4236.410153,4225.128102,4219.487076,4217.435794,4219.487076,4206.666564,4220.512717,4214.871692,4233.33323,4218.974256
13,0,4222.051179,4237.435794,4225.640922,4222.563999,4233.33323,4210.769128,4205.128102,4208.717846,4215.384512,4194.871692,4216.410153,4206.666564,4222.563999,4211.281948
14,0,4212.307589,4225.640922,4233.84605,4193.333231,4215.384512,4208.717846,4196.922974,4195.384513,4201.025538,4184.615282,4203.589641,4194.871692,4210.256307,4199.487077
15,0,4223.07682,4230.769127,4235.384512,4195.384513,4214.358871,4212.82041,4200.512718,4197.948615,4206.153743,4190.256308,4196.922974,4198.461436,4211.794769,4199.999897
16,0,4225.128102,4232.820409,4232.307589,4199.487077,4219.999897,4205.640923,4201.538359,4210.769128,4216.410153,4190.256308,4197.435795,4200.512718,4217.948615,4202.564
17,0,4216.410153,4227.692204,4230.769127,4197.435795,4219.487076,4206.666564,4199.999897,4216.922974,4213.846051,4192.30759,4208.205025,4197.948615,4219.487076,4205.640923
18,0,4217.948615,4230.256307,4229.743486,4209.230666,4216.922974,4216.922974,4204.102461,4215.384512,4212.82041,4197.435795,4216.410153,4203.07682,4217.948615,4214.358871
19,0,4217.435794,4228.717845,4233.33323,4206.153743,4215.384512,4216.922974,4202.051179,4210.256307,4214.358871,4191.281949,4207.692205,4202.564,4215.384512,4206.666564
20,0,4217.435794,4225.640922,4234.871691,4197.948615,4227.692204,4214.871692,4204.102461,4213.33323,4214.358871,4196.922974,4206.666564,4199.487077,4216.410153,4198.974256
21,0,4224.102461,4232.820409,4232.307589,4206.153743,4239.487076,4219.999897,4214.358871,4218.974256,4214.358871,4215.384512,4214.358871,4201.538359,4218.974256,4213.33323
22,0,4223.07682,4232.307589,4227.692204,4198.974256,4232.307589,4216.410153,4214.871692,4212.307589,4213.846051,4206.153743,4207.692205,4199.999897,4212.307589,4214.871692
23,0,4221.538358,4225.640922,4221.538358,4186.153744,4226.666563,4214.871692,4210.769128,4212.82041,4213.33323,4193.846051,4198.461436,4198.974256,4209.743487,4204.102461
24,0,4225.128102,4229.743486,4219.999897,4197.948615,4235.384512,4222.563999,4216.410153,4228.717845,4216.922974,4204.615282,4204.102461,4204.102461,4215.897333,4209.230666
25,0,4212.82041,4224.615281,4214.358871,4204.102461,4225.128102,4213.846051,4211.794769,4223.58964,4215.384512,4194.358872,4200.512718,4201.538359,4205.640923,4206.153743
26,0,4205.640923,4209.743487,4206.153743,4207.692205,4207.692205,4207.179384,4207.692205,4207.692205,4212.82041,4184.102462,4194.358872,4194.358872,4194.871692,4194.358872
27,0,4217.948615,4214.358871,4210.256307,4217.435794,4222.051179,4216.922974,4217.948615,4218.974256,4215.897333,4204.102461,4201.538359,4200.512718,4207.692205,4205.128102
28,0,4221.538358,4226.153743,4221.538358,4202.564,4236.922973,4218.974256,4216.410153,4229.743486,4216.922974,4208.717846,4201.538359,4205.640923,4215.384512,4217.435794
29,0,4223.07682,4228.717845,4218.974256,4199.487077,4227.692204,4219.487076,4215.897333,4225.640922,4215.384512,4199.487077,4204.102461,4205.640923,4207.692205,4214.358871
30,0,4230.769127,4228.717845,4212.82041,4229.743486,4230.769127,4233.84605,4232.307589,4234.358871,4218.974256,4208.717846,4216.410153,4211.281948,4211.794769,4214.358871
31,0,4219.999897,4220.512717,4213.33323,4233.33323,4232.820409,4234.871691,4230.256307,4237.948614,4217.948615,4207.179384,4218.461435,4214.871692,4217.948615,4214.871692
32,0,4212.307589,4215.384512,4213.846051,4221.025538,4219.487076,4220.512717,4215.384512,4230.769127,4217.948615,4203.589641,4217.435794,4213.846051,4214.871692,4212.82041
33,0,4226.666563,4223.07682,4215.384512,4230.769127,4224.102461,4218.974256,4222.563999,4240.512717,4223.58964,4227.692204,4218.974256,4218.974256,4217.948615,4217.948615
34,0,4225.640922,4218.461435,4210.769128,4226.153743,4227.692204,4215.384512,4223.07682,4240.512717,4222.051179,4230.256307,4206.666564,4213.33323,4214.358871,4215.384512
35,0,4214.358871,4213.846051,4208.205025,4214.358871,4214.871692,4211.281948,4213.846051,4226.666563,4223.07682,4207.692205,4202.051179,4206.153743,4208.205025,4208.205025
36,0,4228.717845,4230.769127,4212.307589,4236.410153,4223.58964,4226.666563,4230.256307,4237.948614,4230.256307,4223.07682,4226.153743,4222.051179,4225.128102,4222.563999
37,0,4238.461435,4236.922973,4208.717846,4255.384511,4238.974255,4239.487076,4242.563999,4255.897332,4229.230666,4244.10246,4239.487076,4231.794768,4238.461435,4238.974255
38,0,4220.512717,4216.922974,4199.487077,4236.410153,4229.230666,4225.640922,4222.051179,4243.076819,4223.07682,4219.999897,4219.999897,4215.384512,4221.025538,4223.58964
39,0,4217.435794,4212.307589,4199.487077,4233.84605,4222.051179,4213.33323,4214.871692,4233.33323,4226.153743,4207.179384,4210.769128,4209.230666,4209.743487,4211.794769
40,0,4240.512717,4239.487076,4205.128102,4278.974254,4233.33323,4229.230666,4243.58964,4257.435793,4234.871691,4239.999896,4237.435794,4229.230666,4229.743486,4236.922973
41,0,4246.666563,4251.794768,4202.564,4301.538356,4237.948614,4239.999896,4251.281947,4268.205024,4234.871691,4254.871691,4255.384511,4241.025537,4242.051178,4255.384511
42,0,4227.692204,4230.769127,4201.025538,4264.10246,4231.281948,4226.666563,4225.640922,4244.615281,4224.615281,4230.256307,4230.769127,4224.615281,4225.640922,4236.410153
43,0,4210.256307,4211.794769,4209.230666,4216.410153,4222.563999,4211.794769,4209.230666,4221.025538,4212.82041,4207.179384,4196.922974,4196.922974,4206.153743,4207.179384
44,0,4210.769128,4218.461435,4212.307589,4219.999897,4226.153743,4216.410153,4219.487076,4226.153743,4214.358871,4204.102461,4197.435795,4196.410154,4207.179384,4201.025538
45,0,4227.179384,4239.487076,4203.589641,4266.153742,4242.563999,4229.230666,4232.820409,4244.10246,4225.128102,4217.948615,4226.153743,4224.102461,4227.692204,4222.563999
46,0,4240.512717,4252.820409,4203.589641,4290.256305,4246.153742,4234.358871,4237.948614,4248.717845,4228.717845,4233.33323,4238.461435,4233.33323,4239.487076,4244.10246
47,0,4231.281948,4244.615281,4216.922974,4259.999896,4237.435794,4230.769127,4233.84605,4237.948614,4221.538358,4229.230666,4218.461435,4216.410153,4224.615281,4232.307589
48,0,4214.871692,4222.051179,4222.051179,4211.281948,4229.743486,4220.512717,4218.974256,4222.051179,4213.33323,4210.769128,4201.025538,4201.538359,4203.589641,4204.615282
49,0,4212.82041,4213.33323,4215.384512,4201.538359,4221.025538,4208.717846,4202.564,4213.846051,4212.82041,4202.564,4196.922974,4198.461436,4200.512718,4200.512718
50,0,4222.563999,4222.051179,4212.82041,4220.512717,4216.410153,4208.717846,4201.025538,4216.410153,4214.871692,4206.666564,4194.358872,4203.589641,4208.205025,4215.384512
51,0,4221.538358,4218.974256,4222.563999,4198.974256,4217.948615,4209.743487,4206.153743,4214.871692,4208.717846,4192.82041,4190.769128,4202.564,4202.051179,4208.717846
52,0,4201.538359,4197.435795,4234.358871,4139.999899,4211.794769,4197.948615,4193.846051,4193.333231,4197.948615,4165.128103,4180.512718,4186.153744,4185.640923,4181.025539
53,0,4195.897333,4193.333231,4237.948614,4137.435796,4206.666564,4200.512718,4187.179385,4185.128103,4197.435795,4173.333231,4179.487077,4183.589641,4184.615282,4181.538359
54,0,4213.33323,4212.82041,4231.794768,4181.538359,4215.384512,4218.974256,4205.640923,4207.179384,4210.769128,4202.051179,4195.897333,4199.999897,4201.025538,4202.564
55,0,4221.025538,4218.461435,4215.384512,4202.564,4220.512717,4216.410153,4214.871692,4216.922974,4214.871692,4203.07682,4201.025538,4202.051179,4207.692205,4205.128102
56,0,4225.128102,4220.512717,4201.538359,4227.179384,4223.07682,4213.33323,4213.846051,4216.922974,4214.358871,4205.128102,4204.102461,4202.564,4212.307589,4211.794769
57,0,4232.820409,4232.307589,4211.794769,4246.153742,4233.33323,4220.512717,4216.922974,4232.820409,4223.07682,4218.974256,4227.692204,4220.512717,4226.666563,4232.820409
58,0,4223.58964,4225.640922,4224.102461,4219.487076,4232.307589,4210.256307,4210.769128,4237.948614,4224.102461,4208.205025,4232.307589,4226.153743,4225.640922,4229.743486
59,0,4217.948615,4213.846051,4217.435794,4211.281948,4220.512717,4202.564,4201.025538,4225.128102,4214.871692,4201.025538,4213.33323,4216.922974,4212.82041,4218.974256
60,0,4234.358871,4229.230666,4218.974256,4236.922973,4224.102461,4219.487076,4213.846051,4228.205025,4215.897333,4224.615281,4218.461435,4223.07682,4218.974256,4229.230666
61,0,4238.461435,4241.538358,4229.230666,4233.84605,4236.410153,4228.205025,4226.666563,4236.410153,4221.538358,4232.307589,4236.922973,4230.256307,4234.871691,4238.974255
62,0,4227.179384,4226.153743,4229.230666,4207.179384,4231.794768,4215.897333,4212.307589,4226.153743,4217.435794,4218.461435,4230.769127,4223.58964,4231.281948,4232.307589
63,0,4225.128102,4215.384512,4224.615281,4197.948615,4213.846051,4205.640923,4199.487077,4214.358871,4215.384512,4212.307589,4214.871692,4213.33323,4216.922974,4223.58964
64,0,4227.179384,4222.051179,4225.128102,4206.666564,4210.769128,4211.281948,4209.743487,4217.948615,4215.897333,4214.358871,4223.58964,4213.846051,4221.538358,4225.640922
65,0,4234.871691,4234.871691,4227.692204,4229.230666,4226.666563,4228.205025,4226.666563,4231.794768,4218.974256,4225.128102,4241.538358,4226.666563,4235.384512,4234.358871
66,0,4245.640922,4243.58964,4228.205025,4257.435793,4237.948614,4236.922973,4235.384512,4238.974255,4226.153743,4238.974255,4242.051178,4237.435794,4239.487076,4242.051178
67,0,4238.974255,4238.974255,4229.743486,4245.640922,4233.84605,4225.128102,4227.692204,4227.692204,4226.666563,4234.358871,4230.769127,4229.743486,4234.871691,4236.922973
68,0,4224.102461,4226.153743,4231.281948,4195.384513,4221.025538,4204.615282,4203.07682,4199.999897,4213.846051,4211.794769,4216.410153,4208.717846,4222.051179,4210.256307
69,0,4219.999897,4215.897333,4233.33323,4159.487078,4209.743487,4198.461436,4185.128103,4184.102462,4205.128102,4195.897333,4198.974256,4201.025538,4206.153743,4184.615282
70,0,4212.307589,4203.589641,4241.538358,4132.820412,4200.512718,4203.07682,4183.589641,4180.512718,4205.128102,4182.05118,4186.153744,4194.871692,4194.871692,4170.769129
71,0,4198.974256,4188.717846,4244.10246,4119.999899,4195.897333,4199.999897,4181.538359,4170.256308,4197.948615,4169.230667,4183.076821,4182.564,4189.743487,4160.512719
72,0,4204.615282,4190.769128,4231.281948,4144.102463,4203.589641,4193.846051,4186.666564,4167.692206,4195.384513,4178.461436,4182.564,4185.128103,4191.281949,4156.410155
73,0,4218.974256,4208.205025,4227.179384,4159.487078,4215.897333,4200.512718,4196.922974,4182.05118,4207.179384,4197.948615,4188.205026,4196.922974,4202.564,4165.640924
74,0,4225.640922,4216.922974,4239.487076,4158.974257,4221.538358,4211.794769,4201.025538,4194.871692,4216.922974,4204.615282,4203.589641,4203.589641,4214.358871,4179.487077
75,0,4231.794768,4219.487076,4233.84605,4195.384513,4216.922974,4214.358871,4208.717846,4199.999897,4216.922974,4204.615282,4218.974256,4208.717846,4217.435794,4187.692205
76,0,4233.33323,4221.025538,4216.922974,4219.487076,4214.358871,4216.922974,4214.358871,4200.512718,4214.871692,4199.487077,4216.410153,4209.230666,4215.897333,4181.538359
77,0,4229.230666,4216.410153,4219.487076,4191.794769,4218.974256,4214.358871,4204.615282,4191.794769,4215.897333,4192.82041,4204.102461,4199.999897,4214.871692,4168.205026
78,0,4227.179384,4209.230666,4227.692204,4180.512718,4212.82041,4205.128102,4195.897333,4182.564,4210.769128,4194.358872,4196.922974,4195.897333,4209.230666,4162.05118
79,0,4229.230666,4211.794769,4229.743486,4194.358872,4205.128102,4207.692205,4203.589641,4191.794769,4210.256307,4200.512718,4200.512718,4202.051179,4207.692205,4159.487078
80,0,4231.281948,4217.435794,4231.794768,4189.230667,4213.33323,4216.922974,4207.179384,4197.948615,4214.871692,4204.615282,4207.692205,4203.589641,4215.897333,4164.615283
81,0,4232.820409,4215.897333,4233.33323,4184.615282,4218.461435,4214.358871,4198.974256,4186.153744,4212.82041,4201.025538,4212.307589,4201.025538,4221.025538,4174.358872
82,0,4230.256307,4209.743487,4229.743486,4189.230667,4215.897333,4213.33323,4200.512718,4182.05118,4210.256307,4189.743487,4213.846051,4201.538359,4215.897333,4168.205026
83,0,4222.563999,4204.615282,4228.205025,4175.384513,4215.897333,4215.384512,4205.640923,4186.666564,4208.205025,4184.102462,4202.051179,4199.999897,4209.230666,4155.384514
84,0,4214.358871,4197.435795,4241.538358,4137.948617,4205.640923,4198.461436,4191.794769,4175.384513,4201.538359,4185.640923,4184.615282,4190.256308,4201.538359,4151.79477
85,0,4214.358871,4196.410154,4251.281947,4131.794771,4193.846051,4191.794769,4181.025539,4169.743488,4199.999897,4187.179385,4187.692205,4187.179385,4199.999897,4150.769129
86,0,4218.974256,4211.281948,4239.487076,4175.897334,4203.589641,4210.769128,4198.461436,4187.692205,4206.153743,4197.948615,4206.666564,4200.512718,4212.307589,4154.871693
87,0,4219.487076,4214.358871,4227.179384,4200.512718,4206.666564,4211.794769,4208.717846,4189.230667,4203.07682,4201.025538,4208.205025,4203.589641,4214.871692,4156.410155
88,0,4222.051179,4205.128102,4227.179384,4199.999897,4202.051179,4197.435795,4195.897333,4177.435795,4203.589641,4190.256308,4204.615282,4195.897333,4209.743487,4158.461437
89,0,4232.820409,4213.33323,4227.179384,4218.974256,4217.948615,4205.128102,4197.948615,4191.794769,4215.897333,4200.512718,4222.051179,4208.205025,4221.025538,4173.333231
90,0,4242.051178,4236.410153,4230.256307,4233.84605,4236.410153,4221.025538,4215.897333,4214.871692,4221.538358,4228.717845,4235.384512,4224.615281,4235.897332,4188.205026
91,0,4246.666563,4248.717845,4231.281948,4233.84605,4230.256307,4224.102461,4221.538358,4216.410153,4219.487076,4235.897332,4238.974255,4222.051179,4241.025537,4193.846051
92,0,4248.205024,4242.563999,4221.538358,4249.743486,4217.948615,4224.615281,4218.974256,4213.846051,4219.999897,4222.563999,4241.538358,4223.07682,4239.487076,4194.871692
93,0,4242.051178,4235.384512,4217.435794,4265.640921,4219.487076,4222.051179,4219.999897,4216.410153,4218.974256,4215.384512,4237.948614,4227.692204,4234.871691,4186.153744
94,0,4233.33323,4232.307589,4225.640922,4250.769127,4223.58964,4213.846051,4220.512717,4210.256307,4215.897333,4217.948615,4233.33323,4221.025538,4230.769127,4174.871693
95,0,4231.281948,4233.84605,4232.820409,4217.435794,4220.512717,4214.358871,4213.33323,4199.999897,4216.410153,4221.025538,4230.769127,4212.307589,4232.307589,4177.435795
96,0,4226.153743,4227.179384,4236.410153,4187.692205,4213.33323,4214.358871,4203.07682,4195.384513,4212.307589,4216.410153,4222.051179,4205.128102,4230.769127,4176.922975
97,0,4215.897333,4214.871692,4231.281948,4190.256308,4209.743487,4203.07682,4195.384513,4189.743487,4205.640923,4203.589641,4213.33323,4197.435795,4222.563999,4165.640924
98,0,4220.512717,4220.512717,4218.461435,4221.025538,4214.358871,4205.128102,4195.384513,4184.102462,4203.589641,4199.999897,4213.33323,4198.974256,4222.051179,4165.128103
99,0,4233.84605,4232.820409,4214.358871,4230.256307,4216.410153,4217.435794,4201.025538,4188.717846,4204.615282,4203.07682,4216.410153,4203.07682,4227.692204,4171.79477
100,0,4229.230666,4229.743486,4220.512717,4209.230666,4213.33323,4210.256307,4200.512718,4195.897333,4208.717846,4198.974256,4222.563999,4199.487077,4227.692204,4168.717847
101,0,4221.538358,4223.58964,4224.615281,4207.179384,4214.358871,4202.564,4199.999897,4197.948615,4213.846051,4204.102461,4228.717845,4198.461436,4227.179384,4167.179385
102,0,4230.256307,4232.307589,4226.153743,4221.538358,4219.999897,4211.794769,4209.743487,4201.025538,4215.897333,4220.512717,4229.743486,4202.564,4232.307589,4171.79477
103,0,4232.820409,4236.410153,4233.33323,4206.153743,4219.999897,4217.948615,4213.33323,4203.07682,4215.384512,4218.461435,4225.128102,4203.07682,4228.717845,4169.743488
104,0,4227.692204,4231.794768,4238.974255,4189.743487,4222.051179,4215.384512,4207.179384,4201.538359,4216.922974,4205.128102,4221.025538,4203.07682,4224.615281,4173.333231
105,0,4228.205025,4229.743486,4234.358871,4195.897333,4215.384512,4212.307589,4206.153743,4197.435795,4213.846051,4199.487077,4219.999897,4202.564,4228.205025,4181.538359
106,0,4232.307589,4231.794768,4229.743486,4202.051179,4202.051179,4208.205025,4205.640923,4196.410154,4211.281948,4201.025538,4224.615281,4201.025538,4228.205025,4184.102462
107,0,4238.974255,4245.640922,4233.84605,4218.461435,4212.307589,4210.769128,4204.102461,4197.435795,4215.897333,4209.230666,4230.769127,4207.179384,4229.743486,4189.230667
108,0,4247.179383,4254.871691,4229.230666,4243.58964,4227.692204,4217.948615,4211.281948,4197.435795,4212.82041,4209.230666,4226.666563,4210.256307,4236.922973,4199.999897
109,0,4261.025537,4258.974255,4215.384512,4260.512716,4227.179384,4218.461435,4220.512717,4204.615282,4212.82041,4209.743487,4232.307589,4216.922974,4252.307588,4222.563999
110,0,4286.153741,4287.179382,4221.538358,4280.512716,4228.205025,4214.871692,4219.487076,4216.922974,4225.128102,4227.179384,4258.461434,4237.435794,4281.538357,4266.153742
111,0,4312.307587,4325.128099,4242.563999,4306.666561,4235.897332,4214.358871,4216.410153,4220.512717,4228.205025,4238.461435,4279.487075,4255.384511,4307.692202,4310.769125
112,0,4322.051176,4332.307586,4246.153742,4301.025536,4233.33323,4214.358871,4216.922974,4216.922974,4217.948615,4226.666563,4279.999895,4257.948614,4311.794766,4326.666561
113,0,4321.025535,4328.717843,4237.435794,4285.1281,4225.640922,4215.384512,4218.974256,4216.410153,4215.384512,4217.435794,4278.461434,4259.487075,4314.871689,4327.692202
114,0,4325.128099,4340.512714,4242.051178,4291.281946,4223.58964,4216.922974,4218.974256,4218.461435,4219.999897,4223.58964,4283.076818,4266.666562,4329.743484,4334.358868
115,0,4329.743484,4338.974253,4248.205024,4293.846049,4229.743486,4213.33323,4215.897333,4216.922974,4217.948615,4229.230666,4285.1281,4261.025537,4331.794766,4336.41015
116,0,4320.512715,4321.538356,4237.948614,4292.307587,4237.948614,4214.871692,4217.948615,4213.846051,4218.461435,4231.281948,4281.025536,4252.820409,4318.461433,4324.102458
117,0,4297.435792,4310.256305,4229.743486,4293.846049,4233.33323,4218.461435,4214.358871,4204.615282,4219.487076,4227.179384,4266.153742,4244.10246,4304.102459,4299.999895
118,0,4285.640921,4304.102459,4229.230666,4297.435792,4224.615281,4215.384512,4211.794769,4203.589641,4217.435794,4224.615281,4257.948614,4237.435794,4294.358869,4277.948613
119,0,4287.179382,4296.410151,4231.281948,4294.87169,4230.769127,4221.025538,4224.615281,4223.07682,4224.102461,4233.84605,4269.230665,4241.025537,4291.794767,4269.230665
120,0,4274.87169,4280.512716,4231.281948,4283.076818,4237.948614,4227.692204,4235.384512,4230.256307,4228.205025,4236.922973,4267.692203,4238.461435,4283.076818,4259.487075
121,0,4260.512716,4269.230665,4222.051179,4288.717844,4234.358871,4224.615281,4232.820409,4219.487076,4228.205025,4230.256307,4251.281947,4231.794768,4270.256306,4244.615281
122,0,4264.10246,4273.333229,4220.512717,4291.794767,4230.769127,4224.102461,4228.717845,4217.948615,4229.230666,4219.999897,4249.230665,4227.179384,4265.640921,4235.384512
123,0,4257.948614,4265.128101,4231.794768,4255.384511,4233.84605,4225.128102,4220.512717,4214.358871,4222.051179,4208.717846,4245.128101,4217.435794,4255.897332,4227.179384
124,0,4234.871691,4236.410153,4236.410153,4201.538359,4228.205025,4217.435794,4209.743487,4197.948615,4209.743487,4198.974256,4223.07682,4199.999897,4234.871691,4203.07682
125,0,4226.153743,4225.128102,4234.871691,4187.179385,4214.358871,4212.307589,4213.846051,4190.769128,4209.743487,4198.461436,4209.230666,4193.333231,4228.717845,4181.025539
126,0,4236.922973,4235.384512,4225.128102,4230.256307,4214.871692,4212.307589,4219.999897,4199.999897,4218.974256,4206.666564,4223.58964,4204.615282,4241.538358,4188.717846
127,0,4242.563999,4242.051178,4212.82041,4277.435793,4228.717845,4218.461435,4215.897333,4211.281948,4219.487076,4214.871692,4240.512717,4214.871692,4247.692204,4208.205025
128,0,4244.615281,4249.743486,4221.025538,4273.333229,4236.410153,4231.281948,4225.640922,4225.128102,4218.974256,4222.051179,4239.487076,4222.051179,4249.743486,4212.307589
0,0,4246.153742,4249.743486,4231.794768,4252.820409,4226.666563,4227.692204,4235.384512,4231.794768,4224.102461,4221.025538,4231.794768,4219.999897,4253.333229,4205.640923
1,0,4237.948614,4233.84605,4229.230666,4244.615281,4214.871692,4212.82041,4223.07682,4224.615281,4224.615281,4213.846051,4230.256307,4214.358871,4249.230665,4197.435795
2,0,4233.84605,4228.717845,4242.051178,4215.897333,4224.102461,4215.384512,4214.871692,4217.435794,4218.974256,4215.384512,4235.897332,4216.922974,4242.051178,4193.846051
3,0,4236.410153,4230.256307,4260.512716,4177.435795,4236.410153,4213.33323,4215.384512,4210.769128,4214.871692,4216.410153,4229.743486,4218.461435,4239.999896,4191.794769
4,0,4235.384512,4219.487076,4257.948614,4162.05118,4224.102461,4202.051179,4205.128102,4200.512718,4214.871692,4206.666564,4215.384512,4206.666564,4232.820409,4187.179385
5,0,4225.128102,4208.717846,4250.769127,4160.512719,4211.281948,4206.153743,4202.051179,4195.384513,4214.358871,4197.435795,4211.281948,4195.897333,4218.461435,4180.512718
6,0,4225.128102,4214.358871,4242.563999,4184.102462,4225.640922,4219.487076,4217.435794,4205.128102,4217.435794,4204.615282,4213.846051,4204.102461,4218.974256,4178.974257
7,0,4239.999896,4227.692204,4231.281948,4217.435794,4238.461435,4223.07682,4223.58964,4212.82041,4221.025538,4212.307589,4216.922974,4218.461435,4231.794768,4190.769128
8,0,4239.487076,4227.692204,4230.256307,4226.666563,4226.666563,4216.922974,4216.410153,4205.128102,4216.410153,4210.256307,4223.07682,4219.999897,4232.307589,4197.948615
9,0,4229.743486,4223.58964,4231.794768,4239.999896,4218.461435,4216.410153,4220.512717,4208.717846,4217.435794,4218.461435,4233.33323,4217.435794,4228.717845,4196.410154
10,0,4238.974255,4230.256307,4231.794768,4264.10246,4237.435794,4229.743486,4239.999896,4233.84605,4229.230666,4239.999896,4239.487076,4226.666563,4244.10246,4204.615282
11,0,4254.871691,4238.974255,4232.820409,4275.384511,4258.461434,4239.999896,4251.281947,4248.205024,4237.435794,4250.769127,4249.230665,4243.076819,4259.999896,4218.974256
12,0,4248.205024,4237.435794,4235.384512,4265.128101,4256.922973,4234.871691,4243.58964,4240.512717,4232.307589,4249.230665,4261.538357,4245.640922,4257.435793,4222.563999
13,0,4236.922973,4230.769127,4245.640922,4231.794768,4247.692204,4228.205025,4232.307589,4230.256307,4221.538358,4239.999896,4250.769127,4230.256307,4247.179383,4213.33323
14,0,4232.820409,4222.051179,4254.35887,4194.871692,4238.461435,4227.692204,4223.58964,4222.563999,4217.435794,4219.999897,4224.615281,4218.461435,4233.33323,4197.948615
15,0,4222.563999,4211.794769,4241.538358,4189.743487,4228.205025,4221.025538,4216.410153,4214.871692,4216.922974,4210.769128,4212.82041,4216.410153,4222.051179,4182.564
16,0,4217.948615,4213.33323,4225.640922,4213.33323,4231.281948,4213.33323,4219.999897,4216.410153,4216.922974,4221.538358,4217.948615,4213.33323,4224.102461,4181.538359
17,0,4227.179384,4223.07682,4230.256307,4224.102461,4238.461435,4220.512717,4229.743486,4227.179384,4222.051179,4229.743486,4223.58964,4214.871692,4229.743486,4190.769128
18,0,4234.358871,4227.692204,4234.358871,4219.487076,4231.281948,4231.794768,4233.33323,4235.384512,4231.794768,4235.384512,4230.256307,4225.128102,4232.820409,4198.461436
19,0,4237.435794,4229.743486,4221.538358,4230.256307,4228.205025,4229.743486,4231.281948,4235.384512,4234.871691,4250.769127,4244.10246,4234.358871,4243.076819,4211.281948
20,0,4239.487076,4230.256307,4211.794769,4249.743486,4243.076819,4225.128102,4230.256307,4233.33323,4230.256307,4252.307588,4252.307588,4233.84605,4252.820409,4216.410153
21,0,4242.051178,4234.358871,4218.974256,4247.692204,4250.256306,4231.794768,4233.84605,4231.794768,4225.640922,4239.487076,4246.153742,4233.33323,4246.666563,4210.256307
22,0,4239.487076,4231.281948,4229.743486,4216.922974,4238.461435,4224.615281,4230.256307,4225.128102,4219.487076,4236.922973,4236.410153,4231.281948,4234.358871,4203.07682
23,0,4228.717845,4214.871692,4232.820409,4179.487077,4228.717845,4208.717846,4214.358871,4213.846051,4213.33323,4236.410153,4228.205025,4218.974256,4225.640922,4193.846051
24,0,4221.538358,4209.743487,4232.307589,4169.743488,4228.205025,4219.487076,4212.307589,4213.846051,4216.922974,4231.794768,4221.538358,4212.82041,4226.153743,4185.640923
25,0,4226.666563,4217.948615,4232.307589,4184.102462,4228.205025,4229.743486,4225.640922,4219.999897,4224.615281,4229.230666,4220.512717,4215.897333,4230.769127,4184.102462
26,0,4232.307589,4219.999897,4228.717845,4193.333231,4229.230666,4216.922974,4230.256307,4219.999897,4227.692204,4232.820409,4226.666563,4215.384512,4231.281948,4190.769128
27,0,4233.33323,4223.07682,4220.512717,4202.564,4226.666563,4215.897333,4227.179384,4222.563999,4227.692204,4237.435794,4230.769127,4213.33323,4230.769127,4199.999897
28,0,4232.820409,4228.717845,4214.871692,4220.512717,4229.743486,4231.794768,4231.281948,4230.256307,4228.205025,4235.897332,4233.84605,4216.922974,4232.820409,4205.640923
29,0,4226.153743,4222.563999,4218.974256,4221.538358,4243.076819,4232.307589,4233.84605,4233.33323,4229.743486,4236.922973,4237.948614,4219.487076,4234.871691,4205.128102
30,0,4224.102461,4215.384512,4226.666563,4207.179384,4241.538358,4222.051179,4228.205025,4229.230666,4229.743486,4247.179383,4235.897332,4218.974256,4234.358871,4202.564
31,0,4228.717845,4217.948615,4232.307589,4189.230667,4228.717845,4221.538358,4221.538358,4222.563999,4225.640922,4248.205024,4228.717845,4215.897333,4231.281948,4201.025538
32,0,4226.153743,4217.435794,4232.307589,4180.512718,4229.743486,4221.025538,4215.384512,4215.384512,4219.487076,4231.794768,4224.102461,4211.794769,4227.692204,4197.948615
33,0,4227.692204,4216.922974,4229.743486,4192.30759,4234.871691,4219.999897,4219.999897,4215.897333,4217.948615,4231.281948,4229.230666,4215.384512,4229.743486,4196.922974
34,0,4230.256307,4219.487076,4229.743486,4192.30759,4230.769127,4218.461435,4227.179384,4220.512717,4218.461435,4240.512717,4234.871691,4214.358871,4235.384512,4198.461436
35,0,4219.999897,4217.435794,4229.743486,4182.05118,4230.256307,4214.358871,4220.512717,4215.897333,4215.384512,4230.769127,4229.230666,4204.102461,4234.871691,4201.025538
36,0,4219.487076,4224.102461,4228.717845,4199.487077,4233.84605,4223.07682,4217.435794,4216.410153,4217.435794,4228.717845,4229.743486,4208.717846,4235.897332,4204.615282
37,0,4230.256307,4232.307589,4225.640922,4213.33323,4229.743486,4229.743486,4219.487076,4221.025538,4219.487076,4243.58964,4234.871691,4219.999897,4234.871691,4199.487077
38,0,4229.230666,4229.230666,4216.922974,4209.230666,4232.307589,4221.538358,4216.922974,4213.846051,4217.948615,4246.153742,4230.769127,4213.846051,4230.769127,4195.384513
39,0,4229.743486,4229.230666,4210.769128,4231.281948,4243.076819,4223.07682,4224.615281,4216.410153,4224.102461,4240.512717,4235.897332,4213.846051,4239.999896,4213.33323
40,0,4238.461435,4235.897332,4212.82041,4251.281947,4241.025537,4232.307589,4236.922973,4232.820409,4235.384512,4247.692204,4246.666563,4229.743486,4250.769127,4230.769127
41,0,4235.384512,4234.871691,4219.999897,4235.384512,4234.871691,4228.205025,4232.820409,4234.871691,4233.84605,4253.333229,4245.640922,4232.307589,4247.179383,4223.07682
42,0,4229.743486,4232.307589,4219.487076,4231.794768,4240.512717,4224.615281,4229.230666,4230.769127,4226.666563,4246.666563,4243.58964,4226.153743,4247.179383,4217.948615
43,0,4233.84605,4235.897332,4216.410153,4235.897332,4238.461435,4233.33323,4237.435794,4234.358871,4228.717845,4237.435794,4242.563999,4225.128102,4249.743486,4219.999897
44,0,4232.307589,4231.281948,4225.640922,4210.256307,4229.230666,4231.281948,4231.794768,4229.230666,4228.717845,4233.33323,4233.33323,4217.435794,4236.410153,4205.640923
45,0,4228.205025,4219.999897,4232.307589,4188.717846,4232.307589,4221.538358,4219.999897,4217.948615,4220.512717,4234.871691,4225.640922,4205.128102,4225.640922,4196.922974
46,0,4226.666563,4217.435794,4221.538358,4198.974256,4236.922973,4216.922974,4215.384512,4212.82041,4215.897333,4230.769127,4228.205025,4201.025538,4230.769127,4203.589641
47,0,4223.58964,4219.487076,4211.794769,4209.230666,4230.256307,4216.922974,4209.230666,4212.82041,4217.435794,4223.58964,4228.717845,4205.128102,4227.179384,4195.897333
48,0,4211.794769,4208.717846,4222.051179,4182.05118,4218.974256,4214.358871,4201.025538,4210.256307,4216.922974,4216.922974,4213.33323,4201.538359,4208.717846,4174.871693
49,0,4205.128102,4196.410154,4232.307589,4139.999899,4210.769128,4204.102461,4198.461436,4203.07682,4212.307589,4202.564,4196.410154,4188.717846,4204.615282,4168.717847
50,0,4213.846051,4199.487077,4231.281948,4143.076822,4209.743487,4199.999897,4202.051179,4197.435795,4212.307589,4199.999897,4201.538359,4185.640923,4216.410153,4178.461436
51,0,4216.922974,4204.102461,4226.153743,4174.871693,4213.33323,4202.051179,4198.974256,4195.384513,4212.307589,4211.281948,4213.846051,4193.333231,4219.487076,4183.076821
52,0,4215.384512,4208.205025,4220.512717,4197.435795,4229.230666,4208.205025,4199.487077,4198.974256,4214.358871,4221.025538,4218.974256,4205.640923,4222.563999,4186.153744
53,0,4233.84605,4226.153743,4219.487076,4235.897332,4247.692204,4223.58964,4219.999897,4222.563999,4226.666563,4233.84605,4239.999896,4226.153743,4240.512717,4207.692205
54,0,4252.307588,4245.128101,4218.461435,4279.999895,4252.820409,4238.461435,4240.512717,4246.153742,4238.461435,4254.35887,4264.10246,4241.538358,4253.84605,4233.84605
55,0,4250.256306,4247.692204,4212.82041,4277.948613,4250.256306,4236.922973,4236.922973,4241.025537,4236.410153,4258.974255,4258.974255,4236.410153,4247.179383,4235.897332
56,0,4244.10246,4238.974255,4210.256307,4254.871691,4243.58964,4228.205025,4227.692204,4227.692204,4230.769127,4244.615281,4244.10246,4228.205025,4237.948614,4223.07682
57,0,4236.922973,4232.820409,4215.384512,4251.794768,4231.794768,4228.205025,4227.692204,4231.794768,4229.743486,4234.871691,4244.10246,4229.230666,4232.820409,4213.33323
58,0,4231.794768,4239.999896,4214.358871,4268.205024,4236.922973,4233.33323,4232.307589,4242.563999,4233.84605,4243.58964,4251.794768,4234.358871,4232.820409,4219.487076
59,0,4243.58964,4251.281947,4215.897333,4269.743485,4250.256306,4237.435794,4240.512717,4247.179383,4239.999896,4261.025537,4255.897332,4235.897332,4242.051178,4235.384512
60,0,4250.256306,4250.769127,4231.281948,4237.948614,4249.230665,4235.384512,4240.512717,4244.615281,4237.435794,4255.897332,4250.769127,4230.256307,4242.051178,4230.256307
61,0,4243.076819,4247.179383,4231.794768,4231.794768,4254.871691,4232.820409,4233.84605,4244.10246,4230.769127,4241.538358,4249.743486,4230.769127,4236.410153,4220.512717
62,0,4235.384512,4238.974255,4217.948615,4251.281947,4257.948614,4230.769127,4229.743486,4241.025537,4230.256307,4243.076819,4245.128101,4230.256307,4234.358871,4216.922974
63,0,4232.307589,4231.794768,4215.384512,4248.717845,4240.512717,4228.205025,4225.128102,4230.256307,4229.743486,4246.153742,4234.871691,4221.538358,4228.205025,4206.153743
64,0,4238.974255,4242.051178,4215.384512,4272.307588,4236.922973,4232.820409,4233.33323,4238.974255,4229.743486,4254.35887,4246.153742,4231.281948,4228.717845,4211.281948
65,0,4250.769127,4255.384511,4209.230666,4313.846048,4249.230665,4242.051178,4250.256306,4261.025537,4234.358871,4268.205024,4267.692203,4252.307588,4245.128101,4235.897332
66,0,4248.717845,4248.205024,4212.307589,4288.717844,4248.717845,4236.922973,4244.10246,4255.384511,4234.358871,4265.640921,4262.563998,4247.692204,4248.717845,4238.461435
67,0,4236.410153,4236.410153,4222.563999,4239.999896,4242.563999,4224.102461,4224.615281,4239.999896,4228.717845,4256.922973,4246.666563,4231.281948,4235.384512,4221.538358
68,0,4231.794768,4235.384512,4229.743486,4242.051178,4244.615281,4230.769127,4231.794768,4244.615281,4230.769127,4262.563998,4250.256306,4232.820409,4232.820409,4221.538358
69,0,4233.33323,4234.358871,4244.615281,4218.974256,4237.435794,4237.948614,4236.922973,4245.640922,4233.33323,4256.922973,4255.384511,4236.922973,4234.871691,4222.563999
70,0,4231.281948,4227.692204,4256.922973,4167.692206,4224.615281,4220.512717,4218.461435,4234.871691,4227.692204,4241.025537,4242.563999,4228.717845,4229.230666,4211.794769
71,0,4231.794768,4228.205025,4242.051178,4198.974256,4234.358871,4214.871692,4219.999897,4243.076819,4231.281948,4254.35887,4238.974255,4227.179384,4227.179384,4211.794769
72,0,4243.58964,4242.051178,4220.512717,4274.35887,4252.820409,4242.051178,4246.153742,4265.640921,4244.615281,4277.948613,4263.589639,4241.538358,4240.512717,4227.179384
73,0,4249.230665,4251.794768,4216.410153,4283.589639,4243.076819,4250.256306,4250.769127,4264.61528,4240.512717,4273.333229,4273.333229,4244.10246,4249.743486,4238.461435
74,0,4236.922973,4246.666563,4218.461435,4256.922973,4224.615281,4232.307589,4239.487076,4248.717845,4227.179384,4259.487075,4249.743486,4232.307589,4238.974255,4229.743486
75,0,4232.820409,4241.538358,4219.999897,4257.435793,4237.435794,4234.871691,4244.10246,4249.743486,4231.794768,4259.487075,4240.512717,4228.205025,4230.769127,4219.999897
76,0,4236.922973,4237.948614,4231.281948,4245.128101,4251.794768,4243.076819,4245.128101,4253.84605,4238.974255,4253.84605,4244.10246,4225.640922,4232.307589,4215.897333
77,0,4231.281948,4231.281948,4237.948614,4221.025538,4244.10246,4230.769127,4233.84605,4244.615281,4231.794768,4244.615281,4231.794768,4215.384512,4222.563999,4206.666564
78,0,4227.692204,4230.769127,4229.743486,4234.358871,4245.640922,4228.717845,4234.871691,4246.666563,4228.717845,4257.948614,4228.205025,4214.358871,4214.871692,4201.025538
79,0,4229.230666,4232.820409,4228.205025,4237.435794,4249.230665,4235.384512,4237.948614,4251.794768,4231.794768,4265.640921,4231.794768,4215.897333,4216.922974,4201.538359
80,0,4228.717845,4231.794768,4231.281948,4219.487076,4234.358871,4227.692204,4227.179384,4236.922973,4232.820409,4249.743486,4217.948615,4204.615282,4213.846051,4199.487077
81,0,4227.692204,4229.230666,4231.281948,4215.384512,4223.07682,4226.666563,4219.487076,4226.666563,4231.794768,4242.051178,4213.846051,4198.461436,4211.281948,4199.487077
82,0,4222.563999,4221.538358,4235.384512,4201.538359,4229.230666,4226.153743,4214.871692,4230.256307,4221.025538,4238.974255,4222.563999,4203.07682,4206.666564,4197.948615
83,0,4219.999897,4217.435794,4236.410153,4191.794769,4230.256307,4214.358871,4212.82041,4228.205025,4214.358871,4224.102461,4222.051179,4207.179384,4201.538359,4193.846051
84,0,4229.230666,4229.230666,4229.230666,4236.410153,4231.281948,4224.102461,4230.769127,4235.897332,4226.666563,4229.230666,4232.307589,4216.410153,4216.922974,4209.230666
85,0,4235.384512,4244.615281,4226.153743,4283.076818,4245.640922,4249.230665,4251.281947,4255.897332,4239.487076,4259.487075,4252.307588,4229.230666,4236.922973,4230.769127
86,0,4238.461435,4246.666563,4229.743486,4276.922972,4252.820409,4247.692204,4247.179383,4264.10246,4236.922973,4268.205024,4251.794768,4233.33323,4233.84605,4232.820409
87,0,4249.230665,4246.153742,4229.230666,4270.769126,4244.615281,4235.384512,4241.538358,4264.10246,4234.358871,4255.897332,4244.615281,4234.871691,4229.743486,4233.33323
88,0,4244.615281,4246.666563,4232.820409,4256.410152,4242.563999,4233.33323,4245.128101,4259.999896,4234.871691,4249.743486,4244.10246,4230.256307,4231.281948,4227.692204
89,0,4232.307589,4244.615281,4241.538358,4224.615281,4247.692204,4232.820409,4238.461435,4248.205024,4232.307589,4245.640922,4239.487076,4217.948615,4220.512717,4213.33323
90,0,4237.948614,4245.128101,4238.974255,4237.948614,4242.563999,4233.84605,4231.794768,4249.230665,4228.717845,4242.051178,4242.563999,4223.58964,4216.922974,4223.07682
91,0,4241.538358,4238.974255,4230.769127,4258.974255,4228.205025,4233.84605,4236.410153,4251.794768,4231.281948,4243.076819,4247.179383,4233.84605,4226.666563,4234.871691
92,0,4233.33323,4229.743486,4239.999896,4223.07682,4225.640922,4230.256307,4234.358871,4235.897332,4232.820409,4243.076819,4233.84605,4223.58964,4223.07682,4219.999897
93,0,4230.769127,4227.179384,4246.666563,4206.666564,4237.948614,4228.717845,4229.743486,4230.769127,4223.07682,4234.871691,4219.487076,4210.256307,4211.794769,4210.769128
94,0,4235.897332,4234.871691,4233.33323,4248.205024,4244.615281,4231.281948,4235.897332,4244.10246,4218.974256,4233.33323,4226.153743,4217.948615,4212.82041,4218.461435
95,0,4238.461435,4243.58964,4228.205025,4270.256306,4241.025537,4238.974255,4242.051178,4247.179383,4228.717845,4244.10246,4239.999896,4228.205025,4219.487076,4225.640922
96,0,4242.051178,4247.692204,4230.256307,4272.307588,4246.153742,4248.205024,4243.076819,4249.743486,4232.820409,4248.205024,4246.666563,4232.307589,4223.58964,4230.256307
97,0,4246.666563,4251.281947,4229.230666,4281.025536,4252.820409,4246.153742,4248.205024,4263.589639,4232.820409,4248.717845,4250.256306,4238.974255,4234.358871,4236.410153
98,0,4241.538358,4248.205024,4241.025537,4244.615281,4241.538358,4231.794768,4246.153742,4260.512716,4230.256307,4246.153742,4247.692204,4233.84605,4233.84605,4235.897332
99,0,4227.179384,4230.256307,4253.333229,4182.05118,4225.640922,4214.871692,4224.615281,4235.384512,4218.461435,4231.794768,4230.769127,4213.846051,4211.281948,4218.974256
100,0,4225.640922,4226.153743,4247.692204,4192.30759,4229.743486,4212.82041,4216.922974,4233.33323,4220.512717,4231.794768,4225.640922,4209.743487,4208.205025,4210.769128
101,0,4238.974255,4248.717845,4243.076819,4243.076819,4239.487076,4229.230666,4234.871691,4251.794768,4232.820409,4248.205024,4244.10246,4229.230666,4228.717845,4230.769127
102,0,4238.461435,4249.743486,4246.153742,4237.435794,4229.743486,4234.358871,4233.84605,4245.640922,4223.58964,4245.640922,4241.538358,4231.281948,4228.717845,4232.307589
103,0,4229.743486,4233.33323,4245.128101,4207.179384,4221.538358,4228.205025,4215.897333,4228.717845,4214.358871,4227.179384,4221.025538,4215.384512,4210.256307,4212.307589
104,0,4230.256307,4236.922973,4236.922973,4211.794769,4234.358871,4229.743486,4221.025538,4228.717845,4219.999897,4214.871692,4214.358871,4212.307589,4203.07682,4214.358871
105,0,4231.794768,4243.076819,4229.743486,4228.717845,4242.051178,4230.256307,4231.794768,4231.794768,4218.974256,4209.230666,4214.358871,4211.794769,4201.025538,4222.051179
106,0,4236.410153,4243.076819,4238.461435,4237.435794,4237.948614,4229.230666,4232.307589,4238.974255,4222.051179,4224.615281,4226.666563,4219.999897,4209.743487,4227.179384
107,0,4248.205024,4257.435793,4251.794768,4250.769127,4242.051178,4237.435794,4239.487076,4255.897332,4233.84605,4249.230665,4250.769127,4244.615281,4234.358871,4247.692204
108,0,4252.820409,4267.179383,4248.205024,4249.230665,4249.230665,4238.461435,4245.640922,4259.487075,4233.84605,4251.794768,4256.410152,4251.281947,4243.58964,4259.487075
109,0,4242.563999,4256.922973,4248.205024,4225.128102,4244.10246,4226.666563,4238.974255,4247.692204,4228.205025,4246.666563,4246.666563,4233.33323,4233.33323,4248.205024
110,0,4233.84605,4242.051178,4258.461434,4198.974256,4226.666563,4223.07682,4226.666563,4235.897332,4226.666563,4240.512717,4238.974255,4222.051179,4224.102461,4233.84605
111,0,4234.871691,4236.410153,4256.922973,4184.615282,4218.974256,4229.230666,4217.948615,4230.256307,4228.205025,4229.230666,4230.769127,4218.461435,4219.487076,4230.769127
112,0,4239.999896,4244.615281,4252.820409,4193.846051,4233.84605,4231.281948,4225.128102,4233.84605,4231.794768,4233.33323,4234.871691,4215.384512,4221.538358,4241.025537
113,0,4236.922973,4248.717845,4260.512716,4202.051179,4239.999896,4224.615281,4229.743486,4234.871691,4225.128102,4242.051178,4234.358871,4218.461435,4216.410153,4242.563999
114,0,4229.230666,4233.84605,4262.051178,4185.640923,4226.666563,4219.999897,4214.358871,4223.58964,4215.897333,4228.205025,4216.410153,4216.922974,4206.153743,4226.666563
115,0,4230.256307,4227.179384,4253.84605,4181.025539,4230.769127,4228.717845,4218.461435,4226.666563,4225.640922,4217.948615,4223.07682,4214.871692,4208.717846,4225.128102
116,0,4236.922973,4244.10246,4249.230665,4214.871692,4241.025537,4241.025537,4245.128101,4245.640922,4235.384512,4228.717845,4246.666563,4227.179384,4220.512717,4241.538358
117,0,4236.410153,4251.794768,4247.692204,4225.128102,4228.717845,4239.487076,4244.615281,4254.35887,4229.230666,4233.84605,4241.538358,4231.281948,4221.025538,4248.205024
118,0,4231.794768,4237.435794,4247.692204,4205.128102,4226.153743,4229.230666,4230.256307,4248.205024,4227.179384,4232.307589,4224.615281,4219.487076,4215.897333,4247.179383
119,0,4234.871691,4236.410153,4259.999896,4198.461436,4243.076819,4232.820409,4234.358871,4246.153742,4232.307589,4233.33323,4227.692204,4216.410153,4217.435794,4247.692204
120,0,4233.84605,4245.640922,4270.769126,4183.076821,4241.025537,4235.384512,4234.871691,4247.179383,4226.666563,4225.128102,4232.820409,4222.051179,4216.922974,4246.153742
121,0,4228.717845,4239.999896,4265.128101,4175.384513,4231.794768,4226.666563,4225.640922,4242.563999,4221.538358,4217.435794,4228.717845,4222.563999,4214.358871,4246.666563
122,0,4240.512717,4242.051178,4255.384511,4219.999897,4243.076819,4235.897332,4231.794768,4246.153742,4230.769127,4233.84605,4238.974255,4231.281948,4222.563999,4257.948614
123,0,4256.922973,4259.487075,4258.461434,4254.871691,4252.820409,4251.281947,4244.615281,4254.35887,4234.358871,4249.230665,4250.769127,4243.076819,4234.358871,4270.256306
124,0,4249.743486,4255.384511,4261.025537,4231.281948,4240.512717,4239.999896,4239.999896,4243.076819,4224.615281,4232.820409,4243.076819,4234.358871,4231.281948,4267.692203
125,0,4236.410153,4235.897332,4261.025537,4197.435795,4230.769127,4227.692204,4230.769127,4226.666563,4221.025538,4217.435794,4232.307589,4219.999897,4218.974256,4251.794768
126,0,4233.84605,4229.743486,4267.179383,4169.230667,4231.794768,4231.794768,4229.743486,4224.615281,4222.051179,4216.922974,4225.128102,4215.897333,4205.640923,4234.358871
127,0,4231.281948,4229.743486,4267.179383,4159.999898,4233.84605,4232.820409,4231.281948,4231.281948,4219.999897,4215.897333,4215.897333,4214.871692,4199.487077,4234.871691
128,0,4230.256307,4232.307589,4257.435793,4182.564,4233.33323,4229.230666,4230.769127,4237.948614,4226.153743,4223.07682,4213.33323,4215.897333,4204.615282,4247.692204
0,0,4231.794768,4231.794768,4264.61528,4169.743488,4229.230666,4232.820409,4233.84605,4239.999896,4231.281948,4230.769127,4219.999897,4213.33323,4210.769128,4247.692204
1,0,4228.205025,4218.974256,4281.538357,4115.384515,4227.179384,4229.743486,4231.794768,4229.743486,4220.512717,4221.025538,4216.410153,4205.640923,4202.564,4236.410153
2,0,4224.615281,4209.230666,4267.179383,4123.589643,4228.717845,4223.58964,4222.563999,4222.563999,4216.410153,4214.871692,4207.179384,4202.051179,4192.82041,4227.692204
3,0,4229.230666,4223.58964,4241.025537,4196.410154,4237.948614,4235.384512,4228.717845,4236.410153,4230.769127,4228.205025,4222.051179,4215.384512,4211.281948,4235.897332
4,0,4233.33323,4238.461435,4247.179383,4224.615281,4250.256306,4251.794768,4247.179383,4251.281947,4236.922973,4241.025537,4245.128101,4229.230666,4230.769127,4254.35887
5,0,4234.358871,4232.820409,4252.307588,4216.922974,4251.794768,4251.281947,4252.307588,4254.35887,4232.307589,4250.256306,4244.10246,4227.692204,4216.922974,4259.487075
6,0,4230.769127,4221.025538,4240.512717,4210.769128,4239.999896,4236.922973,4239.487076,4246.153742,4227.692204,4249.230665,4226.666563,4218.974256,4203.589641,4249.230665
7,0,4222.051179,4211.281948,4258.461434,4151.79477,4228.717845,4224.102461,4219.487076,4229.743486,4219.999897,4236.922973,4220.512717,4214.358871,4214.871692,4242.563999
8,0,4213.33323,4197.948615,4286.153741,4062.564003,4215.384512,4211.794769,4197.435795,4209.743487,4209.230666,4226.666563,4218.974256,4205.128102,4216.922974,4238.461435
9,0,4215.384512,4192.30759,4268.205024,4076.922977,4207.179384,4212.307589,4196.922974,4205.128102,4210.256307,4221.538358,4224.615281,4203.589641,4216.410153,4242.563999
10,0,4228.717845,4202.564,4242.051178,4171.79477,4223.07682,4229.743486,4224.102461,4228.717845,4224.102461,4233.84605,4248.205024,4224.102461,4243.58964,4262.563998
11,0,4229.230666,4204.102461,4243.076819,4192.30759,4236.922973,4233.84605,4236.410153,4244.10246,4229.743486,4248.717845,4254.35887,4234.358871,4256.410152,4267.692203
12,0,4222.051179,4195.384513,4235.897332,4173.333231,4228.717845,4227.692204,4231.794768,4242.563999,4226.153743,4247.692204,4239.999896,4224.102461,4241.538358,4253.333229
13,0,4236.922973,4206.153743,4218.461435,4227.179384,4234.358871,4241.025537,4248.717845,4263.076819,4236.922973,4264.10246,4258.461434,4235.384512,4254.871691,4271.794767
14,0,4254.35887,4224.615281,4228.205025,4267.692203,4254.871691,4258.974255,4273.846049,4297.435792,4254.871691,4296.410151,4294.87169,4258.461434,4282.563998,4312.820407
15,0,4242.051178,4218.974256,4241.538358,4218.974256,4251.794768,4247.179383,4266.153742,4290.256305,4249.230665,4287.692203,4283.076818,4251.281947,4272.820408,4308.717843
16,0,4228.205025,4203.07682,4229.230666,4191.281949,4234.358871,4230.256307,4244.615281,4257.435793,4233.84605,4256.410152,4251.794768,4232.307589,4247.692204,4277.948613
17,0,4223.07682,4192.30759,4236.410153,4170.256308,4217.435794,4230.769127,4230.769127,4238.974255,4226.666563,4244.615281,4243.58964,4221.538358,4236.922973,4263.076819
18,0,4202.564,4172.30759,4266.666562,4084.615285,4202.051179,4222.051179,4215.897333,4217.435794,4215.384512,4219.999897,4223.07682,4201.025538,4219.999897,4239.487076
19,0,4197.435795,4166.153744,4257.948614,4077.435798,4206.153743,4217.435794,4214.358871,4209.230666,4211.281948,4208.717846,4206.666564,4192.30759,4214.358871,4229.230666
20,0,4216.922974,4191.281949,4233.33323,4167.692206,4218.974256,4228.205025,4230.769127,4235.384512,4226.666563,4241.025537,4224.102461,4213.846051,4231.794768,4253.333229
21,0,4221.025538,4203.07682,4239.487076,4184.615282,4220.512717,4224.615281,4232.820409,4252.820409,4234.358871,4251.281947,4235.384512,4225.128102,4235.384512,4254.871691
22,0,4217.948615,4196.410154,4245.640922,4156.922975,4226.153743,4217.948615,4229.230666,4246.153742,4229.230666,4236.922973,4234.871691,4218.461435,4233.33323,4247.692204
23,0,4231.281948,4203.589641,4230.769127,4190.769128,4234.358871,4232.307589,4238.461435,4246.666563,4231.794768,4245.640922,4248.717845,4225.640922,4247.179383,4272.820408
24,0,4236.922973,4208.205025,4225.128102,4222.051179,4222.563999,4238.461435,4244.615281,4253.84605,4235.384512,4250.769127,4252.820409,4234.871691,4249.230665,4279.487075
25,0,4222.563999,4190.769128,4234.871691,4178.974257,4210.256307,4216.922974,4230.256307,4241.538358,4223.07682,4229.230666,4229.230666,4220.512717,4229.743486,4250.769127
26,0,4215.897333,4179.999898,4247.692204,4122.564002,4212.82041,4200.512718,4210.256307,4218.974256,4209.230666,4209.230666,4208.717846,4205.640923,4216.410153,4237.435794
27,0,4224.615281,4192.30759,4251.281947,4133.333232,4214.358871,4201.538359,4205.640923,4215.384512,4212.307589,4203.07682,4215.384512,4213.846051,4216.410153,4247.179383
28,0,4232.820409,4203.07682,4237.948614,4182.564,4213.33323,4215.384512,4216.410153,4231.281948,4219.487076,4211.281948,4232.820409,4226.666563,4225.640922,4254.35887
29,0,4233.84605,4199.487077,4230.769127,4185.640923,4219.999897,4230.256307,4222.051179,4235.897332,4217.948615,4225.128102,4234.358871,4224.615281,4234.871691,4254.35887
30,0,4229.230666,4190.769128,4237.435794,4155.384514,4224.615281,4219.999897,4216.922974,4222.051179,4213.846051,4224.102461,4218.461435,4213.846051,4227.179384,4247.179383
31,0,4216.922974,4180.512718,4235.384512,4141.53836,4207.692205,4203.589641,4212.307589,4211.281948,4210.769128,4211.281948,4198.461436,4201.538359,4209.230666,4229.743486
32,0,4209.743487,4176.410154,4231.794768,4136.922976,4196.922974,4216.410153,4212.82041,4211.281948,4212.307589,4209.230666,4195.897333,4195.897333,4205.128102,4218.974256
33,0,4215.897333,4182.05118,4238.461435,4143.076822,4214.871692,4230.769127,4216.922974,4225.640922,4222.051179,4216.922974,4214.358871,4202.051179,4215.384512,4229.743486
34,0,4217.948615,4187.179385,4241.538358,4149.743488,4219.999897,4220.512717,4219.487076,4234.358871,4224.102461,4215.384512,4217.435794,4202.051179,4218.461435,4237.435794
35,0,4209.743487,4182.564,4226.153743,4153.333232,4201.538359,4208.717846,4209.230666,4220.512717,4217.435794,4205.128102,4201.538359,4192.82041,4211.281948,4224.102461
36,0,4215.384512,4184.102462,4213.33323,4181.025539,4207.692205,4212.82041,4208.717846,4214.871692,4223.07682,4210.769128,4207.692205,4199.999897,4216.410153,4228.205025
37,0,4231.794768,4197.948615,4226.153743,4197.948615,4232.820409,4223.58964,4225.640922,4236.410153,4234.871691,4233.84605,4233.33323,4219.487076,4232.307589,4254.871691
38,0,4234.871691,4207.179384,4239.999896,4188.717846,4230.769127,4232.307589,4236.922973,4254.35887,4235.384512,4249.230665,4239.999896,4222.563999,4238.974255,4266.666562
39,0,4227.692204,4202.051179,4230.256307,4203.07682,4215.897333,4230.769127,4235.897332,4249.743486,4229.230666,4244.615281,4231.281948,4216.922974,4233.33323,4262.563998
40,0,4227.179384,4199.999897,4221.538358,4221.025538,4216.922974,4227.692204,4232.820409,4234.871691,4223.07682,4234.871691,4229.743486,4221.025538,4232.307589,4258.461434
41,0,4228.205025,4199.999897,4237.435794,4174.871693,4221.538358,4221.025538,4220.512717,4221.538358,4218.461435,4228.717845,4229.743486,4216.410153,4232.307589,4255.897332
42,0,4218.461435,4190.769128,4245.128101,4126.153745,4216.922974,4206.666564,4203.07682,4212.82041,4216.410153,4219.999897,4218.974256,4201.538359,4221.538358,4244.10246
43,0,4213.33323,4188.205026,4230.769127,4151.28195,4213.846051,4207.179384,4204.615282,4210.256307,4212.82041,4212.82041,4212.307589,4203.07682,4217.435794,4236.922973
44,0,4222.563999,4198.461436,4226.666563,4190.256308,4218.974256,4218.974256,4214.358871,4216.922974,4217.948615,4218.974256,4223.58964,4214.358871,4228.717845,4249.230665
45,0,4230.769127,4204.615282,4233.33323,4200.512718,4225.128102,4224.615281,4218.461435,4228.205025,4227.692204,4231.794768,4235.897332,4216.922974,4240.512717,4267.179383
46,0,4224.615281,4204.102461,4233.84605,4197.435795,4226.153743,4222.563999,4220.512717,4229.743486,4225.640922,4237.948614,4236.410153,4219.487076,4244.10246,4265.128101
47,0,4211.281948,4198.974256,4233.33323,4174.358872,4213.846051,4206.666564,4207.179384,4216.922974,4214.358871,4228.717845,4228.205025,4217.435794,4236.410153,4248.205024
48,0,4211.281948,4199.487077,4236.410153,4163.589642,4209.230666,4204.102461,4199.487077,4210.769128,4212.82041,4220.512717,4228.717845,4209.743487,4237.948614,4253.84605
49,0,4226.666563,4215.384512,4231.281948,4208.717846,4230.769127,4227.692204,4220.512717,4224.615281,4222.563999,4232.307589,4242.051178,4221.025538,4256.410152,4274.87169
50,0,4229.743486,4223.58964,4228.205025,4235.897332,4244.10246,4233.33323,4230.256307,4231.281948,4222.563999,4236.922973,4243.58964,4231.794768,4261.538357,4271.281947
51,0,4215.897333,4212.82041,4232.307589,4195.384513,4235.384512,4210.256307,4210.769128,4214.358871,4213.33323,4220.512717,4230.769127,4214.358871,4242.051178,4252.820409
52,0,4211.281948,4212.307589,4225.640922,4188.717846,4225.640922,4210.256307,4205.128102,4207.179384,4217.435794,4216.922974,4225.640922,4199.999897,4237.948614,4255.384511
53,0,4217.435794,4217.435794,4208.205025,4248.717845,4219.999897,4228.205025,4217.948615,4223.58964,4229.230666,4230.769127,4231.794768,4210.769128,4249.230665,4266.666562
54,0,4225.128102,4219.487076,4206.666564,4283.589639,4224.615281,4235.384512,4226.153743,4236.410153,4232.307589,4245.128101,4243.58964,4229.230666,4252.307588,4265.128101
55,0,4231.281948,4228.717845,4222.051179,4261.025537,4245.128101,4235.384512,4233.84605,4235.897332,4230.256307,4248.205024,4250.769127,4233.84605,4254.35887,4265.128101
56,0,4233.33323,4237.435794,4229.743486,4244.10246,4253.84605,4231.281948,4234.358871,4236.922973,4231.794768,4239.999896,4248.205024,4228.717845,4259.999896,4275.384511
57,0,4233.33323,4237.435794,4227.692204,4260.512716,4244.10246,4231.281948,4232.307589,4247.692204,4236.410153,4244.10246,4253.84605,4229.743486,4266.666562,4284.102459
58,0,4233.84605,4233.33323,4227.179384,4258.974255,4242.051178,4237.948614,4236.410153,4251.281947,4237.435794,4255.384511,4258.461434,4234.358871,4267.692203,4281.025536
59,0,4219.999897,4218.974256,4234.871691,4209.230666,4226.666563,4226.153743,4224.615281,4225.640922,4224.615281,4238.974255,4234.358871,4220.512717,4250.769127,4265.640921
60,0,4197.435795,4197.435795,4243.58964,4149.743488,4196.922974,4199.999897,4193.846051,4194.358872,4209.743487,4210.769128,4207.179384,4195.897333,4227.692204,4238.461435
61,0,4196.410154,4191.794769,4236.410153,4148.205027,4201.025538,4198.974256,4185.640923,4192.82041,4212.82041,4209.230666,4210.256307,4190.769128,4228.717845,4229.743486
62,0,4219.999897,4214.871692,4218.461435,4216.410153,4236.410153,4224.102461,4215.384512,4216.410153,4227.179384,4232.307589,4232.307589,4210.256307,4254.35887,4259.487075
63,0,4234.871691,4237.435794,4214.358871,4266.153742,4249.230665,4235.897332,4239.999896,4235.384512,4235.897332,4252.307588,4249.743486,4228.717845,4270.256306,4286.153741
64,0,4222.051179,4228.717845,4224.102461,4243.076819,4234.871691,4232.307589,4231.281948,4231.794768,4227.179384,4244.615281,4246.666563,4221.538358,4261.538357,4273.846049
65,0,4212.307589,4211.794769,4227.692204,4211.281948,4226.666563,4225.640922,4215.897333,4218.974256,4216.410153,4227.179384,4233.33323,4208.205025,4250.769127,4256.922973
66,0,4221.538358,4217.435794,4228.717845,4223.58964,4224.615281,4219.999897,4215.897333,4219.487076,4224.102461,4231.281948,4234.358871,4213.33323,4252.307588,4263.076819
67,0,4221.538358,4221.025538,4230.769127,4239.999896,4215.384512,4217.435794,4219.999897,4223.58964,4229.743486,4237.948614,4239.999896,4225.128102,4252.307588,4266.153742
68,0,4214.871692,4210.256307,4224.615281,4241.538358,4213.846051,4218.974256,4219.999897,4215.384512,4219.999897,4227.692204,4233.33323,4221.538358,4250.256306,4260.512716
69,0,4226.153743,4219.487076,4222.563999,4251.281947,4228.205025,4228.717845,4223.07682,4222.563999,4224.102461,4229.743486,4232.307589,4221.025538,4259.487075,4272.307588
70,0,4234.358871,4235.384512,4228.717845,4245.128101,4241.538358,4231.281948,4224.102461,4236.410153,4234.358871,4239.999896,4241.538358,4223.07682,4264.61528,4286.666562
71,0,4216.922974,4218.974256,4235.897332,4199.487077,4231.794768,4217.948615,4212.82041,4219.487076,4223.07682,4223.07682,4234.358871,4208.717846,4251.281947,4264.61528
72,0,4209.230666,4195.897333,4241.538358,4171.281949,4214.871692,4210.256307,4206.666564,4199.487077,4213.33323,4208.717846,4221.025538,4198.461436,4239.999896,4240.512717
73,0,4226.666563,4203.589641,4246.153742,4192.82041,4214.871692,4222.051179,4218.974256,4216.410153,4224.102461,4227.692204,4230.256307,4214.358871,4248.205024,4255.897332
74,0,4228.205025,4208.205025,4256.410152,4179.487077,4214.871692,4221.025538,4217.435794,4225.128102,4225.128102,4237.435794,4234.358871,4222.051179,4251.794768,4265.640921
75,0,4210.769128,4184.102462,4264.61528,4118.461438,4203.589641,4202.051179,4188.717846,4195.897333,4208.717846,4209.743487,4212.307589,4198.974256,4235.384512,4246.666563
76,0,4208.717846,4174.358872,4256.922973,4108.205028,4200.512718,4196.922974,4179.999898,4181.538359,4203.589641,4196.410154,4204.615282,4186.666564,4227.692204,4241.025537
77,0,4206.666564,4184.615282,4240.512717,4154.358873,4202.564,4207.179384,4197.948615,4197.948615,4213.33323,4208.205025,4217.435794,4197.948615,4233.84605,4238.974255
78,0,4198.974256,4185.128103,4241.025537,4172.820411,4201.538359,4215.384512,4200.512718,4202.564,4218.461435,4207.692205,4216.922974,4202.051179,4234.871691,4231.794768
79,0,4207.179384,4185.640923,4249.743486,4156.922975,4206.153743,4211.281948,4192.82041,4194.358872,4214.358871,4203.589641,4210.769128,4195.897333,4229.230666,4238.461435
80,0,4216.922974,4196.922974,4239.999896,4174.358872,4212.82041,4212.82041,4202.051179,4200.512718,4213.846051,4210.256307,4218.974256,4195.897333,4230.769127,4247.692204
81,0,4221.538358,4206.153743,4230.769127,4221.538358,4224.102461,4226.666563,4218.461435,4216.922974,4226.666563,4219.487076,4233.33323,4210.769128,4243.076819,4252.820409
82,0,4229.743486,4208.205025,4238.461435,4222.563999,4233.84605,4226.666563,4219.999897,4221.025538,4235.897332,4223.58964,4237.435794,4218.461435,4251.794768,4266.153742
83,0,4223.07682,4204.102461,4246.153742,4187.692205,4226.153743,4218.461435,4216.922974,4213.33323,4224.615281,4219.487076,4231.794768,4207.692205,4249.743486,4265.640921
84,0,4209.743487,4195.384513,4237.948614,4190.256308,4217.948615,4219.999897,4222.563999,4210.769128,4212.82041,4215.384512,4224.102461,4201.538359,4242.051178,4244.615281
85,0,4221.025538,4199.999897,4229.230666,4225.640922,4227.692204,4230.769127,4233.33323,4226.666563,4223.58964,4221.025538,4229.230666,4215.897333,4246.666563,4250.256306
86,0,4236.922973,4216.410153,4237.435794,4229.230666,4230.769127,4233.33323,4234.871691,4238.461435,4237.948614,4229.230666,4244.10246,4228.205025,4259.487075,4279.999895
87,0,4224.102461,4212.82041,4245.640922,4196.922974,4209.743487,4223.07682,4217.948615,4223.07682,4228.205025,4220.512717,4244.615281,4217.948615,4253.84605,4276.410152
88,0,4207.179384,4198.461436,4239.487076,4176.410154,4195.897333,4213.846051,4201.538359,4202.051179,4214.358871,4211.794769,4227.179384,4202.564,4234.358871,4248.205024
89,0,4212.307589,4196.410154,4229.743486,4194.358872,4208.717846,4211.794769,4204.615282,4198.974256,4219.487076,4216.410153,4218.974256,4200.512718,4231.794768,4241.025537
90,0,4219.999897,4203.07682,4227.179384,4218.974256,4230.769127,4225.128102,4218.461435,4210.769128,4230.256307,4219.487076,4229.230666,4210.256307,4244.615281,4252.307588
91,0,4217.435794,4208.205025,4234.358871,4216.922974,4236.410153,4239.487076,4228.205025,4225.128102,4232.307589,4216.922974,4235.897332,4215.897333,4246.153742,4256.922973
92,0,4223.07682,4214.358871,4243.076819,4208.717846,4229.743486,4241.538358,4234.871691,4230.256307,4229.743486,4221.538358,4231.794768,4213.846051,4244.10246,4259.999896
93,0,4233.33323,4221.025538,4241.025537,4218.974256,4229.743486,4235.384512,4239.487076,4229.743486,4231.794768,4234.871691,4231.794768,4215.897333,4250.769127,4265.640921
94,0,4225.128102,4215.384512,4232.307589,4219.999897,4227.179384,4230.769127,4232.820409,4226.666563,4229.230666,4231.794768,4232.307589,4212.82041,4246.666563,4260.512716
95,0,4215.384512,4206.666564,4233.84605,4203.07682,4219.487076,4224.102461,4218.461435,4221.025538,4222.051179,4216.922974,4225.640922,4207.179384,4232.820409,4249.743486
96,0,4212.82041,4198.974256,4237.948614,4200.512718,4211.281948,4211.794769,4213.33323,4213.33323,4221.538358,4213.33323,4215.384512,4207.179384,4226.666563,4239.487076
97,0,4211.794769,4199.487077,4234.358871,4223.07682,4212.82041,4215.897333,4224.102461,4213.846051,4227.179384,4215.384512,4221.025538,4212.307589,4239.999896,4250.256306
98,0,4222.051179,4219.999897,4232.307589,4250.769127,4229.230666,4232.820409,4234.871691,4226.153743,4233.33323,4223.58964,4244.10246,4221.538358,4256.410152,4272.820408
99,0,4236.922973,4232.820409,4230.769127,4264.10246,4237.435794,4236.922973,4234.871691,4237.435794,4235.384512,4240.512717,4253.333229,4230.256307,4253.84605,4273.333229
100,0,4230.769127,4223.07682,4228.205025,4254.35887,4233.84605,4234.358871,4233.84605,4234.358871,4232.307589,4248.205024,4241.538358,4226.153743,4247.179383,4261.538357
101,0,4219.487076,4212.82041,4234.358871,4223.58964,4227.179384,4231.281948,4230.256307,4217.948615,4228.205025,4233.33323,4230.256307,4210.769128,4245.640922,4254.35887
102,0,4222.563999,4214.871692,4234.358871,4216.410153,4221.538358,4228.205025,4229.230666,4214.358871,4230.256307,4217.435794,4230.769127,4209.230666,4245.128101,4253.84605
103,0,4231.281948,4218.461435,4221.025538,4248.205024,4221.538358,4227.692204,4230.256307,4224.102461,4232.820409,4221.025538,4234.358871,4214.871692,4245.128101,4261.025537
104,0,4234.871691,4225.640922,4218.974256,4267.692203,4228.205025,4230.769127,4231.794768,4230.769127,4232.820409,4228.717845,4243.58964,4216.410153,4250.256306,4274.87169
105,0,4231.794768,4230.769127,4232.820409,4255.384511,4233.33323,4233.33323,4238.461435,4239.487076,4238.974255,4229.230666,4253.84605,4225.640922,4256.922973,4277.948613
106,0,4231.794768,4222.563999,4238.974255,4236.410153,4230.769127,4235.897332,4244.10246,4245.128101,4242.051178,4231.794768,4254.871691,4233.33323,4259.487075,4269.743485
107,0,4235.384512,4217.948615,4235.384512,4233.84605,4224.615281,4226.666563,4232.820409,4232.307589,4230.769127,4231.281948,4244.10246,4224.102461,4250.256306,4262.051178
108,0,4226.153743,4215.384512,4234.358871,4222.051179,4217.435794,4214.358871,4216.410153,4209.743487,4219.487076,4220.512717,4222.563999,4206.153743,4235.384512,4251.281947
109,0,4214.358871,4210.769128,4237.435794,4197.435795,4215.897333,4222.563999,4219.999897,4210.769128,4225.640922,4215.384512,4218.974256,4205.640923,4238.461435,4246.666563
110,0,4217.435794,4212.82041,4235.897332,4199.999897,4218.461435,4234.871691,4232.820409,4228.205025,4234.871691,4217.435794,4238.461435,4211.794769,4246.666563,4249.230665
111,0,4222.051179,4213.846051,4231.794768,4212.307589,4217.435794,4226.666563,4229.743486,4226.153743,4231.281948,4213.846051,4239.999896,4205.128102,4242.051178,4249.230665
112,0,4216.922974,4208.205025,4238.974255,4194.871692,4220.512717,4215.384512,4219.487076,4212.82041,4226.666563,4211.794769,4218.974256,4198.461436,4238.461435,4244.615281
113,0,4210.769128,4208.205025,4246.153742,4173.846052,4218.461435,4221.025538,4222.051179,4210.256307,4229.230666,4213.33323,4212.307589,4199.999897,4244.10246,4242.051178
114,0,4210.769128,4214.358871,4236.922973,4188.717846,4212.82041,4228.717845,4229.743486,4215.897333,4230.256307,4219.487076,4224.615281,4199.487077,4247.692204,4245.128101
115,0,4218.461435,4219.487076,4234.358871,4212.307589,4222.563999,4234.871691,4234.871691,4222.051179,4232.307589,4231.794768,4235.384512,4202.051179,4248.205024,4253.84605
116,0,4220.512717,4219.999897,4249.743486,4196.922974,4230.256307,4229.230666,4229.743486,4220.512717,4234.358871,4234.358871,4228.717845,4206.666564,4245.128101,4252.820409
117,0,4214.358871,4213.33323,4249.230665,4174.358872,4220.512717,4218.974256,4215.897333,4210.769128,4227.179384,4217.435794,4215.897333,4198.461436,4239.999896,4241.538358
118,0,4224.615281,4220.512717,4234.358871,4204.615282,4222.563999,4228.205025,4219.999897,4215.384512,4226.153743,4212.307589,4225.128102,4201.025538,4244.615281,4251.281947
119,0,4234.871691,4231.281948,4229.230666,4250.256306,4238.974255,4241.025537,4236.410153,4228.205025,4233.33323,4226.153743,4242.563999,4217.948615,4252.820409,4267.179383
120,0,4222.051179,4222.563999,4228.717845,4236.410153,4235.384512,4228.205025,4229.743486,4220.512717,4230.769127,4229.743486,4233.33323,4210.256307,4245.640922,4255.897332
121,0,4211.794769,4211.794769,4230.256307,4198.974256,4219.487076,4214.358871,4211.281948,4212.307589,4226.666563,4218.974256,4217.435794,4194.358872,4234.871691,4244.10246
122,0,4220.512717,4219.999897,4242.563999,4185.640923,4218.461435,4224.102461,4218.461435,4216.922974,4230.256307,4217.948615,4223.07682,4199.999897,4236.922973,4249.743486
123,0,4219.999897,4216.922974,4254.871691,4150.769129,4215.384512,4223.07682,4217.435794,4206.153743,4222.051179,4218.461435,4214.358871,4196.410154,4232.820409,4233.84605
124,0,4210.256307,4198.974256,4250.769127,4116.410156,4206.666564,4206.153743,4199.487077,4194.358872,4210.769128,4211.794769,4193.333231,4182.05118,4222.051179,4211.794769
125,0,4214.871692,4205.640923,4235.897332,4150.256309,4221.025538,4218.974256,4213.846051,4216.410153,4225.128102,4220.512717,4212.307589,4191.794769,4233.84605,4232.307589
126,0,4221.025538,4221.538358,4228.205025,4198.974256,4233.84605,4239.487076,4236.922973,4237.948614,4237.435794,4232.820409,4243.58964,4207.692205,4254.35887,4258.461434
127,0,4214.358871,4209.743487,4231.281948,4183.589641,4212.307589,4222.051179,4223.58964,4221.538358,4223.58964,4225.640922,4229.743486,4202.564,4247.179383,4242.051178
128,0,4209.743487,4199.487077,4235.384512,4159.999898,4198.974256,4202.051179,4204.102461,4205.128102,4216.922974,4212.307589,4206.153743,4195.897333,4234.871691,4225.640922
0,0,4224.615281,4218.461435,4231.794768,4194.358872,4223.58964,4220.512717,4215.897333,4221.025538,4231.281948,4215.897333,4221.025538,4206.153743,4244.615281,4249.743486
1,0,4237.435794,4234.358871,4227.179384,4230.769127,4239.999896,4238.461435,4233.33323,4238.461435,4235.897332,4229.743486,4242.563999,4221.025538,4254.35887,4272.820408
2,0,4227.692204,4227.179384,4233.33323,4213.33323,4231.794768,4235.897332,4234.871691,4231.281948,4224.102461,4229.230666,4234.358871,4223.58964,4248.205024,4261.538357
3,0,4215.897333,4216.410153,4239.999896,4176.410154,4224.615281,4230.769127,4225.640922,4213.846051,4217.435794,4209.743487,4214.358871,4211.281948,4235.897332,4247.179383
4,0,4217.948615,4213.846051,4231.281948,4175.384513,4222.051179,4225.128102,4217.435794,4203.589641,4217.435794,4197.948615,4209.743487,4199.487077,4231.794768,4244.615281
5,0,4219.487076,4212.82041,4221.538358,4191.794769,4215.897333,4215.897333,4212.307589,4199.999897,4216.410153,4199.487077,4215.384512,4196.410154,4231.281948,4235.384512
6,0,4217.948615,4211.794769,4230.769127,4183.589641,4208.205025,4207.692205,4205.128102,4198.461436,4213.33323,4199.487077,4210.769128,4194.871692,4229.743486,4226.153743
7,0,4221.025538,4219.487076,4239.487076,4177.435795,4212.307589,4212.82041,4203.589641,4204.615282,4215.897333,4211.281948,4213.33323,4201.025538,4236.410153,4237.435794
8,0,4221.025538,4228.717845,4232.820409,4204.615282,4225.128102,4227.692204,4216.410153,4221.025538,4226.153743,4235.384512,4238.974255,4214.871692,4250.769127,4258.461434
9,0,4221.025538,4229.230666,4228.205025,4222.563999,4231.281948,4233.33323,4228.205025,4232.307589,4230.769127,4235.897332,4250.769127,4217.435794,4258.461434,4263.589639
10,0,4229.743486,4230.256307,4233.84605,4212.82041,4233.33323,4232.820409,4232.820409,4233.84605,4231.794768,4226.666563,4245.640922,4216.410153,4263.076819,4264.10246
11,0,4237.435794,4234.871691,4232.307589,4221.025538,4230.256307,4234.871691,4236.922973,4238.461435,4235.897332,4245.640922,4256.922973,4229.230666,4270.769126,4272.820408
12,0,4235.897332,4238.461435,4223.07682,4252.820409,4226.666563,4236.410153,4244.10246,4247.692204,4235.897332,4267.179383,4269.230665,4244.10246,4279.487075,4283.076818
13,0,4235.384512,4249.230665,4215.384512,4275.384511,4238.974255,4238.461435,4248.717845,4249.230665,4233.84605,4257.435793,4265.128101,4245.640922,4281.025536,4286.666562
14,0,4237.435794,4249.743486,4215.897333,4267.179383,4245.128101,4236.922973,4239.487076,4238.461435,4234.358871,4241.025537,4261.025537,4235.897332,4271.281947,4274.35887
15,0,4234.358871,4233.33323,4223.58964,4244.615281,4228.717845,4232.820409,4230.256307,4228.717845,4233.84605,4242.563999,4255.897332,4227.179384,4259.999896,4252.307588
16,0,4236.922973,4237.948614,4228.717845,4247.179383,4227.179384,4235.384512,4242.051178,4231.281948,4229.743486,4248.205024,4248.205024,4229.743486,4262.563998,4242.051178
17,0,4239.999896,4248.717845,4225.640922,4262.051178,4236.922973,4236.410153,4245.640922,4236.922973,4229.230666,4238.974255,4249.230665,4234.358871,4266.666562,4248.205024
18,0,4235.384512,4237.948614,4218.461435,4266.666562,4233.33323,4231.281948,4231.794768,4232.307589,4230.769127,4227.692204,4250.256306,4229.743486,4262.563998,4248.205024
19,0,4235.897332,4236.410153,4212.307589,4271.794767,4239.999896,4233.84605,4235.384512,4232.307589,4230.256307,4233.84605,4246.153742,4226.666563,4259.999896,4244.615281
20,0,4243.076819,4246.666563,4217.948615,4265.640921,4252.307588,4236.922973,4245.640922,4239.999896,4229.230666,4248.717845,4248.205024,4229.743486,4261.025537,4246.666563
21,0,4237.435794,4236.410153,4232.307589,4237.435794,4241.025537,4232.820409,4233.84605,4237.435794,4231.281948,4248.717845,4245.640922,4225.128102,4254.35887,4234.871691
22,0,4225.640922,4226.153743,4230.769127,4225.128102,4229.230666,4232.307589,4228.717845,4229.743486,4232.307589,4234.358871,4233.84605,4214.871692,4247.692204,4217.948615
23,0,4227.692204,4233.33323,4219.487076,4235.897332,4232.307589,4230.769127,4233.33323,4227.692204,4228.717845,4222.051179,4227.692204,4211.794769,4247.179383,4219.999897
24,0,4233.33323,4232.820409,4216.922974,4251.794768,4230.769127,4232.307589,4231.281948,4234.358871,4227.179384,4226.153743,4237.948614,4220.512717,4247.692204,4228.205025
25,0,4235.384512,4236.410153,4219.487076,4273.333229,4231.794768,4244.10246,4237.435794,4244.615281,4233.84605,4237.948614,4251.281947,4233.33323,4251.281947,4234.358871
26,0,4236.922973,4238.461435,4231.794768,4254.871691,4234.871691,4246.153742,4245.640922,4239.487076,4230.769127,4227.179384,4242.051178,4233.84605,4251.794768,4234.871691
27,0,4223.07682,4216.922974,4247.692204,4182.05118,4221.025538,4226.666563,4230.769127,4218.974256,4215.897333,4205.128102,4216.922974,4212.307589,4232.307589,4212.82041
28,0,4210.256307,4202.564,4242.051178,4151.28195,4214.358871,4210.769128,4211.794769,4209.230666,4211.281948,4203.07682,4207.692205,4193.846051,4213.846051,4190.256308
29,0,4221.538358,4214.358871,4229.230666,4195.384513,4226.153743,4220.512717,4217.435794,4220.512717,4222.563999,4214.871692,4215.384512,4201.025538,4224.615281,4203.589641
30,0,4232.820409,4218.974256,4230.256307,4223.58964,4225.128102,4232.820409,4232.307589,4229.230666,4227.179384,4218.461435,4217.948615,4210.769128,4238.461435,4218.974256
31,0,4223.58964,4213.846051,4228.717845,4210.769128,4216.922974,4232.307589,4233.84605,4230.256307,4222.563999,4212.82041,4213.846051,4203.589641,4227.692204,4206.153743
32,0,4217.948615,4216.410153,4224.102461,4212.82041,4215.897333,4228.717845,4225.128102,4227.179384,4217.948615,4202.564,4213.846051,4199.999897,4214.358871,4196.922974
33,0,4226.666563,4215.897333,4227.179384,4219.487076,4215.897333,4221.025538,4215.897333,4222.051179,4215.384512,4196.410154,4215.897333,4209.230666,4221.025538,4202.564
34,0,4232.820409,4214.871692,4233.33323,4209.230666,4222.051179,4214.871692,4214.358871,4222.563999,4219.999897,4210.256307,4217.948615,4215.384512,4232.307589,4206.666564
35,0,4232.307589,4222.051179,4227.179384,4216.922974,4233.33323,4224.102461,4227.179384,4233.84605,4230.769127,4229.743486,4223.07682,4213.33323,4234.358871,4205.128102
36,0,4231.281948,4224.102461,4217.948615,4238.974255,4231.794768,4237.435794,4235.384512,4244.10246,4233.33323,4236.410153,4231.794768,4214.358871,4234.358871,4207.179384
37,0,4229.743486,4215.897333,4223.07682,4225.128102,4226.666563,4230.769127,4222.563999,4239.487076,4228.717845,4232.820409,4233.33323,4212.82041,4233.84605,4213.33323
38,0,4226.666563,4212.82041,4233.33323,4192.30759,4225.640922,4218.974256,4210.769128,4227.179384,4226.666563,4222.563999,4219.999897,4203.07682,4229.743486,4208.205025
39,0,4225.128102,4221.538358,4235.897332,4192.30759,4215.897333,4219.999897,4220.512717,4228.205025,4226.153743,4213.846051,4213.846051,4201.025538,4230.256307,4199.487077
40,0,4222.563999,4223.07682,4230.769127,4206.153743,4213.33323,4218.974256,4228.205025,4231.281948,4219.999897,4216.922974,4223.07682,4204.615282,4231.281948,4198.461436
41,0,4214.358871,4213.33323,4224.102461,4196.410154,4226.666563,4216.922974,4217.948615,4218.461435,4215.384512,4219.999897,4216.410153,4196.922974,4223.58964,4194.871692
42,0,4216.410153,4218.974256,4222.563999,4201.025538,4233.84605,4226.153743,4217.435794,4215.384512,4224.102461,4221.538358,4212.307589,4194.358872,4228.717845,4197.435795
43,0,4235.897332,4237.948614,4226.153743,4235.384512,4231.281948,4236.922973,4233.33323,4239.487076,4236.922973,4232.820409,4237.435794,4212.307589,4246.666563,4218.461435
44,0,4246.666563,4244.615281,4225.640922,4254.871691,4229.230666,4236.410153,4238.461435,4251.794768,4236.410153,4239.487076,4254.35887,4222.563999,4252.307588,4232.820409
45,0,4245.128101,4248.205024,4224.102461,4250.769127,4236.410153,4232.820409,4230.769127,4239.487076,4229.743486,4235.897332,4247.692204,4218.974256,4256.410152,4238.974255
46,0,4246.153742,4250.256306,4232.307589,4222.563999,4234.358871,4225.640922,4219.487076,4225.128102,4228.205025,4231.794768,4241.025537,4216.922974,4265.128101,4244.615281
47,0,4245.128101,4240.512717,4241.538358,4184.102462,4207.692205,4212.307589,4201.025538,4214.358871,4222.563999,4215.897333,4234.871691,4212.307589,4259.487075,4241.025537
48,0,4258.461434,4250.256306,4246.666563,4189.743487,4195.897333,4212.82041,4200.512718,4210.256307,4216.922974,4204.615282,4234.358871,4216.922974,4262.051178,4256.410152
49,0,4290.256305,4283.589639,4252.307588,4222.563999,4217.948615,4220.512717,4219.999897,4217.948615,4219.487076,4213.846051,4252.307588,4234.358871,4291.281946,4301.538356
50,0,4299.999895,4294.358869,4252.820409,4214.871692,4222.563999,4214.871692,4213.33323,4214.871692,4217.948615,4216.922974,4259.999896,4236.410153,4301.025536,4322.563997
51,0,4294.358869,4289.230664,4248.205024,4211.281948,4205.640923,4209.230666,4200.512718,4209.230666,4216.922974,4218.974256,4257.948614,4237.948614,4293.846049,4320.512715
52,0,4306.153741,4308.205023,4247.692204,4256.922973,4221.025538,4218.461435,4215.384512,4227.692204,4225.640922,4235.384512,4275.384511,4256.410152,4308.205023,4341.025535
53,0,4309.230664,4321.025535,4250.769127,4269.743485,4235.897332,4228.717845,4225.128102,4241.538358,4230.769127,4235.384512,4284.102459,4258.461434,4313.846048,4353.846047
54,0,4293.846049,4305.1281,4239.487076,4255.897332,4218.974256,4230.769127,4217.948615,4233.33323,4227.692204,4222.563999,4268.717844,4243.58964,4295.897331,4332.307586
55,0,4287.179382,4297.435792,4226.666563,4275.897331,4217.948615,4230.769127,4219.999897,4231.794768,4230.256307,4230.256307,4263.589639,4244.615281,4287.692203,4313.846048
56,0,4286.666562,4298.461433,4237.435794,4278.461434,4236.922973,4230.256307,4222.563999,4236.922973,4230.769127,4243.076819,4266.153742,4246.153742,4284.102459,4306.153741
57,0,4277.948613,4288.717844,4244.615281,4251.794768,4237.948614,4230.769127,4219.999897,4229.230666,4222.563999,4233.33323,4253.84605,4233.33323,4268.205024,4287.692203
58,0,4263.589639,4273.846049,4233.33323,4252.307588,4219.487076,4231.794768,4219.487076,4216.410153,4216.410153,4216.922974,4241.025537,4227.179384,4255.384511,4262.563998
59,0,4251.794768,4266.153742,4225.128102,4281.025536,4212.307589,4230.256307,4217.435794,4218.974256,4217.948615,4217.948615,4245.640922,4233.84605,4258.461434,4259.999896
60,0,4250.769127,4266.666562,4232.820409,4277.948613,4225.640922,4230.256307,4226.153743,4232.307589,4224.102461,4232.307589,4252.820409,4235.384512,4262.563998,4268.717844
61,0,4249.230665,4263.589639,4243.58964,4233.84605,4230.769127,4231.281948,4234.871691,4234.358871,4224.615281,4235.897332,4243.58964,4224.102461,4249.230665,4257.435793
62,0,4235.897332,4244.615281,4248.717845,4187.692205,4214.358871,4226.153743,4222.563999,4218.974256,4214.358871,4215.897333,4218.974256,4209.230666,4225.128102,4228.205025
63,0,4227.179384,4226.666563,4250.256306,4174.871693,4212.307589,4213.33323,4209.230666,4209.230666,4209.743487,4199.999897,4207.692205,4202.564,4213.846051,4214.871692
64,0,4228.205025,4233.33323,4245.640922,4197.435795,4226.666563,4212.307589,4211.794769,4215.897333,4218.461435,4204.615282,4214.871692,4202.051179,4218.461435,4217.435794
65,0,4227.179384,4239.487076,4235.384512,4211.281948,4218.974256,4226.153743,4217.435794,4223.58964,4222.051179,4212.82041,4216.922974,4199.487077,4224.102461,4212.307589
66,0,4230.256307,4237.435794,4231.281948,4215.897333,4218.974256,4235.384512,4224.102461,4229.230666,4219.487076,4218.974256,4215.897333,4200.512718,4227.692204,4207.692205
67,0,4227.692204,4231.281948,4231.794768,4223.07682,4232.307589,4233.84605,4232.307589,4227.179384,4223.07682,4214.358871,4217.435794,4205.128102,4219.487076,4205.640923
68,0,4214.871692,4215.384512,4220.512717,4228.205025,4215.384512,4228.717845,4230.256307,4217.948615,4226.666563,4204.615282,4210.256307,4200.512718,4205.128102,4195.384513
69,0,4214.358871,4215.897333,4210.256307,4239.487076,4205.128102,4227.692204,4227.692204,4223.07682,4227.692204,4214.358871,4215.384512,4199.487077,4208.205025,4191.281949
70,0,4223.07682,4231.794768,4222.051179,4250.769127,4225.128102,4233.33323,4231.794768,4238.974255,4230.256307,4234.358871,4231.794768,4210.769128,4218.461435,4200.512718
71,0,4217.948615,4230.769127,4232.307589,4239.999896,4230.769127,4236.922973,4233.84605,4237.948614,4233.33323,4234.358871,4226.666563,4211.794769,4217.435794,4205.128102
72,0,4211.281948,4223.07682,4232.307589,4214.358871,4217.435794,4234.871691,4231.281948,4228.205025,4231.281948,4222.563999,4213.846051,4199.487077,4211.794769,4198.461436
73,0,4224.615281,4232.307589,4225.640922,4236.410153,4227.692204,4232.820409,4231.281948,4232.820409,4228.717845,4226.666563,4226.153743,4201.538359,4216.922974,4198.461436
74,0,4231.794768,4240.512717,4219.999897,4267.179383,4239.999896,4232.820409,4232.307589,4236.922973,4229.743486,4231.281948,4239.487076,4210.769128,4223.07682,4206.153743
75,0,4220.512717,4232.307589,4226.666563,4244.10246,4227.179384,4229.743486,4231.281948,4232.820409,4229.743486,4222.051179,4226.153743,4206.666564,4213.846051,4205.640923
76,0,4214.358871,4227.692204,4231.794768,4236.922973,4214.358871,4231.794768,4232.820409,4241.538358,4231.794768,4214.871692,4213.33323,4209.743487,4204.102461,4197.948615
77,0,4218.974256,4229.230666,4230.256307,4243.58964,4215.897333,4233.84605,4234.358871,4246.666563,4231.281948,4215.897333,4215.897333,4215.897333,4203.589641,4194.871692
78,0,4219.487076,4227.692204,4237.948614,4210.256307,4222.563999,4229.230666,4230.769127,4233.33323,4224.102461,4215.897333,4216.410153,4206.666564,4203.07682,4196.922974
79,0,4215.384512,4227.179384,4235.384512,4210.769128,4229.230666,4230.769127,4233.33323,4231.281948,4225.640922,4214.871692,4215.384512,4206.666564,4202.051179,4193.333231
80,0,4215.384512,4228.717845,4216.410153,4265.128101,4233.33323,4236.410153,4239.999896,4241.538358,4229.230666,4219.999897,4217.948615,4215.897333,4204.102461,4186.666564
81,0,4215.384512,4222.051179,4223.07682,4251.281947,4228.717845,4231.794768,4231.281948,4228.717845,4218.974256,4216.922974,4214.358871,4209.230666,4202.051179,4183.589641
82,0,4215.384512,4215.897333,4241.538358,4206.666564,4224.102461,4228.717845,4225.128102,4218.974256,4218.974256,4208.205025,4214.358871,4204.615282,4198.974256,4187.692205
83,0,4214.871692,4219.487076,4231.281948,4232.307589,4226.153743,4232.820409,4228.717845,4230.256307,4229.230666,4209.743487,4215.897333,4210.769128,4201.025538,4188.205026
84,0,4203.07682,4209.743487,4221.538358,4236.922973,4211.281948,4223.58964,4219.999897,4222.051179,4219.487076,4203.07682,4194.358872,4197.435795,4184.615282,4171.79477
85,0,4195.384513,4192.82041,4232.307589,4195.897333,4195.897333,4213.33323,4208.717846,4204.615282,4209.743487,4192.82041,4181.538359,4187.692205,4169.743488,4159.999898
86,0,4206.666564,4199.487077,4238.461435,4202.564,4209.230666,4221.025538,4214.358871,4212.82041,4219.487076,4206.153743,4201.538359,4204.102461,4187.692205,4176.922975
87,0,4215.897333,4213.33323,4225.640922,4234.871691,4230.769127,4229.230666,4220.512717,4221.538358,4223.58964,4219.487076,4210.769128,4208.205025,4201.538359,4192.30759
88,0,4213.33323,4215.384512,4219.487076,4233.84605,4232.307589,4227.692204,4216.922974,4210.256307,4218.974256,4207.179384,4204.102461,4198.974256,4193.846051,4184.102462
89,0,4216.922974,4218.461435,4226.153743,4240.512717,4226.153743,4231.794768,4222.051179,4213.33323,4224.615281,4204.102461,4213.33323,4205.128102,4195.897333,4186.666564
90,0,4223.58964,4224.102461,4223.07682,4268.205024,4223.07682,4237.435794,4233.84605,4231.281948,4231.794768,4224.102461,4224.615281,4219.999897,4208.205025,4201.025538
91,0,4212.307589,4216.410153,4219.999897,4255.384511,4216.922974,4223.58964,4228.717845,4225.128102,4226.153743,4223.58964,4213.846051,4213.846051,4203.589641,4191.794769
92,0,4205.128102,4211.794769,4226.153743,4228.717845,4220.512717,4215.897333,4215.384512,4211.281948,4218.461435,4213.33323,4210.256307,4199.999897,4201.025538,4181.538359
93,0,4214.871692,4226.153743,4225.640922,4236.922973,4232.307589,4228.205025,4216.922974,4220.512717,4223.07682,4219.999897,4221.538358,4206.666564,4209.743487,4194.871692
94,0,4218.974256,4232.820409,4217.948615,4247.692204,4229.230666,4237.948614,4227.179384,4229.743486,4229.743486,4223.58964,4220.512717,4214.358871,4205.640923,4202.051179
95,0,4223.07682,4231.794768,4216.922974,4268.717844,4232.307589,4242.563999,4237.948614,4230.769127,4231.794768,4227.179384,4223.07682,4217.435794,4207.692205,4207.179384
96,0,4228.717845,4236.922973,4217.948615,4294.87169,4249.230665,4244.10246,4247.692204,4242.563999,4232.307589,4237.435794,4237.948614,4226.666563,4220.512717,4219.999897
97,0,4218.461435,4229.230666,4224.615281,4260.512716,4237.435794,4235.384512,4238.461435,4238.461435,4226.153743,4227.179384,4227.179384,4221.025538,4213.846051,4206.666564
98,0,4199.487077,4206.666564,4237.948614,4196.410154,4207.692205,4226.666563,4216.410153,4210.256307,4216.410153,4202.051179,4196.410154,4198.461436,4193.333231,4178.974257
99,0,4199.999897,4203.07682,4238.461435,4195.384513,4211.794769,4228.205025,4213.846051,4206.153743,4217.948615,4196.410154,4203.589641,4197.435795,4194.871692,4183.589641
100,0,4209.743487,4210.769128,4233.33323,4209.230666,4225.128102,4224.102461,4218.461435,4217.948615,4221.538358,4202.564,4222.051179,4209.230666,4203.07682,4193.333231
101,0,4209.230666,4204.102461,4232.820409,4195.897333,4216.410153,4221.025538,4213.846051,4214.871692,4214.871692,4204.615282,4206.666564,4200.512718,4195.384513,4175.897334
102,0,4210.256307,4204.615282,4232.307589,4221.025538,4213.33323,4230.256307,4219.487076,4221.025538,4214.871692,4213.846051,4203.589641,4200.512718,4195.384513,4175.384513
103,0,4212.82041,4213.846051,4221.538358,4263.589639,4221.538358,4229.230666,4223.07682,4230.256307,4223.07682,4219.487076,4213.846051,4210.256307,4200.512718,4194.358872
104,0,4213.33323,4213.846051,4209.743487,4265.128101,4218.974256,4226.153743,4216.922974,4226.153743,4228.717845,4215.897333,4211.281948,4209.230666,4198.461436,4194.871692
105,0,4211.794769,4214.358871,4219.487076,4243.58964,4213.846051,4228.717845,4220.512717,4227.179384,4230.769127,4212.82041,4210.256307,4206.666564,4197.948615,4189.230667
106,0,4213.846051,4218.461435,4231.794768,4241.025537,4221.538358,4233.33323,4230.769127,4229.230666,4230.769127,4216.410153,4219.999897,4211.281948,4202.051179,4195.384513
107,0,4218.974256,4218.974256,4222.563999,4259.999896,4236.410153,4239.487076,4233.84605,4227.179384,4229.230666,4225.128102,4222.051179,4217.948615,4204.102461,4203.589641
108,0,4216.922974,4215.897333,4213.846051,4266.666562,4243.076819,4239.999896,4233.33323,4226.666563,4228.717845,4231.281948,4217.435794,4215.897333,4203.07682,4200.512718
109,0,4212.307589,4218.974256,4215.897333,4261.025537,4245.640922,4235.384512,4235.384512,4230.256307,4230.769127,4232.820409,4224.615281,4213.846051,4209.743487,4196.410154
110,0,4213.846051,4222.051179,4215.897333,4268.717844,4246.666563,4234.871691,4232.307589,4232.307589,4232.307589,4232.820409,4232.820409,4217.948615,4213.846051,4198.461436
111,0,4219.487076,4219.999897,4216.922974,4270.769126,4236.410153,4237.435794,4221.538358,4234.358871,4231.794768,4236.410153,4228.717845,4222.563999,4207.179384,4203.589641
112,0,4217.948615,4215.897333,4210.769128,4265.640921,4227.179384,4230.769127,4213.846051,4229.230666,4229.743486,4228.717845,4213.33323,4216.922974,4198.461436,4200.512718
113,0,4214.871692,4221.025538,4197.435795,4290.769126,4233.33323,4226.666563,4221.538358,4230.769127,4229.230666,4216.410153,4213.33323,4212.82041,4203.589641,4198.974256
114,0,4218.461435,4226.666563,4205.128102,4295.897331,4238.461435,4234.871691,4233.33323,4246.153742,4231.794768,4223.07682,4229.743486,4222.051179,4210.769128,4211.281948
115,0,4218.974256,4224.102461,4226.153743,4246.666563,4231.794768,4236.410153,4232.307589,4245.640922,4232.307589,4234.358871,4226.666563,4227.179384,4204.615282,4215.384512
116,0,4215.897333,4223.07682,4218.974256,4238.974255,4233.84605,4234.358871,4230.769127,4232.820409,4230.256307,4231.281948,4215.384512,4221.538358,4205.640923,4209.230666
117,0,4216.410153,4225.640922,4198.461436,4282.563998,4240.512717,4239.487076,4234.358871,4229.743486,4227.692204,4228.205025,4222.051179,4214.358871,4214.871692,4213.33323
118,0,4219.999897,4228.205025,4204.102461,4288.717844,4241.025537,4246.666563,4235.897332,4233.33323,4229.230666,4234.358871,4230.769127,4219.487076,4216.410153,4220.512717
119,0,4218.974256,4231.794768,4213.846051,4257.948614,4242.563999,4239.487076,4232.820409,4228.205025,4230.769127,4234.871691,4222.051179,4227.179384,4213.846051,4213.33323
120,0,4213.33323,4229.230666,4204.615282,4244.10246,4238.974255,4227.692204,4226.666563,4213.33323,4221.025538,4221.025538,4213.33323,4219.999897,4212.82041,4204.615282
121,0,4215.897333,4226.153743,4193.846051,4263.589639,4230.769127,4235.384512,4227.179384,4206.153743,4214.871692,4211.281948,4217.948615,4209.743487,4214.358871,4211.281948
122,0,4228.205025,4238.974255,4196.410154,4285.1281,4232.820409,4249.743486,4235.897332,4214.871692,4224.615281,4222.051179,4227.179384,4213.33323,4224.102461,4227.692204
123,0,4235.897332,4247.179383,4205.640923,4264.61528,4236.410153,4244.615281,4233.84605,4226.666563,4230.256307,4238.974255,4234.358871,4222.051179,4234.358871,4242.051178
124,0,4237.435794,4243.58964,4216.410153,4222.563999,4234.358871,4229.230666,4219.487076,4225.640922,4219.999897,4235.897332,4229.743486,4219.487076,4229.743486,4246.153742
125,0,4247.179383,4252.820409,4222.563999,4208.717846,4227.692204,4225.640922,4211.281948,4216.410153,4212.307589,4226.153743,4223.58964,4212.307589,4232.820409,4257.948614
126,0,4272.820408,4284.102459,4218.974256,4238.974255,4221.025538,4232.307589,4213.33323,4221.538358,4222.051179,4233.33323,4237.435794,4222.563999,4256.410152,4295.897331
127,0,4300.512715,4312.820407,4222.563999,4266.153742,4223.07682,4233.84605,4216.922974,4232.820409,4232.307589,4235.897332,4260.512716,4242.563999,4280.512716,4338.461432
128,0,4307.179382,4322.051176,4235.384512,4248.717845,4234.358871,4226.666563,4217.435794,4226.666563,4224.615281,4223.07682,4266.153742,4249.230665,4291.794767,4350.256304
0,0,4296.922972,4323.076817,4235.897332,4222.563999,4231.281948,4217.948615,4213.846051,4211.794769,4214.358871,4219.999897,4261.025537,4244.615281,4293.846049,4348.717842
1,0,4299.487074,4327.179381,4229.230666,4232.307589,4218.461435,4216.922974,4202.564,4204.615282,4215.897333,4224.102461,4260.512716,4244.10246,4296.410151,4357.948611
2,0,4316.922971,4330.769125,4231.794768,4249.230665,4217.435794,4218.461435,4196.922974,4198.461436,4215.897333,4221.025538,4261.538357,4247.179383,4304.102459,4367.692201
3,0,4317.948612,4326.15374,4237.435794,4249.230665,4222.051179,4220.512717,4206.666564,4192.82041,4210.769128,4217.948615,4264.10246,4254.35887,4306.153741,4363.589637
4,0,4314.871689,4329.743484,4234.358871,4267.692203,4228.205025,4230.769127,4217.948615,4207.179384,4219.999897,4232.307589,4274.35887,4265.128101,4308.205023,4367.692201
5,0,4326.666561,4344.615278,4231.794768,4298.461433,4237.435794,4233.33323,4218.461435,4225.128102,4232.820409,4245.128101,4284.61528,4270.256306,4319.999894,4386.153739
6,0,4322.563997,4338.461432,4236.410153,4285.1281,4234.871691,4219.487076,4213.33323,4221.025538,4229.743486,4238.461435,4285.1281,4266.153742,4324.102458,4384.615277
7,0,4301.025536,4315.38451,4246.153742,4247.179383,4228.717845,4219.487076,4216.410153,4217.948615,4226.153743,4234.358871,4282.563998,4264.61528,4310.769125,4362.563996
8,0,4293.846049,4304.102459,4250.256306,4236.922973,4235.384512,4233.84605,4219.487076,4231.281948,4232.820409,4247.692204,4281.538357,4266.666562,4302.051177,4344.615278
9,0,4291.794767,4298.461433,4233.84605,4254.35887,4231.794768,4231.794768,4215.897333,4236.410153,4233.33323,4255.384511,4270.256306,4252.307588,4294.358869,4328.717843
10,0,4273.333229,4284.102459,4205.640923,4281.538357,4216.922974,4225.128102,4219.999897,4229.230666,4227.179384,4248.205024,4258.461434,4229.743486,4279.487075,4310.256305
11,0,4262.051178,4269.743485,4196.922974,4297.948613,4224.615281,4232.307589,4233.84605,4229.743486,4228.205025,4243.076819,4260.512716,4227.179384,4271.794767,4297.435792
12,0,4264.61528,4265.128101,4215.384512,4276.922972,4245.640922,4236.922973,4238.461435,4233.33323,4229.230666,4247.692204,4263.076819,4234.871691,4276.410152,4294.358869
13,0,4262.563998,4268.717844,4229.230666,4252.820409,4248.205024,4232.307589,4227.179384,4229.230666,4225.640922,4252.820409,4261.538357,4234.358871,4276.410152,4290.769126
14,0,4262.051178,4271.794767,4221.025538,4262.051178,4237.948614,4234.358871,4218.461435,4222.563999,4227.692204,4252.307588,4262.563998,4232.307589,4268.717844,4281.538357
15,0,4259.999896,4268.205024,4213.846051,4266.153742,4236.922973,4232.307589,4217.435794,4215.897333,4230.769127,4247.179383,4258.974255,4230.256307,4262.051178,4274.35887
16,0,4248.717845,4260.512716,4216.410153,4256.922973,4238.461435,4217.948615,4213.33323,4219.999897,4226.153743,4244.615281,4245.640922,4225.128102,4255.897332,4268.205024
17,0,4242.563999,4256.410152,4212.82041,4267.692203,4231.794768,4222.563999,4213.846051,4234.358871,4227.179384,4247.692204,4244.10246,4225.640922,4254.35887,4263.076819
18,0,4251.794768,4262.563998,4207.179384,4288.205023,4231.794768,4244.10246,4228.205025,4249.230665,4238.461435,4259.487075,4260.512716,4232.820409,4262.563998,4270.256306
19,0,4252.307588,4265.128101,4211.794769,4281.538357,4239.999896,4246.153742,4239.487076,4253.333229,4242.051178,4266.666562,4263.589639,4234.358871,4263.076819,4273.333229
20,0,4232.820409,4245.128101,4214.871692,4242.051178,4234.871691,4226.666563,4219.487076,4228.205025,4228.717845,4248.717845,4236.410153,4212.82041,4240.512717,4243.076819
21,0,4223.07682,4232.820409,4216.410153,4218.461435,4226.153743,4217.435794,4194.871692,4197.948615,4215.384512,4227.692204,4213.33323,4188.205026,4222.563999,4213.846051
22,0,4229.230666,4237.948614,4213.846051,4236.410153,4230.256307,4221.538358,4201.025538,4203.07682,4214.358871,4225.640922,4214.358871,4190.256308,4225.128102,4213.33323
23,0,4230.256307,4234.358871,4202.564,4254.35887,4230.769127,4224.615281,4214.358871,4226.666563,4216.410153,4229.743486,4223.07682,4200.512718,4228.205025,4214.358871
24,0,4223.58964,4228.205025,4203.589641,4244.10246,4231.281948,4231.794768,4213.846051,4235.384512,4223.58964,4241.025537,4230.256307,4202.564,4229.743486,4213.33323
25,0,4217.948615,4231.281948,4213.846051,4228.717845,4232.820409,4236.410153,4211.794769,4230.769127,4230.256307,4252.307588,4230.256307,4203.07682,4230.769127,4218.461435
26,0,4225.128102,4241.025537,4207.692205,4248.205024,4230.769127,4235.897332,4222.563999,4233.84605,4235.384512,4261.025537,4232.307589,4207.179384,4233.33323,4226.666563
27,0,4234.358871,4247.692204,4196.922974,4276.922972,4241.538358,4236.410153,4232.820409,4243.58964,4242.051178,4269.743485,4247.692204,4212.307589,4238.461435,4234.358871
28,0,4226.666563,4236.410153,4203.589641,4250.769127,4248.717845,4231.794768,4222.563999,4236.922973,4240.512717,4261.538357,4242.051178,4206.666564,4233.84605,4230.256307
29,0,4213.33323,4223.58964,4205.128102,4227.179384,4242.051178,4230.769127,4216.410153,4224.102461,4233.33323,4242.563999,4217.435794,4189.230667,4223.07682,4212.307589
30,0,4214.358871,4230.769127,4194.358872,4263.589639,4244.10246,4238.461435,4233.84605,4229.743486,4234.358871,4240.512717,4213.846051,4181.538359,4221.025538,4203.07682
31,0,4215.897333,4232.307589,4191.794769,4281.538357,4241.538358,4240.512717,4238.461435,4235.897332,4235.384512,4241.025537,4216.410153,4184.102462,4213.846051,4200.512718
32,0,4204.102461,4211.281948,4198.461436,4244.10246,4226.666563,4233.33323,4219.999897,4219.487076,4223.58964,4224.615281,4195.897333,4181.538359,4193.333231,4187.692205
33,0,4195.897333,4199.999897,4201.538359,4221.538358,4226.666563,4230.256307,4217.948615,4208.717846,4213.846051,4212.307589,4178.461436,4178.461436,4180.512718,4170.769129
34,0,4198.974256,4205.640923,4199.999897,4234.358871,4233.33323,4234.358871,4231.794768,4219.487076,4217.435794,4213.33323,4184.615282,4178.974257,4177.948616,4165.640924
35,0,4205.640923,4210.769128,4198.461436,4259.487075,4231.281948,4241.025537,4240.512717,4229.743486,4225.128102,4223.58964,4202.564,4188.717846,4187.179385,4181.025539
36,0,4214.358871,4219.999897,4193.846051,4289.230664,4240.512717,4249.743486,4245.640922,4238.974255,4233.84605,4245.640922,4221.538358,4209.230666,4209.230666,4208.717846
37,0,4225.128102,4231.794768,4189.230667,4297.435792,4248.717845,4251.281947,4251.794768,4254.35887,4241.538358,4262.051178,4232.307589,4218.461435,4222.051179,4224.615281
38,0,4230.769127,4238.974255,4196.922974,4299.487074,4239.999896,4247.692204,4259.487075,4266.153742,4247.179383,4267.179383,4244.615281,4221.025538,4223.58964,4229.743486
39,0,4237.435794,4248.205024,4210.256307,4314.358869,4237.435794,4251.281947,4267.692203,4275.384511,4251.794768,4274.87169,4264.10246,4241.025537,4234.871691,4243.076819
40,0,4247.692204,4254.871691,4220.512717,4307.692202,4246.666563,4251.281947,4268.205024,4286.666562,4252.820409,4283.076818,4269.230665,4253.84605,4243.58964,4256.410152
41,0,4251.281947,4245.640922,4225.640922,4283.076818,4248.205024,4249.230665,4269.230665,4285.640921,4251.281947,4281.538357,4258.974255,4242.563999,4232.820409,4250.256306
42,0,4239.999896,4233.33323,4223.07682,4270.256306,4239.487076,4247.692204,4268.205024,4263.589639,4246.666563,4268.205024,4245.640922,4229.743486,4219.999897,4233.84605
43,0,4221.025538,4229.743486,4213.33323,4270.769126,4232.820409,4239.487076,4254.871691,4237.948614,4235.897332,4249.743486,4230.256307,4219.487076,4212.82041,4215.384512
44,0,4213.33323,4224.102461,4205.128102,4271.281947,4230.769127,4233.84605,4242.563999,4229.743486,4227.692204,4231.281948,4216.922974,4209.230666,4203.589641,4203.07682
45,0,4213.33323,4221.025538,4201.025538,4270.256306,4231.794768,4234.871691,4235.384512,4230.769127,4229.230666,4218.974256,4211.281948,4204.615282,4194.358872,4198.974256
46,0,4205.128102,4214.358871,4204.615282,4253.84605,4228.717845,4231.794768,4229.230666,4222.051179,4228.717845,4216.410153,4197.435795,4194.358872,4183.076821,4185.128103
47,0,4194.871692,4201.538359,4224.102461,4215.897333,4219.999897,4230.769127,4227.179384,4210.256307,4217.948615,4213.846051,4181.538359,4180.512718,4171.281949,4165.128103
48,0,4204.615282,4202.051179,4236.922973,4193.846051,4214.871692,4230.256307,4220.512717,4209.230666,4214.358871,4209.230666,4184.615282,4183.076821,4171.281949,4166.153744
49,0,4217.435794,4212.82041,4223.07682,4208.205025,4222.051179,4218.974256,4212.307589,4215.384512,4222.563999,4216.922974,4199.487077,4193.846051,4183.076821,4184.102462
50,0,4213.33323,4213.846051,4211.281948,4229.743486,4229.230666,4219.999897,4221.025538,4221.025538,4228.205025,4230.256307,4209.230666,4196.922974,4194.358872,4194.358872
51,0,4211.281948,4219.487076,4217.948615,4247.692204,4231.794768,4239.487076,4236.922973,4232.307589,4231.794768,4234.871691,4217.435794,4203.589641,4207.179384,4204.102461
52,0,4218.974256,4233.84605,4218.461435,4268.717844,4231.281948,4233.84605,4237.948614,4243.58964,4235.897332,4234.871691,4227.692204,4217.948615,4219.487076,4217.948615
53,0,4224.102461,4232.307589,4216.922974,4266.153742,4222.051179,4217.435794,4241.025537,4248.717845,4236.410153,4232.820409,4232.820409,4222.051179,4217.948615,4222.051179
54,0,4222.051179,4223.07682,4223.58964,4245.128101,4214.358871,4225.640922,4245.640922,4252.307588,4235.384512,4233.33323,4234.871691,4217.435794,4209.743487,4216.410153
55,0,4210.769128,4218.461435,4222.051179,4241.538358,4211.794769,4230.256307,4237.435794,4245.640922,4233.33323,4232.820409,4228.717845,4216.922974,4203.07682,4205.640923
56,0,4205.128102,4213.846051,4214.871692,4248.717845,4215.384512,4222.051179,4229.230666,4233.33323,4231.281948,4222.563999,4215.897333,4214.871692,4197.948615,4195.897333
57,0,4211.281948,4215.897333,4213.33323,4251.281947,4228.205025,4230.769127,4231.281948,4229.230666,4232.307589,4224.615281,4217.948615,4206.153743,4201.025538,4198.461436
58,0,4210.769128,4214.871692,4212.307589,4247.692204,4232.820409,4235.897332,4233.33323,4224.102461,4226.666563,4233.84605,4220.512717,4196.410154,4199.487077,4199.487077
59,0,4195.384513,4201.538359,4216.410153,4227.692204,4220.512717,4219.487076,4229.230666,4211.281948,4217.435794,4223.58964,4204.102461,4190.769128,4187.692205,4186.153744
60,0,4194.871692,4200.512718,4227.179384,4215.384512,4215.384512,4220.512717,4220.512717,4210.769128,4224.102461,4218.974256,4202.051179,4195.897333,4190.256308,4186.153744
61,0,4215.897333,4219.999897,4237.435794,4219.999897,4222.051179,4234.358871,4216.410153,4227.692204,4235.384512,4235.384512,4228.205025,4207.692205,4205.128102,4205.640923
62,0,4220.512717,4226.666563,4235.384512,4218.974256,4216.410153,4229.743486,4224.615281,4233.33323,4231.794768,4238.974255,4233.33323,4206.153743,4205.640923,4207.692205
63,0,4204.615282,4218.461435,4222.563999,4224.615281,4208.717846,4225.128102,4230.769127,4231.281948,4229.743486,4231.794768,4216.922974,4198.974256,4199.999897,4198.974256
64,0,4199.487077,4217.948615,4222.051179,4228.205025,4213.33323,4226.666563,4221.025538,4228.205025,4231.794768,4232.307589,4213.846051,4197.435795,4198.974256,4198.461436
65,0,4204.615282,4214.358871,4234.871691,4199.999897,4218.974256,4218.461435,4211.794769,4215.897333,4224.615281,4227.179384,4209.230666,4192.82041,4191.281949,4187.692205
66,0,4197.435795,4199.999897,4236.410153,4168.205026,4213.33323,4211.281948,4207.692205,4202.564,4214.358871,4210.769128,4191.794769,4184.615282,4177.948616,4170.769129
67,0,4190.256308,4193.846051,4232.307589,4172.820411,4206.153743,4216.410153,4204.615282,4201.538359,4214.358871,4200.512718,4190.769128,4184.102462,4177.948616,4172.30759
68,0,4197.948615,4199.487077,4235.384512,4185.640923,4213.33323,4215.384512,4203.589641,4203.07682,4218.461435,4204.615282,4197.435795,4186.153744,4186.153744,4173.333231
69,0,4199.999897,4199.487077,4227.179384,4199.999897,4217.435794,4209.743487,4208.717846,4197.435795,4217.948615,4205.128102,4189.230667,4183.076821,4181.025539,4167.179385
70,0,4198.974256,4202.051179,4211.794769,4234.871691,4214.871692,4219.999897,4216.410153,4204.615282,4216.922974,4198.461436,4192.82041,4189.230667,4174.871693,4175.897334
71,0,4200.512718,4214.358871,4216.410153,4243.076819,4224.102461,4234.358871,4218.974256,4216.410153,4219.487076,4203.589641,4209.743487,4201.538359,4183.589641,4188.205026
72,0,4199.999897,4214.358871,4223.07682,4224.615281,4233.84605,4233.33323,4219.487076,4217.948615,4223.07682,4218.974256,4213.846051,4202.564,4194.871692,4188.205026
73,0,4208.717846,4215.897333,4212.307589,4243.58964,4233.33323,4230.256307,4219.999897,4215.897333,4228.205025,4228.205025,4213.846051,4201.025538,4202.051179,4196.922974
74,0,4215.897333,4220.512717,4203.07682,4273.846049,4230.256307,4236.410153,4217.435794,4217.948615,4229.230666,4228.205025,4216.410153,4203.07682,4204.615282,4204.102461
75,0,4203.589641,4199.487077,4212.307589,4252.307588,4225.640922,4237.435794,4219.999897,4218.461435,4224.615281,4224.615281,4208.205025,4202.564,4193.846051,4191.281949
76,0,4194.358872,4187.179385,4220.512717,4227.179384,4215.897333,4227.692204,4218.974256,4209.743487,4217.948615,4215.384512,4197.435795,4197.435795,4181.538359,4178.974257
77,0,4199.999897,4213.33323,4216.410153,4232.307589,4209.230666,4217.435794,4204.615282,4199.999897,4216.922974,4203.07682,4190.256308,4189.230667,4180.512718,4182.564
78,0,4203.589641,4236.410153,4215.897333,4233.33323,4218.461435,4218.974256,4205.128102,4199.999897,4218.461435,4199.999897,4191.281949,4189.230667,4184.615282,4189.230667
79,0,4207.179384,4239.999896,4223.58964,4229.230666,4231.281948,4225.128102,4218.461435,4204.102461,4216.410153,4205.640923,4203.589641,4198.461436,4187.692205,4193.846051
80,0,4213.33323,4249.230665,4229.743486,4230.256307,4225.640922,4219.487076,4208.717846,4197.948615,4214.871692,4206.153743,4197.948615,4199.487077,4181.025539,4198.974256
81,0,4217.948615,4255.897332,4229.743486,4230.769127,4215.384512,4214.871692,4197.435795,4196.922974,4212.82041,4200.512718,4184.102462,4196.922974,4170.256308,4205.128102
82,0,4211.281948,4235.897332,4234.358871,4197.948615,4207.692205,4211.281948,4197.435795,4196.922974,4204.615282,4190.769128,4180.512718,4195.897333,4159.487078,4191.281949
83,0,4198.974256,4216.410153,4243.58964,4159.487078,4194.871692,4205.128102,4189.743487,4185.640923,4203.07682,4178.974257,4170.256308,4190.769128,4145.640924,4170.769129
84,0,4204.615282,4229.743486,4235.384512,4195.897333,4204.102461,4213.33323,4192.82041,4189.743487,4214.358871,4190.769128,4172.30759,4192.82041,4145.640924,4185.128103
85,0,4214.871692,4248.205024,4220.512717,4250.256306,4233.33323,4223.58964,4210.256307,4207.179384,4220.512717,4214.358871,4197.435795,4203.589641,4161.53836,4207.179384
86,0,4212.307589,4238.974255,4225.640922,4244.10246,4235.897332,4218.974256,4212.82041,4214.358871,4217.948615,4217.948615,4206.666564,4208.717846,4168.717847,4199.999897
87,0,4212.82041,4237.435794,4231.281948,4234.871691,4226.153743,4225.128102,4212.307589,4215.384512,4221.538358,4219.487076,4205.128102,4214.871692,4170.769129,4201.025538
88,0,4217.948615,4254.35887,4219.487076,4252.307588,4234.871691,4235.384512,4225.128102,4219.999897,4225.640922,4228.717845,4216.410153,4221.538358,4181.538359,4215.384512
89,0,4216.922974,4256.410152,4213.846051,4262.051178,4234.871691,4232.307589,4233.84605,4224.615281,4225.128102,4228.205025,4221.538358,4218.461435,4185.128103,4216.922974
90,0,4212.82041,4247.692204,4219.999897,4264.61528,4219.999897,4231.794768,4232.307589,4228.717845,4222.051179,4216.922974,4213.33323,4213.33323,4178.974257,4210.256307
91,0,4200.512718,4238.461435,4219.999897,4241.538358,4213.846051,4230.256307,4225.128102,4223.07682,4213.846051,4203.07682,4198.974256,4204.102461,4169.743488,4195.897333
92,0,4184.102462,4226.666563,4217.435794,4197.948615,4214.358871,4216.922974,4210.769128,4207.179384,4210.256307,4192.30759,4180.512718,4190.256308,4154.871693,4176.410154
93,0,4189.743487,4227.692204,4218.461435,4205.128102,4217.435794,4213.33323,4205.640923,4210.769128,4216.922974,4196.410154,4180.512718,4190.769128,4151.79477,4181.025539
94,0,4197.948615,4233.33323,4221.538358,4219.487076,4219.999897,4219.487076,4210.256307,4214.358871,4219.487076,4201.538359,4189.230667,4191.794769,4160.512719,4190.769128
95,0,4187.692205,4226.666563,4218.974256,4194.871692,4217.435794,4214.871692,4201.538359,4193.846051,4211.794769,4185.128103,4179.999898,4181.538359,4156.410155,4177.948616
96,0,4187.179385,4227.179384,4214.871692,4201.025538,4216.410153,4212.307589,4194.358872,4190.256308,4213.33323,4178.461436,4174.871693,4181.025539,4150.256309,4174.358872
97,0,4198.461436,4233.33323,4219.999897,4231.281948,4217.435794,4218.974256,4203.589641,4207.179384,4216.410153,4189.743487,4186.666564,4189.743487,4155.384514,4188.205026
98,0,4192.82041,4225.128102,4233.33323,4202.051179,4213.33323,4218.461435,4201.025538,4200.512718,4205.128102,4181.538359,4184.102462,4187.179385,4156.922975,4181.025539
99,0,4183.589641,4218.461435,4239.999896,4158.974257,4217.435794,4216.410153,4190.256308,4188.205026,4200.512718,4172.30759,4170.769129,4183.076821,4151.28195,4169.743488
100,0,4196.922974,4229.230666,4226.666563,4196.410154,4227.692204,4219.487076,4199.487077,4198.974256,4207.179384,4184.615282,4171.79477,4188.717846,4152.307591,4183.589641
101,0,4201.538359,4239.487076,4214.358871,4235.384512,4219.999897,4216.410153,4205.640923,4202.051179,4205.640923,4183.589641,4175.897334,4184.102462,4153.333232,4189.743487
102,0,4187.179385,4233.33323,4218.461435,4206.666564,4212.307589,4212.307589,4195.897333,4197.948615,4206.666564,4169.743488,4172.30759,4175.384513,4150.256309,4171.281949
103,0,4181.538359,4221.025538,4219.999897,4181.025539,4217.948615,4211.794769,4190.256308,4198.461436,4214.871692,4175.897334,4167.692206,4177.948616,4151.28195,4164.615283
104,0,4185.640923,4214.871692,4213.33323,4190.256308,4216.410153,4212.307589,4192.82041,4195.384513,4214.358871,4185.640923,4172.820411,4185.128103,4154.871693,4176.922975
105,0,4197.435795,4226.153743,4215.384512,4215.897333,4223.07682,4224.102461,4210.769128,4210.256307,4216.410153,4193.333231,4198.461436,4201.538359,4167.692206,4195.897333
106,0,4202.051179,4239.999896,4221.538358,4218.974256,4234.358871,4229.743486,4218.461435,4222.563999,4223.07682,4192.30759,4207.179384,4207.179384,4175.384513,4204.615282
107,0,4186.153744,4229.230666,4218.461435,4177.948616,4215.897333,4212.307589,4195.384513,4194.871692,4211.794769,4171.281949,4175.384513,4178.461436,4157.435796,4186.153744
108,0,4184.102462,4223.58964,4217.948615,4156.922975,4200.512718,4205.128102,4185.128103,4177.435795,4202.051179,4165.640924,4161.025539,4165.128103,4145.640924,4173.846052
109,0,4203.07682,4244.615281,4215.384512,4202.564,4215.384512,4216.922974,4202.564,4201.025538,4209.230666,4183.076821,4182.564,4191.794769,4160.512719,4195.897333
110,0,4203.07682,4249.230665,4206.153743,4237.435794,4223.58964,4222.051179,4212.307589,4214.358871,4213.846051,4183.589641,4196.922974,4205.128102,4172.30759,4211.794769
111,0,4198.461436,4240.512717,4202.564,4241.538358,4219.999897,4230.769127,4221.025538,4218.461435,4222.051179,4188.205026,4203.589641,4205.640923,4179.487077,4214.358871
112,0,4213.846051,4255.384511,4199.487077,4265.128101,4230.256307,4236.922973,4235.897332,4236.922973,4233.84605,4212.307589,4209.230666,4216.410153,4192.30759,4224.615281
113,0,4218.974256,4265.640921,4197.435795,4263.589639,4236.922973,4224.615281,4226.153743,4234.358871,4225.640922,4218.974256,4207.179384,4212.82041,4192.82041,4227.179384
114,0,4210.256307,4251.794768,4210.769128,4225.128102,4223.58964,4219.487076,4211.281948,4213.33323,4212.82041,4210.769128,4209.230666,4199.999897,4184.102462,4217.435794
115,0,4209.230666,4250.256306,4213.33323,4233.33323,4214.358871,4233.33323,4225.640922,4221.538358,4224.615281,4211.794769,4217.435794,4208.205025,4187.179385,4212.307589
116,0,4209.230666,4250.256306,4196.922974,4268.717844,4221.025538,4234.871691,4235.897332,4236.922973,4232.820409,4213.33323,4214.358871,4217.948615,4189.230667,4218.461435
117,0,4204.615282,4235.384512,4203.07682,4245.640922,4227.179384,4220.512717,4221.538358,4224.102461,4220.512717,4210.256307,4205.640923,4213.33323,4181.025539,4225.128102
118,0,4211.281948,4237.948614,4216.410153,4218.974256,4228.717845,4219.487076,4211.794769,4210.769128,4216.410153,4213.846051,4206.666564,4210.769128,4185.128103,4229.230666
119,0,4227.692204,4252.820409,4201.538359,4250.769127,4230.256307,4230.256307,4219.487076,4217.948615,4221.538358,4219.999897,4217.948615,4214.358871,4200.512718,4231.281948
120,0,4229.230666,4250.769127,4195.384513,4254.871691,4229.230666,4232.820409,4220.512717,4219.999897,4219.999897,4218.461435,4225.128102,4214.358871,4205.128102,4231.794768
121,0,4218.974256,4243.58964,4208.717846,4225.640922,4231.281948,4228.717845,4215.384512,4216.410153,4214.358871,4213.846051,4216.922974,4212.82041,4195.384513,4232.820409
122,0,4216.922974,4246.666563,4198.974256,4251.281947,4231.794768,4233.84605,4224.102461,4223.07682,4219.999897,4214.871692,4210.256307,4213.33323,4190.769128,4229.743486
123,0,4220.512717,4246.153742,4182.05118,4294.87169,4217.948615,4245.640922,4235.384512,4229.743486,4228.717845,4225.128102,4217.948615,4214.871692,4202.051179,4230.769127
124,0,4225.640922,4245.640922,4185.128103,4311.281946,4221.025538,4246.153742,4237.948614,4239.999896,4231.281948,4239.487076,4237.948614,4229.230666,4218.461435,4245.128101
125,0,4236.410153,4255.384511,4195.384513,4310.256305,4251.794768,4238.974255,4237.435794,4249.743486,4232.820409,4241.538358,4251.281947,4247.692204,4226.153743,4257.948614
126,0,4234.358871,4253.84605,4206.666564,4266.666562,4254.871691,4231.794768,4230.256307,4237.435794,4228.205025,4229.743486,4243.58964,4236.922973,4214.871692,4246.666563
127,0,4222.563999,4244.10246,4210.256307,4231.794768,4233.33323,4232.820409,4224.615281,4222.051179,4218.974256,4226.153743,4229.230666,4215.897333,4204.615282,4232.820409
128,0,4221.538358,4242.563999,4203.589641,4251.794768,4232.307589,4232.307589,4224.102461,4227.179384,4217.948615,4231.281948,4224.102461,4214.871692,4207.692205,4235.384512
0,0,4216.410153,4236.922973,4198.461436,4255.384511,4227.179384,4222.051179,4212.307589,4225.128102,4222.051179,4224.102461,4212.307589,4209.230666,4197.435795,4225.128102
1,0,4207.692205,4229.230666,4201.025538,4224.615281,4209.743487,4216.922974,4201.538359,4211.281948,4216.922974,4209.743487,4196.410154,4194.871692,4185.640923,4208.717846
2,0,4213.846051,4230.256307,4205.128102,4225.128102,4222.563999,4227.179384,4216.922974,4222.051179,4218.974256,4214.358871,4205.640923,4205.128102,4192.30759,4212.307589
3,0,4217.435794,4223.58964,4202.051179,4239.999896,4238.974255,4236.410153,4232.307589,4241.025537,4234.871691,4227.692204,4216.410153,4217.948615,4190.256308,4210.769128
4,0,4206.666564,4214.358871,4201.025538,4223.07682,4221.538358,4229.230666,4214.358871,4231.281948,4233.33323,4222.563999,4203.589641,4207.179384,4183.589641,4195.384513
5,0,4205.640923,4215.897333,4210.256307,4194.871692,4208.205025,4218.461435,4199.999897,4213.33323,4219.487076,4212.307589,4197.948615,4194.871692,4198.974256,4197.435795
6,0,4207.692205,4209.230666,4218.974256,4176.410154,4218.974256,4218.461435,4208.205025,4215.384512,4221.025538,4213.846051,4205.640923,4193.333231,4202.051179,4202.051179
7,0,4192.30759,4189.230667,4204.102461,4181.025539,4217.948615,4219.487076,4206.666564,4217.948615,4227.179384,4213.33323,4199.487077,4189.743487,4184.102462,4187.179385
8,0,4185.640923,4183.589641,4182.564,4212.307589,4209.230666,4215.897333,4204.615282,4212.307589,4227.179384,4206.666564,4194.358872,4191.281949,4188.205026,4184.102462
9,0,4201.538359,4191.794769,4186.666564,4234.358871,4221.538358,4222.051179,4220.512717,4219.999897,4226.153743,4211.794769,4209.230666,4201.025538,4203.07682,4198.974256
10,0,4216.922974,4203.07682,4200.512718,4240.512717,4234.871691,4234.871691,4231.281948,4232.820409,4224.615281,4219.999897,4224.102461,4213.33323,4208.717846,4212.82041
11,0,4217.435794,4209.230666,4198.974256,4247.179383,4222.051179,4232.307589,4226.666563,4231.281948,4223.58964,4214.358871,4227.179384,4222.051179,4213.33323,4215.897333
12,0,4217.435794,4211.794769,4199.487077,4246.666563,4213.33323,4228.717845,4226.153743,4231.281948,4229.230666,4214.871692,4229.743486,4223.07682,4216.922974,4218.974256
13,0,4221.025538,4213.33323,4215.384512,4224.102461,4227.692204,4228.717845,4223.07682,4234.871691,4228.205025,4225.128102,4232.820409,4221.025538,4216.410153,4223.07682
14,0,4215.897333,4205.128102,4218.461435,4206.153743,4234.358871,4221.538358,4214.358871,4223.58964,4216.922974,4220.512717,4219.999897,4216.410153,4206.153743,4214.358871
15,0,4211.794769,4203.589641,4200.512718,4228.717845,4228.205025,4224.102461,4223.58964,4219.487076,4218.461435,4213.846051,4213.33323,4212.307589,4198.974256,4207.179384
16,0,4216.410153,4218.461435,4195.897333,4250.769127,4231.794768,4237.435794,4232.820409,4238.974255,4229.743486,4226.666563,4230.769127,4222.051179,4207.179384,4214.358871
17,0,4217.435794,4221.025538,4213.33323,4233.33323,4232.307589,4235.384512,4226.153743,4250.256306,4235.384512,4233.33323,4235.897332,4232.820409,4217.435794,4218.974256
18,0,4212.307589,4210.769128,4216.922974,4213.33323,4218.461435,4222.051179,4216.922974,4234.871691,4229.743486,4218.461435,4222.051179,4224.102461,4209.743487,4211.794769
19,0,4214.871692,4213.846051,4203.07682,4225.128102,4218.461435,4218.461435,4213.846051,4224.102461,4221.538358,4211.794769,4223.58964,4211.794769,4203.07682,4216.410153
20,0,4213.33323,4214.871692,4205.128102,4222.563999,4222.051179,4219.999897,4216.410153,4226.153743,4217.948615,4216.410153,4224.615281,4208.717846,4203.589641,4219.999897
21,0,4203.589641,4203.07682,4217.948615,4194.871692,4205.640923,4218.461435,4216.410153,4224.102461,4218.461435,4214.871692,4216.922974,4207.692205,4201.025538,4210.256307
22,0,4211.794769,4212.307589,4216.922974,4205.640923,4207.179384,4216.410153,4213.846051,4224.615281,4226.153743,4219.999897,4230.256307,4219.487076,4209.230666,4222.051179
23,0,4232.307589,4232.307589,4214.871692,4242.563999,4232.307589,4222.051179,4219.487076,4235.897332,4232.307589,4237.948614,4250.769127,4241.025537,4230.256307,4249.230665
24,0,4234.871691,4235.897332,4214.358871,4267.692203,4241.538358,4234.358871,4234.358871,4247.692204,4234.358871,4250.769127,4255.897332,4251.281947,4242.051178,4253.333229
25,0,4231.794768,4233.33323,4206.153743,4277.948613,4231.281948,4238.974255,4237.948614,4248.205024,4235.384512,4250.256306,4258.974255,4249.743486,4238.461435,4247.179383
26,0,4230.256307,4230.769127,4209.230666,4254.35887,4224.615281,4233.33323,4225.128102,4235.384512,4231.281948,4237.435794,4254.871691,4237.435794,4231.281948,4249.230665
27,0,4215.897333,4210.256307,4219.487076,4203.07682,4213.33323,4215.897333,4207.692205,4214.358871,4217.948615,4211.794769,4228.717845,4212.307589,4214.871692,4232.307589
28,0,4205.640923,4197.435795,4220.512717,4185.128103,4207.179384,4207.179384,4202.564,4208.717846,4212.82041,4201.025538,4209.743487,4200.512718,4204.615282,4209.743487
29,0,4217.435794,4216.922974,4219.487076,4213.33323,4222.051179,4223.07682,4221.025538,4226.153743,4227.179384,4218.974256,4226.153743,4216.922974,4213.846051,4220.512717
30,0,4221.025538,4232.820409,4210.769128,4247.179383,4231.281948,4234.358871,4231.794768,4236.922973,4235.897332,4232.820409,4242.563999,4228.205025,4218.974256,4235.897332
31,0,4216.922974,4229.230666,4198.974256,4270.256306,4230.256307,4232.307589,4229.230666,4233.33323,4231.794768,4234.871691,4238.974255,4219.487076,4224.102461,4235.897332
32,0,4221.025538,4228.205025,4208.717846,4254.35887,4232.307589,4234.358871,4228.205025,4231.281948,4227.692204,4233.33323,4231.281948,4214.871692,4229.743486,4229.743486
