title:JTA                                                                             , recorded:03.07.20 13.48.26, sampling:128, subject:JTA                                                                             , labels:COUNTER INTERPOLATED AF3 F7 F3 FC5 T7 P7 O1 O2 P8 T8 FC6 F4 F8 AF4,, units:emotiv,,,,,,,,,
59,0,4232.307589,4215.384512,4218.461435,4238.974255,4216.922974,4226.153743,4230.256307,4251.281947,4231.281948,4235.897332,4252.307588,4245.128101,4255.384511,4273.333229
60,0,4234.358871,4222.563999,4218.974256,4254.871691,4216.410153,4236.410153,4236.410153,4256.922973,4229.743486,4247.692204,4267.179383,4249.743486,4265.640921,4281.025536
61,0,4234.358871,4221.025538,4231.794768,4235.897332,4219.999897,4230.256307,4231.281948,4254.871691,4232.307589,4246.153742,4260.512716,4249.230665,4258.461434,4281.025536
62,0,4230.769127,4212.82041,4229.743486,4224.102461,4218.974256,4218.461435,4219.487076,4246.666563,4230.256307,4245.128101,4249.230665,4242.051178,4252.307588,4265.640921
63,0,4231.281948,4215.897333,4227.179384,4231.794768,4216.922974,4216.922974,4215.897333,4244.10246,4228.205025,4247.692204,4255.384511,4244.10246,4261.538357,4268.717844
64,0,4233.84605,4222.563999,4236.922973,4222.563999,4216.922974,4218.974256,4217.948615,4240.512717,4230.769127,4237.948614,4258.461434,4250.256306,4261.025537,4281.538357
65,0,4232.820409,4224.102461,4243.58964,4195.384513,4214.871692,4215.897333,4216.410153,4228.205025,4226.153743,4224.615281,4250.256306,4246.153742,4248.205024,4272.820408
66,0,4229.230666,4218.974256,4248.205024,4177.948616,4214.358871,4209.743487,4210.769128,4221.538358,4219.999897,4226.666563,4244.10246,4236.922973,4248.205024,4259.999896
67,0,4227.179384,4211.281948,4247.179383,4191.794769,4212.82041,4212.307589,4211.281948,4227.179384,4222.563999,4226.666563,4245.640922,4239.487076,4253.84605,4265.128101
68,0,4238.461435,4224.615281,4237.948614,4231.794768,4214.871692,4228.205025,4225.128102,4242.563999,4230.769127,4229.230666,4258.461434,4256.410152,4262.051178,4283.589639
69,0,4253.333229,4245.128101,4231.281948,4256.410152,4229.230666,4234.358871,4236.922973,4251.794768,4230.256307,4249.743486,4270.256306,4264.10246,4275.384511,4298.461433
70,0,4245.128101,4239.487076,4227.179384,4256.410152,4233.84605,4221.025538,4234.358871,4245.640922,4224.615281,4251.794768,4265.640921,4251.281947,4272.307588,4293.333228
71,0,4231.281948,4229.230666,4227.692204,4254.871691,4225.640922,4219.999897,4229.230666,4242.563999,4227.692204,4231.281948,4262.563998,4249.743486,4264.61528,4278.461434
72,0,4237.948614,4232.820409,4233.84605,4245.128101,4227.179384,4228.717845,4230.256307,4249.743486,4232.820409,4232.307589,4267.179383,4262.051178,4270.256306,4276.410152
73,0,4244.615281,4236.410153,4230.769127,4246.666563,4234.871691,4224.102461,4234.358871,4253.84605,4231.281948,4251.794768,4267.179383,4261.025537,4273.846049,4281.538357
74,0,4232.820409,4230.769127,4232.307589,4238.974255,4229.230666,4215.897333,4227.692204,4247.179383,4227.179384,4247.179383,4262.563998,4248.205024,4262.051178,4273.333229
75,0,4213.846051,4212.82041,4245.640922,4187.179385,4218.461435,4215.384512,4210.256307,4232.307589,4222.563999,4211.794769,4244.615281,4235.384512,4244.10246,4251.281947
76,0,4209.230666,4199.487077,4244.615281,4163.076821,4212.82041,4216.410153,4207.692205,4228.205025,4217.435794,4194.871692,4230.769127,4229.230666,4238.461435,4244.615281
77,0,4223.07682,4211.281948,4230.256307,4201.538359,4212.307589,4214.871692,4218.461435,4236.922973,4217.948615,4220.512717,4239.487076,4228.717845,4244.615281,4256.410152
78,0,4233.33323,4229.743486,4229.230666,4229.230666,4218.461435,4217.435794,4217.435794,4243.58964,4226.153743,4247.179383,4247.692204,4230.256307,4254.35887,4264.10246
79,0,4230.769127,4236.410153,4226.153743,4242.051178,4231.281948,4226.153743,4221.538358,4255.384511,4234.871691,4257.435793,4252.307588,4241.025537,4263.589639,4270.769126
80,0,4232.307589,4239.999896,4218.974256,4259.999896,4237.948614,4227.692204,4235.897332,4267.179383,4239.487076,4262.563998,4267.692203,4253.333229,4270.769126,4278.461434
81,0,4229.743486,4231.281948,4225.640922,4233.33323,4221.025538,4213.846051,4225.640922,4251.794768,4230.256307,4244.10246,4261.025537,4241.025537,4257.435793,4264.10246
82,0,4218.974256,4222.563999,4219.487076,4223.58964,4209.743487,4216.410153,4218.461435,4239.487076,4222.051179,4221.538358,4240.512717,4227.692204,4244.615281,4250.256306
83,0,4224.102461,4230.256307,4212.82041,4246.153742,4225.128102,4234.358871,4232.820409,4251.281947,4226.666563,4235.897332,4244.615281,4237.435794,4258.974255,4264.10246
84,0,4227.179384,4224.615281,4240.512717,4190.256308,4230.256307,4224.615281,4222.563999,4245.640922,4224.615281,4240.512717,4242.563999,4232.307589,4257.435793,4266.666562
85,0,4208.205025,4202.051179,4257.948614,4120.51272,4214.358871,4200.512718,4197.948615,4220.512717,4216.410153,4216.922974,4218.461435,4209.230666,4234.358871,4243.076819
86,0,4194.358872,4192.82041,4236.922973,4147.179386,4199.487077,4198.974256,4196.410154,4211.794769,4214.358871,4204.615282,4208.205025,4206.666564,4225.640922,4228.205025
87,0,4203.07682,4203.07682,4224.615281,4188.205026,4198.974256,4211.281948,4210.769128,4221.025538,4218.974256,4201.538359,4217.435794,4217.435794,4231.794768,4230.256307
88,0,4214.871692,4214.871692,4232.307589,4180.512718,4210.256307,4216.410153,4211.794769,4230.256307,4225.640922,4206.153743,4225.640922,4218.461435,4235.897332,4236.410153
89,0,4216.410153,4217.435794,4232.820409,4185.640923,4218.461435,4217.948615,4207.179384,4234.358871,4227.692204,4227.179384,4232.307589,4215.384512,4243.076819,4244.615281
90,0,4206.666564,4204.615282,4229.230666,4189.230667,4204.615282,4211.794769,4204.102461,4227.179384,4219.999897,4228.717845,4230.769127,4213.846051,4242.051178,4245.128101
91,0,4198.974256,4193.846051,4223.58964,4181.538359,4199.487077,4197.948615,4203.07682,4222.051179,4216.410153,4214.358871,4221.538358,4213.846051,4233.33323,4232.307589
92,0,4208.205025,4202.051179,4212.82041,4208.717846,4217.948615,4201.025538,4207.179384,4227.692204,4218.461435,4212.82041,4218.461435,4214.871692,4236.410153,4226.153743
93,0,4217.948615,4212.307589,4218.461435,4223.07682,4222.563999,4214.871692,4214.358871,4234.871691,4217.948615,4207.179384,4219.487076,4215.384512,4242.051178,4233.33323
94,0,4215.384512,4212.82041,4234.358871,4200.512718,4213.33323,4218.461435,4218.974256,4229.230666,4216.410153,4207.179384,4222.051179,4214.871692,4240.512717,4238.974255
95,0,4213.846051,4213.33323,4228.717845,4199.999897,4214.871692,4214.358871,4215.384512,4219.999897,4217.948615,4227.692204,4227.179384,4217.948615,4245.128101,4241.025537
96,0,4223.07682,4216.410153,4212.82041,4224.615281,4218.461435,4215.384512,4215.897333,4222.051179,4222.051179,4231.281948,4229.743486,4218.974256,4250.769127,4245.128101
97,0,4225.640922,4211.794769,4215.897333,4217.948615,4210.769128,4216.922974,4216.922974,4225.640922,4221.025538,4214.871692,4219.487076,4215.897333,4241.025537,4242.051178
98,0,4229.230666,4221.025538,4229.743486,4201.538359,4209.230666,4215.897333,4210.769128,4226.153743,4217.948615,4213.846051,4220.512717,4223.07682,4244.10246,4248.205024
99,0,4245.128101,4242.563999,4233.33323,4201.538359,4217.948615,4208.717846,4203.589641,4221.025538,4217.435794,4212.82041,4238.461435,4233.33323,4269.230665,4275.897331
100,0,4260.512716,4254.35887,4235.384512,4197.948615,4214.871692,4207.692205,4199.487077,4211.794769,4213.33323,4206.666564,4247.179383,4235.384512,4284.102459,4301.538356
101,0,4283.076818,4276.410152,4241.538358,4211.281948,4204.615282,4217.435794,4204.102461,4214.358871,4212.82041,4223.58964,4258.461434,4247.692204,4308.205023,4336.41015
102,0,4304.615279,4299.999895,4249.743486,4222.051179,4198.461436,4209.230666,4202.564,4220.512717,4217.435794,4231.794768,4276.922972,4263.589639,4342.051176,4378.974252
103,0,4303.589638,4291.794767,4254.871691,4201.538359,4197.435795,4191.281949,4193.333231,4212.307589,4214.358871,4203.589641,4278.974254,4261.025537,4346.15374,4392.307585
104,0,4309.230664,4296.410151,4245.128101,4213.33323,4204.615282,4203.07682,4198.461436,4212.82041,4215.384512,4192.30759,4274.87169,4261.025537,4344.102458,4390.769123
105,0,4331.794766,4329.743484,4228.205025,4273.846049,4221.025538,4217.435794,4214.358871,4233.33323,4227.692204,4222.051179,4290.769126,4276.410152,4366.153739,4407.179379
106,0,4323.589638,4324.615279,4225.640922,4300.512715,4225.128102,4209.230666,4220.512717,4239.487076,4231.794768,4242.563999,4297.948613,4276.922972,4371.281944,4413.846046
107,0,4296.410151,4293.333228,4233.84605,4268.717844,4214.871692,4210.769128,4216.922974,4230.769127,4227.692204,4234.358871,4284.61528,4262.051178,4352.820406,4397.94861
108,0,4295.897331,4293.846049,4235.384512,4246.153742,4214.871692,4223.07682,4216.410153,4234.871691,4232.307589,4226.666563,4279.999895,4262.563998,4357.948611,4373.846047
109,0,4297.948613,4297.948613,4231.794768,4264.10246,4221.025538,4221.538358,4224.615281,4248.717845,4234.358871,4227.692204,4290.256305,4272.307588,4368.717842,4330.769125
110,0,4287.692203,4284.102459,4233.33323,4279.999895,4217.435794,4217.948615,4226.666563,4251.281947,4227.179384,4230.769127,4291.794767,4274.35887,4356.41015,4289.230664
111,0,4276.410152,4266.666562,4232.820409,4252.307588,4213.846051,4211.794769,4216.922974,4236.410153,4217.435794,4218.461435,4267.179383,4262.051178,4330.256304,4266.153742
112,0,4260.512716,4248.717845,4237.435794,4206.666564,4209.743487,4197.948615,4210.256307,4220.512717,4212.307589,4198.461436,4233.84605,4243.076819,4303.076818,4237.435794
113,0,4252.307588,4245.128101,4241.538358,4204.615282,4201.025538,4203.07682,4216.410153,4216.922974,4214.358871,4203.589641,4228.205025,4238.974255,4294.87169,4223.07682
114,0,4250.256306,4247.692204,4236.922973,4209.230666,4196.922974,4213.33323,4210.256307,4210.256307,4212.82041,4207.692205,4237.435794,4241.025537,4292.307587,4231.794768
115,0,4236.922973,4233.84605,4238.461435,4180.512718,4201.538359,4202.564,4194.358872,4197.435795,4205.128102,4187.692205,4227.179384,4232.307589,4278.974254,4227.179384
116,0,4232.307589,4227.692204,4243.076819,4167.179385,4204.102461,4197.435795,4194.358872,4200.512718,4210.256307,4182.05118,4216.410153,4222.563999,4273.333229,4216.410153
117,0,4237.948614,4236.922973,4243.58964,4161.025539,4202.051179,4205.640923,4194.358872,4206.153743,4214.358871,4192.30759,4213.33323,4216.922974,4269.743485,4215.384512
118,0,4225.640922,4230.256307,4244.10246,4136.410155,4201.538359,4198.461436,4182.05118,4196.922974,4205.640923,4182.564,4202.564,4208.205025,4248.205024,4201.538359
119,0,4218.461435,4219.999897,4233.33323,4154.358873,4202.051179,4192.30759,4183.076821,4202.051179,4208.205025,4182.564,4201.025538,4210.769128,4240.512717,4199.999897
120,0,4230.256307,4232.307589,4213.33323,4217.435794,4203.589641,4208.717846,4202.564,4224.615281,4221.538358,4206.666564,4219.999897,4226.666563,4261.538357,4227.179384
121,0,4225.128102,4234.358871,4217.948615,4216.410153,4203.589641,4211.281948,4208.717846,4231.794768,4218.461435,4207.692205,4224.102461,4224.102461,4264.61528,4229.743486
122,0,4209.230666,4216.410153,4235.384512,4171.281949,4206.666564,4195.384513,4199.999897,4223.58964,4211.794769,4195.384513,4212.82041,4215.897333,4248.205024,4207.179384
123,0,4216.922974,4218.461435,4224.615281,4191.794769,4215.384512,4202.564,4210.256307,4223.07682,4218.461435,4208.717846,4221.025538,4227.692204,4245.640922,4211.281948
124,0,4227.179384,4233.84605,4210.769128,4220.512717,4217.948615,4223.07682,4223.07682,4223.58964,4221.538358,4228.205025,4231.281948,4236.922973,4251.281947,4226.153743
125,0,4214.358871,4227.692204,4218.974256,4192.30759,4202.564,4215.384512,4208.205025,4214.871692,4216.410153,4219.487076,4218.974256,4221.538358,4247.179383,4215.897333
126,0,4197.948615,4210.256307,4224.615281,4179.999898,4193.846051,4204.615282,4192.82041,4211.281948,4213.846051,4201.538359,4213.846051,4210.769128,4234.871691,4202.051179
127,0,4203.07682,4210.256307,4218.461435,4204.615282,4213.33323,4218.461435,4205.128102,4222.051179,4217.948615,4202.564,4225.128102,4221.538358,4232.307589,4207.692205
128,0,4217.948615,4225.640922,4214.358871,4224.615281,4222.563999,4225.640922,4219.999897,4229.743486,4221.025538,4201.538359,4225.640922,4233.33323,4241.538358,4217.948615
0,0,4218.974256,4231.794768,4214.871692,4228.205025,4204.615282,4214.358871,4217.435794,4225.128102,4215.897333,4188.717846,4215.897333,4230.256307,4244.10246,4212.82041
1,0,4216.410153,4223.07682,4215.897333,4217.435794,4202.564,4211.794769,4213.33323,4221.025538,4210.769128,4189.230667,4217.435794,4221.538358,4236.410153,4209.230666
2,0,4211.281948,4213.846051,4215.897333,4205.640923,4217.948615,4215.384512,4214.871692,4219.999897,4212.82041,4201.025538,4219.487076,4224.102461,4232.307589,4214.358871
3,0,4204.615282,4212.307589,4215.897333,4212.82041,4216.410153,4213.33323,4214.871692,4215.384512,4215.897333,4201.538359,4211.794769,4230.256307,4231.794768,4207.692205
4,0,4210.256307,4215.897333,4216.410153,4226.153743,4212.307589,4215.384512,4218.974256,4222.051179,4215.384512,4202.051179,4214.871692,4233.33323,4231.281948,4204.102461
5,0,4219.999897,4219.487076,4212.82041,4217.435794,4213.846051,4219.487076,4227.692204,4232.820409,4215.384512,4206.153743,4218.461435,4229.743486,4233.33323,4215.897333
6,0,4213.33323,4212.307589,4210.256307,4201.538359,4202.051179,4218.974256,4224.102461,4226.666563,4217.435794,4199.999897,4205.128102,4219.999897,4228.205025,4214.358871
7,0,4201.025538,4201.025538,4213.846051,4199.999897,4191.794769,4210.769128,4212.307589,4215.897333,4217.435794,4198.461436,4196.922974,4213.33323,4218.461435,4193.846051
8,0,4197.435795,4199.999897,4215.897333,4199.999897,4202.051179,4201.025538,4208.717846,4215.897333,4213.846051,4198.974256,4202.564,4215.384512,4215.384512,4183.589641
9,0,4195.384513,4204.615282,4218.461435,4182.05118,4215.897333,4203.589641,4211.794769,4219.487076,4215.384512,4189.230667,4204.615282,4215.897333,4222.563999,4191.281949
10,0,4201.025538,4209.743487,4228.717845,4162.564001,4214.871692,4217.435794,4215.384512,4219.999897,4218.974256,4191.281949,4203.07682,4214.358871,4229.743486,4202.051179
11,0,4206.666564,4209.230666,4233.84605,4168.717847,4205.128102,4218.461435,4219.487076,4215.897333,4216.410153,4203.589641,4203.07682,4216.922974,4227.692204,4198.974256
12,0,4195.897333,4200.512718,4229.743486,4169.230667,4196.922974,4207.179384,4214.871692,4211.794769,4214.358871,4201.025538,4195.897333,4213.846051,4214.358871,4186.666564
13,0,4188.205026,4194.871692,4221.538358,4150.256309,4195.897333,4201.025538,4198.974256,4211.281948,4215.897333,4186.666564,4184.102462,4207.179384,4204.615282,4178.461436
14,0,4196.410154,4199.487077,4207.179384,4165.640924,4209.743487,4201.538359,4199.487077,4212.82041,4215.384512,4180.512718,4188.717846,4208.717846,4209.743487,4180.512718
15,0,4201.538359,4206.666564,4192.82041,4220.512717,4218.974256,4210.769128,4219.487076,4215.897333,4216.922974,4187.692205,4205.128102,4216.410153,4217.435794,4191.794769
16,0,4198.461436,4209.743487,4196.410154,4229.743486,4203.589641,4219.999897,4224.102461,4217.948615,4218.461435,4201.538359,4211.281948,4217.435794,4217.435794,4203.07682
17,0,4198.461436,4204.102461,4215.384512,4184.102462,4198.974256,4216.922974,4215.384512,4217.948615,4215.897333,4205.128102,4209.743487,4217.435794,4217.435794,4201.538359
18,0,4200.512718,4198.461436,4221.025538,4177.435795,4217.435794,4215.897333,4221.538358,4224.615281,4216.410153,4198.461436,4210.769128,4226.153743,4226.666563,4196.410154
19,0,4199.487077,4207.179384,4207.179384,4207.179384,4218.974256,4217.948615,4229.230666,4229.743486,4221.025538,4205.128102,4214.358871,4229.743486,4230.769127,4198.974256
20,0,4202.564,4218.974256,4196.410154,4226.153743,4210.769128,4219.999897,4232.820409,4234.358871,4225.640922,4224.615281,4219.999897,4228.205025,4229.230666,4209.743487
21,0,4214.871692,4229.743486,4198.461436,4253.84605,4226.666563,4230.256307,4245.128101,4249.743486,4233.33323,4239.999896,4233.84605,4239.487076,4242.563999,4226.666563
22,0,4222.563999,4239.999896,4201.025538,4266.666562,4238.974255,4233.84605,4244.615281,4250.256306,4237.435794,4242.563999,4243.076819,4247.179383,4257.435793,4237.948614
23,0,4204.615282,4222.051179,4195.384513,4237.948614,4216.922974,4219.999897,4228.717845,4230.256307,4230.256307,4222.563999,4225.640922,4233.84605,4231.794768,4215.384512
24,0,4192.30759,4195.897333,4191.794769,4224.102461,4200.512718,4219.487076,4228.205025,4227.692204,4227.179384,4205.128102,4208.205025,4223.07682,4204.102461,4191.794769
25,0,4210.769128,4209.230666,4199.487077,4238.461435,4217.948615,4232.820409,4235.897332,4240.512717,4230.769127,4219.487076,4222.051179,4230.256307,4232.820409,4215.897333
26,0,4223.58964,4232.820409,4209.743487,4232.820409,4230.769127,4232.307589,4232.820409,4238.974255,4232.307589,4237.948614,4246.666563,4239.999896,4274.35887,4250.769127
27,0,4221.025538,4223.58964,4213.846051,4214.871692,4216.410153,4222.051179,4228.717845,4231.281948,4231.281948,4236.922973,4250.769127,4246.666563,4278.461434,4248.717845
28,0,4225.128102,4210.769128,4215.897333,4215.384512,4211.281948,4222.051179,4229.743486,4236.922973,4230.769127,4239.999896,4250.256306,4248.717845,4277.435793,4246.666563
29,0,4229.230666,4209.743487,4211.281948,4242.051178,4225.128102,4227.692204,4234.358871,4249.230665,4232.820409,4253.84605,4264.10246,4248.717845,4292.307587,4264.61528
30,0,4225.640922,4206.666564,4206.153743,4255.384511,4228.205025,4231.794768,4237.948614,4247.692204,4235.384512,4249.230665,4269.743485,4249.743486,4298.974254,4271.281947
31,0,4229.230666,4207.179384,4217.435794,4227.692204,4223.07682,4227.179384,4236.922973,4238.974255,4235.384512,4231.794768,4265.640921,4250.256306,4294.87169,4267.179383
32,0,4234.871691,4208.205025,4221.538358,4217.948615,4230.256307,4217.948615,4235.384512,4241.025537,4234.871691,4235.897332,4264.10246,4248.717845,4289.743485,4265.640921
33,0,4226.666563,4199.999897,4204.615282,4245.128101,4231.794768,4222.051179,4235.897332,4248.717845,4236.410153,4253.333229,4261.538357,4242.563999,4282.051177,4256.410152
34,0,4214.358871,4195.384513,4193.846051,4254.871691,4213.846051,4228.717845,4232.820409,4244.615281,4234.358871,4244.615281,4250.769127,4234.358871,4276.410152,4238.461435
35,0,4212.307589,4200.512718,4203.589641,4237.435794,4210.769128,4225.640922,4230.256307,4234.871691,4231.281948,4236.922973,4247.692204,4233.33323,4276.410152,4233.84605
36,0,4216.922974,4203.07682,4215.384512,4226.153743,4231.794768,4222.563999,4229.230666,4235.384512,4230.769127,4254.35887,4254.871691,4233.84605,4278.974254,4245.640922
37,0,4216.922974,4201.538359,4215.384512,4233.84605,4242.051178,4229.743486,4234.358871,4245.640922,4232.307589,4259.487075,4253.84605,4232.307589,4277.948613,4250.769127
38,0,4216.922974,4207.179384,4211.281948,4245.640922,4233.33323,4243.58964,4244.10246,4256.410152,4237.435794,4253.84605,4253.84605,4238.461435,4276.410152,4247.179383
39,0,4218.974256,4214.871692,4214.871692,4248.205024,4231.281948,4247.692204,4253.333229,4259.999896,4244.10246,4267.179383,4262.051178,4244.10246,4281.538357,4245.640922
40,0,4219.999897,4210.769128,4215.897333,4249.743486,4236.922973,4238.974255,4255.384511,4257.435793,4247.179383,4266.153742,4261.538357,4239.999896,4284.102459,4242.563999
41,0,4212.82041,4202.564,4212.82041,4238.461435,4228.717845,4230.769127,4242.051178,4244.615281,4235.897332,4234.871691,4243.58964,4228.717845,4272.307588,4232.307589
42,0,4204.615282,4199.999897,4213.33323,4214.358871,4221.025538,4231.794768,4225.128102,4231.281948,4221.025538,4224.615281,4234.358871,4217.948615,4262.563998,4229.230666
43,0,4204.615282,4192.30759,4213.33323,4206.153743,4226.153743,4230.256307,4219.487076,4226.666563,4221.538358,4237.435794,4237.948614,4213.33323,4263.076819,4225.640922
44,0,4206.666564,4186.153744,4217.435794,4201.025538,4227.692204,4224.102461,4220.512717,4226.153743,4228.205025,4235.897332,4234.871691,4215.384512,4264.10246,4215.384512
45,0,4202.564,4187.692205,4229.743486,4174.871693,4219.487076,4218.974256,4216.922974,4228.205025,4230.256307,4230.256307,4228.205025,4217.435794,4260.512716,4215.897333
46,0,4197.948615,4178.974257,4237.948614,4149.743488,4210.769128,4213.846051,4213.846051,4225.640922,4229.230666,4229.230666,4224.615281,4211.281948,4252.307588,4211.281948
47,0,4199.487077,4175.897334,4230.769127,4155.384514,4209.743487,4216.410153,4216.922974,4218.974256,4230.256307,4230.256307,4229.230666,4206.666564,4251.794768,4203.589641
48,0,4196.922974,4182.05118,4220.512717,4165.640924,4210.256307,4217.435794,4214.871692,4215.384512,4229.230666,4230.769127,4225.128102,4205.640923,4251.281947,4204.615282
49,0,4193.846051,4181.538359,4216.410153,4186.153744,4215.897333,4222.051179,4215.384512,4223.07682,4228.205025,4228.717845,4218.461435,4210.256307,4244.10246,4208.205025
50,0,4204.102461,4192.82041,4207.692205,4233.84605,4226.666563,4236.410153,4229.230666,4239.487076,4233.84605,4226.666563,4232.820409,4225.128102,4257.948614,4217.435794
51,0,4218.461435,4213.33323,4196.922974,4259.999896,4235.897332,4237.435794,4238.974255,4246.153742,4241.025537,4238.974255,4251.281947,4233.33323,4283.076818,4235.897332
52,0,4217.435794,4212.82041,4202.564,4237.948614,4233.84605,4229.743486,4235.897332,4240.512717,4238.974255,4251.794768,4248.205024,4226.666563,4279.487075,4237.948614
53,0,4202.051179,4191.794769,4218.974256,4200.512718,4218.974256,4228.717845,4230.769127,4228.205025,4228.717845,4242.563999,4227.179384,4214.871692,4256.410152,4212.82041
54,0,4199.487077,4184.615282,4222.051179,4185.128103,4211.281948,4224.615281,4223.07682,4216.922974,4224.615281,4230.769127,4217.435794,4205.640923,4249.743486,4206.666564
55,0,4203.589641,4191.794769,4213.846051,4186.153744,4218.974256,4214.358871,4212.82041,4214.871692,4230.769127,4228.205025,4222.563999,4201.025538,4252.820409,4214.358871
56,0,4200.512718,4196.410154,4214.358871,4203.07682,4229.230666,4214.871692,4217.948615,4224.102461,4233.84605,4227.692204,4229.230666,4205.128102,4255.384511,4213.33323
57,0,4206.666564,4203.07682,4217.435794,4228.205025,4234.871691,4226.153743,4231.794768,4238.974255,4234.358871,4240.512717,4234.358871,4219.487076,4262.563998,4223.58964
58,0,4216.410153,4206.153743,4207.179384,4242.051178,4229.743486,4230.769127,4232.820409,4240.512717,4232.820409,4248.717845,4234.871691,4229.230666,4263.589639,4233.33323
59,0,4211.281948,4204.102461,4197.948615,4247.179383,4224.102461,4230.256307,4230.256307,4234.871691,4231.794768,4239.999896,4237.435794,4231.281948,4262.051178,4230.256307
60,0,4205.640923,4197.948615,4216.410153,4218.461435,4221.025538,4230.256307,4232.307589,4237.948614,4231.794768,4235.897332,4237.948614,4232.307589,4262.051178,4228.717845
61,0,4216.922974,4198.974256,4226.153743,4194.358872,4223.58964,4230.256307,4233.84605,4239.999896,4229.743486,4237.948614,4237.948614,4230.769127,4261.538357,4234.358871
62,0,4217.435794,4204.102461,4204.102461,4227.179384,4229.230666,4228.205025,4230.769127,4232.820409,4229.230666,4235.384512,4243.076819,4227.692204,4263.076819,4233.84605
63,0,4203.07682,4197.435795,4199.487077,4246.666563,4229.230666,4228.717845,4228.205025,4227.179384,4230.769127,4233.84605,4239.999896,4226.666563,4259.999896,4230.256307
64,0,4204.615282,4192.82041,4221.025538,4216.922974,4229.743486,4233.33323,4233.84605,4238.461435,4230.769127,4244.615281,4234.358871,4229.743486,4256.922973,4230.769127
65,0,4218.461435,4204.102461,4222.051179,4220.512717,4227.692204,4233.33323,4238.461435,4252.307588,4233.33323,4257.948614,4243.076819,4234.871691,4264.61528,4237.435794
66,0,4219.487076,4214.871692,4212.82041,4255.897332,4221.538358,4229.743486,4233.33323,4251.281947,4236.922973,4254.871691,4257.948614,4239.999896,4274.87169,4246.153742
67,0,4218.461435,4216.410153,4214.871692,4263.076819,4224.615281,4235.384512,4233.33323,4251.281947,4235.897332,4249.230665,4268.205024,4251.281947,4282.563998,4252.820409
68,0,4219.999897,4214.358871,4215.384512,4242.563999,4232.307589,4237.435794,4236.410153,4252.307588,4234.871691,4258.974255,4262.051178,4252.307588,4282.051177,4250.256306
69,0,4207.692205,4206.153743,4225.128102,4190.769128,4229.230666,4220.512717,4218.461435,4233.33323,4232.307589,4256.410152,4236.410153,4227.179384,4262.051178,4233.33323
70,0,4196.410154,4194.871692,4234.358871,4154.358873,4223.07682,4207.692205,4195.897333,4206.666564,4224.615281,4231.281948,4216.922974,4204.615282,4242.051178,4215.384512
71,0,4204.615282,4196.410154,4215.384512,4193.846051,4227.692204,4218.461435,4203.07682,4208.717846,4227.179384,4234.871691,4229.230666,4212.307589,4251.794768,4214.358871
72,0,4212.307589,4209.743487,4198.974256,4236.922973,4230.769127,4232.820409,4224.615281,4229.743486,4239.999896,4250.769127,4245.640922,4222.563999,4268.717844,4228.205025
73,0,4210.256307,4215.897333,4203.589641,4234.871691,4231.281948,4231.281948,4228.717845,4233.84605,4238.974255,4235.897332,4246.153742,4219.999897,4263.589639,4232.307589
74,0,4213.846051,4214.358871,4204.102461,4243.58964,4232.307589,4227.692204,4223.58964,4229.743486,4231.794768,4236.922973,4247.179383,4227.179384,4263.076819,4232.307589
75,0,4219.487076,4216.922974,4205.640923,4258.461434,4231.281948,4231.794768,4229.743486,4240.512717,4235.384512,4259.487075,4251.794768,4235.897332,4277.435793,4240.512717
76,0,4215.384512,4219.999897,4214.871692,4235.897332,4231.281948,4227.692204,4231.794768,4247.692204,4236.410153,4253.333229,4247.692204,4224.615281,4274.35887,4242.051178
77,0,4213.846051,4216.410153,4215.897333,4214.358871,4232.820409,4215.897333,4221.025538,4236.922973,4230.256307,4238.974255,4242.563999,4214.871692,4261.538357,4231.794768
78,0,4212.307589,4215.384512,4217.435794,4210.769128,4234.871691,4221.538358,4216.922974,4229.743486,4230.256307,4250.769127,4243.076819,4219.487076,4262.563998,4229.743486
79,0,4202.564,4215.384512,4215.384512,4215.384512,4226.153743,4233.33323,4221.025538,4234.358871,4232.820409,4253.84605,4240.512717,4220.512717,4263.589639,4232.307589
80,0,4202.564,4211.794769,4203.589641,4236.410153,4220.512717,4223.58964,4219.487076,4235.897332,4228.717845,4234.871691,4231.794768,4215.897333,4257.435793,4226.153743
81,0,4215.897333,4217.948615,4203.589641,4254.871691,4231.794768,4212.307589,4216.922974,4234.358871,4228.717845,4228.205025,4235.384512,4218.461435,4262.051178,4229.743486
82,0,4213.33323,4214.358871,4215.897333,4230.256307,4229.743486,4216.410153,4207.692205,4226.153743,4230.256307,4228.717845,4235.384512,4218.974256,4256.922973,4225.640922
83,0,4201.538359,4202.564,4216.922974,4203.589641,4218.974256,4217.435794,4196.922974,4214.871692,4226.153743,4229.743486,4224.102461,4211.794769,4240.512717,4208.205025
84,0,4215.897333,4218.461435,4213.33323,4232.307589,4228.717845,4217.435794,4209.230666,4219.487076,4230.256307,4244.615281,4234.358871,4218.974256,4255.384511,4225.128102
85,0,4223.58964,4231.281948,4226.153743,4230.256307,4228.205025,4220.512717,4219.999897,4223.07682,4234.871691,4245.128101,4247.692204,4228.717845,4270.769126,4242.051178
86,0,4204.102461,4211.794769,4237.435794,4175.384513,4208.205025,4213.33323,4200.512718,4207.179384,4222.051179,4218.461435,4232.820409,4217.948615,4251.281947,4221.025538
87,0,4202.051179,4203.589641,4224.615281,4185.640923,4219.487076,4209.230666,4195.384513,4203.589641,4220.512717,4217.435794,4226.153743,4212.82041,4247.179383,4214.358871
88,0,4218.974256,4218.974256,4210.256307,4236.410153,4238.461435,4218.974256,4213.846051,4218.974256,4230.256307,4239.999896,4236.922973,4221.025538,4268.717844,4233.84605
89,0,4214.358871,4215.384512,4213.846051,4217.948615,4221.538358,4217.948615,4209.743487,4215.897333,4223.58964,4231.794768,4230.769127,4214.871692,4265.128101,4229.743486
90,0,4207.179384,4208.717846,4218.974256,4198.461436,4215.384512,4211.794769,4197.435795,4205.128102,4220.512717,4224.615281,4230.256307,4215.897333,4253.84605,4221.025538
91,0,4224.102461,4228.717845,4217.435794,4249.743486,4238.461435,4228.205025,4210.769128,4220.512717,4233.84605,4247.692204,4253.84605,4239.999896,4270.769126,4240.512717
92,0,4235.384512,4248.205024,4216.410153,4276.410152,4245.128101,4233.84605,4223.07682,4234.871691,4234.358871,4246.153742,4255.384511,4245.128101,4281.025536,4255.384511
93,0,4230.769127,4244.615281,4215.384512,4255.384511,4231.794768,4216.922974,4215.897333,4226.666563,4227.692204,4230.256307,4244.615281,4232.820409,4273.846049,4257.948614
94,0,4231.281948,4233.33323,4218.974256,4255.897332,4227.692204,4220.512717,4212.82041,4227.179384,4233.33323,4247.179383,4256.922973,4242.051178,4276.410152,4259.487075
95,0,4233.84605,4234.358871,4222.051179,4272.820408,4234.358871,4236.410153,4224.102461,4233.84605,4233.84605,4262.563998,4261.025537,4253.333229,4281.538357,4249.743486
96,0,4232.820409,4244.10246,4211.794769,4285.1281,4241.538358,4234.358871,4234.358871,4232.307589,4230.256307,4243.58964,4247.179383,4244.10246,4278.461434,4246.153742
97,0,4235.897332,4251.794768,4204.102461,4293.333228,4246.153742,4232.820409,4234.871691,4237.948614,4236.922973,4235.897332,4247.179383,4241.025537,4278.461434,4258.461434
98,0,4235.897332,4249.743486,4213.33323,4284.102459,4246.153742,4238.974255,4231.281948,4249.230665,4246.153742,4251.281947,4254.35887,4245.128101,4279.999895,4258.461434
99,0,4221.025538,4237.948614,4218.974256,4266.666562,4240.512717,4239.487076,4233.33323,4248.205024,4246.666563,4257.435793,4248.717845,4238.461435,4274.35887,4243.58964
100,0,4213.846051,4230.256307,4212.82041,4261.538357,4227.692204,4234.358871,4232.307589,4240.512717,4237.435794,4252.307588,4245.128101,4231.281948,4269.230665,4237.948614
101,0,4222.563999,4234.358871,4215.384512,4248.717845,4228.717845,4228.205025,4228.205025,4233.84605,4231.281948,4238.974255,4245.640922,4230.256307,4267.692203,4237.435794
102,0,4229.743486,4246.153742,4222.051179,4242.563999,4248.205024,4229.230666,4229.743486,4232.307589,4232.820409,4230.769127,4245.128101,4231.794768,4267.692203,4241.538358
103,0,4221.538358,4245.128101,4214.871692,4259.487075,4242.563999,4228.205025,4224.102461,4230.256307,4233.84605,4241.538358,4244.615281,4230.256307,4265.128101,4240.512717
104,0,4213.33323,4234.358871,4208.205025,4268.717844,4227.692204,4226.666563,4222.051179,4229.743486,4233.84605,4257.435793,4244.615281,4230.256307,4262.563998,4234.871691
105,0,4225.640922,4239.999896,4218.974256,4264.61528,4242.051178,4234.358871,4235.384512,4241.538358,4239.487076,4257.948614,4254.871691,4239.487076,4272.820408,4246.153742
106,0,4236.922973,4249.230665,4227.179384,4259.487075,4244.615281,4233.84605,4234.358871,4247.179383,4242.051178,4248.717845,4262.051178,4246.666563,4280.512716,4250.769127
107,0,4233.33323,4247.692204,4224.102461,4257.948614,4228.205025,4223.58964,4221.025538,4239.999896,4242.051178,4246.153742,4253.84605,4245.128101,4275.897331,4233.33323
108,0,4233.33323,4247.692204,4223.07682,4270.256306,4238.461435,4233.84605,4229.230666,4246.153742,4243.58964,4247.692204,4249.230665,4246.666563,4276.410152,4234.358871
109,0,4237.435794,4250.769127,4222.563999,4282.563998,4253.84605,4248.205024,4236.922973,4247.692204,4234.871691,4249.230665,4251.281947,4249.743486,4279.487075,4248.717845
110,0,4233.33323,4249.230665,4216.922974,4275.897331,4247.692204,4239.999896,4233.84605,4232.820409,4229.230666,4245.640922,4246.153742,4245.640922,4269.743485,4239.487076
111,0,4231.794768,4245.640922,4212.82041,4279.487075,4243.58964,4231.281948,4240.512717,4233.84605,4239.487076,4235.897332,4245.128101,4245.128101,4262.051178,4230.769127
112,0,4235.897332,4244.615281,4212.82041,4292.820408,4238.974255,4235.384512,4243.076819,4246.153742,4242.563999,4232.820409,4247.692204,4246.666563,4266.153742,4232.307589
113,0,4230.256307,4249.230665,4212.82041,4293.333228,4237.435794,4238.461435,4237.948614,4245.640922,4235.897332,4249.743486,4247.692204,4241.538358,4270.769126,4227.692204
114,0,4230.769127,4257.948614,4208.717846,4307.692202,4254.35887,4246.153742,4249.230665,4256.922973,4245.128101,4273.846049,4259.999896,4246.666563,4277.435793,4236.410153
115,0,4235.384512,4258.461434,4205.128102,4320.512715,4259.999896,4249.743486,4257.948614,4271.281947,4254.35887,4274.35887,4271.281947,4255.384511,4282.563998,4244.10246
116,0,4224.102461,4243.076819,4211.794769,4283.076818,4245.128101,4231.281948,4240.512717,4251.794768,4243.076819,4248.205024,4251.794768,4240.512717,4270.256306,4215.897333
117,0,4215.897333,4229.230666,4222.051179,4243.58964,4236.410153,4217.948615,4227.179384,4225.128102,4232.307589,4228.717845,4229.743486,4223.58964,4256.410152,4196.922974
118,0,4230.769127,4239.487076,4215.384512,4269.743485,4247.179383,4231.281948,4228.717845,4229.230666,4231.794768,4231.794768,4239.999896,4232.820409,4265.640921,4221.025538
119,0,4244.615281,4261.025537,4202.051179,4315.38451,4259.999896,4246.153742,4233.33323,4244.10246,4241.025537,4248.717845,4258.974255,4247.179383,4279.999895,4237.435794
120,0,4242.563999,4266.153742,4197.435795,4333.846048,4258.974255,4250.256306,4244.615281,4246.153742,4249.230665,4262.051178,4265.128101,4249.743486,4281.538357,4233.33323
121,0,4243.58964,4262.051178,4209.230666,4319.999894,4251.794768,4247.692204,4249.743486,4241.538358,4239.487076,4251.281947,4262.563998,4248.205024,4279.487075,4236.922973
122,0,4242.563999,4258.974255,4223.58964,4272.307588,4246.153742,4236.922973,4234.871691,4225.640922,4227.179384,4227.179384,4249.743486,4238.461435,4272.820408,4224.102461
123,0,4232.307589,4251.281947,4221.538358,4255.897332,4248.205024,4234.871691,4226.666563,4214.358871,4228.717845,4232.820409,4239.487076,4226.666563,4261.025537,4199.999897
124,0,4229.230666,4248.205024,4222.051179,4270.256306,4253.84605,4241.025537,4234.871691,4224.102461,4234.871691,4252.307588,4245.128101,4230.769127,4263.589639,4207.179384
125,0,4228.205025,4244.615281,4236.922973,4233.33323,4236.922973,4229.743486,4223.58964,4223.58964,4230.769127,4241.538358,4239.487076,4233.33323,4264.61528,4209.230666
126,0,4229.230666,4242.051178,4238.974255,4208.205025,4218.461435,4221.538358,4213.846051,4211.794769,4227.179384,4226.666563,4230.769127,4230.769127,4256.922973,4196.922974
127,0,4241.025537,4255.897332,4229.743486,4250.769127,4238.461435,4233.84605,4232.307589,4222.563999,4232.307589,4231.794768,4250.256306,4241.025537,4265.640921,4214.871692
128,0,4245.640922,4263.076819,4237.948614,4258.461434,4264.10246,4236.410153,4235.897332,4236.410153,4235.897332,4238.461435,4262.563998,4250.256306,4275.897331,4232.820409
0,0,4234.871691,4251.281947,4245.640922,4225.128102,4254.871691,4228.205025,4216.410153,4226.153743,4232.307589,4234.358871,4247.179383,4248.717845,4267.179383,4220.512717
1,0,4231.281948,4244.615281,4236.922973,4228.717845,4236.922973,4226.666563,4218.974256,4215.384512,4228.717845,4218.974256,4237.435794,4244.10246,4257.948614,4211.281948
2,0,4236.922973,4249.230665,4230.256307,4246.153742,4237.435794,4233.84605,4236.410153,4224.102461,4232.307589,4221.025538,4244.615281,4237.948614,4258.974255,4211.794769
3,0,4236.410153,4250.256306,4230.256307,4250.769127,4246.153742,4238.974255,4232.820409,4225.128102,4236.410153,4243.076819,4248.205024,4232.820409,4264.61528,4206.153743
4,0,4231.794768,4244.10246,4229.743486,4242.051178,4244.615281,4229.230666,4219.487076,4208.205025,4228.205025,4234.871691,4244.615281,4230.769127,4262.051178,4202.051179
5,0,4226.666563,4237.435794,4232.307589,4216.410153,4236.922973,4220.512717,4213.846051,4193.846051,4216.922974,4209.743487,4234.358871,4228.717845,4252.820409,4198.974256
6,0,4230.256307,4243.076819,4240.512717,4210.769128,4243.58964,4230.256307,4216.410153,4198.974256,4221.025538,4221.025538,4230.256307,4226.153743,4256.922973,4203.07682
7,0,4233.33323,4254.35887,4242.051178,4219.487076,4252.307588,4235.897332,4218.974256,4204.102461,4229.230666,4242.051178,4236.410153,4222.563999,4262.051178,4206.153743
8,0,4221.538358,4245.640922,4244.10246,4195.384513,4245.128101,4226.153743,4215.384512,4196.922974,4227.692204,4231.281948,4230.256307,4215.897333,4248.205024,4187.179385
9,0,4217.435794,4236.410153,4246.666563,4184.102462,4245.128101,4228.717845,4213.846051,4202.564,4228.205025,4216.410153,4228.717845,4216.922974,4249.743486,4181.538359
10,0,4225.640922,4247.179383,4235.384512,4213.33323,4248.205024,4233.84605,4217.948615,4213.846051,4232.820409,4221.538358,4241.025537,4221.538358,4262.563998,4201.538359
11,0,4227.179384,4250.256306,4233.84605,4217.435794,4235.897332,4223.07682,4215.897333,4216.410153,4231.281948,4234.871691,4242.051178,4219.487076,4255.384511,4201.025538
12,0,4222.051179,4237.435794,4248.205024,4180.512718,4229.230666,4214.871692,4210.769128,4212.307589,4229.230666,4232.307589,4231.281948,4216.410153,4247.692204,4189.743487
13,0,4221.538358,4235.384512,4242.563999,4181.025539,4237.948614,4217.435794,4211.794769,4206.666564,4232.820409,4221.538358,4228.205025,4217.435794,4253.84605,4196.410154
14,0,4224.102461,4248.205024,4227.179384,4218.974256,4246.153742,4221.025538,4214.358871,4204.615282,4232.307589,4228.205025,4232.307589,4217.948615,4253.84605,4197.948615
15,0,4228.205025,4250.256306,4238.461435,4217.435794,4239.999896,4220.512717,4216.410153,4206.666564,4223.07682,4232.307589,4233.33323,4218.461435,4247.692204,4191.281949
16,0,4228.717845,4236.410153,4249.743486,4191.794769,4228.205025,4214.358871,4210.769128,4199.999897,4213.33323,4210.769128,4228.717845,4223.58964,4246.153742,4194.871692
17,0,4227.692204,4231.794768,4243.076819,4201.538359,4232.307589,4215.897333,4202.051179,4192.82041,4220.512717,4203.07682,4228.205025,4231.281948,4248.205024,4197.948615
18,0,4231.794768,4244.615281,4238.974255,4223.58964,4243.58964,4230.769127,4207.692205,4206.666564,4232.820409,4228.205025,4234.358871,4233.33323,4250.769127,4201.025538
19,0,4227.692204,4248.717845,4233.84605,4224.102461,4240.512717,4235.897332,4217.948615,4215.384512,4231.794768,4236.410153,4235.897332,4225.640922,4243.076819,4206.153743
20,0,4222.563999,4240.512717,4228.205025,4217.435794,4232.307589,4228.717845,4217.435794,4210.256307,4228.717845,4224.102461,4231.794768,4221.025538,4231.281948,4200.512718
21,0,4228.205025,4241.538358,4236.410153,4214.358871,4232.820409,4228.717845,4216.922974,4212.307589,4232.307589,4231.281948,4231.281948,4225.640922,4232.307589,4196.922974
22,0,4234.358871,4249.230665,4246.153742,4216.410153,4234.358871,4228.205025,4219.487076,4216.922974,4232.307589,4238.974255,4234.871691,4229.230666,4237.948614,4207.179384
23,0,4238.461435,4250.256306,4246.153742,4218.974256,4239.999896,4225.128102,4216.922974,4218.461435,4229.743486,4229.743486,4243.58964,4229.743486,4245.128101,4213.33323
24,0,4245.640922,4249.743486,4249.230665,4206.153743,4244.615281,4225.640922,4213.33323,4215.384512,4230.769127,4233.33323,4251.281947,4231.281948,4254.871691,4217.948615
25,0,4246.153742,4248.205024,4249.743486,4196.922974,4238.461435,4219.999897,4214.871692,4207.692205,4232.307589,4237.948614,4242.563999,4231.794768,4254.35887,4226.153743
26,0,4243.076819,4250.769127,4246.153742,4194.871692,4231.794768,4216.922974,4214.358871,4201.025538,4228.205025,4222.563999,4233.33323,4225.640922,4249.230665,4228.717845
27,0,4260.512716,4271.281947,4248.717845,4195.384513,4232.307589,4223.58964,4213.33323,4204.615282,4225.640922,4220.512717,4247.179383,4228.717845,4270.769126,4251.281947
28,0,4292.307587,4298.461433,4249.230665,4235.384512,4235.897332,4228.717845,4222.563999,4212.82041,4231.281948,4236.922973,4279.487075,4252.307588,4312.307587,4306.666561
29,0,4315.89733,4317.948612,4250.256306,4286.153741,4247.692204,4233.33323,4234.358871,4221.538358,4238.461435,4246.153742,4306.666561,4277.948613,4343.076817,4356.92297
30,0,4327.692202,4335.384509,4267.692203,4264.10246,4252.307588,4236.410153,4227.179384,4222.563999,4235.384512,4251.794768,4309.743484,4283.076818,4358.461432,4380.512713
31,0,4332.307586,4342.563996,4285.1281,4209.230666,4238.461435,4224.615281,4212.307589,4212.307589,4229.743486,4248.717845,4297.948613,4271.794767,4356.92297,4381.025534
32,0,4327.692202,4330.256304,4279.487075,4203.589641,4227.179384,4212.82041,4209.743487,4206.153743,4229.230666,4232.820409,4288.205023,4263.589639,4342.051176,4367.17938
33,0,4328.717843,4329.743484,4268.717844,4225.640922,4233.84605,4221.538358,4214.358871,4213.846051,4231.794768,4234.871691,4294.358869,4266.153742,4347.692201,4369.743483
34,0,4332.820407,4334.871689,4274.87169,4220.512717,4238.461435,4227.179384,4218.461435,4221.025538,4232.307589,4250.769127,4305.64092,4274.35887,4364.102457,4382.051175
35,0,4311.794766,4307.179382,4273.333229,4192.82041,4217.948615,4205.640923,4203.07682,4201.538359,4221.538358,4236.922973,4285.640921,4263.076819,4337.948612,4354.358868
36,0,4295.897331,4288.205023,4253.333229,4199.487077,4207.692205,4198.461436,4186.666564,4178.974257,4212.82041,4215.897333,4258.461434,4246.153742,4309.230664,4321.025535
37,0,4306.153741,4307.179382,4242.563999,4243.58964,4234.358871,4226.666563,4209.743487,4194.358872,4220.512717,4231.281948,4274.35887,4253.333229,4325.128099,4330.769125
38,0,4309.743484,4315.38451,4247.179383,4269.743485,4253.333229,4250.256306,4241.025537,4227.179384,4235.897332,4253.84605,4303.076818,4266.153742,4340.512714,4341.025535
39,0,4296.922972,4305.64092,4248.717845,4267.179383,4249.230665,4245.128101,4238.974255,4236.410153,4242.051178,4253.333229,4299.999895,4265.640921,4329.743484,4328.205022
40,0,4283.589639,4296.922972,4245.640922,4254.35887,4250.769127,4234.358871,4229.230666,4222.051179,4236.922973,4244.10246,4282.051177,4259.487075,4312.307587,4311.794766
41,0,4276.922972,4284.102459,4240.512717,4246.666563,4251.281947,4237.948614,4233.33323,4214.358871,4231.794768,4246.153742,4269.743485,4251.281947,4296.922972,4295.38451
42,0,4273.846049,4274.35887,4229.743486,4266.666562,4245.640922,4248.205024,4240.512717,4225.640922,4233.33323,4256.410152,4262.051178,4243.076819,4291.281946,4279.999895
43,0,4274.35887,4278.974254,4225.128102,4290.769126,4257.435793,4252.307588,4246.666563,4235.897332,4242.051178,4261.025537,4263.076819,4247.179383,4291.281946,4271.281947
44,0,4269.230665,4285.640921,4221.538358,4284.102459,4269.743485,4243.58964,4242.563999,4235.384512,4243.58964,4262.051178,4266.153742,4250.256306,4284.102459,4263.589639
45,0,4257.435793,4278.974254,4213.846051,4272.820408,4256.410152,4231.281948,4230.256307,4230.769127,4235.897332,4263.076819,4263.076819,4236.922973,4276.922972,4248.717845
46,0,4245.128101,4263.076819,4222.051179,4259.999896,4243.58964,4233.84605,4226.666563,4222.563999,4230.769127,4259.487075,4260.512716,4228.205025,4268.717844,4234.358871
47,0,4245.640922,4259.999896,4240.512717,4232.307589,4248.205024,4243.58964,4231.281948,4219.999897,4234.871691,4260.512716,4259.487075,4231.794768,4263.076819,4231.794768
48,0,4254.35887,4271.794767,4241.025537,4228.205025,4250.256306,4239.999896,4232.820409,4225.640922,4236.922973,4259.487075,4263.589639,4230.256307,4269.743485,4236.410153
49,0,4249.743486,4270.769126,4227.692204,4252.820409,4244.615281,4228.205025,4227.692204,4226.666563,4232.307589,4247.692204,4262.563998,4223.07682,4268.717844,4232.820409
50,0,4243.076819,4260.512716,4228.205025,4252.307588,4246.666563,4232.307589,4230.256307,4229.230666,4235.897332,4250.769127,4253.84605,4226.153743,4261.538357,4228.717845
51,0,4243.076819,4257.435793,4235.897332,4224.102461,4249.743486,4238.461435,4234.871691,4236.410153,4242.563999,4264.61528,4248.205024,4230.769127,4258.974255,4222.563999
52,0,4245.128101,4258.974255,4224.615281,4239.999896,4246.666563,4236.410153,4232.307589,4235.897332,4244.10246,4261.538357,4249.743486,4226.666563,4252.820409,4214.871692
53,0,4245.640922,4263.589639,4211.794769,4286.666562,4250.769127,4244.615281,4242.563999,4237.948614,4245.640922,4259.999896,4252.820409,4231.281948,4250.256306,4219.487076
54,0,4234.871691,4252.820409,4222.563999,4267.692203,4252.307588,4248.717845,4250.256306,4239.999896,4245.640922,4262.051178,4243.076819,4230.769127,4245.640922,4211.281948
55,0,4225.128102,4232.820409,4237.435794,4214.871692,4248.205024,4237.948614,4238.974255,4230.769127,4243.58964,4253.84605,4235.384512,4218.461435,4233.84605,4184.102462
56,0,4231.281948,4236.410153,4231.794768,4232.307589,4257.948614,4239.487076,4239.487076,4234.358871,4247.179383,4262.051178,4248.205024,4223.58964,4239.487076,4192.30759
57,0,4236.922973,4250.769127,4217.948615,4280.512716,4263.589639,4251.281947,4252.307588,4244.615281,4249.230665,4268.205024,4254.35887,4234.871691,4249.230665,4218.974256
58,0,4235.384512,4251.794768,4213.33323,4287.179382,4250.769127,4251.794768,4251.281947,4239.999896,4243.58964,4248.717845,4247.692204,4232.307589,4244.10246,4212.307589
59,0,4233.33323,4247.692204,4222.563999,4262.563998,4245.640922,4243.58964,4243.58964,4232.820409,4244.615281,4252.820409,4253.333229,4231.794768,4242.051178,4197.948615
60,0,4225.640922,4238.974255,4237.948614,4219.487076,4248.205024,4232.820409,4236.410153,4228.205025,4246.666563,4270.256306,4254.35887,4228.717845,4241.025537,4196.410154
61,0,4224.102461,4228.205025,4238.974255,4197.435795,4242.563999,4231.794768,4228.717845,4218.974256,4239.999896,4257.435793,4235.384512,4213.33323,4230.256307,4186.666564
62,0,4227.692204,4231.794768,4231.281948,4231.794768,4241.025537,4244.10246,4230.769127,4215.384512,4234.358871,4244.10246,4227.692204,4210.769128,4227.179384,4181.538359
63,0,4220.512717,4235.384512,4232.307589,4248.717845,4247.692204,4246.153742,4236.410153,4221.025538,4234.358871,4244.615281,4233.84605,4221.538358,4230.769127,4188.205026
64,0,4219.999897,4230.256307,4231.794768,4224.615281,4245.640922,4238.974255,4232.820409,4224.615281,4238.974255,4231.794768,4231.794768,4217.948615,4224.615281,4183.589641
65,0,4234.358871,4240.512717,4221.025538,4244.615281,4244.615281,4243.58964,4233.33323,4228.717845,4246.153742,4233.84605,4231.794768,4213.33323,4225.128102,4182.564
66,0,4237.948614,4253.333229,4213.846051,4287.179382,4251.794768,4247.692204,4241.538358,4233.84605,4244.10246,4254.871691,4235.384512,4224.615281,4229.230666,4191.281949
67,0,4225.128102,4241.538358,4219.999897,4276.410152,4252.307588,4247.692204,4250.256306,4234.358871,4233.33323,4244.615281,4232.820409,4229.743486,4219.999897,4179.999898
68,0,4223.58964,4228.205025,4225.128102,4256.410152,4245.640922,4251.794768,4246.153742,4232.307589,4235.384512,4225.128102,4230.256307,4221.025538,4213.33323,4169.743488
69,0,4228.717845,4234.358871,4223.58964,4261.025537,4242.563999,4243.58964,4233.84605,4230.769127,4246.153742,4241.025537,4231.794768,4218.461435,4223.07682,4184.102462
70,0,4231.794768,4244.615281,4213.33323,4273.333229,4252.820409,4236.922973,4235.384512,4239.487076,4249.230665,4267.179383,4236.922973,4229.230666,4232.820409,4191.281949
71,0,4235.897332,4248.205024,4201.538359,4298.461433,4263.589639,4249.230665,4250.769127,4253.84605,4249.230665,4266.153742,4248.205024,4234.358871,4233.84605,4185.640923
72,0,4230.256307,4240.512717,4208.205025,4294.358869,4257.435793,4254.35887,4254.871691,4250.769127,4249.743486,4254.35887,4250.769127,4226.153743,4232.820409,4190.256308
73,0,4218.461435,4226.153743,4223.07682,4256.410152,4245.128101,4242.563999,4240.512717,4234.871691,4247.179383,4244.615281,4233.84605,4212.82041,4224.102461,4188.717846
74,0,4220.512717,4233.33323,4218.461435,4266.666562,4248.717845,4243.58964,4235.897332,4237.435794,4245.640922,4236.410153,4229.743486,4212.307589,4222.051179,4182.564
75,0,4233.33323,4250.769127,4205.128102,4307.179382,4261.025537,4254.35887,4248.717845,4252.820409,4248.205024,4250.769127,4249.230665,4226.153743,4233.33323,4194.358872
76,0,4235.384512,4248.205024,4200.512718,4310.769125,4263.589639,4256.922973,4255.897332,4252.307588,4252.820409,4270.769126,4255.384511,4230.256307,4235.897332,4206.153743
77,0,4223.58964,4231.794768,4199.487077,4291.794767,4257.435793,4251.281947,4248.717845,4237.435794,4249.743486,4257.435793,4237.948614,4215.384512,4219.999897,4190.256308
78,0,4203.589641,4215.384512,4205.640923,4257.435793,4243.076819,4236.922973,4230.769127,4221.538358,4236.410153,4228.205025,4215.897333,4196.922974,4199.999897,4158.461437
79,0,4195.897333,4209.743487,4218.461435,4224.615281,4228.717845,4225.128102,4217.948615,4213.33323,4228.205025,4223.07682,4207.692205,4193.333231,4194.358872,4145.640924
80,0,4207.692205,4218.974256,4217.435794,4239.999896,4230.769127,4231.281948,4223.07682,4217.948615,4234.871691,4231.794768,4216.410153,4203.589641,4200.512718,4157.948616
81,0,4209.230666,4215.384512,4221.538358,4218.461435,4230.256307,4233.84605,4224.615281,4214.871692,4235.897332,4222.051179,4214.871692,4198.461436,4194.871692,4159.487078
82,0,4193.846051,4189.743487,4243.076819,4132.820412,4216.922974,4221.025538,4204.615282,4194.871692,4224.102461,4201.538359,4193.333231,4177.948616,4178.974257,4142.564001
83,0,4194.871692,4185.640923,4240.512717,4146.666565,4217.435794,4217.948615,4197.435795,4194.358872,4223.07682,4205.640923,4197.435795,4181.025539,4187.179385,4147.179386
84,0,4211.281948,4211.281948,4216.410153,4245.640922,4231.794768,4231.281948,4215.897333,4219.999897,4241.538358,4235.897332,4227.692204,4208.717846,4206.153743,4169.743488
85,0,4218.974256,4223.58964,4216.922974,4262.051178,4242.051178,4241.025537,4227.692204,4232.307589,4249.743486,4253.84605,4239.487076,4219.999897,4212.307589,4173.846052
86,0,4215.384512,4216.922974,4225.640922,4225.128102,4246.153742,4238.974255,4223.07682,4221.538358,4236.922973,4245.640922,4231.281948,4212.82041,4212.307589,4170.769129
87,0,4209.230666,4213.846051,4218.461435,4231.281948,4239.487076,4230.256307,4216.410153,4209.230666,4226.666563,4227.692204,4225.128102,4208.717846,4206.153743,4169.230667
88,0,4212.82041,4219.487076,4221.025538,4244.615281,4229.743486,4227.692204,4217.435794,4209.230666,4230.256307,4220.512717,4230.256307,4209.230666,4205.640923,4168.717847
89,0,4219.999897,4219.999897,4234.358871,4230.256307,4232.307589,4232.307589,4222.563999,4217.948615,4233.33323,4226.666563,4230.769127,4209.230666,4211.794769,4171.281949
90,0,4211.794769,4212.307589,4233.33323,4213.846051,4231.794768,4233.33323,4219.999897,4216.410153,4233.33323,4233.33323,4214.871692,4199.999897,4203.589641,4166.153744
91,0,4201.025538,4209.230666,4231.281948,4197.948615,4226.153743,4227.692204,4215.384512,4204.102461,4234.358871,4224.102461,4206.153743,4188.205026,4193.333231,4155.384514
92,0,4201.025538,4213.846051,4235.897332,4189.230667,4235.897332,4229.743486,4214.871692,4198.974256,4231.281948,4210.256307,4214.358871,4185.128103,4195.897333,4145.640924
93,0,4197.948615,4216.922974,4226.153743,4194.358872,4242.563999,4235.384512,4209.230666,4202.564,4226.666563,4212.82041,4210.256307,4181.025539,4190.769128,4137.435796
94,0,4205.640923,4232.820409,4235.384512,4206.153743,4250.769127,4245.128101,4224.102461,4219.999897,4234.871691,4239.999896,4216.410153,4190.256308,4197.948615,4155.384514
95,0,4235.897332,4261.025537,4278.974254,4199.487077,4274.35887,4256.922973,4257.948614,4248.717845,4252.307588,4272.820408,4253.84605,4224.615281,4229.230666,4192.82041
96,0,4250.769127,4268.717844,4298.974254,4177.948616,4282.563998,4261.025537,4269.743485,4261.538357,4262.051178,4274.87169,4269.743485,4238.974255,4237.435794,4203.589641
97,0,4241.025537,4264.10246,4283.589639,4187.179385,4276.410152,4268.205024,4270.256306,4263.076819,4262.051178,4263.589639,4263.589639,4232.307589,4235.897332,4205.640923
98,0,4238.974255,4270.769126,4271.794767,4223.07682,4275.897331,4277.435793,4278.974254,4270.769126,4264.61528,4267.692203,4276.922972,4241.025537,4246.153742,4216.922974
99,0,4245.640922,4274.87169,4268.717844,4243.58964,4273.846049,4271.281947,4275.384511,4268.717844,4263.076819,4279.487075,4286.666562,4250.769127,4246.153742,4212.82041
100,0,4244.615281,4270.769126,4262.563998,4247.692204,4269.230665,4262.051178,4262.051178,4258.974255,4252.307588,4277.948613,4266.666562,4239.999896,4236.410153,4208.717846
101,0,4245.128101,4270.256306,4261.025537,4251.281947,4275.897331,4263.589639,4264.61528,4258.974255,4248.205024,4262.051178,4259.999896,4238.974255,4236.410153,4221.538358
102,0,4253.84605,4277.435793,4264.61528,4247.179383,4286.666562,4265.128101,4272.307588,4264.61528,4254.35887,4264.10246,4281.025536,4256.410152,4242.563999,4226.153743
103,0,4261.538357,4289.230664,4265.128101,4258.974255,4293.333228,4271.281947,4277.435793,4272.307588,4262.051178,4283.076818,4294.87169,4267.692203,4252.820409,4228.205025
104,0,4267.179383,4304.102459,4264.10246,4297.948613,4299.999895,4285.1281,4282.563998,4281.538357,4265.128101,4286.153741,4296.922972,4266.666562,4268.205024,4250.769127
105,0,4266.153742,4302.051177,4262.563998,4309.743484,4293.333228,4279.487075,4278.461434,4280.512716,4263.076819,4277.435793,4298.974254,4265.128101,4269.743485,4255.384511
106,0,4255.384511,4286.666562,4263.076819,4288.717844,4285.1281,4264.61528,4274.35887,4276.922972,4261.025537,4280.512716,4293.333228,4265.128101,4255.384511,4232.820409
107,0,4245.128101,4276.410152,4264.10246,4265.640921,4277.948613,4262.563998,4272.820408,4270.769126,4257.435793,4275.384511,4279.487075,4255.897332,4246.153742,4224.615281
108,0,4245.640922,4273.333229,4266.153742,4246.666563,4264.10246,4260.512716,4266.153742,4259.487075,4250.769127,4260.512716,4272.820408,4241.538358,4247.179383,4233.33323
109,0,4249.743486,4275.897331,4261.538357,4248.717845,4266.153742,4263.076819,4265.128101,4263.076819,4252.307588,4260.512716,4277.948613,4240.512717,4247.179383,4231.281948
110,0,4248.205024,4277.948613,4248.717845,4284.102459,4279.999895,4269.230665,4275.384511,4279.999895,4261.538357,4260.512716,4286.153741,4247.692204,4248.205024,4232.307589
111,0,4250.256306,4282.563998,4244.10246,4318.461433,4281.538357,4269.230665,4285.640921,4289.230664,4266.153742,4266.666562,4296.410151,4255.897332,4258.461434,4241.025537
112,0,4256.410152,4284.61528,4245.640922,4328.205022,4278.461434,4272.820408,4290.769126,4291.281946,4264.10246,4289.743485,4305.1281,4259.487075,4263.076819,4235.384512
113,0,4261.025537,4287.692203,4244.615281,4331.281945,4287.692203,4285.640921,4295.897331,4294.358869,4265.128101,4302.051177,4310.256305,4254.871691,4263.589639,4239.999896
114,0,4260.512716,4289.743485,4245.640922,4316.410151,4291.281946,4282.563998,4292.307587,4292.820408,4267.179383,4293.333228,4313.846048,4248.205024,4265.128101,4251.281947
115,0,4244.10246,4281.025536,4248.717845,4281.025536,4276.410152,4262.563998,4277.435793,4275.897331,4259.999896,4277.435793,4306.666561,4237.435794,4251.794768,4229.743486
116,0,4232.820409,4274.35887,4248.205024,4263.076819,4266.666562,4260.512716,4268.717844,4263.589639,4251.281947,4266.153742,4296.922972,4227.179384,4242.563999,4217.435794
117,0,4238.461435,4273.333229,4248.717845,4263.589639,4267.179383,4266.666562,4263.589639,4263.076819,4247.692204,4261.538357,4297.435792,4225.640922,4247.179383,4257.435793
118,0,4237.948614,4265.128101,4250.256306,4259.487075,4262.563998,4253.333229,4253.333229,4259.999896,4249.230665,4262.563998,4294.87169,4223.07682,4239.999896,4239.999896
119,0,4230.256307,4258.974255,4250.769127,4252.820409,4257.948614,4242.051178,4254.871691,4257.435793,4251.794768,4258.461434,4285.640921,4218.461435,4227.692204,4191.281949
120,0,4233.33323,4261.025537,4248.717845,4262.563998,4257.948614,4252.820409,4265.128101,4265.128101,4252.307588,4255.384511,4285.1281,4221.025538,4231.794768,4277.948613
121,0,4236.922973,4255.897332,4244.10246,4259.999896,4252.820409,4261.538357,4261.538357,4262.563998,4249.743486,4261.025537,4284.61528,4215.384512,4236.922973,4141.02554
122,0,4225.640922,4243.076819,4247.179383,4221.538358,4245.128101,4245.640922,4244.615281,4235.384512,4242.563999,4251.281947,4266.153742,4189.230667,4228.205025,3567.1794
123,0,4221.538358,4240.512717,4249.230665,4209.230666,4248.717845,4239.487076,4241.025537,4217.948615,4239.487076,4228.205025,4253.333229,4173.846052,4215.897333,3182.564025
124,0,4231.794768,4247.179383,4234.871691,4254.35887,4261.025537,4256.410152,4254.871691,4235.897332,4246.153742,4227.692204,4262.051178,4185.128103,4214.871692,3265.128125
125,0,4231.281948,4248.205024,4227.692204,4276.410152,4266.153742,4257.435793,4257.948614,4249.230665,4249.230665,4241.025537,4265.128101,4190.256308,4224.102461,3331.28197
126,0,4220.512717,4245.640922,4243.076819,4247.692204,4258.974255,4246.153742,4248.205024,4235.384512,4242.563999,4238.461435,4260.512716,4184.615282,4231.281948,3268.205048
127,0,4222.051179,4241.025537,4249.230665,4242.563999,4244.10246,4247.179383,4242.563999,4230.769127,4244.615281,4229.230666,4264.10246,4192.82041,4238.974255,3307.692227
128,0,4230.769127,4236.922973,4235.897332,4269.230665,4238.461435,4248.205024,4241.538358,4243.58964,4249.743486,4231.794768,4270.769126,4203.589641,4245.640922,3361.538379
0,0,4229.743486,4240.512717,4229.743486,4275.384511,4247.692204,4246.153742,4231.794768,4237.435794,4237.435794,4233.33323,4265.128101,4196.410154,4242.563999,3358.461456
1,0,4226.666563,4242.563999,4232.820409,4255.384511,4251.281947,4241.025537,4217.948615,4214.358871,4227.692204,4225.128102,4252.820409,4186.666564,4232.307589,3365.640943
2,0,4225.640922,4234.358871,4235.897332,4235.384512,4236.922973,4221.025538,4207.692205,4198.461436,4231.281948,4212.82041,4246.666563,4181.538359,4221.538358,3373.846071
3,0,4225.640922,4230.769127,4233.84605,4254.871691,4230.769127,4213.846051,4216.410153,4201.538359,4234.871691,4210.256307,4255.897332,4183.589641,4221.025538,3389.743507
4,0,4226.153743,4237.435794,4231.794768,4278.461434,4246.666563,4231.794768,4231.281948,4218.461435,4233.33323,4221.538358,4269.743485,4194.871692,4226.666563,3406.666583
5,0,4219.487076,4226.666563,4240.512717,4242.563999,4246.666563,4237.948614,4219.487076,4213.33323,4228.717845,4216.410153,4261.025537,4188.205026,4215.897333,3409.743506
6,0,4212.307589,4211.281948,4250.256306,4201.025538,4231.281948,4229.230666,4206.666564,4198.461436,4227.692204,4204.615282,4254.35887,4170.256308,4205.640923,3407.179404
7,0,4214.871692,4222.051179,4241.538358,4211.281948,4234.358871,4221.538358,4212.82041,4207.692205,4230.769127,4201.538359,4272.307588,4170.769129,4212.82041,3413.84607
8,0,4211.794769,4230.256307,4229.743486,4228.205025,4242.563999,4220.512717,4218.974256,4215.897333,4229.230666,4191.794769,4278.974254,4176.410154,4207.692205,3428.717865
9,0,4209.743487,4229.743486,4224.102461,4253.84605,4246.666563,4231.794768,4226.153743,4217.948615,4237.948614,4204.615282,4279.999895,4182.05118,4202.051179,3446.153762
10,0,4220.512717,4243.076819,4217.435794,4292.820408,4252.820409,4241.538358,4231.281948,4230.256307,4249.230665,4234.358871,4295.38451,4193.333231,4219.999897,3466.666582
11,0,4221.538358,4246.666563,4221.025538,4287.692203,4239.487076,4228.717845,4218.974256,4225.640922,4236.922973,4228.205025,4299.999895,4191.794769,4226.153743,3477.948633
12,0,4214.358871,4231.281948,4231.794768,4259.487075,4224.102461,4217.435794,4210.769128,4207.179384,4223.58964,4209.230666,4287.692203,4185.128103,4213.33323,3489.743504
13,0,4225.640922,4237.948614,4231.281948,4265.128101,4242.051178,4227.179384,4217.435794,4208.717846,4230.256307,4212.82041,4289.230664,4193.846051,4215.897333,3515.384529
14,0,4232.307589,4251.794768,4226.153743,4270.769126,4254.35887,4227.179384,4213.33323,4205.640923,4232.307589,4208.717846,4295.897331,4194.871692,4222.051179,3528.717862
15,0,4224.615281,4247.179383,4223.07682,4269.743485,4241.538358,4218.974256,4211.794769,4198.974256,4227.692204,4205.128102,4294.358869,4190.769128,4218.461435,3533.846067
16,0,4226.666563,4248.205024,4218.461435,4286.153741,4246.153742,4222.051179,4220.512717,4212.307589,4231.281948,4221.025538,4299.999895,4203.07682,4222.051179,3554.358887
17,0,4219.487076,4245.128101,4226.153743,4268.717844,4248.717845,4223.07682,4211.281948,4209.743487,4229.743486,4217.435794,4295.897331,4204.102461,4215.897333,3556.92299
18,0,4207.179384,4231.794768,4239.999896,4228.205025,4233.33323,4215.897333,4196.410154,4193.333231,4227.692204,4211.281948,4289.230664,4190.256308,4205.640923,3547.1794
19,0,4212.82041,4229.743486,4250.256306,4197.435795,4229.743486,4215.384512,4193.846051,4191.281949,4229.230666,4217.948615,4288.717844,4183.076821,4211.281948,3563.589656
20,0,4209.230666,4216.922974,4261.538357,4147.692206,4226.666563,4210.256307,4187.692205,4187.179385,4220.512717,4199.999897,4274.87169,4174.871693,4203.07682,3573.846066
21,0,4190.256308,4197.948615,4255.384511,4133.333232,4215.384512,4202.051179,4177.948616,4177.435795,4215.384512,4179.999898,4262.051178,4165.128103,4184.102462,3561.538374
22,0,4198.974256,4217.948615,4229.743486,4207.692205,4224.615281,4215.897333,4190.256308,4183.589641,4225.640922,4200.512718,4275.384511,4169.743488,4195.897333,3574.358887
23,0,4216.410153,4240.512717,4227.179384,4244.10246,4238.974255,4224.615281,4205.128102,4192.82041,4228.717845,4219.999897,4286.153741,4174.358872,4214.358871,3603.589655
24,0,4205.640923,4221.538358,4247.179383,4186.153744,4228.717845,4212.307589,4194.871692,4183.589641,4215.897333,4204.615282,4273.846049,4166.153744,4202.564,3607.692219
25,0,4199.999897,4208.717846,4243.58964,4173.333231,4218.461435,4208.717846,4186.666564,4181.538359,4213.846051,4191.281949,4275.897331,4168.717847,4195.384513,3612.820424
26,0,4211.281948,4222.563999,4226.153743,4230.256307,4226.153743,4216.410153,4198.974256,4195.897333,4224.615281,4204.615282,4291.281946,4184.615282,4209.743487,3634.358885
27,0,4220.512717,4233.84605,4223.58964,4270.769126,4238.974255,4218.974256,4211.794769,4208.717846,4233.84605,4227.179384,4298.974254,4193.846051,4219.999897,3657.948629
28,0,4223.07682,4236.410153,4227.692204,4265.640921,4236.410153,4217.435794,4207.692205,4204.102461,4229.743486,4230.256307,4296.922972,4191.794769,4218.974256,3671.794782
29,0,4217.435794,4228.205025,4229.743486,4227.179384,4218.974256,4216.922974,4194.871692,4192.30759,4216.922974,4213.33323,4282.563998,4182.564,4206.153743,3665.128116
30,0,4212.307589,4221.025538,4227.692204,4221.538358,4219.999897,4218.974256,4199.487077,4197.435795,4218.974256,4205.128102,4277.435793,4181.025539,4197.435795,3667.179398
31,0,4218.974256,4227.179384,4227.179384,4243.076819,4233.84605,4224.615281,4212.82041,4214.871692,4232.307589,4204.615282,4287.179382,4189.230667,4206.153743,3695.897346
32,0,4230.256307,4236.922973,4228.717845,4240.512717,4234.871691,4226.153743,4207.692205,4218.461435,4233.84605,4207.179384,4292.820408,4194.871692,4214.871692,3713.846063
33,0,4231.794768,4242.051178,4221.025538,4252.820409,4236.922973,4223.07682,4202.051179,4212.82041,4232.307589,4221.025538,4297.435792,4192.82041,4219.999897,3721.02555
34,0,4231.794768,4249.743486,4207.692205,4299.487074,4249.230665,4228.205025,4222.563999,4226.153743,4245.640922,4234.358871,4309.743484,4199.999897,4230.769127,3745.640934
35,0,4236.410153,4251.794768,4216.922974,4291.281946,4251.794768,4234.358871,4236.922973,4238.974255,4249.743486,4237.948614,4309.743484,4213.846051,4232.307589,3758.974267
36,0,4232.307589,4238.974255,4242.563999,4223.07682,4244.615281,4228.717845,4220.512717,4223.58964,4234.871691,4230.769127,4293.846049,4209.743487,4218.974256,3751.28196
37,0,4221.025538,4229.230666,4245.640922,4207.692205,4245.128101,4230.256307,4213.846051,4211.281948,4227.692204,4221.025538,4291.281946,4196.922974,4215.384512,3764.615293
38,0,4222.051179,4233.33323,4225.128102,4249.743486,4245.640922,4241.538358,4228.205025,4223.07682,4234.871691,4224.102461,4296.410151,4195.897333,4225.128102,3786.666574
39,0,4235.384512,4238.974255,4215.897333,4270.256306,4247.179383,4236.410153,4235.384512,4237.948614,4241.538358,4236.410153,4296.410151,4206.153743,4231.281948,3790.769138
40,0,4236.410153,4236.922973,4217.948615,4268.717844,4247.692204,4226.666563,4237.435794,4244.10246,4245.640922,4246.153742,4294.87169,4218.461435,4231.281948,3796.922984
41,0,4219.487076,4224.102461,4214.358871,4276.410152,4235.384512,4230.256307,4238.974255,4239.487076,4245.128101,4238.974255,4294.358869,4215.384512,4221.538358,3802.56401
42,0,4213.33323,4217.435794,4217.435794,4274.87169,4226.153743,4230.769127,4232.820409,4233.84605,4239.487076,4228.205025,4294.87169,4206.153743,4217.435794,3801.538369
43,0,4226.153743,4225.640922,4233.84605,4233.84605,4234.871691,4223.58964,4221.538358,4231.281948,4233.84605,4227.179384,4294.358869,4203.07682,4226.153743,3812.307599
44,0,4234.358871,4231.794768,4235.897332,4212.307589,4242.563999,4226.666563,4212.82041,4227.179384,4233.33323,4234.871691,4291.794767,4205.640923,4229.230666,3830.256317
45,0,4232.307589,4231.794768,4221.025538,4256.410152,4244.615281,4231.281948,4212.82041,4227.692204,4239.999896,4244.615281,4298.461433,4213.33323,4230.769127,3839.999906
46,0,4233.33323,4232.307589,4213.846051,4294.87169,4244.10246,4226.666563,4225.128102,4231.794768,4247.692204,4244.615281,4302.563997,4219.999897,4233.33323,3846.153752
47,0,4229.230666,4221.025538,4217.435794,4265.640921,4234.871691,4227.179384,4229.230666,4225.128102,4243.076819,4229.230666,4286.666562,4204.615282,4221.538358,3845.640932
48,0,4216.922974,4207.179384,4220.512717,4225.640922,4228.717845,4230.256307,4217.948615,4212.307589,4232.820409,4206.666564,4273.333229,4189.230667,4207.692205,3841.538368
49,0,4219.999897,4218.974256,4221.025538,4235.897332,4233.33323,4228.205025,4212.307589,4212.82041,4233.33323,4210.769128,4277.435793,4197.435795,4212.307589,3852.307598
50,0,4234.358871,4231.281948,4219.487076,4253.333229,4232.307589,4227.692204,4217.948615,4217.435794,4238.461435,4231.794768,4279.487075,4203.07682,4220.512717,3867.692213
51,0,4229.230666,4219.487076,4219.999897,4245.128101,4229.743486,4229.743486,4226.666563,4219.487076,4233.84605,4233.33323,4277.435793,4197.435795,4218.461435,3869.743495
52,0,4217.948615,4212.307589,4219.487076,4248.717845,4236.922973,4230.256307,4226.153743,4220.512717,4229.743486,4227.179384,4280.512716,4198.974256,4216.922974,3877.435803
53,0,4227.179384,4224.615281,4214.871692,4275.897331,4244.615281,4231.794768,4218.974256,4217.948615,4234.358871,4230.769127,4284.61528,4201.025538,4224.102461,3893.333238
54,0,4235.897332,4236.922973,4212.307589,4277.948613,4243.58964,4232.307589,4217.435794,4216.922974,4236.922973,4239.487076,4282.051177,4201.538359,4233.33323,3899.999905
55,0,4225.128102,4230.256307,4216.922974,4246.666563,4236.922973,4230.256307,4219.487076,4214.358871,4231.281948,4234.358871,4275.384511,4201.538359,4229.743486,3895.897341
56,0,4221.538358,4222.563999,4225.640922,4238.461435,4238.974255,4230.769127,4217.435794,4213.33323,4232.820409,4226.666563,4283.589639,4205.640923,4224.615281,3905.64093
57,0,4233.33323,4229.743486,4233.84605,4257.435793,4247.692204,4226.153743,4219.999897,4218.974256,4239.999896,4231.281948,4298.461433,4218.974256,4235.897332,3932.820417
58,0,4237.435794,4235.384512,4235.384512,4250.256306,4244.615281,4215.897333,4218.974256,4218.974256,4234.871691,4230.769127,4288.717844,4216.922974,4235.384512,3939.999904
59,0,4228.717845,4229.743486,4224.615281,4241.538358,4239.999896,4219.999897,4213.846051,4219.487076,4232.307589,4221.538358,4269.230665,4199.999897,4215.897333,3925.128109
60,0,4225.640922,4230.256307,4210.769128,4281.538357,4247.692204,4239.487076,4227.692204,4236.922973,4245.640922,4226.666563,4273.846049,4204.102461,4219.999897,3930.256314
61,0,4225.640922,4229.743486,4209.230666,4298.461433,4248.205024,4243.076819,4239.487076,4244.615281,4248.717845,4237.435794,4277.435793,4211.281948,4236.410153,3949.230673
62,0,4221.538358,4218.461435,4216.922974,4258.461434,4238.461435,4231.794768,4226.153743,4219.487076,4234.871691,4223.07682,4256.410152,4195.897333,4218.461435,3944.102468
63,0,4216.410153,4213.33323,4218.461435,4238.461435,4231.794768,4224.615281,4215.897333,4199.999897,4228.717845,4202.051179,4243.076819,4187.692205,4194.871692,3934.358878
64,0,4215.384512,4218.461435,4215.897333,4255.384511,4225.640922,4219.999897,4217.948615,4206.666564,4232.820409,4209.743487,4253.333229,4196.410154,4208.205025,3945.640929
65,0,4221.025538,4227.179384,4211.794769,4273.333229,4232.820409,4224.102461,4221.538358,4215.384512,4229.230666,4229.743486,4265.128101,4198.461436,4226.666563,3961.025544
66,0,4227.179384,4233.33323,4207.692205,4280.512716,4250.769127,4232.820409,4225.128102,4218.974256,4227.692204,4229.230666,4261.538357,4202.051179,4219.999897,3973.333236
67,0,4233.33323,4234.358871,4205.640923,4285.1281,4248.717845,4232.307589,4226.153743,4226.153743,4238.974255,4224.102461,4262.563998,4212.82041,4215.384512,3985.128108
68,0,4231.794768,4236.410153,4205.640923,4289.230664,4230.769127,4230.256307,4224.102461,4232.307589,4247.692204,4237.948614,4276.922972,4214.871692,4228.717845,3994.871697
69,0,4218.461435,4232.820409,4209.743487,4282.051177,4230.256307,4234.871691,4227.692204,4231.794768,4243.58964,4250.769127,4274.35887,4203.07682,4231.794768,3997.94862
70,0,4218.974256,4225.128102,4216.410153,4261.025537,4242.563999,4234.358871,4232.820409,4240.512717,4243.58964,4250.769127,4263.589639,4200.512718,4222.051179,3998.461441
71,0,4233.84605,4228.717845,4218.974256,4255.384511,4249.743486,4229.743486,4233.33323,4251.281947,4249.230665,4245.128101,4268.205024,4211.281948,4218.461435,4005.128107
72,0,4235.384512,4231.794768,4216.922974,4266.666562,4247.692204,4227.692204,4234.358871,4243.58964,4243.076819,4236.922973,4271.794767,4216.922974,4217.948615,4016.410158
73,0,4222.563999,4223.58964,4217.948615,4258.461434,4235.384512,4228.205025,4236.922973,4231.794768,4237.435794,4234.358871,4263.589639,4212.82041,4218.974256,4024.615286
81,0,4216.922974,4224.102461,4207.179384,4266.153742,4239.999896,4233.84605,4229.743486,4214.871692,4238.974255,4231.281948,4250.256306,4197.435795,4221.025538,4049.743491
82,0,4225.128102,4228.717845,4201.025538,4271.794767,4246.666563,4231.794768,4228.205025,4221.025538,4242.051178,4239.487076,4256.410152,4201.025538,4225.640922,4064.102465
83,0,4199.999897,4199.999897,4216.410153,4203.589641,4214.871692,4215.897333,4206.666564,4199.487077,4224.615281,4221.538358,4221.025538,4177.435795,4195.897333,4032.820414
84,0,4173.333231,4173.846052,4226.666563,4132.820412,4187.692205,4196.410154,4183.076821,4166.153744,4206.153743,4184.615282,4180.512718,4148.205027,4161.53836,3998.974261
85,0,4187.692205,4187.692205,4223.07682,4150.769129,4208.717846,4201.538359,4186.666564,4167.692206,4212.82041,4173.333231,4190.769128,4154.358873,4170.769129,4021.025543
86,0,4208.205025,4210.256307,4217.948615,4207.179384,4231.794768,4215.384512,4210.256307,4192.30759,4228.717845,4190.769128,4214.871692,4176.410154,4199.487077,4050.256311
87,0,4204.615282,4209.230666,4210.256307,4226.153743,4221.025538,4219.487076,4218.461435,4203.07682,4229.230666,4204.102461,4212.307589,4182.564,4201.025538,4044.615286
88,0,4206.153743,4210.769128,4206.666564,4230.256307,4214.871692,4218.974256,4205.640923,4195.384513,4222.563999,4203.589641,4213.33323,4183.076821,4193.333231,4048.205029
89,0,4219.999897,4231.281948,4213.846051,4243.076819,4232.820409,4216.922974,4200.512718,4187.692205,4225.640922,4205.640923,4230.256307,4187.692205,4206.153743,4072.820413
90,0,4221.025538,4233.33323,4219.487076,4235.384512,4241.538358,4214.358871,4203.589641,4185.640923,4229.230666,4213.846051,4236.410153,4188.205026,4216.410153,4080.512721
91,0,4214.871692,4218.461435,4215.384512,4230.769127,4224.615281,4217.435794,4202.564,4187.179385,4219.487076,4216.922974,4226.153743,4185.128103,4206.153743,4081.025541
92,0,4215.897333,4224.615281,4216.410153,4236.410153,4218.974256,4220.512717,4204.102461,4193.333231,4220.512717,4214.358871,4222.051179,4186.666564,4197.948615,4089.230669
93,0,4215.897333,4234.358871,4222.051179,4221.025538,4232.820409,4217.435794,4210.769128,4200.512718,4232.307589,4217.948615,4221.538358,4189.230667,4203.589641,4089.74349
94,0,4212.82041,4220.512717,4216.922974,4215.384512,4232.307589,4216.922974,4212.307589,4201.025538,4230.769127,4212.82041,4211.281948,4182.564,4201.025538,4084.615285
95,0,4212.307589,4212.307589,4211.281948,4241.538358,4225.640922,4223.07682,4212.82041,4197.948615,4227.179384,4203.589641,4212.307589,4178.974257,4196.922974,4087.692208
96,0,4216.410153,4227.179384,4215.384512,4259.999896,4237.435794,4230.769127,4219.487076,4203.07682,4231.281948,4212.307589,4226.153743,4192.82041,4208.205025,4096.922977
97,0,4221.538358,4233.33323,4221.538358,4246.153742,4241.025537,4230.769127,4216.410153,4204.615282,4233.33323,4222.563999,4224.102461,4201.538359,4213.33323,4106.666566
98,0,4215.897333,4219.487076,4216.410153,4229.230666,4221.025538,4216.410153,4204.102461,4190.256308,4228.717845,4214.871692,4211.281948,4186.666564,4204.102461,4114.358874
99,0,4204.615282,4202.564,4216.922974,4214.871692,4210.769128,4205.128102,4196.410154,4181.538359,4219.999897,4197.948615,4210.769128,4177.435795,4197.435795,4108.717848
100,0,4205.640923,4203.07682,4225.128102,4198.461436,4213.33323,4210.256307,4196.922974,4188.205026,4222.051179,4195.384513,4214.358871,4185.640923,4198.974256,4106.153746
101,0,4215.897333,4215.897333,4222.563999,4208.205025,4222.563999,4219.487076,4207.692205,4199.999897,4232.820409,4208.205025,4215.384512,4192.82041,4206.666564,4117.435797
102,0,4219.487076,4217.948615,4221.025538,4232.307589,4231.281948,4220.512717,4216.922974,4208.205025,4233.84605,4219.999897,4225.640922,4196.922974,4214.871692,4124.615284
103,0,4215.897333,4209.230666,4226.666563,4229.743486,4223.58964,4216.922974,4216.410153,4207.179384,4229.743486,4223.58964,4229.230666,4201.538359,4211.794769,4125.128104
104,0,4213.33323,4207.179384,4224.615281,4216.410153,4217.435794,4221.025538,4210.769128,4201.025538,4231.794768,4228.717845,4220.512717,4197.948615,4207.692205,4132.820412
105,0,4222.563999,4215.384512,4213.33323,4248.205024,4229.743486,4227.692204,4215.897333,4208.205025,4233.84605,4232.820409,4225.128102,4197.435795,4217.435794,4150.256309
106,0,4229.743486,4220.512717,4214.358871,4270.256306,4236.922973,4229.230666,4230.256307,4222.563999,4234.871691,4224.102461,4231.281948,4203.07682,4224.102461,4154.358873
107,0,4219.487076,4215.897333,4224.102461,4235.897332,4233.84605,4228.717845,4233.33323,4219.487076,4234.871691,4217.435794,4221.538358,4196.922974,4214.871692,4143.589642
108,0,4212.82041,4209.230666,4229.230666,4208.717846,4231.794768,4222.563999,4219.487076,4203.589641,4229.743486,4218.461435,4212.82041,4185.128103,4203.07682,4134.871694
109,0,4211.794769,4200.512718,4233.84605,4195.384513,4220.512717,4213.846051,4201.538359,4188.205026,4225.640922,4211.281948,4208.205025,4180.512718,4197.435795,4127.692207
110,0,4202.051179,4191.794769,4228.717845,4184.615282,4210.769128,4211.281948,4196.922974,4180.512718,4226.666563,4199.999897,4195.897333,4178.974257,4198.461436,4126.153745
111,0,4202.051179,4195.384513,4214.358871,4217.948615,4214.358871,4212.82041,4205.640923,4193.846051,4230.256307,4194.358872,4196.922974,4179.999898,4198.974256,4141.53836
112,0,4215.384512,4204.102461,4210.256307,4255.897332,4214.871692,4222.051179,4216.922974,4208.205025,4232.820409,4199.999897,4214.871692,4192.82041,4201.025538,4155.384514
113,0,4217.948615,4204.615282,4218.974256,4233.33323,4216.410153,4230.256307,4219.999897,4205.128102,4233.33323,4210.769128,4222.051179,4202.564,4208.717846,4152.820411
114,0,4211.281948,4197.435795,4219.487076,4215.384512,4225.640922,4221.538358,4214.358871,4203.589641,4233.33323,4217.435794,4213.33323,4196.922974,4206.666564,4156.410155
115,0,4215.897333,4203.07682,4211.794769,4247.692204,4234.871691,4216.922974,4217.948615,4217.948615,4233.33323,4224.102461,4213.33323,4196.922974,4205.640923,4168.717847
116,0,4225.640922,4217.948615,4219.487076,4252.307588,4235.384512,4229.743486,4226.153743,4225.640922,4233.84605,4232.307589,4225.128102,4207.179384,4220.512717,4180.512718
117,0,4222.051179,4212.307589,4233.84605,4206.666564,4223.58964,4223.07682,4214.871692,4207.692205,4232.820409,4223.58964,4221.025538,4204.615282,4223.07682,4190.769128
118,0,4213.33323,4196.410154,4237.435794,4179.999898,4203.589641,4200.512718,4194.871692,4186.153744,4223.07682,4195.384513,4202.564,4187.692205,4206.153743,4186.666564
119,0,4212.307589,4196.922974,4233.33323,4181.025539,4197.435795,4204.102461,4194.358872,4182.564,4215.897333,4178.974257,4196.922974,4181.538359,4199.487077,4173.333231
120,0,4215.897333,4199.999897,4235.384512,4167.692206,4209.230666,4211.281948,4194.871692,4183.589641,4216.922974,4188.717846,4196.922974,4183.589641,4200.512718,4167.692206
121,0,4211.794769,4196.922974,4236.410153,4168.717847,4220.512717,4201.025538,4187.692205,4182.564,4220.512717,4204.102461,4189.230667,4183.076821,4197.435795,4169.743488
122,0,4206.666564,4198.461436,4228.205025,4192.82041,4221.025538,4206.666564,4192.30759,4184.615282,4221.025538,4200.512718,4189.743487,4184.102462,4199.999897,4171.79477
123,0,4202.564,4191.794769,4228.205025,4169.230667,4205.640923,4217.435794,4194.358872,4175.897334,4214.358871,4179.999898,4185.640923,4174.358872,4195.384513,4165.640924
124,0,4195.897333,4178.974257,4239.487076,4118.974258,4192.30759,4205.128102,4180.512718,4159.999898,4206.153743,4170.769129,4168.205026,4153.846052,4179.487077,4152.307591
125,0,4200.512718,4190.256308,4231.794768,4154.358873,4205.128102,4204.615282,4180.512718,4163.589642,4213.33323,4189.743487,4172.820411,4158.461437,4183.076821,4163.076821
126,0,4211.281948,4203.589641,4211.794769,4227.179384,4222.563999,4216.922974,4191.794769,4172.820411,4223.07682,4206.666564,4189.230667,4178.461436,4195.897333,4184.102462
127,0,4203.589641,4190.256308,4217.435794,4207.179384,4215.384512,4205.128102,4186.153744,4166.666565,4215.897333,4181.025539,4175.384513,4173.333231,4184.615282,4175.897334
128,0,4192.82041,4183.076821,4230.769127,4162.05118,4207.179384,4199.999897,4186.666564,4168.205026,4211.794769,4158.974257,4158.974257,4165.128103,4173.846052,4164.615283
0,0,4206.153743,4202.051179,4222.563999,4192.30759,4217.435794,4215.384512,4200.512718,4184.102462,4224.615281,4190.256308,4175.897334,4181.538359,4185.128103,4182.05118
1,0,4220.512717,4210.769128,4214.871692,4222.563999,4216.922974,4216.922974,4204.102461,4186.153744,4226.153743,4207.692205,4186.153744,4189.743487,4189.230667,4196.410154
2,0,4213.846051,4199.999897,4220.512717,4214.871692,4204.102461,4211.281948,4206.153743,4181.538359,4217.948615,4189.230667,4179.999898,4183.589641,4186.153744,4193.846051
3,0,4214.871692,4204.102461,4226.153743,4224.615281,4215.384512,4217.435794,4216.410153,4191.281949,4224.102461,4197.435795,4189.743487,4191.794769,4204.102461,4210.769128
4,0,4231.794768,4220.512717,4226.153743,4237.948614,4236.410153,4224.615281,4219.999897,4202.051179,4226.666563,4209.230666,4208.717846,4205.640923,4221.025538,4237.948614
5,0,4237.948614,4222.051179,4223.58964,4239.999896,4238.461435,4232.820409,4217.948615,4205.128102,4220.512717,4201.025538,4212.307589,4209.230666,4219.999897,4243.58964
6,0,4228.205025,4214.871692,4217.435794,4257.948614,4228.717845,4232.820409,4218.974256,4208.205025,4224.102461,4211.794769,4207.179384,4207.179384,4213.33323,4239.999896
7,0,4219.487076,4216.410153,4209.743487,4263.076819,4222.563999,4221.538358,4218.461435,4206.153743,4226.666563,4227.179384,4203.589641,4201.538359,4208.717846,4232.820409
8,0,4211.281948,4213.846051,4207.692205,4224.615281,4219.487076,4216.922974,4213.33323,4195.897333,4216.922974,4217.435794,4192.82041,4189.230667,4204.102461,4219.999897
9,0,4200.512718,4195.897333,4216.922974,4181.538359,4212.307589,4215.384512,4204.102461,4187.692205,4216.410153,4202.564,4177.948616,4175.384513,4195.897333,4211.794769
10,0,4193.333231,4180.512718,4225.640922,4160.512719,4206.666564,4204.615282,4195.897333,4181.025539,4219.487076,4191.794769,4170.256308,4166.153744,4182.564,4205.128102
11,0,4197.435795,4183.589641,4214.871692,4163.076821,4209.230666,4195.897333,4196.410154,4175.897334,4214.358871,4187.179385,4166.153744,4161.025539,4175.897334,4195.897333
12,0,4206.666564,4194.358872,4204.102461,4182.564,4216.410153,4205.128102,4200.512718,4181.538359,4215.384512,4202.564,4165.640924,4164.615283,4186.666564,4207.692205
13,0,4212.82041,4200.512718,4203.589641,4201.538359,4214.871692,4217.435794,4201.538359,4187.692205,4219.487076,4218.461435,4173.846052,4172.820411,4197.948615,4230.769127
14,0,4221.025538,4208.717846,4202.051179,4223.58964,4210.769128,4218.461435,4208.205025,4190.769128,4217.948615,4220.512717,4186.153744,4183.076821,4206.666564,4242.563999
15,0,4232.307589,4219.999897,4208.717846,4234.871691,4215.384512,4217.948615,4218.974256,4198.974256,4218.461435,4217.435794,4189.230667,4196.410154,4217.435794,4254.35887
16,0,4234.358871,4227.179384,4217.435794,4234.358871,4226.153743,4219.999897,4221.025538,4205.640923,4221.025538,4213.846051,4190.256308,4207.179384,4219.999897,4265.128101
17,0,4224.102461,4223.58964,4208.717846,4241.538358,4233.84605,4217.948615,4214.871692,4198.461436,4219.487076,4213.846051,4190.256308,4205.640923,4215.897333,4257.948614
18,0,4214.871692,4218.461435,4197.948615,4238.461435,4231.281948,4214.358871,4211.794769,4187.692205,4215.897333,4211.794769,4184.102462,4191.281949,4210.769128,4246.153742
19,0,4215.897333,4214.871692,4208.205025,4208.717846,4220.512717,4219.999897,4216.410153,4188.205026,4216.922974,4205.128102,4184.102462,4182.564,4207.179384,4246.666563
20,0,4213.846051,4206.153743,4219.487076,4177.435795,4206.153743,4223.07682,4214.358871,4190.256308,4215.897333,4198.461436,4182.564,4182.05118,4199.999897,4241.538358
21,0,4207.179384,4196.410154,4212.82041,4173.333231,4204.102461,4211.794769,4200.512718,4182.564,4211.281948,4199.487077,4163.589642,4177.435795,4191.794769,4228.717845
22,0,4211.281948,4200.512718,4213.846051,4181.025539,4222.051179,4206.666564,4202.051179,4182.05118,4214.358871,4208.717846,4157.435796,4172.30759,4193.333231,4236.410153
23,0,4217.948615,4212.82041,4224.102461,4189.230667,4229.230666,4213.33323,4213.846051,4193.333231,4219.999897,4214.871692,4177.948616,4180.512718,4202.051179,4257.435793
24,0,4214.358871,4211.794769,4226.153743,4186.153744,4215.897333,4212.82041,4209.743487,4194.358872,4217.948615,4213.846051,4188.205026,4192.30759,4202.564,4258.461434
25,0,4222.051179,4213.33323,4216.922974,4199.487077,4210.769128,4213.33323,4208.717846,4194.358872,4216.922974,4214.871692,4184.102462,4198.974256,4206.153743,4258.461434
26,0,4233.84605,4227.692204,4211.281948,4234.358871,4218.461435,4222.563999,4217.948615,4202.051179,4218.461435,4216.922974,4186.666564,4205.640923,4216.410153,4278.461434
27,0,4223.58964,4226.666563,4219.487076,4218.461435,4216.410153,4215.384512,4208.717846,4193.846051,4213.33323,4212.82041,4186.666564,4199.487077,4210.769128,4280.512716
28,0,4216.410153,4212.82041,4227.692204,4171.281949,4215.384512,4207.692205,4199.487077,4181.538359,4212.307589,4211.794769,4180.512718,4189.743487,4202.564,4264.61528
29,0,4224.615281,4213.33323,4221.025538,4178.974257,4224.102461,4218.461435,4213.33323,4191.794769,4218.461435,4213.846051,4183.589641,4195.897333,4212.82041,4266.153742
30,0,4223.58964,4219.999897,4212.82041,4218.974256,4226.666563,4220.512717,4221.025538,4205.640923,4223.58964,4217.948615,4192.30759,4203.07682,4219.999897,4279.999895
31,0,4221.538358,4217.948615,4214.358871,4223.07682,4216.922974,4219.487076,4214.871692,4204.102461,4225.128102,4228.717845,4193.846051,4202.564,4217.948615,4284.102459
32,0,4231.281948,4216.410153,4216.922974,4213.846051,4213.846051,4228.717845,4214.358871,4201.025538,4222.563999,4228.717845,4190.256308,4202.051179,4216.922974,4279.999895
33,0,4231.794768,4215.384512,4213.33323,4212.82041,4225.128102,4226.666563,4216.410153,4199.487077,4215.384512,4214.358871,4186.153744,4200.512718,4212.82041,4279.999895
34,0,4222.051179,4215.384512,4215.897333,4198.461436,4229.743486,4216.922974,4212.82041,4194.871692,4217.435794,4213.846051,4188.717846,4200.512718,4213.33323,4284.102459
35,0,4218.461435,4214.358871,4226.153743,4178.461436,4217.948615,4208.717846,4205.128102,4188.717846,4221.538358,4219.487076,4187.179385,4197.948615,4215.384512,4284.61528
36,0,4213.846051,4205.128102,4234.871691,4156.922975,4209.230666,4199.487077,4196.922974,4181.538359,4211.794769,4206.153743,4174.358872,4187.692205,4204.102461,4274.87169
37,0,4212.82041,4197.948615,4232.307589,4152.307591,4214.358871,4204.102461,4193.846051,4177.948616,4204.615282,4192.82041,4166.666565,4186.153744,4197.948615,4268.717844
38,0,4224.102461,4209.743487,4216.410153,4193.846051,4225.128102,4216.922974,4201.538359,4187.179385,4215.897333,4208.205025,4181.538359,4199.487077,4214.358871,4283.076818
39,0,4237.435794,4225.640922,4209.743487,4243.58964,4230.256307,4218.974256,4213.33323,4209.230666,4230.256307,4230.256307,4207.692205,4212.82041,4235.897332,4306.666561
40,0,4233.84605,4225.128102,4213.846051,4245.128101,4230.769127,4222.563999,4220.512717,4217.948615,4227.692204,4229.230666,4217.435794,4215.897333,4237.435794,4315.89733
41,0,4216.922974,4217.435794,4213.846051,4221.025538,4233.84605,4226.153743,4218.974256,4204.615282,4218.461435,4213.33323,4198.974256,4206.153743,4221.025538,4295.38451
42,0,4211.794769,4208.717846,4211.281948,4209.230666,4233.33323,4217.948615,4212.82041,4194.871692,4223.07682,4213.33323,4180.512718,4197.948615,4210.256307,4271.794767
43,0,4218.461435,4205.640923,4213.846051,4217.435794,4221.538358,4220.512717,4213.846051,4205.128102,4232.820409,4234.358871,4191.281949,4202.564,4216.410153,4282.563998
44,0,4221.538358,4212.307589,4210.769128,4233.33323,4221.538358,4230.256307,4219.999897,4213.846051,4231.794768,4237.435794,4200.512718,4204.615282,4221.538358,4304.102459
45,0,4214.871692,4209.230666,4204.102461,4218.974256,4229.230666,4222.051179,4209.230666,4198.974256,4223.07682,4209.230666,4180.512718,4189.743487,4209.230666,4292.820408
46,0,4204.615282,4201.025538,4206.666564,4197.435795,4218.461435,4211.794769,4194.871692,4179.487077,4217.435794,4195.384513,4170.256308,4179.487077,4199.487077,4271.794767
47,0,4206.666564,4206.666564,4208.205025,4216.410153,4213.33323,4212.82041,4203.589641,4183.589641,4216.922974,4214.358871,4180.512718,4186.153744,4206.153743,4278.974254
48,0,4222.051179,4216.922974,4201.538359,4251.794768,4230.256307,4218.461435,4219.999897,4204.102461,4224.615281,4228.717845,4190.769128,4199.487077,4217.948615,4297.435792
49,0,4233.33323,4225.128102,4198.461436,4270.769126,4242.563999,4227.179384,4226.666563,4218.461435,4236.922973,4227.692204,4203.589641,4212.82041,4227.179384,4301.025536
50,0,4233.84605,4232.820409,4199.999897,4269.743485,4234.358871,4232.307589,4226.666563,4218.974256,4234.358871,4228.205025,4213.846051,4215.897333,4231.281948,4303.589638
51,0,4227.692204,4223.58964,4203.589641,4244.615281,4218.974256,4223.07682,4215.897333,4206.153743,4219.487076,4225.640922,4198.974256,4206.153743,4222.051179,4309.230664
52,0,4219.999897,4212.82041,4210.769128,4223.07682,4221.538358,4213.33323,4204.102461,4197.435795,4222.051179,4225.128102,4190.256308,4200.512718,4216.410153,4310.256305
53,0,4218.461435,4217.435794,4216.922974,4217.948615,4231.794768,4215.897333,4202.051179,4198.974256,4232.307589,4231.281948,4201.025538,4204.615282,4226.153743,4306.666561
54,0,4217.948615,4215.384512,4221.538358,4199.999897,4223.07682,4218.974256,4202.051179,4192.30759,4223.58964,4224.102461,4196.410154,4201.538359,4223.58964,4301.538356
55,0,4213.33323,4207.692205,4219.487076,4193.333231,4212.82041,4218.461435,4202.051179,4180.512718,4215.384512,4208.205025,4182.05118,4195.384513,4210.769128,4289.743485
56,0,4212.307589,4211.281948,4206.666564,4212.307589,4217.948615,4210.256307,4202.051179,4179.487077,4221.538358,4197.435795,4180.512718,4196.922974,4212.82041,4282.563998
57,0,4213.33323,4213.33323,4203.589641,4216.922974,4214.871692,4198.461436,4197.435795,4183.076821,4219.487076,4199.999897,4183.589641,4194.358872,4216.410153,4292.820408
58,0,4213.846051,4212.307589,4215.897333,4211.794769,4215.384512,4205.128102,4199.487077,4186.153744,4214.871692,4210.769128,4184.615282,4195.384513,4215.384512,4306.153741
59,0,4218.974256,4218.461435,4222.051179,4210.256307,4229.743486,4217.948615,4203.589641,4191.794769,4225.128102,4217.435794,4188.205026,4202.564,4219.487076,4310.769125
60,0,4219.487076,4220.512717,4216.922974,4205.128102,4226.666563,4214.358871,4197.948615,4189.230667,4225.128102,4213.846051,4189.230667,4201.025538,4217.435794,4306.666561
61,0,4211.794769,4215.384512,4216.410153,4204.102461,4216.410153,4211.281948,4194.358872,4184.615282,4216.922974,4209.230666,4187.179385,4193.333231,4210.256307,4299.487074
62,0,4213.33323,4216.922974,4218.974256,4209.230666,4219.487076,4212.82041,4199.999897,4193.846051,4222.051179,4217.435794,4188.717846,4196.410154,4213.33323,4303.076818
63,0,4225.640922,4227.179384,4217.435794,4212.307589,4221.025538,4208.717846,4203.07682,4204.102461,4233.33323,4229.230666,4194.871692,4203.07682,4219.487076,4313.846048
64,0,4229.743486,4232.820409,4216.410153,4213.33323,4217.948615,4211.281948,4202.564,4200.512718,4229.230666,4229.230666,4198.974256,4203.07682,4218.974256,4313.846048
65,0,4219.999897,4224.102461,4216.410153,4205.640923,4217.435794,4216.922974,4202.564,4193.846051,4219.999897,4221.538358,4191.281949,4202.564,4216.410153,4309.230664
66,0,4214.358871,4213.846051,4215.897333,4183.589641,4215.897333,4214.358871,4202.564,4194.871692,4215.897333,4211.794769,4182.564,4202.051179,4215.384512,4312.307587
67,0,4215.897333,4212.307589,4216.922974,4160.512719,4217.435794,4212.307589,4201.538359,4191.281949,4215.897333,4197.435795,4182.564,4197.948615,4213.33323,4308.205023
68,0,4215.897333,4214.358871,4217.435794,4160.512719,4224.615281,4214.871692,4203.07682,4186.153744,4221.538358,4202.564,4186.666564,4197.948615,4216.410153,4310.769125
69,0,4211.794769,4218.974256,4212.307589,4175.897334,4222.563999,4216.410153,4200.512718,4192.30759,4223.58964,4223.58964,4192.82041,4199.487077,4224.102461,4323.589638
70,0,4218.461435,4228.717845,4208.205025,4193.333231,4212.307589,4219.999897,4203.07682,4201.025538,4223.58964,4226.153743,4199.999897,4200.512718,4230.256307,4329.230663
71,0,4228.205025,4235.897332,4209.230666,4212.82041,4212.307589,4218.974256,4213.33323,4205.128102,4225.640922,4220.512717,4204.102461,4211.281948,4233.33323,4336.41015
72,0,4222.051179,4228.205025,4212.307589,4207.179384,4219.487076,4210.256307,4211.794769,4204.102461,4223.58964,4217.948615,4198.461436,4216.922974,4228.717845,4341.025535
73,0,4213.846051,4216.410153,4216.410153,4174.871693,4216.922974,4202.564,4194.871692,4198.974256,4216.410153,4206.153743,4189.743487,4207.179384,4220.512717,4331.281945
74,0,4213.33323,4216.410153,4218.974256,4159.999898,4211.794769,4201.538359,4184.615282,4190.256308,4214.358871,4198.974256,4181.538359,4197.435795,4211.794769,4321.538356
75,0,4209.230666,4217.948615,4218.461435,4165.128103,4215.897333,4199.999897,4186.666564,4179.999898,4214.358871,4202.051179,4172.30759,4191.794769,4204.615282,4321.025535
76,0,4205.128102,4214.871692,4217.948615,4153.333232,4215.897333,4197.948615,4189.230667,4174.358872,4212.307589,4199.487077,4167.692206,4188.717846,4202.564,4320.512715
77,0,4210.256307,4219.999897,4222.051179,4150.256309,4212.307589,4206.666564,4196.410154,4186.666564,4218.461435,4205.128102,4178.461436,4195.384513,4212.82041,4323.589638
78,0,4222.051179,4231.281948,4220.512717,4183.589641,4214.871692,4219.999897,4209.230666,4204.615282,4225.128102,4218.974256,4196.410154,4209.743487,4228.205025,4334.871689
79,0,4228.717845,4239.487076,4216.410153,4205.640923,4216.410153,4219.487076,4209.743487,4206.153743,4223.07682,4215.384512,4202.564,4216.410153,4233.33323,4342.563996
80,0,4229.743486,4246.666563,4223.58964,4192.82041,4214.358871,4209.230666,4200.512718,4198.974256,4217.435794,4210.769128,4201.025538,4214.871692,4233.84605,4349.743483
81,0,4235.384512,4247.179383,4231.794768,4178.461436,4214.871692,4203.07682,4198.974256,4199.487077,4215.384512,4214.871692,4197.948615,4213.846051,4238.461435,4361.538355
82,0,4253.333229,4255.897332,4224.102461,4198.974256,4215.897333,4198.461436,4202.564,4200.512718,4214.871692,4209.743487,4202.564,4221.538358,4253.333229,4383.589636
83,0,4275.897331,4291.794767,4211.794769,4243.076819,4214.871692,4201.025538,4202.051179,4198.974256,4213.33323,4202.051179,4219.999897,4236.410153,4275.897331,4419.999892
84,0,4296.410151,4323.589638,4223.07682,4256.922973,4214.871692,4207.692205,4202.051179,4197.948615,4213.33323,4208.205025,4233.84605,4246.666563,4294.87169,4459.999891
85,0,4312.820407,4332.820407,4243.58964,4235.384512,4223.07682,4212.82041,4202.051179,4198.461436,4216.922974,4213.33323,4242.563999,4256.922973,4312.307587,4488.205018
86,0,4316.410151,4341.025535,4243.076819,4226.666563,4232.307589,4219.487076,4199.999897,4201.538359,4218.461435,4216.922974,4251.281947,4263.589639,4322.563997,4502.051172
87,0,4309.743484,4343.589637,4233.33323,4233.84605,4218.974256,4214.871692,4202.051179,4200.512718,4213.33323,4217.435794,4247.692204,4258.974255,4313.846048,4496.410146
88,0,4299.487074,4327.692202,4238.974255,4212.82041,4196.922974,4205.128102,4201.538359,4193.333231,4212.307589,4197.948615,4228.717845,4248.205024,4295.38451,4474.871685
89,0,4289.743485,4314.358869,4252.820409,4175.384513,4204.102461,4201.538359,4187.692205,4185.640923,4214.358871,4177.435795,4211.281948,4237.435794,4281.538357,4454.358865
90,0,4279.999895,4311.281946,4251.794768,4172.820411,4219.999897,4194.358872,4178.974257,4182.564,4206.153743,4187.692205,4199.999897,4228.717845,4271.281947,4441.538353
91,0,4269.230665,4305.1281,4238.974255,4200.512718,4215.897333,4192.30759,4188.205026,4187.692205,4199.999897,4202.051179,4198.974256,4225.640922,4264.61528,4429.743481
92,0,4263.076819,4293.333228,4227.179384,4224.615281,4215.384512,4211.281948,4199.487077,4196.410154,4211.281948,4202.051179,4208.205025,4228.717845,4265.640921,4420.512712
93,0,4264.10246,4284.61528,4221.025538,4236.922973,4221.538358,4225.640922,4207.179384,4204.615282,4219.999897,4205.128102,4215.384512,4233.84605,4264.10246,4412.307584
94,0,4260.512716,4281.025536,4225.128102,4233.84605,4215.384512,4215.384512,4214.871692,4209.743487,4214.871692,4205.128102,4214.358871,4233.33323,4255.897332,4400.512713
95,0,4245.640922,4273.846049,4227.179384,4223.58964,4212.82041,4208.717846,4213.846051,4209.230666,4213.33323,4208.205025,4205.128102,4225.640922,4243.076819,4381.538354
96,0,4230.769127,4261.025537,4220.512717,4217.435794,4218.974256,4218.461435,4203.07682,4202.564,4214.871692,4217.948615,4191.794769,4217.948615,4226.666563,4363.076816
97,0,4223.07682,4250.769127,4213.846051,4222.563999,4214.871692,4227.179384,4199.999897,4205.128102,4214.871692,4208.717846,4184.102462,4211.794769,4216.410153,4350.256304
98,0,4219.487076,4241.538358,4215.384512,4222.051179,4213.846051,4218.461435,4205.128102,4214.871692,4219.487076,4203.07682,4186.666564,4204.102461,4213.33323,4341.538355
99,0,4214.358871,4233.84605,4224.102461,4196.922974,4222.051179,4201.538359,4202.051179,4209.230666,4218.974256,4218.461435,4181.025539,4197.435795,4207.179384,4328.717843
100,0,4202.564,4224.615281,4230.769127,4168.205026,4217.948615,4201.538359,4189.230667,4195.897333,4214.358871,4213.846051,4163.076821,4191.281949,4192.82041,4310.256305
101,0,4186.153744,4208.717846,4233.84605,4144.615283,4198.974256,4207.179384,4178.461436,4190.769128,4213.33323,4186.153744,4152.307591,4177.435795,4176.922975,4291.281946
102,0,4176.410154,4192.30759,4233.33323,4118.461438,4184.102462,4199.999897,4178.461436,4185.640923,4207.179384,4179.999898,4147.179386,4164.102462,4167.179385,4274.35887
103,0,4187.179385,4195.384513,4226.666563,4130.76913,4190.256308,4194.871692,4183.076821,4182.05118,4198.974256,4192.30759,4143.589642,4170.256308,4165.128103,4272.820408
104,0,4203.07682,4212.307589,4209.230666,4201.538359,4211.281948,4199.487077,4188.205026,4192.30759,4207.179384,4203.589641,4152.820411,4187.179385,4175.384513,4293.333228
105,0,4206.153743,4216.922974,4203.589641,4241.538358,4216.410153,4205.128102,4189.230667,4199.999897,4214.358871,4207.179384,4165.128103,4194.871692,4188.717846,4306.666561
106,0,4197.948615,4205.640923,4219.487076,4196.410154,4203.07682,4203.589641,4183.589641,4188.717846,4203.07682,4191.794769,4159.999898,4188.717846,4184.102462,4293.333228
107,0,4188.717846,4198.974256,4232.820409,4149.230668,4201.025538,4199.487077,4181.025539,4178.461436,4197.435795,4179.999898,4150.256309,4179.487077,4169.230667,4273.846049
108,0,4185.640923,4201.025538,4233.84605,4145.128104,4204.615282,4201.538359,4180.512718,4182.05118,4203.589641,4186.666564,4146.666565,4172.30759,4164.615283,4268.717844
109,0,4183.076821,4201.025538,4224.102461,4159.487078,4201.025538,4202.051179,4175.384513,4184.102462,4202.564,4191.794769,4139.999899,4166.153744,4167.179385,4267.179383
110,0,4175.384513,4197.948615,4206.666564,4185.640923,4207.179384,4201.538359,4176.410154,4181.538359,4205.640923,4191.281949,4136.922976,4165.128103,4163.589642,4260.512716
111,0,4171.281949,4198.461436,4198.461436,4214.871692,4219.999897,4216.410153,4194.871692,4190.256308,4216.410153,4196.922974,4144.102463,4170.256308,4160.512719,4263.589639
112,0,4182.564,4208.205025,4202.051179,4234.871691,4227.179384,4236.410153,4212.82041,4206.153743,4218.461435,4209.230666,4157.435796,4181.538359,4171.281949,4284.61528
113,0,4193.846051,4220.512717,4201.025538,4250.256306,4229.743486,4235.384512,4216.410153,4221.538358,4223.07682,4219.487076,4169.743488,4194.871692,4187.692205,4301.025536
114,0,4191.794769,4220.512717,4199.487077,4254.871691,4229.230666,4222.563999,4218.974256,4230.769127,4234.358871,4223.07682,4174.871693,4200.512718,4190.256308,4295.897331
115,0,4185.640923,4214.871692,4203.589641,4244.10246,4222.051179,4217.948615,4217.948615,4225.128102,4231.794768,4219.487076,4174.871693,4194.358872,4184.102462,4286.153741
116,0,4183.589641,4213.33323,4199.487077,4250.256306,4211.281948,4216.922974,4207.179384,4217.435794,4218.974256,4212.82041,4169.230667,4186.666564,4183.589641,4285.1281
117,0,4180.512718,4210.256307,4200.512718,4250.769127,4210.769128,4214.871692,4197.948615,4215.384512,4216.922974,4202.564,4157.435796,4182.05118,4182.05118,4278.461434
118,0,4181.025539,4211.281948,4214.871692,4224.615281,4227.692204,4225.128102,4208.717846,4218.461435,4225.640922,4200.512718,4155.897334,4181.025539,4179.999898,4278.974254
119,0,4188.205026,4218.974256,4218.461435,4215.897333,4239.999896,4232.820409,4220.512717,4225.640922,4232.820409,4215.897333,4164.102462,4188.717846,4183.589641,4288.205023
120,0,4190.256308,4221.538358,4206.666564,4238.974255,4233.33323,4224.615281,4217.435794,4227.692204,4229.230666,4220.512717,4164.102462,4195.897333,4181.538359,4287.692203
121,0,4184.615282,4217.948615,4196.922974,4264.10246,4230.769127,4222.051179,4216.922974,4221.538358,4219.487076,4205.128102,4158.461437,4190.256308,4176.410154,4278.974254
122,0,4183.076821,4215.384512,4206.666564,4238.974255,4230.256307,4224.615281,4215.897333,4210.256307,4214.358871,4195.897333,4155.384514,4182.564,4176.922975,4274.87169
123,0,4185.640923,4214.358871,4223.07682,4191.281949,4219.487076,4216.922974,4203.07682,4199.999897,4214.358871,4205.128102,4156.410155,4183.589641,4181.025539,4279.999895
124,0,4186.666564,4217.435794,4221.538358,4197.435795,4215.897333,4214.358871,4199.487077,4205.640923,4215.897333,4216.922974,4162.05118,4188.717846,4186.153744,4287.692203
125,0,4184.102462,4214.358871,4213.846051,4213.846051,4219.999897,4217.948615,4205.128102,4213.846051,4215.384512,4208.717846,4157.435796,4186.153744,4178.461436,4285.1281
126,0,4182.564,4203.07682,4212.82041,4194.358872,4218.974256,4213.846051,4200.512718,4202.051179,4212.307589,4192.82041,4150.769129,4178.974257,4166.153744,4273.333229
127,0,4193.846051,4208.205025,4206.153743,4211.281948,4227.179384,4212.82041,4206.666564,4205.640923,4214.871692,4205.128102,4171.79477,4190.256308,4176.922975,4284.61528
128,0,4201.538359,4223.58964,4195.384513,4250.769127,4234.358871,4218.461435,4221.538358,4221.538358,4219.487076,4226.153743,4183.589641,4202.564,4191.281949,4301.538356
0,0,4183.589641,4205.128102,4198.461436,4220.512717,4221.025538,4214.358871,4213.33323,4209.743487,4214.871692,4214.871692,4156.410155,4186.666564,4174.871693,4281.538357
1,0,4172.30759,4181.538359,4200.512718,4194.871692,4214.871692,4215.897333,4208.205025,4205.640923,4213.33323,4209.230666,4150.769129,4178.461436,4163.589642,4266.666562
2,0,4186.153744,4202.051179,4198.461436,4221.538358,4227.692204,4225.640922,4214.871692,4219.487076,4221.538358,4227.179384,4170.256308,4192.82041,4176.922975,4283.076818
3,0,4190.256308,4222.563999,4205.640923,4216.410153,4232.820409,4222.563999,4204.102461,4208.717846,4221.025538,4223.07682,4162.05118,4185.128103,4178.461436,4278.461434
4,0,4180.512718,4219.487076,4199.999897,4209.230666,4231.281948,4220.512717,4192.82041,4192.30759,4213.846051,4209.230666,4145.640924,4167.179385,4167.179385,4258.974255
5,0,4183.076821,4222.563999,4185.640923,4248.717845,4234.358871,4231.281948,4206.153743,4204.615282,4216.410153,4218.974256,4155.897334,4176.410154,4166.666565,4267.179383
6,0,4191.281949,4227.692204,4190.256308,4266.153742,4238.461435,4231.794768,4219.487076,4219.999897,4223.58964,4235.384512,4170.256308,4192.30759,4172.820411,4277.435793
7,0,4187.692205,4219.999897,4203.589641,4225.640922,4234.358871,4221.538358,4211.281948,4208.717846,4219.999897,4233.33323,4164.615283,4186.666564,4171.79477,4265.640921
8,0,4171.79477,4204.615282,4204.615282,4186.153744,4217.948615,4212.82041,4192.82041,4185.128103,4211.281948,4212.82041,4149.230668,4169.743488,4158.974257,4252.820409
9,0,4164.102462,4195.897333,4197.435795,4203.07682,4214.358871,4211.281948,4190.769128,4185.128103,4213.846051,4205.128102,4145.128104,4167.179385,4151.79477,4253.84605
10,0,4176.922975,4203.07682,4188.205026,4246.153742,4232.820409,4223.07682,4205.128102,4204.102461,4218.974256,4218.974256,4153.846052,4177.948616,4156.922975,4261.025537
11,0,4185.640923,4211.281948,4184.102462,4249.230665,4235.897332,4229.743486,4205.128102,4204.102461,4214.871692,4221.538358,4151.79477,4176.410154,4157.948616,4261.025537
12,0,4182.564,4204.102461,4195.384513,4204.102461,4217.948615,4215.897333,4195.384513,4194.358872,4213.846051,4215.897333,4147.692206,4166.153744,4154.871693,4258.974255
13,0,4181.025539,4201.538359,4208.205025,4175.897334,4214.358871,4209.230666,4199.999897,4199.999897,4217.948615,4219.487076,4153.846052,4166.666565,4159.999898,4261.538357
14,0,4172.820411,4197.948615,4199.999897,4189.743487,4222.563999,4218.461435,4205.640923,4202.051179,4215.897333,4211.794769,4147.692206,4168.205026,4157.948616,4252.820409
15,0,4163.076821,4184.615282,4186.153744,4204.102461,4219.999897,4218.974256,4201.538359,4197.948615,4212.82041,4203.589641,4142.564001,4165.128103,4150.256309,4242.563999
16,0,4171.79477,4191.281949,4189.743487,4204.615282,4215.897333,4216.922974,4198.974256,4203.589641,4216.922974,4218.461435,4152.820411,4169.230667,4160.512719,4251.794768
17,0,4177.435795,4204.615282,4197.948615,4196.410154,4217.435794,4221.025538,4199.487077,4200.512718,4216.410153,4219.487076,4150.769129,4169.230667,4166.666565,4250.769127
18,0,4169.230667,4196.922974,4198.974256,4192.30759,4223.58964,4217.435794,4194.871692,4184.615282,4211.794769,4199.999897,4143.076822,4162.564001,4161.025539,4240.512717
19,0,4174.871693,4196.410154,4197.948615,4216.410153,4234.358871,4215.897333,4197.948615,4187.179385,4214.871692,4201.538359,4153.846052,4171.79477,4167.692206,4259.487075
20,0,4188.205026,4205.128102,4190.256308,4248.205024,4235.384512,4221.025538,4209.743487,4204.102461,4220.512717,4217.435794,4161.025539,4182.564,4176.410154,4278.974254
21,0,4182.05118,4197.948615,4182.05118,4235.384512,4218.974256,4217.948615,4208.205025,4200.512718,4217.948615,4217.948615,4153.846052,4174.358872,4169.743488,4265.640921
22,0,4178.461436,4202.051179,4190.769128,4209.743487,4213.846051,4213.846051,4199.487077,4189.230667,4216.922974,4214.358871,4159.487078,4167.179385,4168.717847,4255.384511
23,0,4182.564,4216.922974,4198.461436,4218.461435,4223.58964,4219.487076,4201.538359,4190.769128,4216.922974,4218.974256,4160.512719,4169.743488,4172.30759,4262.563998
24,0,4169.743488,4202.051179,4195.384513,4206.666564,4220.512717,4218.974256,4198.974256,4184.615282,4208.205025,4207.692205,4139.487078,4160.512719,4154.871693,4248.717845
25,0,4156.922975,4181.025539,4202.051179,4155.384514,4211.794769,4205.128102,4184.102462,4169.743488,4198.461436,4183.589641,4126.666566,4148.205027,4138.461437,4227.179384
26,0,4163.589642,4184.102462,4209.743487,4146.153745,4216.922974,4197.948615,4181.538359,4168.717847,4200.512718,4186.666564,4129.743489,4154.358873,4144.615283,4232.820409
27,0,4172.30759,4186.666564,4202.051179,4192.30759,4221.538358,4209.743487,4193.846051,4177.435795,4206.666564,4207.692205,4140.512719,4167.179385,4158.461437,4249.743486
28,0,4180.512718,4193.333231,4190.256308,4234.871691,4217.948615,4227.179384,4208.717846,4190.256308,4216.922974,4215.897333,4162.564001,4177.435795,4168.717847,4262.051178
29,0,4191.794769,4214.871692,4185.128103,4261.025537,4221.538358,4232.307589,4219.487076,4211.281948,4228.717845,4226.666563,4182.05118,4187.179385,4178.974257,4273.846049
30,0,4189.743487,4217.948615,4183.589641,4270.769126,4234.871691,4229.743486,4218.461435,4218.974256,4226.153743,4239.999896,4181.025539,4192.82041,4186.153744,4282.051177
31,0,4186.666564,4206.666564,4188.717846,4257.948614,4245.640922,4234.358871,4216.410153,4204.615282,4216.410153,4230.769127,4169.230667,4189.743487,4183.076821,4279.487075
32,0,4184.615282,4198.461436,4195.897333,4231.281948,4234.871691,4230.769127,4213.846051,4188.717846,4214.358871,4209.743487,4159.999898,4176.410154,4172.30759,4266.666562
33,0,4172.820411,4189.743487,4193.846051,4211.281948,4215.897333,4215.897333,4201.538359,4184.102462,4214.358871,4202.051179,4149.743488,4164.615283,4162.05118,4254.871691
34,0,4168.205026,4187.692205,4185.640923,4214.871692,4216.922974,4209.230666,4193.846051,4182.564,4213.33323,4204.102461,4145.128104,4164.102462,4157.435796,4253.333229
35,0,4173.333231,4198.974256,4181.538359,4242.051178,4229.743486,4212.82041,4198.461436,4182.564,4215.384512,4202.564,4148.717847,4167.179385,4157.948616,4261.025537
36,0,4173.846052,4204.102461,4184.102462,4254.871691,4230.769127,4221.025538,4203.07682,4191.794769,4219.487076,4204.615282,4153.846052,4171.281949,4164.615283,4264.10246
37,0,4175.897334,4201.025538,4188.205026,4238.974255,4225.640922,4228.717845,4205.640923,4199.487077,4217.948615,4212.307589,4156.410155,4179.487077,4169.743488,4264.10246
38,0,4187.179385,4209.230666,4188.717846,4245.128101,4231.794768,4236.410153,4212.82041,4200.512718,4217.948615,4223.58964,4161.53836,4186.153744,4170.256308,4270.769126
39,0,4191.794769,4214.358871,4186.153744,4266.666562,4239.487076,4237.948614,4219.999897,4203.07682,4222.051179,4226.666563,4169.230667,4187.179385,4175.897334,4278.461434
40,0,4185.128103,4207.179384,4182.564,4260.512716,4232.820409,4226.153743,4215.897333,4205.128102,4223.07682,4222.563999,4172.820411,4187.179385,4183.076821,4278.974254
41,0,4182.05118,4205.128102,4181.025539,4248.717845,4229.230666,4214.358871,4204.615282,4204.615282,4219.487076,4219.999897,4170.769129,4186.666564,4181.538359,4276.410152
42,0,4185.128103,4207.692205,4191.281949,4233.33323,4230.769127,4217.948615,4201.025538,4204.102461,4217.435794,4217.948615,4167.179385,4183.076821,4174.871693,4272.820408
43,0,4184.102462,4196.410154,4203.07682,4199.487077,4214.358871,4216.922974,4201.538359,4197.948615,4215.384512,4212.307589,4157.948616,4174.358872,4168.205026,4264.61528
44,0,4180.512718,4185.128103,4200.512718,4193.846051,4203.07682,4210.256307,4197.948615,4193.333231,4213.33323,4202.051179,4153.333232,4171.281949,4167.179385,4262.051178
45,0,4182.564,4192.30759,4198.974256,4209.230666,4213.846051,4215.897333,4197.435795,4198.974256,4213.33323,4199.487077,4159.999898,4178.461436,4168.205026,4266.153742
46,0,4182.564,4195.897333,4203.07682,4196.410154,4219.999897,4212.307589,4199.999897,4193.846051,4209.743487,4203.589641,4155.384514,4174.871693,4162.05118,4264.61528
47,0,4175.897334,4189.230667,4199.999897,4185.128103,4215.384512,4202.564,4196.922974,4184.102462,4207.692205,4204.615282,4142.564001,4168.717847,4157.435796,4263.076819
48,0,4168.205026,4180.512718,4199.999897,4171.79477,4207.179384,4201.538359,4186.666564,4184.102462,4207.179384,4193.846051,4139.999899,4166.153744,4155.897334,4259.999896
49,0,4166.666565,4173.846052,4204.615282,4150.256309,4198.974256,4201.538359,4178.974257,4176.922975,4197.435795,4178.974257,4137.435796,4157.948616,4150.256309,4253.333229
50,0,4182.564,4185.640923,4199.487077,4176.922975,4209.230666,4207.179384,4188.717846,4173.846052,4199.999897,4185.640923,4142.051181,4159.487078,4156.410155,4261.538357
51,0,4184.615282,4190.769128,4198.461436,4197.948615,4223.58964,4217.435794,4207.692205,4194.871692,4218.461435,4206.666564,4150.256309,4172.30759,4160.512719,4265.640921
52,0,4166.153744,4172.820411,4208.717846,4164.615283,4218.461435,4213.846051,4205.640923,4201.538359,4215.897333,4203.07682,4142.564001,4168.205026,4143.076822,4248.205024
53,0,4175.384513,4181.538359,4215.897333,4163.589642,4211.281948,4203.07682,4188.717846,4183.589641,4201.025538,4182.05118,4139.999899,4169.230667,4148.205027,4254.35887
54,0,4203.589641,4217.948615,4217.948615,4189.743487,4206.153743,4202.051179,4179.999898,4171.79477,4202.051179,4184.615282,4157.948616,4182.05118,4181.025539,4287.692203
55,0,4203.589641,4221.025538,4218.974256,4168.717847,4195.897333,4196.410154,4173.846052,4164.615283,4203.07682,4187.692205,4160.512719,4176.922975,4182.564,4298.974254
56,0,4196.922974,4211.281948,4221.025538,4151.79477,4196.922974,4191.794769,4167.179385,4155.384514,4195.384513,4169.743488,4148.717847,4170.769129,4168.205026,4296.410151
57,0,4208.717846,4224.615281,4219.487076,4179.487077,4212.307589,4196.410154,4169.743488,4155.384514,4192.30759,4165.128103,4154.871693,4181.025539,4176.410154,4305.1281
58,0,4218.461435,4236.410153,4207.179384,4223.07682,4225.640922,4200.512718,4184.615282,4171.79477,4201.025538,4188.205026,4170.256308,4190.769128,4189.743487,4318.461433
59,0,4228.717845,4243.076819,4201.025538,4255.384511,4225.128102,4207.692205,4202.564,4196.410154,4214.871692,4212.307589,4187.179385,4202.051179,4196.922974,4335.89733
60,0,4236.410153,4252.820409,4207.179384,4261.538357,4219.487076,4217.435794,4210.769128,4207.179384,4221.538358,4224.102461,4197.435795,4212.82041,4206.666564,4349.743483
61,0,4225.128102,4245.128101,4207.692205,4252.820409,4217.948615,4218.974256,4204.615282,4198.461436,4217.948615,4215.897333,4189.743487,4206.666564,4202.051179,4341.025535
62,0,4218.974256,4233.33323,4207.179384,4250.769127,4216.410153,4213.33323,4201.538359,4197.948615,4214.358871,4202.564,4185.128103,4199.487077,4188.717846,4330.256304
63,0,4216.410153,4230.769127,4216.922974,4225.640922,4212.82041,4206.153743,4199.487077,4200.512718,4214.871692,4203.07682,4184.615282,4203.07682,4187.179385,4329.230663
64,0,4204.102461,4222.563999,4224.102461,4180.512718,4212.307589,4197.948615,4188.717846,4187.179385,4213.846051,4198.974256,4170.256308,4198.461436,4183.589641,4314.871689
65,0,4203.589641,4216.410153,4219.999897,4180.512718,4214.871692,4203.589641,4190.256308,4186.153744,4213.33323,4199.999897,4165.128103,4192.82041,4178.974257,4308.205023
66,0,4219.487076,4230.256307,4212.307589,4218.461435,4217.948615,4216.410153,4200.512718,4203.07682,4219.487076,4219.487076,4183.076821,4197.948615,4190.256308,4331.794766
67,0,4224.102461,4243.076819,4205.128102,4236.922973,4219.487076,4218.974256,4202.564,4206.153743,4227.179384,4225.128102,4191.794769,4204.615282,4199.999897,4344.102458
68,0,4213.846051,4238.461435,4202.564,4233.33323,4222.051179,4215.897333,4207.692205,4200.512718,4224.615281,4212.82041,4183.076821,4202.564,4190.769128,4328.717843
69,0,4209.743487,4229.743486,4209.230666,4234.358871,4219.487076,4217.948615,4214.358871,4200.512718,4217.435794,4212.307589,4182.05118,4200.512718,4182.564,4321.025535
70,0,4213.33323,4230.256307,4211.794769,4239.999896,4210.769128,4224.615281,4213.33323,4201.025538,4217.948615,4213.33323,4189.743487,4205.128102,4187.692205,4327.692202
71,0,4221.025538,4243.076819,4205.640923,4254.35887,4219.487076,4230.256307,4217.948615,4206.153743,4226.153743,4213.33323,4196.922974,4208.205025,4197.948615,4332.820407
72,0,4222.051179,4245.128101,4197.948615,4265.128101,4236.410153,4227.179384,4222.563999,4216.922974,4229.743486,4227.692204,4200.512718,4207.179384,4204.102461,4332.820407
73,0,4209.230666,4224.615281,4199.487077,4244.10246,4227.179384,4213.33323,4215.897333,4216.922974,4223.58964,4229.230666,4195.897333,4204.102461,4200.512718,4325.64092
74,0,4205.640923,4219.487076,4212.82041,4213.846051,4210.256307,4207.179384,4211.281948,4211.794769,4216.410153,4211.281948,4188.205026,4202.564,4195.897333,4321.025535
75,0,4212.82041,4231.281948,4218.974256,4207.179384,4215.897333,4211.794769,4207.692205,4208.205025,4214.871692,4202.564,4184.615282,4203.589641,4196.922974,4324.615279
76,0,4209.230666,4224.102461,4208.205025,4219.999897,4217.435794,4211.281948,4199.487077,4200.512718,4215.384512,4202.564,4182.564,4198.974256,4189.743487,4319.487074
77,0,4197.948615,4211.794769,4195.384513,4238.974255,4208.717846,4212.307589,4200.512718,4195.897333,4214.871692,4199.487077,4181.538359,4193.333231,4187.179385,4311.794766
78,0,4211.281948,4230.256307,4196.410154,4265.640921,4221.025538,4226.666563,4216.922974,4211.794769,4224.102461,4206.153743,4192.82041,4205.128102,4205.128102,4322.051176
79,0,4230.256307,4256.410152,4201.538359,4285.640921,4236.922973,4235.897332,4232.307589,4230.256307,4234.358871,4224.615281,4211.794769,4221.025538,4222.051179,4343.076817
80,0,4222.051179,4248.205024,4201.025538,4282.563998,4232.820409,4231.281948,4234.871691,4230.769127,4233.33323,4237.435794,4217.948615,4221.025538,4218.974256,4346.15374
81,0,4218.974256,4233.84605,4197.948615,4288.717844,4233.84605,4235.384512,4236.922973,4234.358871,4230.769127,4243.076819,4217.435794,4219.487076,4211.794769,4333.846048
82,0,4232.820409,4254.35887,4199.999897,4294.358869,4249.230665,4239.487076,4237.948614,4238.461435,4232.307589,4242.051178,4215.897333,4221.025538,4211.281948,4337.948612
83,0,4229.230666,4273.846049,4213.33323,4256.410152,4242.563999,4222.563999,4222.051179,4212.82041,4217.948615,4221.538358,4197.435795,4207.179384,4200.512718,4342.563996
84,0,4214.871692,4258.974255,4220.512717,4215.897333,4215.897333,4212.82041,4202.051179,4181.025539,4199.999897,4189.743487,4169.230667,4188.205026,4173.846052,4319.999894
85,0,4211.794769,4241.538358,4217.948615,4210.256307,4208.205025,4216.922974,4199.999897,4181.025539,4207.179384,4178.461436,4154.871693,4183.076821,4151.79477,4301.025536
86,0,4207.179384,4238.974255,4216.410153,4213.33323,4216.922974,4207.179384,4203.07682,4190.256308,4216.922974,4185.640923,4155.897334,4184.615282,4149.230668,4303.589638
87,0,4201.538359,4236.410153,4216.922974,4203.589641,4219.487076,4196.410154,4198.461436,4182.564,4208.717846,4186.666564,4157.948616,4182.564,4156.922975,4304.102459
88,0,4198.461436,4232.820409,4227.179384,4160.512719,4207.692205,4197.435795,4182.05118,4168.205026,4197.948615,4179.487077,4154.358873,4174.871693,4151.28195,4293.333228
89,0,4190.769128,4229.743486,4238.461435,4118.974258,4197.435795,4196.922974,4167.179385,4164.615283,4198.974256,4177.435795,4149.743488,4167.692206,4139.999899,4284.61528
90,0,4193.333231,4224.615281,4227.692204,4149.230668,4207.179384,4198.974256,4175.897334,4174.871693,4203.589641,4181.538359,4152.307591,4169.743488,4144.615283,4284.102459
91,0,4203.07682,4221.538358,4215.384512,4187.692205,4219.487076,4203.589641,4187.692205,4182.05118,4204.615282,4183.076821,4161.025539,4176.922975,4156.922975,4291.281946
92,0,4197.948615,4217.435794,4225.128102,4164.615283,4216.410153,4200.512718,4182.05118,4180.512718,4202.564,4184.615282,4165.128103,4177.435795,4152.307591,4293.846049
93,0,4196.922974,4222.051179,4226.153743,4168.717847,4211.281948,4206.666564,4186.153744,4181.538359,4202.051179,4190.769128,4166.153744,4176.922975,4146.666565,4292.307587
94,0,4209.230666,4233.33323,4212.307589,4207.692205,4213.33323,4217.948615,4201.025538,4188.717846,4208.717846,4195.897333,4172.30759,4184.102462,4159.999898,4302.563997
95,0,4210.769128,4233.84605,4214.358871,4204.615282,4219.487076,4208.205025,4196.410154,4198.974256,4217.435794,4202.051179,4178.461436,4193.333231,4170.256308,4309.230664
96,0,4201.538359,4222.051179,4229.743486,4175.384513,4215.897333,4195.897333,4181.538359,4200.512718,4218.461435,4207.179384,4172.820411,4190.256308,4166.153744,4300.512715
97,0,4201.538359,4219.487076,4232.307589,4169.230667,4203.07682,4204.102461,4185.640923,4194.871692,4214.871692,4203.07682,4172.30759,4183.589641,4164.102462,4295.897331
98,0,4217.435794,4240.512717,4215.384512,4224.102461,4214.871692,4223.58964,4207.692205,4208.205025,4225.128102,4209.230666,4196.410154,4201.025538,4179.487077,4317.435792
99,0,4227.179384,4257.948614,4207.692205,4269.743485,4237.435794,4229.230666,4226.153743,4227.692204,4235.897332,4228.205025,4212.82041,4220.512717,4189.743487,4337.948612
100,0,4206.153743,4231.794768,4242.563999,4167.692206,4213.33323,4203.589641,4199.487077,4198.974256,4215.897333,4209.743487,4178.461436,4195.897333,4166.153744,4308.717843
101,0,4163.076821,4174.358872,4291.281946,3973.846057,4164.102462,4163.076821,4135.384514,4132.307591,4179.999898,4146.153745,4112.307592,4137.948617,4116.922976,4243.58964
102,0,4129.743489,4127.692207,4300.512715,3868.717854,4146.153745,4145.128104,4098.974259,4092.307592,4163.589642,4105.128105,4063.589644,4095.384515,4066.153747,4189.230667
103,0,4131.794771,4125.128104,4284.102459,3881.025546,4149.743488,4151.79477,4105.640925,4090.25631,4167.692206,4101.538361,4061.538362,4089.230669,4059.999901,4182.05118
104,0,4152.307591,4148.717847,4279.999895,3918.974263,4153.333232,4156.410155,4112.307592,4093.846054,4168.717847,4098.974259,4087.179387,4102.564002,4094.871695,4204.102461
105,0,4153.333232,4151.28195,4279.999895,3930.256314,4151.28195,4153.333232,4109.230669,4091.281951,4166.153744,4097.948618,4091.794772,4110.25631,4104.615284,4211.794769
106,0,4135.384514,4132.307591,4275.897331,3905.12811,4136.922976,4149.230668,4102.564002,4084.615285,4166.153744,4107.692207,4071.281952,4101.025541,4080.512721,4195.897333
107,0,4135.384514,4128.717848,4281.538357,3895.38452,4136.410155,4150.769129,4103.076823,4089.74349,4169.743488,4118.461438,4072.820413,4099.487079,4079.9999,4192.82041
108,0,4143.589642,4137.435796,4282.563998,3933.846058,4152.820411,4153.846052,4117.435797,4104.102464,4170.769129,4127.692207,4094.358874,4115.897335,4098.461438,4210.256307
109,0,4137.948617,4133.846053,4266.153742,3958.461442,4152.820411,4154.871693,4127.179386,4107.179387,4169.743488,4123.589643,4094.358874,4120.51272,4093.846054,4212.307589
110,0,4139.487078,4130.76913,4263.589639,3947.179391,4150.256309,4157.435796,4124.615284,4107.692207,4169.230667,4109.230669,4086.153746,4110.25631,4085.128105,4205.128102
111,0,4153.333232,4137.948617,4270.256306,3955.384519,4165.128103,4164.615283,4128.205027,4117.948617,4171.281949,4114.871694,4097.948618,4114.358874,4091.794772,4208.205025
112,0,4168.205026,4159.487078,4244.615281,4039.487081,4178.974257,4179.487077,4152.307591,4141.53836,4187.692205,4151.28195,4124.615284,4139.999899,4113.846053,4229.230666
113,0,4181.538359,4189.230667,4203.589641,4157.435796,4187.179385,4201.538359,4179.487077,4171.79477,4209.743487,4187.692205,4153.846052,4164.102462,4142.564001,4264.61528
114,0,4194.358872,4202.564,4194.871692,4213.33323,4205.640923,4215.897333,4190.769128,4188.205026,4218.461435,4205.128102,4177.948616,4179.487077,4159.999898,4292.820408
115,0,4200.512718,4205.640923,4202.051179,4214.871692,4226.153743,4215.897333,4193.846051,4187.692205,4212.307589,4213.33323,4186.666564,4187.179385,4165.640924,4297.435792
116,0,4201.538359,4217.435794,4196.922974,4214.871692,4234.871691,4215.384512,4199.999897,4186.153744,4208.717846,4214.358871,4187.692205,4186.153744,4168.205026,4293.333228
117,0,4206.153743,4232.307589,4200.512718,4222.563999,4233.84605,4215.897333,4204.102461,4188.717846,4212.307589,4222.051179,4198.461436,4191.794769,4177.435795,4307.179382
118,0,4216.410153,4236.410153,4217.948615,4228.717845,4229.230666,4219.487076,4203.589641,4191.794769,4214.871692,4236.410153,4210.256307,4204.102461,4187.179385,4327.692202
