title:JTA                                                                             , recorded:03.07.20 13.45.00, sampling:128, subject:JTA                                                                             , labels:COUNTER INTERPOLATED AF3 F7 F3 FC5 T7 P7 O1 O2 P8 T8 FC6 F4 F8 AF4,, units:emotiv,,,,,,,,,
49,0,4239.999896,4313.333228,4218.974256,4227.692204,4262.563998,4218.461435,4219.999897,4213.33323,4223.07682,4211.794769,4210.256307,4216.922974,4211.281948,4227.692204
50,0,4231.281948,4298.974254,4229.743486,4205.128102,4286.153741,4217.435794,4218.461435,4213.846051,4229.743486,4207.692205,4218.974256,4217.435794,4215.384512,4234.871691
51,0,4227.179384,4294.358869,4233.33323,4196.922974,4273.846049,4213.846051,4216.922974,4215.897333,4222.051179,4193.846051,4211.281948,4216.410153,4206.666564,4225.128102
52,0,4232.820409,4298.461433,4218.974256,4217.435794,4263.589639,4211.794769,4215.897333,4207.692205,4221.025538,4205.640923,4200.512718,4214.871692,4204.615282,4214.871692
53,0,4236.410153,4297.435792,4211.281948,4230.256307,4256.410152,4215.384512,4214.871692,4199.487077,4229.230666,4223.58964,4207.692205,4212.82041,4212.82041,4224.615281
54,0,4236.410153,4297.948613,4224.102461,4209.230666,4253.333229,4217.435794,4215.384512,4202.564,4224.615281,4204.615282,4219.487076,4213.846051,4218.974256,4234.871691
55,0,4230.256307,4294.358869,4231.794768,4173.333231,4270.256306,4214.871692,4211.794769,4205.128102,4216.410153,4182.564,4207.179384,4210.769128,4212.82041,4220.512717
56,0,4218.974256,4284.61528,4218.461435,4172.30759,4268.205024,4214.871692,4202.051179,4200.512718,4216.922974,4191.794769,4192.82041,4199.487077,4203.07682,4205.640923
57,0,4216.922974,4279.999895,4212.307589,4191.794769,4246.153742,4215.384512,4196.922974,4200.512718,4218.974256,4197.948615,4203.589641,4197.435795,4205.128102,4214.871692
58,0,4218.974256,4268.205024,4226.153743,4173.846052,4249.230665,4210.769128,4202.051179,4205.640923,4225.640922,4206.666564,4204.615282,4203.07682,4206.153743,4215.384512
59,0,4212.82041,4257.948614,4228.717845,4141.53836,4259.487075,4210.256307,4198.461436,4202.051179,4222.563999,4216.922974,4184.615282,4198.461436,4194.358872,4199.999897
60,0,4217.948615,4276.410152,4224.102461,4152.820411,4256.410152,4218.461435,4194.871692,4201.025538,4216.922974,4201.538359,4190.256308,4197.435795,4202.051179,4209.743487
61,0,4244.615281,4303.076818,4232.307589,4171.281949,4257.948614,4214.871692,4197.435795,4205.640923,4224.615281,4188.717846,4214.871692,4212.82041,4228.205025,4243.076819
62,0,4267.179383,4315.89733,4236.922973,4176.410154,4261.538357,4204.102461,4196.410154,4207.692205,4228.205025,4212.307589,4215.384512,4224.615281,4229.743486,4263.589639
63,0,4279.487075,4336.41015,4228.205025,4219.487076,4276.922972,4215.897333,4208.205025,4218.461435,4227.179384,4233.84605,4224.615281,4238.461435,4232.820409,4285.640921
64,0,4286.666562,4349.743483,4227.692204,4250.256306,4286.153741,4227.692204,4219.999897,4222.563999,4228.205025,4219.999897,4246.666563,4249.230665,4261.025537,4312.307587
65,0,4281.025536,4332.307586,4241.538358,4194.358872,4264.61528,4208.717846,4203.07682,4198.974256,4219.487076,4188.205026,4231.794768,4235.384512,4263.589639,4305.1281
66,0,4276.922972,4321.025535,4243.58964,4154.358873,4262.563998,4198.461436,4186.666564,4184.615282,4213.33323,4183.076821,4215.384512,4224.615281,4242.051178,4294.87169
67,0,4283.589639,4328.205022,4236.922973,4185.128103,4286.153741,4217.948615,4202.051179,4203.07682,4220.512717,4213.846051,4232.820409,4234.358871,4245.128101,4309.743484
68,0,4280.512716,4323.076817,4237.948614,4173.333231,4269.743485,4218.461435,4202.051179,4203.07682,4217.435794,4217.435794,4226.153743,4227.179384,4249.230665,4308.717843
69,0,4263.076819,4308.717843,4238.974255,4130.256309,4235.384512,4199.999897,4181.025539,4182.564,4210.769128,4186.666564,4197.435795,4207.692205,4235.384512,4289.230664
70,0,4258.974255,4303.076818,4235.384512,4145.640924,4245.640922,4203.07682,4186.666564,4186.666564,4214.358871,4184.615282,4205.640923,4216.410153,4237.435794,4286.666562
71,0,4275.384511,4310.256305,4229.230666,4190.769128,4277.435793,4221.025538,4210.769128,4212.82041,4219.487076,4212.82041,4233.33323,4232.307589,4250.256306,4295.897331
72,0,4282.051177,4315.38451,4220.512717,4217.435794,4279.999895,4227.692204,4225.128102,4233.33323,4224.102461,4229.743486,4234.871691,4236.410153,4251.281947,4294.358869
73,0,4267.692203,4306.666561,4221.538358,4203.07682,4266.153742,4219.487076,4218.461435,4229.743486,4226.666563,4229.743486,4216.922974,4232.820409,4245.128101,4284.61528
74,0,4250.256306,4287.692203,4235.384512,4144.102463,4263.589639,4211.281948,4199.999897,4205.128102,4215.897333,4215.384512,4199.487077,4215.384512,4230.769127,4268.717844
75,0,4242.563999,4273.333229,4236.922973,4114.871694,4256.410152,4215.897333,4199.999897,4194.358872,4210.256307,4196.410154,4199.487077,4202.051179,4221.025538,4257.948614
76,0,4245.128101,4276.410152,4223.58964,4167.692206,4241.538358,4221.025538,4215.897333,4214.871692,4226.153743,4198.974256,4214.358871,4213.846051,4230.769127,4259.999896
77,0,4250.256306,4284.61528,4220.512717,4207.179384,4247.179383,4213.846051,4214.871692,4229.743486,4235.384512,4211.794769,4223.07682,4231.794768,4239.999896,4265.640921
78,0,4249.743486,4282.563998,4223.58964,4185.128103,4262.051178,4208.205025,4207.692205,4221.025538,4222.051179,4209.230666,4215.897333,4230.256307,4232.820409,4264.61528
79,0,4245.640922,4276.410152,4220.512717,4171.79477,4273.846049,4214.358871,4215.384512,4209.743487,4212.82041,4198.974256,4203.07682,4216.922974,4223.07682,4254.871691
80,0,4243.58964,4271.281947,4216.922974,4179.999898,4271.281947,4217.948615,4215.897333,4206.666564,4215.897333,4203.07682,4192.30759,4204.615282,4212.82041,4237.948614
81,0,4243.58964,4269.230665,4213.846051,4191.281949,4248.717845,4218.974256,4214.871692,4213.33323,4217.435794,4212.307589,4195.384513,4203.589641,4211.281948,4233.84605
82,0,4245.640922,4272.820408,4210.769128,4214.358871,4254.871691,4224.102461,4229.230666,4231.794768,4224.102461,4215.897333,4223.58964,4221.538358,4233.84605,4255.384511
83,0,4250.256306,4285.640921,4209.230666,4239.487076,4283.076818,4227.179384,4233.84605,4246.153742,4236.410153,4227.692204,4239.487076,4238.974255,4254.871691,4274.35887
84,0,4249.230665,4281.025536,4216.410153,4231.794768,4276.922972,4228.717845,4236.922973,4247.692204,4237.948614,4234.358871,4224.615281,4239.487076,4244.615281,4265.128101
85,0,4242.563999,4263.076819,4216.922974,4222.051179,4258.461434,4234.358871,4248.205024,4247.179383,4232.820409,4228.717845,4220.512717,4232.820409,4225.640922,4251.794768
86,0,4246.153742,4278.974254,4202.051179,4250.769127,4276.922972,4237.948614,4242.563999,4245.128101,4232.820409,4230.256307,4233.84605,4232.307589,4234.871691,4263.076819
87,0,4262.051178,4312.820407,4198.461436,4275.897331,4299.999895,4233.33323,4229.230666,4242.051178,4233.33323,4238.974255,4240.512717,4235.897332,4255.384511,4283.589639
88,0,4266.666562,4316.922971,4209.230666,4267.692203,4289.230664,4229.743486,4234.358871,4239.999896,4230.769127,4238.974255,4233.33323,4237.948614,4245.640922,4281.538357
89,0,4258.974255,4307.179382,4209.230666,4255.384511,4273.333229,4231.281948,4236.922973,4237.435794,4229.743486,4230.256307,4222.051179,4233.33323,4218.461435,4264.61528
90,0,4259.487075,4310.256305,4202.051179,4266.153742,4276.922972,4234.871691,4229.743486,4240.512717,4235.384512,4231.794768,4220.512717,4231.794768,4214.358871,4263.589639
91,0,4262.051178,4310.769125,4207.692205,4271.281947,4284.61528,4238.974255,4237.948614,4249.743486,4240.512717,4236.922973,4231.281948,4238.974255,4224.615281,4271.281947
92,0,4242.051178,4288.717844,4217.948615,4219.487076,4277.948613,4231.281948,4238.461435,4238.461435,4230.256307,4216.922974,4210.769128,4224.102461,4205.640923,4243.076819
93,0,4211.794769,4255.897332,4225.640922,4135.897335,4260.512716,4214.358871,4207.692205,4207.179384,4210.256307,4179.487077,4163.076821,4185.128103,4167.179385,4195.384513
94,0,4196.922974,4231.794768,4236.410153,4082.051182,4239.487076,4198.461436,4180.512718,4190.256308,4199.999897,4152.820411,4143.589642,4163.589642,4148.205027,4172.30759
95,0,4198.461436,4224.615281,4235.384512,4082.051182,4224.615281,4195.384513,4185.128103,4191.794769,4200.512718,4148.717847,4150.256309,4165.128103,4152.820411,4168.205026
96,0,4200.512718,4225.128102,4222.051179,4117.435797,4233.84605,4205.128102,4199.999897,4195.897333,4208.205025,4167.179385,4158.974257,4172.820411,4164.102462,4171.281949
97,0,4200.512718,4228.205025,4212.82041,4156.922975,4245.128101,4216.922974,4199.999897,4199.999897,4216.410153,4186.153744,4162.564001,4178.461436,4168.205026,4178.461436
98,0,4205.640923,4231.794768,4206.666564,4179.487077,4251.794768,4223.07682,4207.179384,4212.307589,4219.487076,4193.333231,4172.30759,4187.692205,4174.871693,4185.128103
99,0,4218.461435,4235.384512,4199.999897,4201.538359,4264.10246,4227.692204,4228.717845,4233.33323,4225.128102,4208.717846,4194.358872,4204.615282,4192.30759,4197.435795
100,0,4226.666563,4235.384512,4199.487077,4227.179384,4267.179383,4226.666563,4237.435794,4247.692204,4233.33323,4218.461435,4206.666564,4218.974256,4198.461436,4208.205025
101,0,4220.512717,4227.179384,4208.717846,4221.025538,4262.563998,4220.512717,4234.871691,4245.128101,4232.820409,4206.153743,4203.589641,4219.487076,4195.384513,4207.692205
102,0,4213.846051,4218.974256,4218.461435,4185.640923,4259.999896,4224.102461,4230.769127,4235.897332,4227.179384,4200.512718,4198.974256,4215.384512,4195.384513,4202.051179
103,0,4218.461435,4217.948615,4220.512717,4170.256308,4244.615281,4229.230666,4219.999897,4235.384512,4227.179384,4202.564,4193.333231,4216.410153,4192.30759,4202.051179
104,0,4219.999897,4216.410153,4212.82041,4195.384513,4231.794768,4226.666563,4221.538358,4242.051178,4229.230666,4206.666564,4186.153744,4215.897333,4191.794769,4203.07682
105,0,4218.974256,4213.846051,4210.256307,4222.051179,4253.333229,4229.230666,4237.435794,4245.640922,4230.769127,4215.897333,4196.922974,4219.487076,4199.487077,4208.205025
106,0,4212.307589,4205.640923,4224.102461,4183.589641,4274.35887,4223.58964,4222.563999,4229.743486,4224.615281,4203.589641,4198.461436,4212.307589,4188.717846,4196.922974
107,0,4188.717846,4178.974257,4234.871691,4103.589643,4248.205024,4197.948615,4183.076821,4195.897333,4206.666564,4173.333231,4165.640924,4181.025539,4161.025539,4158.461437
108,0,4176.922975,4161.53836,4227.179384,4091.281951,4215.384512,4188.717846,4176.410154,4188.717846,4203.07682,4173.333231,4148.717847,4166.153744,4156.410155,4142.564001
109,0,4190.256308,4173.333231,4215.384512,4140.512719,4224.615281,4210.769128,4197.948615,4206.666564,4214.871692,4193.846051,4165.128103,4181.025539,4168.205026,4163.076821
110,0,4192.82041,4175.897334,4211.794769,4156.922975,4233.84605,4220.512717,4211.794769,4205.640923,4218.461435,4182.05118,4170.256308,4185.128103,4167.692206,4167.692206
111,0,4187.179385,4161.025539,4211.794769,4149.743488,4232.820409,4214.871692,4208.717846,4203.07682,4219.999897,4170.256308,4169.743488,4178.461436,4167.692206,4157.948616
112,0,4211.281948,4181.025539,4213.846051,4190.769128,4267.179383,4223.58964,4217.948615,4231.794768,4232.820409,4212.307589,4201.025538,4201.538359,4195.384513,4187.179385
113,0,4248.205024,4234.871691,4214.871692,4262.563998,4311.281946,4247.692204,4258.461434,4272.307588,4248.717845,4267.692203,4244.10246,4243.076819,4239.487076,4245.128101
114,0,4254.871691,4255.897332,4215.897333,4285.1281,4305.64092,4264.61528,4282.051177,4283.589639,4250.256306,4271.794767,4252.307588,4255.384511,4253.84605,4263.076819
115,0,4239.999896,4236.410153,4225.640922,4244.10246,4281.538357,4255.897332,4259.487075,4267.692203,4242.051178,4252.307588,4241.538358,4243.076819,4243.076819,4244.615281
116,0,4223.58964,4209.743487,4238.461435,4173.333231,4278.461434,4228.205025,4227.179384,4239.999896,4227.179384,4239.487076,4226.666563,4223.07682,4226.153743,4224.615281
117,0,4199.999897,4175.384513,4237.435794,4108.717848,4247.692204,4199.487077,4199.487077,4201.025538,4211.794769,4198.461436,4189.743487,4188.717846,4194.358872,4191.794769
118,0,4194.871692,4161.025539,4223.07682,4119.999899,4227.179384,4203.589641,4193.333231,4194.358872,4214.358871,4178.461436,4172.820411,4177.948616,4179.999898,4173.333231
119,0,4228.717845,4193.846051,4214.358871,4206.153743,4273.333229,4234.358871,4232.820409,4232.820409,4231.281948,4225.128102,4214.358871,4217.435794,4216.922974,4212.307589
120,0,4247.179383,4218.461435,4217.435794,4244.10246,4301.538356,4242.051178,4256.922973,4253.333229,4236.922973,4254.871691,4243.076819,4242.563999,4243.076819,4245.640922
121,0,4221.538358,4192.82041,4217.948615,4198.461436,4267.179383,4229.230666,4232.307589,4228.717845,4228.717845,4232.307589,4215.384512,4216.922974,4221.025538,4220.512717
122,0,4212.307589,4174.358872,4216.922974,4181.538359,4257.948614,4235.897332,4226.153743,4222.051179,4229.230666,4225.640922,4208.205025,4206.666564,4215.897333,4207.179384
123,0,4235.384512,4198.461436,4217.948615,4214.358871,4291.281946,4247.179383,4242.563999,4250.256306,4237.435794,4238.461435,4237.948614,4231.281948,4239.999896,4236.922973
124,0,4236.922973,4207.179384,4217.948615,4211.281948,4278.461434,4235.384512,4235.384512,4249.230665,4233.33323,4227.692204,4233.84605,4228.717845,4232.820409,4238.461435
125,0,4211.794769,4171.281949,4222.563999,4160.512719,4229.743486,4218.461435,4215.384512,4213.33323,4218.974256,4206.666564,4201.538359,4198.461436,4206.666564,4202.564
126,0,4194.358872,4143.076822,4231.794768,4111.794771,4221.025538,4203.589641,4196.410154,4183.589641,4203.07682,4187.179385,4182.05118,4182.05118,4194.358872,4177.948616
127,0,4192.30759,4146.153745,4233.33323,4088.205028,4238.974255,4193.333231,4182.564,4179.999898,4197.435795,4166.666565,4171.79477,4177.435795,4186.153744,4168.717847
128,0,4198.461436,4146.666565,4233.84605,4094.871695,4235.897332,4196.410154,4182.564,4188.717846,4210.256307,4162.564001,4172.30759,4177.435795,4182.05118,4168.717847
0,0,4201.025538,4141.53836,4229.743486,4121.538361,4218.974256,4200.512718,4186.666564,4189.743487,4220.512717,4176.410154,4183.589641,4182.564,4192.82041,4176.410154
1,0,4200.512718,4147.179386,4217.948615,4141.53836,4223.58964,4207.692205,4191.281949,4190.256308,4215.897333,4194.358872,4185.128103,4185.128103,4199.487077,4182.05118
2,0,4204.615282,4152.820411,4215.384512,4153.846052,4241.025537,4214.358871,4201.025538,4196.410154,4210.769128,4196.410154,4186.153744,4191.281949,4196.922974,4187.179385
3,0,4215.897333,4154.358873,4219.487076,4170.769129,4257.435793,4212.82041,4206.666564,4205.640923,4217.435794,4193.846051,4208.205025,4207.179384,4209.743487,4201.025538
4,0,4222.051179,4158.461437,4217.435794,4180.512718,4252.820409,4210.769128,4202.051179,4209.230666,4222.051179,4202.564,4221.538358,4211.794769,4223.07682,4210.256307
5,0,4211.281948,4152.820411,4213.33323,4171.281949,4219.487076,4205.640923,4196.410154,4196.410154,4210.769128,4193.846051,4198.461436,4197.948615,4206.666564,4196.410154
6,0,4210.769128,4146.666565,4217.435794,4166.153744,4215.897333,4200.512718,4199.487077,4190.769128,4205.128102,4177.435795,4184.615282,4193.333231,4192.82041,4188.205026
7,0,4230.256307,4161.025539,4224.615281,4174.358872,4251.794768,4210.256307,4204.102461,4204.102461,4216.922974,4193.333231,4202.051179,4210.769128,4212.307589,4213.846051
8,0,4235.897332,4171.79477,4226.153743,4179.487077,4246.153742,4214.871692,4202.051179,4205.128102,4221.538358,4198.974256,4208.205025,4222.563999,4223.58964,4232.307589
9,0,4232.820409,4171.281949,4224.102461,4177.435795,4207.692205,4201.025538,4199.487077,4187.692205,4210.256307,4167.179385,4194.358872,4210.769128,4209.743487,4229.230666
10,0,4258.461434,4198.461436,4227.692204,4186.153744,4220.512717,4201.025538,4201.025538,4193.846051,4213.33323,4168.717847,4205.128102,4213.33323,4227.179384,4260.512716
11,0,4295.38451,4237.435794,4234.358871,4199.999897,4246.666563,4205.128102,4193.333231,4206.666564,4219.487076,4201.025538,4235.384512,4237.948614,4276.410152,4324.615279
12,0,4307.179382,4245.640922,4235.384512,4192.82041,4225.640922,4189.230667,4178.974257,4183.076821,4199.487077,4188.717846,4238.461435,4242.563999,4292.307587,4352.307586
13,0,4307.179382,4241.538358,4234.358871,4184.102462,4199.487077,4177.435795,4173.846052,4162.05118,4187.179385,4157.435796,4224.615281,4232.307589,4277.948613,4347.692201
14,0,4312.820407,4253.333229,4233.33323,4208.717846,4213.846051,4194.358872,4182.564,4179.487077,4202.051179,4172.820411,4239.487076,4244.615281,4290.256305,4356.92297
15,0,4315.89733,4256.410152,4234.358871,4231.794768,4245.640922,4211.281948,4197.435795,4200.512718,4210.769128,4207.692205,4260.512716,4262.051178,4313.333228,4368.205021
16,0,4305.64092,4239.999896,4229.743486,4227.179384,4252.307588,4209.230666,4202.051179,4197.948615,4204.102461,4211.281948,4256.410152,4253.333229,4309.743484,4356.92297
17,0,4281.538357,4214.871692,4218.974256,4208.717846,4229.230666,4198.974256,4188.205026,4186.153744,4199.999897,4189.230667,4246.666563,4232.820409,4292.307587,4330.256304
18,0,4266.153742,4194.871692,4218.461435,4193.333231,4222.563999,4198.461436,4183.076821,4188.205026,4209.230666,4174.358872,4242.563999,4228.205025,4287.179382,4310.769125
19,0,4265.128101,4186.666564,4224.615281,4191.281949,4238.461435,4201.538359,4197.435795,4201.538359,4217.948615,4189.743487,4243.076819,4234.871691,4292.307587,4301.538356
20,0,4254.871691,4170.769129,4217.948615,4191.281949,4228.205025,4199.999897,4200.512718,4197.435795,4211.794769,4204.102461,4235.897332,4228.717845,4285.640921,4284.102459
21,0,4244.10246,4156.922975,4202.051179,4212.82041,4222.051179,4208.717846,4198.461436,4188.717846,4207.179384,4202.564,4230.769127,4225.640922,4277.948613,4272.820408
22,0,4251.794768,4163.589642,4196.410154,4256.410152,4244.615281,4223.07682,4219.999897,4210.769128,4219.487076,4215.897333,4246.153742,4241.025537,4288.717844,4281.025536
23,0,4250.256306,4161.025539,4203.589641,4255.897332,4246.153742,4212.82041,4222.051179,4222.563999,4222.563999,4221.025538,4254.35887,4240.512717,4288.717844,4273.333229
24,0,4232.820409,4141.53836,4202.564,4228.717845,4232.307589,4202.051179,4199.487077,4202.564,4211.281948,4198.461436,4242.051178,4226.153743,4271.794767,4249.743486
25,0,4230.256307,4135.897335,4196.922974,4236.922973,4232.307589,4210.256307,4205.640923,4204.102461,4215.897333,4200.512718,4245.128101,4231.794768,4272.820408,4246.666563
26,0,4230.256307,4133.333232,4205.640923,4232.307589,4234.358871,4209.743487,4216.922974,4218.461435,4223.58964,4224.615281,4252.307588,4233.33323,4280.512716,4247.179383
27,0,4219.999897,4122.051181,4211.281948,4196.922974,4232.820409,4205.640923,4202.564,4213.33323,4216.922974,4216.410153,4235.897332,4217.948615,4265.128101,4230.769127
28,0,4221.025538,4123.589643,4203.07682,4197.948615,4222.051179,4210.256307,4196.410154,4211.794769,4215.384512,4203.589641,4227.692204,4216.922974,4253.333229,4216.410153
29,0,4219.487076,4119.487079,4204.615282,4195.897333,4193.846051,4200.512718,4193.333231,4203.589641,4214.358871,4197.435795,4221.025538,4213.846051,4242.563999,4199.999897
30,0,4204.102461,4104.102464,4209.230666,4165.128103,4197.948615,4193.333231,4188.205026,4185.128103,4210.769128,4186.153744,4207.179384,4197.435795,4231.281948,4182.05118
31,0,4196.922974,4101.025541,4202.051179,4163.076821,4227.179384,4202.051179,4197.948615,4192.82041,4213.33323,4192.30759,4209.743487,4194.871692,4237.435794,4178.461436
32,0,4197.948615,4104.102464,4199.487077,4181.025539,4229.230666,4201.538359,4203.589641,4207.692205,4215.384512,4205.128102,4216.410153,4200.512718,4245.128101,4182.05118
33,0,4202.051179,4110.76913,4203.07682,4203.07682,4226.666563,4204.102461,4204.102461,4210.769128,4216.922974,4208.205025,4221.538358,4206.666564,4247.179383,4189.230667
34,0,4217.948615,4125.640925,4199.999897,4232.820409,4236.922973,4223.07682,4220.512717,4226.153743,4227.179384,4218.461435,4235.384512,4218.974256,4258.974255,4205.128102
35,0,4222.563999,4130.76913,4194.871692,4236.410153,4233.84605,4226.153743,4229.743486,4238.974255,4230.256307,4218.461435,4239.999896,4224.615281,4266.153742,4210.256307
36,0,4204.615282,4122.051181,4188.205026,4218.461435,4217.948615,4213.33323,4216.410153,4222.563999,4220.512717,4200.512718,4230.769127,4217.435794,4252.307588,4195.384513
37,0,4202.564,4121.538361,4188.717846,4221.538358,4210.769128,4209.230666,4203.07682,4203.07682,4216.410153,4206.666564,4229.743486,4216.922974,4246.153742,4191.794769
38,0,4216.922974,4125.640925,4201.025538,4218.461435,4218.461435,4212.307589,4206.153743,4202.564,4218.974256,4225.640922,4236.410153,4220.512717,4256.410152,4198.461436
39,0,4212.82041,4123.076822,4205.640923,4201.538359,4232.820409,4209.230666,4216.922974,4212.307589,4217.948615,4222.051179,4234.871691,4220.512717,4257.435793,4194.871692
40,0,4197.435795,4113.846053,4199.999897,4185.640923,4230.769127,4195.897333,4209.743487,4203.589641,4212.307589,4206.153743,4218.461435,4210.256307,4242.051178,4178.461436
41,0,4196.922974,4105.128105,4200.512718,4170.769129,4212.307589,4192.82041,4195.897333,4183.589641,4212.82041,4199.487077,4210.769128,4198.974256,4232.307589,4169.230667
42,0,4197.948615,4105.128105,4203.07682,4172.820411,4200.512718,4206.666564,4201.025538,4187.692205,4216.922974,4203.589641,4218.974256,4201.025538,4238.974255,4171.79477
43,0,4186.666564,4104.615284,4198.461436,4183.076821,4194.358872,4205.640923,4204.102461,4199.487077,4212.307589,4200.512718,4213.846051,4201.025538,4236.410153,4165.640924
44,0,4187.692205,4107.179387,4196.922974,4184.615282,4206.153743,4197.948615,4199.999897,4201.538359,4213.33323,4194.871692,4207.692205,4196.410154,4230.256307,4159.487078
45,0,4199.999897,4117.948617,4196.410154,4201.538359,4229.230666,4205.640923,4207.692205,4205.128102,4224.615281,4209.743487,4222.563999,4203.07682,4239.999896,4172.820411
46,0,4206.153743,4128.717848,4198.974256,4230.256307,4227.179384,4208.717846,4216.410153,4209.743487,4225.128102,4227.692204,4237.435794,4216.922974,4254.871691,4190.769128
47,0,4204.615282,4134.871694,4201.025538,4235.384512,4210.256307,4205.640923,4218.461435,4210.769128,4221.025538,4221.538358,4228.205025,4215.897333,4249.743486,4186.666564
48,0,4195.897333,4131.28195,4190.769128,4230.256307,4211.794769,4214.358871,4221.025538,4218.461435,4229.230666,4208.717846,4212.82041,4207.179384,4234.358871,4169.230667
49,0,4190.256308,4120.51272,4184.615282,4233.33323,4219.999897,4215.897333,4219.487076,4215.897333,4228.717845,4209.230666,4220.512717,4208.717846,4234.871691,4167.179385
50,0,4200.512718,4127.692207,4198.974256,4228.205025,4218.974256,4206.153743,4212.82041,4201.025538,4215.897333,4216.410153,4234.358871,4214.871692,4249.743486,4179.999898
51,0,4208.717846,4140.512719,4203.07682,4225.128102,4219.999897,4212.82041,4218.461435,4209.743487,4221.025538,4224.102461,4226.153743,4215.897333,4248.717845,4183.076821
52,0,4203.07682,4135.897335,4187.692205,4240.512717,4231.794768,4222.563999,4233.84605,4227.179384,4233.33323,4229.743486,4212.82041,4214.358871,4230.769127,4175.384513
53,0,4206.153743,4141.02554,4183.076821,4254.871691,4246.666563,4217.948615,4233.84605,4223.07682,4229.743486,4231.281948,4226.153743,4216.922974,4238.974255,4184.102462
54,0,4213.33323,4158.974257,4186.153744,4263.589639,4236.410153,4217.948615,4230.769127,4219.487076,4227.692204,4230.769127,4251.281947,4226.153743,4270.256306,4201.025538
55,0,4202.051179,4148.717847,4186.153744,4259.487075,4212.82041,4223.58964,4236.410153,4227.692204,4233.33323,4230.769127,4251.794768,4230.769127,4272.820408,4194.871692
56,0,4178.461436,4116.410156,4194.358872,4212.82041,4212.307589,4212.82041,4225.128102,4213.846051,4225.640922,4221.538358,4227.179384,4213.33323,4239.487076,4164.102462
57,0,4174.358872,4112.820412,4203.589641,4181.025539,4225.640922,4199.487077,4203.07682,4193.333231,4216.922974,4211.794769,4210.256307,4194.871692,4222.051179,4149.743488
58,0,4191.281949,4136.922976,4202.564,4221.025538,4235.897332,4215.384512,4210.256307,4206.153743,4226.153743,4224.615281,4224.102461,4207.179384,4242.563999,4165.128103
59,0,4196.922974,4145.640924,4198.461436,4263.076819,4236.410153,4234.358871,4227.692204,4222.051179,4234.871691,4236.410153,4233.84605,4222.051179,4254.871691,4176.922975
60,0,4187.692205,4135.897335,4200.512718,4245.128101,4225.128102,4218.974256,4221.025538,4215.384512,4229.743486,4224.615281,4221.538358,4216.922974,4239.999896,4168.717847
61,0,4185.640923,4132.820412,4203.589641,4225.640922,4219.999897,4205.128102,4215.384512,4215.384512,4223.07682,4217.435794,4217.435794,4213.846051,4232.820409,4165.128103
62,0,4187.179385,4130.256309,4204.615282,4214.358871,4223.07682,4216.410153,4221.025538,4213.846051,4218.461435,4217.948615,4217.948615,4211.281948,4234.358871,4158.461437
63,0,4181.538359,4119.487079,4203.589641,4182.05118,4217.948615,4212.82041,4217.435794,4201.538359,4214.358871,4213.33323,4205.640923,4198.974256,4223.07682,4141.53836
64,0,4183.076821,4126.666566,4201.025538,4186.153744,4215.897333,4199.999897,4213.33323,4204.102461,4213.33323,4213.33323,4198.461436,4196.922974,4213.846051,4143.076822
65,0,4187.179385,4134.871694,4198.974256,4216.922974,4215.897333,4204.615282,4210.256307,4209.743487,4213.846051,4214.358871,4210.256307,4205.640923,4217.948615,4154.871693
66,0,4183.589641,4124.615284,4198.974256,4210.769128,4204.615282,4208.717846,4206.153743,4203.07682,4215.384512,4211.281948,4215.384512,4204.615282,4226.153743,4155.897334
67,0,4182.05118,4119.487079,4202.051179,4172.30759,4199.999897,4199.999897,4201.538359,4201.025538,4216.410153,4215.897333,4203.589641,4197.435795,4225.640922,4147.692206
68,0,4185.640923,4130.256309,4204.102461,4163.589642,4206.666564,4198.974256,4198.974256,4202.564,4216.922974,4217.948615,4204.102461,4197.435795,4223.07682,4138.974258
69,0,4188.205026,4139.999899,4196.922974,4207.179384,4203.07682,4203.589641,4205.128102,4202.564,4218.461435,4219.999897,4217.435794,4202.564,4228.717845,4145.640924
70,0,4186.666564,4138.974258,4185.128103,4235.897332,4201.538359,4203.589641,4215.384512,4210.256307,4217.948615,4224.615281,4218.974256,4205.128102,4233.33323,4155.897334
71,0,4186.666564,4143.589642,4187.692205,4216.410153,4213.846051,4208.717846,4219.999897,4218.974256,4217.948615,4217.948615,4218.974256,4201.538359,4233.33323,4156.922975
72,0,4191.281949,4153.333232,4190.769128,4215.384512,4231.794768,4218.461435,4219.999897,4214.358871,4217.435794,4221.025538,4225.640922,4201.025538,4237.435794,4158.461437
73,0,4190.256308,4153.846052,4184.102462,4238.974255,4228.205025,4213.33323,4217.435794,4209.230666,4216.922974,4233.33323,4212.82041,4203.07682,4234.871691,4159.487078
74,0,4176.410154,4135.897335,4191.794769,4202.051179,4189.743487,4201.538359,4206.153743,4195.897333,4215.384512,4223.07682,4186.666564,4192.30759,4216.410153,4142.051181
75,0,4166.666565,4124.615284,4199.999897,4158.461437,4172.30759,4202.051179,4198.461436,4182.05118,4214.871692,4209.230666,4185.640923,4177.948616,4209.230666,4129.743489
76,0,4175.384513,4139.487078,4189.230667,4192.82041,4204.615282,4199.999897,4198.461436,4190.769128,4216.410153,4213.846051,4206.666564,4186.666564,4223.07682,4144.615283
77,0,4186.666564,4153.846052,4189.230667,4215.897333,4227.179384,4200.512718,4198.974256,4206.153743,4217.948615,4215.384512,4214.358871,4203.07682,4228.205025,4159.487078
78,0,4180.512718,4147.692206,4204.102461,4179.487077,4210.769128,4208.717846,4201.538359,4201.538359,4214.871692,4213.33323,4199.487077,4197.948615,4215.897333,4152.820411
79,0,4171.79477,4135.897335,4205.640923,4157.948616,4189.743487,4197.435795,4199.487077,4189.743487,4213.33323,4213.33323,4190.769128,4184.102462,4209.743487,4138.461437
80,0,4172.820411,4137.948617,4195.384513,4169.743488,4188.205026,4181.538359,4194.871692,4190.769128,4212.82041,4207.692205,4196.922974,4181.538359,4213.846051,4135.384514
81,0,4176.922975,4149.230668,4187.692205,4189.230667,4195.384513,4195.897333,4204.102461,4200.512718,4214.358871,4211.281948,4198.974256,4188.717846,4215.384512,4143.076822
82,0,4181.025539,4155.897334,4185.640923,4205.128102,4199.999897,4215.897333,4218.974256,4211.281948,4223.07682,4226.153743,4204.102461,4196.922974,4219.487076,4150.769129
83,0,4193.333231,4165.640924,4188.205026,4224.102461,4197.435795,4215.897333,4224.102461,4218.974256,4231.281948,4241.538358,4217.948615,4202.051179,4229.230666,4161.025539
84,0,4201.025538,4181.025539,4186.666564,4246.153742,4204.102461,4216.410153,4220.512717,4220.512717,4228.717845,4249.230665,4222.051179,4202.564,4235.384512,4172.820411
85,0,4191.794769,4185.128103,4184.102462,4241.538358,4217.948615,4218.461435,4218.461435,4215.384512,4222.051179,4242.051178,4212.82041,4200.512718,4229.743486,4171.281949
86,0,4183.076821,4171.79477,4186.666564,4219.487076,4221.538358,4212.82041,4226.153743,4206.153743,4219.487076,4231.794768,4206.666564,4198.461436,4219.487076,4159.487078
87,0,4185.128103,4167.692206,4186.153744,4224.102461,4221.538358,4216.922974,4231.794768,4206.666564,4217.948615,4228.205025,4205.640923,4196.922974,4216.922974,4157.435796
88,0,4182.05118,4170.769129,4184.102462,4226.153743,4211.281948,4215.897333,4216.922974,4208.717846,4214.871692,4217.948615,4201.025538,4188.717846,4218.461435,4157.948616
89,0,4175.384513,4165.640924,4184.615282,4208.205025,4192.30759,4203.07682,4202.564,4200.512718,4215.384512,4208.205025,4194.871692,4182.05118,4213.846051,4149.743488
90,0,4176.922975,4169.230667,4196.410154,4207.692205,4202.051179,4200.512718,4211.281948,4198.974256,4223.58964,4220.512717,4200.512718,4190.256308,4213.33323,4151.79477
91,0,4185.640923,4183.589641,4202.051179,4226.153743,4222.051179,4212.82041,4219.487076,4210.256307,4230.769127,4239.999896,4217.948615,4202.051179,4220.512717,4169.230667
92,0,4192.30759,4187.692205,4188.205026,4235.384512,4212.307589,4217.435794,4214.871692,4214.871692,4225.128102,4237.435794,4217.435794,4200.512718,4221.025538,4175.384513
93,0,4192.82041,4184.615282,4187.692205,4232.307589,4206.153743,4215.384512,4215.897333,4209.743487,4214.871692,4218.461435,4201.025538,4195.384513,4214.871692,4168.205026
94,0,4191.281949,4186.153744,4200.512718,4220.512717,4218.461435,4213.33323,4216.922974,4205.640923,4213.846051,4214.871692,4203.589641,4192.30759,4217.435794,4168.205026
95,0,4186.666564,4178.461436,4192.30759,4214.358871,4196.922974,4200.512718,4203.589641,4194.871692,4216.922974,4216.410153,4202.564,4184.615282,4213.33323,4163.076821
96,0,4183.589641,4172.30759,4176.922975,4230.256307,4171.79477,4196.922974,4196.922974,4181.538359,4211.281948,4200.512718,4184.102462,4178.974257,4198.461436,4150.769129
97,0,4191.281949,4192.30759,4182.05118,4249.230665,4202.051179,4215.384512,4211.794769,4189.743487,4211.281948,4201.538359,4189.743487,4189.743487,4204.102461,4162.564001
98,0,4201.025538,4207.692205,4196.410154,4247.692204,4238.461435,4225.640922,4222.051179,4211.794769,4223.07682,4226.666563,4215.384512,4199.487077,4225.640922,4183.076821
99,0,4205.128102,4198.974256,4198.461436,4246.666563,4235.384512,4214.358871,4215.384512,4217.948615,4231.794768,4235.384512,4228.717845,4203.07682,4232.820409,4184.102462
100,0,4213.33323,4203.589641,4187.692205,4269.230665,4228.205025,4214.871692,4216.922974,4216.922974,4232.307589,4232.820409,4233.84605,4212.82041,4235.384512,4190.256308
101,0,4210.256307,4213.846051,4184.615282,4264.10246,4214.871692,4218.974256,4216.922974,4210.256307,4222.051179,4227.179384,4222.051179,4208.717846,4231.794768,4189.743487
102,0,4188.205026,4194.358872,4198.974256,4213.846051,4190.769128,4202.564,4199.999897,4192.30759,4206.666564,4207.692205,4195.384513,4183.589641,4210.256307,4163.589642
103,0,4181.025539,4175.384513,4203.589641,4195.897333,4190.256308,4197.948615,4193.333231,4182.05118,4206.153743,4199.487077,4190.769128,4176.922975,4201.538359,4155.384514
104,0,4192.30759,4192.30759,4197.948615,4223.07682,4201.538359,4204.102461,4197.948615,4186.666564,4213.846051,4199.999897,4198.461436,4189.230667,4214.358871,4168.205026
105,0,4196.922974,4206.666564,4196.922974,4238.461435,4207.179384,4202.564,4198.974256,4196.410154,4215.897333,4198.461436,4201.538359,4195.897333,4217.435794,4174.358872
106,0,4196.922974,4193.333231,4195.897333,4246.153742,4219.999897,4209.230666,4215.384512,4214.358871,4222.563999,4220.512717,4213.33323,4207.179384,4214.871692,4176.410154
107,0,4207.179384,4204.102461,4198.461436,4263.589639,4217.948615,4219.999897,4232.307589,4226.153743,4229.230666,4244.615281,4222.563999,4214.871692,4226.153743,4186.666564
108,0,4219.487076,4233.84605,4202.564,4264.61528,4203.589641,4215.897333,4222.563999,4216.922974,4224.615281,4225.640922,4220.512717,4207.179384,4237.435794,4199.999897
109,0,4207.692205,4218.974256,4202.051179,4221.025538,4203.07682,4208.717846,4204.102461,4198.974256,4217.948615,4199.999897,4209.230666,4193.846051,4223.07682,4190.256308
110,0,4182.564,4186.666564,4199.487077,4177.435795,4188.205026,4205.128102,4192.30759,4186.153744,4213.846051,4193.333231,4184.615282,4176.410154,4193.333231,4157.435796
111,0,4180.512718,4194.871692,4195.384513,4186.666564,4170.769129,4194.358872,4189.230667,4181.538359,4212.82041,4193.333231,4172.820411,4166.153744,4188.717846,4149.230668
112,0,4189.230667,4208.205025,4199.487077,4197.435795,4193.846051,4191.794769,4199.487077,4183.589641,4217.435794,4201.538359,4183.076821,4171.79477,4203.07682,4167.179385
113,0,4190.769128,4204.615282,4210.256307,4190.256308,4222.563999,4202.564,4208.717846,4194.358872,4217.948615,4205.128102,4195.897333,4183.076821,4206.153743,4172.820411
114,0,4199.487077,4215.384512,4208.717846,4209.230666,4207.179384,4205.640923,4202.564,4202.564,4214.871692,4199.999897,4205.128102,4191.794769,4206.153743,4173.333231
115,0,4202.564,4219.487076,4199.487077,4221.538358,4185.640923,4197.948615,4198.974256,4192.82041,4211.281948,4196.922974,4197.948615,4188.717846,4206.153743,4173.333231
116,0,4191.794769,4202.564,4199.999897,4208.205025,4194.358872,4197.435795,4197.948615,4181.538359,4209.743487,4201.025538,4185.640923,4181.538359,4203.07682,4168.717847
117,0,4186.666564,4198.461436,4202.564,4202.564,4192.82041,4195.384513,4187.692205,4179.487077,4213.33323,4199.487077,4185.640923,4182.564,4200.512718,4167.179385
118,0,4193.846051,4210.256307,4210.256307,4189.230667,4186.666564,4184.102462,4183.589641,4181.025539,4217.435794,4195.897333,4192.30759,4184.102462,4204.102461,4168.717847
119,0,4202.564,4218.974256,4215.384512,4185.640923,4203.589641,4195.384513,4196.922974,4192.82041,4216.922974,4205.128102,4199.999897,4188.205026,4213.33323,4177.435795
120,0,4204.615282,4219.999897,4203.589641,4222.563999,4216.410153,4213.33323,4212.307589,4204.615282,4214.358871,4213.846051,4210.769128,4197.948615,4219.999897,4188.205026
121,0,4201.538359,4218.461435,4195.897333,4246.153742,4200.512718,4200.512718,4213.33323,4198.461436,4213.846051,4204.615282,4214.871692,4202.051179,4216.922974,4188.205026
122,0,4206.153743,4222.051179,4199.487077,4243.076819,4195.897333,4195.897333,4210.769128,4201.025538,4215.384512,4191.794769,4213.846051,4199.999897,4218.461435,4192.82041
123,0,4212.82041,4230.256307,4199.487077,4249.743486,4212.307589,4214.358871,4217.435794,4216.922974,4218.461435,4203.07682,4216.922974,4203.07682,4227.692204,4203.589641
124,0,4208.717846,4232.307589,4195.897333,4262.051178,4206.153743,4209.230666,4223.07682,4217.948615,4217.948615,4217.435794,4215.384512,4204.615282,4226.153743,4203.589641
125,0,4201.025538,4227.179384,4197.435795,4270.769126,4190.769128,4195.897333,4219.487076,4209.743487,4217.435794,4214.871692,4212.82041,4201.538359,4222.051179,4196.410154
126,0,4201.538359,4227.179384,4199.999897,4244.10246,4203.589641,4212.82041,4215.897333,4213.33323,4217.948615,4213.33323,4214.358871,4201.538359,4227.692204,4192.82041
127,0,4199.999897,4228.205025,4203.07682,4182.05118,4225.640922,4216.410153,4217.948615,4218.974256,4217.948615,4213.33323,4211.281948,4201.025538,4230.256307,4187.179385
128,0,4188.717846,4221.538358,4204.102461,4154.358873,4210.769128,4200.512718,4216.922974,4211.281948,4217.435794,4203.07682,4202.051179,4192.82041,4221.025538,4180.512718
0,0,4185.128103,4214.358871,4203.07682,4172.30759,4190.256308,4205.640923,4214.871692,4201.025538,4216.922974,4197.435795,4196.410154,4185.128103,4213.846051,4176.410154
1,0,4195.384513,4215.897333,4209.230666,4171.281949,4203.07682,4211.794769,4213.846051,4201.025538,4218.974256,4204.102461,4205.640923,4187.179385,4217.435794,4174.358872
2,0,4195.897333,4217.435794,4211.794769,4151.28195,4198.974256,4201.025538,4210.256307,4202.051179,4215.897333,4200.512718,4209.743487,4186.666564,4217.435794,4172.820411
3,0,4191.794769,4217.435794,4202.051179,4176.410154,4180.512718,4202.051179,4211.794769,4204.615282,4216.922974,4196.410154,4203.589641,4189.230667,4219.999897,4181.025539
4,0,4201.538359,4225.128102,4196.410154,4218.974256,4199.487077,4219.999897,4219.999897,4215.897333,4228.205025,4211.794769,4212.307589,4201.538359,4231.281948,4198.461436
5,0,4206.153743,4231.281948,4201.025538,4215.384512,4224.102461,4223.07682,4218.974256,4218.461435,4228.717845,4223.07682,4221.538358,4203.589641,4235.384512,4201.538359
6,0,4202.051179,4231.281948,4198.461436,4214.871692,4222.563999,4208.205025,4212.82041,4213.33323,4222.563999,4219.999897,4216.410153,4196.922974,4230.256307,4194.358872
7,0,4210.256307,4239.487076,4198.974256,4241.538358,4218.461435,4201.538359,4220.512717,4222.563999,4227.179384,4213.846051,4216.410153,4205.128102,4234.358871,4202.564
8,0,4208.717846,4234.358871,4215.384512,4208.717846,4205.128102,4201.538359,4219.999897,4221.025538,4223.07682,4208.717846,4219.487076,4204.615282,4234.358871,4203.589641
9,0,4193.333231,4215.384512,4219.487076,4158.974257,4188.205026,4201.538359,4204.102461,4206.153743,4211.281948,4209.743487,4212.82041,4187.692205,4225.640922,4187.179385
10,0,4200.512718,4225.128102,4204.615282,4196.410154,4194.871692,4208.717846,4207.692205,4215.384512,4223.58964,4218.461435,4214.358871,4190.769128,4234.358871,4189.230667
11,0,4215.384512,4244.615281,4201.025538,4226.666563,4208.717846,4219.487076,4222.051179,4219.487076,4233.33323,4213.33323,4219.999897,4202.051179,4244.10246,4207.179384
12,0,4206.666564,4237.948614,4210.769128,4186.666564,4207.179384,4216.922974,4214.358871,4198.461436,4218.461435,4205.128102,4215.897333,4199.487077,4234.871691,4201.025538
13,0,4197.435795,4229.743486,4216.410153,4172.30759,4206.153743,4205.640923,4202.051179,4193.333231,4211.794769,4210.769128,4210.769128,4195.384513,4229.743486,4183.589641
14,0,4200.512718,4230.256307,4212.307589,4191.281949,4214.871692,4197.948615,4203.589641,4198.461436,4214.871692,4209.230666,4203.589641,4190.769128,4233.33323,4183.076821
15,0,4200.512718,4223.58964,4205.128102,4187.179385,4211.281948,4201.538359,4201.538359,4191.281949,4212.307589,4197.435795,4195.384513,4182.564,4228.717845,4186.153744
16,0,4195.897333,4223.58964,4199.999897,4187.692205,4198.974256,4209.743487,4202.051179,4194.871692,4215.897333,4191.794769,4199.487077,4185.128103,4228.205025,4185.640923
17,0,4205.128102,4239.999896,4197.435795,4223.07682,4207.692205,4212.307589,4217.435794,4215.897333,4227.179384,4203.589641,4215.384512,4201.025538,4243.076819,4202.051179
18,0,4219.487076,4252.820409,4198.974256,4249.743486,4222.051179,4210.256307,4223.07682,4227.179384,4229.743486,4220.512717,4229.743486,4210.769128,4253.84605,4221.025538
19,0,4216.922974,4251.794768,4200.512718,4244.615281,4214.871692,4214.871692,4217.435794,4226.153743,4225.128102,4218.974256,4225.640922,4209.230666,4247.179383,4215.384512
20,0,4204.102461,4243.076819,4197.435795,4232.820409,4210.256307,4215.897333,4216.922974,4218.974256,4219.999897,4200.512718,4206.153743,4199.487077,4233.33323,4193.846051
21,0,4200.512718,4230.769127,4207.179384,4197.948615,4217.435794,4207.179384,4213.846051,4207.179384,4214.358871,4194.871692,4195.897333,4189.743487,4228.717845,4185.640923
22,0,4201.538359,4219.487076,4224.102461,4153.846052,4208.717846,4201.538359,4201.025538,4198.461436,4211.794769,4197.435795,4197.435795,4186.153744,4230.769127,4186.666564
23,0,4195.897333,4218.974256,4213.846051,4164.102462,4192.82041,4202.564,4194.871692,4197.948615,4214.871692,4193.333231,4197.435795,4186.153744,4230.769127,4185.128103
24,0,4195.897333,4229.230666,4195.384513,4212.307589,4193.333231,4206.153743,4209.230666,4203.589641,4219.487076,4202.051179,4205.128102,4193.846051,4236.922973,4190.769128
25,0,4210.769128,4233.84605,4201.538359,4232.307589,4209.743487,4204.615282,4221.025538,4206.666564,4216.922974,4215.384512,4219.999897,4206.153743,4249.743486,4204.615282
26,0,4217.435794,4231.794768,4207.179384,4221.025538,4218.461435,4201.538359,4210.256307,4201.025538,4212.82041,4209.743487,4215.384512,4204.615282,4249.230665,4202.051179
27,0,4204.615282,4231.794768,4195.384513,4216.410153,4209.230666,4202.564,4203.07682,4197.435795,4214.358871,4195.897333,4196.922974,4188.717846,4234.871691,4190.769128
28,0,4194.358872,4228.205025,4194.871692,4221.025538,4198.974256,4203.589641,4212.82041,4200.512718,4216.410153,4189.743487,4197.948615,4184.102462,4230.256307,4190.769128
29,0,4200.512718,4222.051179,4211.281948,4207.179384,4203.07682,4204.102461,4211.281948,4204.102461,4213.33323,4187.179385,4207.179384,4195.897333,4235.384512,4194.358872
30,0,4200.512718,4216.410153,4219.999897,4167.179385,4203.589641,4203.07682,4194.358872,4197.435795,4212.82041,4185.128103,4193.846051,4191.281949,4231.281948,4185.640923
31,0,4198.461436,4215.897333,4220.512717,4157.435796,4192.82041,4199.487077,4194.358872,4196.410154,4214.871692,4193.846051,4184.615282,4179.999898,4226.666563,4181.538359
32,0,4209.230666,4226.666563,4216.410153,4198.461436,4187.179385,4198.974256,4203.07682,4203.07682,4211.281948,4201.538359,4200.512718,4192.82041,4233.33323,4197.435795
33,0,4210.256307,4232.307589,4206.666564,4230.256307,4187.692205,4199.999897,4201.538359,4199.999897,4206.153743,4193.333231,4209.230666,4203.589641,4237.948614,4204.615282
34,0,4207.692205,4230.256307,4198.974256,4242.051178,4201.538359,4205.128102,4211.281948,4205.128102,4214.358871,4193.846051,4205.128102,4203.07682,4237.948614,4198.461436
35,0,4218.974256,4241.025537,4197.948615,4255.897332,4226.666563,4218.461435,4228.717845,4227.692204,4226.153743,4215.384512,4215.384512,4214.871692,4249.743486,4207.692205
36,0,4226.666563,4255.384511,4204.615282,4251.281947,4232.820409,4221.025538,4226.666563,4228.205025,4220.512717,4222.051179,4226.153743,4221.025538,4262.563998,4221.538358
37,0,4214.871692,4243.58964,4210.769128,4221.538358,4204.615282,4210.256307,4209.230666,4204.102461,4211.794769,4201.025538,4209.230666,4204.615282,4252.307588,4212.82041
38,0,4197.435795,4215.384512,4217.435794,4178.974257,4177.948616,4196.922974,4194.871692,4189.230667,4214.871692,4179.999898,4188.205026,4188.205026,4233.33323,4191.794769
39,0,4194.358872,4209.743487,4225.128102,4141.02554,4180.512718,4185.640923,4186.153744,4183.589641,4209.230666,4164.102462,4183.076821,4178.974257,4229.230666,4185.640923
40,0,4205.640923,4226.153743,4224.615281,4154.358873,4194.871692,4190.769128,4191.281949,4189.743487,4206.666564,4170.256308,4187.179385,4181.025539,4232.820409,4194.358872
41,0,4216.922974,4233.84605,4215.384512,4202.564,4199.999897,4203.07682,4201.538359,4206.153743,4217.435794,4201.025538,4196.922974,4199.487077,4237.948614,4211.281948
42,0,4211.794769,4229.743486,4215.897333,4191.281949,4184.102462,4190.769128,4189.230667,4196.410154,4208.717846,4197.435795,4195.897333,4197.948615,4241.025537,4212.307589
43,0,4213.33323,4241.538358,4221.025538,4161.53836,4176.410154,4181.025539,4175.897334,4176.410154,4191.281949,4164.102462,4184.615282,4182.05118,4242.563999,4207.692205
44,0,4233.84605,4265.640921,4218.461435,4207.692205,4204.102461,4203.07682,4193.333231,4191.794769,4205.640923,4175.897334,4197.948615,4200.512718,4256.922973,4235.897332
45,0,4256.410152,4283.589639,4225.640922,4248.717845,4223.07682,4212.307589,4210.256307,4215.384512,4218.974256,4207.179384,4227.179384,4230.256307,4278.974254,4278.974254
46,0,4266.153742,4291.794767,4236.922973,4219.999897,4209.230666,4191.794769,4201.025538,4204.102461,4206.666564,4192.30759,4224.102461,4224.615281,4287.179382,4299.999895
47,0,4273.846049,4295.897331,4241.025537,4203.07682,4192.82041,4186.666564,4191.794769,4182.564,4196.410154,4172.820411,4212.307589,4211.281948,4293.333228,4311.794766
48,0,4291.281946,4308.717843,4244.615281,4235.897332,4191.281949,4197.435795,4198.461436,4187.692205,4202.051179,4184.615282,4231.281948,4223.07682,4314.358869,4335.89733
49,0,4299.999895,4326.15374,4242.051178,4263.589639,4204.615282,4199.487077,4202.564,4203.07682,4211.281948,4190.256308,4248.717845,4237.435794,4329.230663,4355.897329
50,0,4298.461433,4329.743484,4227.692204,4276.410152,4217.435794,4204.615282,4200.512718,4204.615282,4214.871692,4190.769128,4247.692204,4242.563999,4333.333227,4364.615278
51,0,4305.64092,4329.230663,4224.102461,4298.461433,4215.897333,4213.846051,4209.230666,4206.153743,4213.33323,4209.743487,4254.871691,4251.281947,4343.076817,4373.333226
52,0,4309.743484,4332.307586,4231.281948,4291.281946,4216.922974,4208.717846,4217.948615,4210.769128,4211.794769,4218.974256,4262.563998,4253.333229,4345.128099,4372.820406
53,0,4295.897331,4321.025535,4236.410153,4241.538358,4217.948615,4197.435795,4207.692205,4204.615282,4206.666564,4203.07682,4246.666563,4237.435794,4331.794766,4349.743483
54,0,4278.974254,4303.589638,4234.358871,4214.358871,4204.102461,4198.974256,4195.384513,4198.461436,4201.025538,4190.256308,4230.769127,4227.692204,4319.999894,4322.051176
55,0,4271.281947,4293.333228,4224.615281,4231.281948,4199.487077,4204.102461,4198.461436,4203.07682,4208.717846,4198.461436,4236.922973,4230.256307,4316.410151,4312.307587
56,0,4253.84605,4271.794767,4215.384512,4245.128101,4204.615282,4202.051179,4203.589641,4201.025538,4215.897333,4209.230666,4235.384512,4223.07682,4308.205023,4297.435792
57,0,4235.384512,4248.205024,4214.871692,4243.076819,4201.538359,4199.999897,4201.025538,4201.025538,4205.640923,4204.102461,4214.358871,4213.846051,4293.846049,4270.256306
58,0,4236.922973,4250.256306,4220.512717,4242.051178,4208.205025,4199.487077,4201.025538,4210.769128,4198.974256,4202.564,4207.179384,4215.897333,4285.1281,4258.974255
59,0,4250.769127,4263.589639,4213.33323,4255.384511,4225.128102,4205.640923,4208.205025,4214.871692,4207.179384,4212.307589,4226.153743,4222.051179,4286.153741,4265.640921
60,0,4251.794768,4268.717844,4197.948615,4292.820408,4225.640922,4216.922974,4223.58964,4219.487076,4218.461435,4217.948615,4239.999896,4229.230666,4293.333228,4266.666562
61,0,4245.128101,4263.589639,4196.410154,4320.512715,4214.871692,4221.538358,4235.897332,4232.820409,4222.563999,4224.102461,4234.871691,4234.358871,4292.307587,4263.589639
62,0,4246.153742,4254.871691,4198.461436,4316.922971,4219.487076,4217.948615,4232.307589,4231.281948,4218.461435,4229.230666,4229.230666,4231.794768,4284.61528,4259.487075
63,0,4242.051178,4247.692204,4199.999897,4299.487074,4234.358871,4216.922974,4225.640922,4217.435794,4215.384512,4222.563999,4233.33323,4229.743486,4287.179382,4250.769127
64,0,4226.666563,4239.999896,4208.717846,4272.307588,4229.230666,4217.435794,4217.948615,4214.358871,4215.897333,4219.487076,4228.717845,4223.07682,4287.179382,4236.410153
65,0,4209.743487,4221.025538,4210.769128,4236.922973,4199.487077,4204.615282,4196.410154,4204.102461,4207.692205,4217.948615,4194.358872,4194.871692,4259.487075,4204.102461
66,0,4198.461436,4201.025538,4199.487077,4214.358871,4186.153744,4191.281949,4184.102462,4186.153744,4197.435795,4195.897333,4168.205026,4169.743488,4230.769127,4168.205026
67,0,4197.948615,4206.153743,4198.974256,4216.410153,4209.230666,4204.102461,4196.922974,4194.871692,4203.589641,4193.333231,4181.538359,4176.410154,4237.948614,4168.205026
68,0,4201.025538,4213.33323,4207.179384,4217.435794,4225.128102,4217.435794,4209.743487,4206.666564,4214.871692,4213.33323,4192.30759,4188.205026,4251.281947,4181.025539
69,0,4199.487077,4203.589641,4205.640923,4214.871692,4205.128102,4207.179384,4211.281948,4202.564,4214.871692,4207.179384,4184.102462,4183.076821,4246.153742,4174.871693
70,0,4195.384513,4197.948615,4199.999897,4223.58964,4189.230667,4199.999897,4211.281948,4210.256307,4214.358871,4204.102461,4187.692205,4181.025539,4242.051178,4167.692206
71,0,4191.794769,4201.025538,4197.435795,4232.820409,4209.743487,4206.153743,4206.153743,4215.897333,4216.922974,4217.435794,4194.871692,4181.538359,4245.640922,4167.692206
72,0,4186.666564,4192.30759,4193.333231,4234.871691,4223.07682,4202.564,4197.435795,4196.410154,4213.846051,4210.256307,4187.692205,4173.333231,4242.563999,4160.512719
73,0,4181.025539,4179.487077,4195.897333,4219.999897,4201.538359,4198.461436,4197.435795,4185.640923,4211.794769,4194.871692,4176.922975,4167.179385,4232.820409,4152.820411
74,0,4182.05118,4180.512718,4199.999897,4205.128102,4187.692205,4205.640923,4201.025538,4196.410154,4211.281948,4198.974256,4172.30759,4165.640924,4227.179384,4150.769129
75,0,4194.358872,4191.794769,4198.461436,4227.179384,4212.82041,4214.871692,4211.794769,4211.281948,4211.794769,4208.717846,4182.05118,4175.897334,4238.461435,4160.512719
76,0,4202.564,4199.487077,4199.487077,4256.410152,4234.871691,4224.615281,4231.794768,4227.692204,4221.025538,4216.410153,4208.205025,4199.487077,4256.410152,4184.102462
77,0,4191.794769,4189.743487,4204.102461,4240.512717,4221.538358,4225.640922,4234.871691,4231.281948,4226.666563,4220.512717,4210.256307,4203.07682,4255.384511,4188.717846
78,0,4181.538359,4169.230667,4200.512718,4221.025538,4211.281948,4217.435794,4216.922974,4217.948615,4218.461435,4214.871692,4186.153744,4183.589641,4243.076819,4164.615283
79,0,4187.692205,4170.769129,4195.384513,4242.563999,4219.999897,4212.307589,4210.769128,4213.846051,4216.410153,4217.435794,4189.743487,4183.076821,4246.666563,4158.461437
80,0,4192.82041,4184.102462,4197.948615,4251.794768,4212.82041,4207.692205,4217.435794,4218.461435,4221.025538,4223.07682,4203.07682,4191.281949,4250.256306,4169.230667
81,0,4185.128103,4176.922975,4200.512718,4228.205025,4196.922974,4206.153743,4216.410153,4213.846051,4215.897333,4214.871692,4189.743487,4182.564,4235.384512,4161.025539
82,0,4183.076821,4166.666565,4201.025538,4221.538358,4210.256307,4213.33323,4215.897333,4211.281948,4213.33323,4206.666564,4178.974257,4179.487077,4229.230666,4149.230668
83,0,4187.179385,4171.79477,4197.948615,4248.717845,4227.179384,4219.487076,4218.974256,4216.922974,4218.974256,4202.051179,4190.256308,4189.743487,4236.410153,4157.435796
84,0,4182.05118,4168.205026,4195.384513,4250.769127,4212.82041,4210.256307,4212.82041,4215.384512,4216.922974,4196.410154,4193.333231,4189.743487,4226.666563,4161.53836
85,0,4175.897334,4155.384514,4202.564,4212.82041,4203.589641,4200.512718,4207.692205,4210.769128,4213.33323,4203.589641,4184.615282,4182.05118,4211.794769,4151.79477
86,0,4179.999898,4158.974257,4203.07682,4211.794769,4207.179384,4208.205025,4214.871692,4215.384512,4218.974256,4220.512717,4185.640923,4183.076821,4212.307589,4148.205027
87,0,4190.769128,4176.410154,4196.922974,4245.128101,4202.564,4222.563999,4224.615281,4225.640922,4221.025538,4214.358871,4188.205026,4190.769128,4209.230666,4157.435796
88,0,4185.128103,4172.820411,4206.153743,4213.846051,4197.948615,4217.435794,4217.948615,4215.384512,4210.769128,4187.692205,4177.948616,4183.589641,4192.30759,4153.846052
89,0,4154.871693,4136.922976,4220.512717,4128.717848,4194.871692,4192.82041,4185.128103,4182.564,4195.897333,4170.256308,4150.769129,4158.974257,4170.256308,4124.615284
90,0,4144.615283,4115.384515,4222.051179,4096.922977,4185.640923,4179.999898,4165.128103,4169.230667,4191.794769,4165.128103,4135.897335,4146.153745,4156.410155,4105.640925
91,0,4169.230667,4134.358873,4218.461435,4130.256309,4181.025539,4183.076821,4181.025539,4184.615282,4201.538359,4171.281949,4150.256309,4154.871693,4158.974257,4119.999899
92,0,4173.333231,4142.564001,4217.435794,4138.461437,4180.512718,4185.128103,4186.153744,4188.205026,4205.128102,4171.281949,4155.384514,4158.461437,4157.948616,4127.179386
93,0,4150.769129,4122.051181,4217.435794,4117.435797,4179.487077,4184.615282,4169.743488,4176.410154,4197.948615,4153.846052,4138.461437,4151.28195,4141.53836,4113.846053
94,0,4148.205027,4122.051181,4214.358871,4131.28195,4187.692205,4191.794769,4176.410154,4182.564,4199.487077,4152.820411,4138.461437,4152.820411,4140.512719,4113.846053
95,0,4158.974257,4135.897335,4206.666564,4157.435796,4178.461436,4199.999897,4190.256308,4189.230667,4205.128102,4174.871693,4151.28195,4156.410155,4152.820411,4122.051181
96,0,4163.076821,4138.461437,4199.999897,4161.53836,4167.179385,4201.025538,4182.05118,4181.538359,4197.948615,4188.205026,4152.307591,4153.333232,4152.820411,4122.051181
97,0,4167.692206,4143.589642,4203.07682,4172.30759,4191.794769,4196.410154,4177.948616,4183.076821,4195.384513,4183.076821,4154.871693,4156.410155,4148.205027,4121.538361
98,0,4173.333231,4155.384514,4201.538359,4200.512718,4209.230666,4195.897333,4188.205026,4195.897333,4209.743487,4176.922975,4164.615283,4165.128103,4158.461437,4127.179386
99,0,4182.564,4165.128103,4189.230667,4233.33323,4207.692205,4213.33323,4205.640923,4211.794769,4221.538358,4193.333231,4179.999898,4179.999898,4176.922975,4145.640924
100,0,4186.153744,4165.128103,4185.640923,4258.461434,4210.256307,4231.281948,4228.205025,4223.58964,4221.025538,4224.615281,4194.358872,4194.358872,4187.692205,4165.640924
101,0,4184.102462,4173.333231,4199.487077,4250.769127,4209.743487,4223.07682,4236.922973,4224.102461,4216.410153,4227.692204,4195.384513,4195.897333,4185.128103,4174.358872
102,0,4187.179385,4185.640923,4205.640923,4225.128102,4201.538359,4212.82041,4223.58964,4215.897333,4214.358871,4201.025538,4187.179385,4186.153744,4175.384513,4167.179385
103,0,4182.05118,4178.974257,4197.948615,4210.256307,4206.153743,4217.435794,4207.179384,4211.794769,4214.358871,4190.769128,4177.948616,4175.384513,4165.128103,4148.205027
104,0,4173.846052,4168.205026,4199.487077,4209.743487,4208.717846,4218.974256,4207.692205,4214.871692,4216.922974,4204.102461,4177.948616,4177.435795,4167.692206,4143.076822
105,0,4182.564,4171.281949,4200.512718,4222.563999,4199.999897,4214.358871,4215.384512,4215.384512,4217.435794,4205.128102,4183.076821,4185.128103,4176.410154,4156.410155
106,0,4186.153744,4172.30759,4199.487077,4222.563999,4204.615282,4210.769128,4213.846051,4212.307589,4213.846051,4194.358872,4182.05118,4183.589641,4170.769129,4155.384514
107,0,4182.05118,4178.461436,4219.487076,4203.07682,4218.461435,4216.922974,4218.974256,4222.051179,4217.435794,4208.717846,4187.692205,4191.281949,4171.79477,4156.410155
108,0,4192.82041,4198.974256,4237.948614,4195.384513,4219.999897,4233.84605,4237.948614,4237.435794,4220.512717,4223.07682,4203.07682,4207.179384,4187.692205,4179.999898
109,0,4202.051179,4205.640923,4232.820409,4204.615282,4215.897333,4238.974255,4248.205024,4242.051178,4216.410153,4216.922974,4208.717846,4209.743487,4190.769128,4189.743487
110,0,4202.051179,4204.102461,4229.743486,4211.794769,4227.179384,4231.281948,4244.615281,4248.205024,4222.051179,4221.025538,4210.256307,4208.717846,4191.281949,4187.179385
111,0,4200.512718,4207.179384,4245.640922,4184.615282,4234.358871,4227.179384,4239.999896,4249.230665,4231.281948,4227.179384,4216.410153,4214.358871,4199.487077,4187.692205
112,0,4191.281949,4197.948615,4257.435793,4130.256309,4214.358871,4218.974256,4223.58964,4219.999897,4220.512717,4211.794769,4205.640923,4202.051179,4188.717846,4172.30759
113,0,4184.615282,4192.30759,4249.743486,4130.76913,4201.025538,4208.717846,4209.230666,4203.589641,4209.743487,4202.051179,4194.358872,4192.30759,4177.435795,4166.666565
114,0,4194.871692,4200.512718,4237.435794,4187.179385,4213.846051,4220.512717,4227.179384,4231.794768,4225.128102,4220.512717,4204.615282,4209.743487,4193.333231,4190.256308
115,0,4207.692205,4208.717846,4235.384512,4212.307589,4227.692204,4238.974255,4247.692204,4252.820409,4237.948614,4231.794768,4216.922974,4225.640922,4204.615282,4204.615282
116,0,4212.307589,4219.487076,4231.281948,4229.743486,4227.692204,4240.512717,4247.179383,4251.281947,4233.33323,4232.307589,4225.640922,4227.179384,4207.179384,4205.128102
117,0,4218.461435,4231.281948,4216.922974,4273.846049,4234.871691,4241.538358,4252.820409,4258.461434,4229.743486,4239.999896,4232.820409,4229.743486,4220.512717,4215.897333
118,0,4228.205025,4240.512717,4213.846051,4301.538356,4249.230665,4250.256306,4273.333229,4274.35887,4232.307589,4250.256306,4245.640922,4242.563999,4235.384512,4233.33323
119,0,4237.435794,4252.820409,4226.153743,4303.076818,4249.230665,4250.256306,4281.025536,4285.640921,4235.384512,4261.538357,4265.128101,4255.897332,4248.205024,4249.230665
120,0,4233.84605,4250.769127,4236.410153,4279.999895,4246.666563,4243.58964,4263.589639,4285.1281,4236.410153,4264.10246,4265.640921,4254.871691,4251.794768,4251.794768
121,0,4220.512717,4235.384512,4234.871691,4249.743486,4247.692204,4245.128101,4245.128101,4271.794767,4237.435794,4255.384511,4248.717845,4244.10246,4237.435794,4237.435794
122,0,4213.33323,4229.230666,4231.794768,4237.435794,4235.384512,4239.487076,4231.794768,4253.84605,4229.230666,4237.435794,4235.384512,4233.84605,4223.58964,4219.487076
123,0,4208.205025,4221.025538,4241.538358,4208.717846,4217.435794,4219.999897,4212.82041,4239.487076,4216.922974,4214.358871,4217.435794,4219.999897,4211.281948,4202.564
124,0,4196.410154,4204.102461,4252.307588,4157.435796,4208.205025,4207.692205,4196.922974,4219.487076,4209.743487,4192.82041,4193.333231,4201.538359,4191.281949,4185.128103
125,0,4185.640923,4193.333231,4251.281947,4133.846053,4197.435795,4217.948615,4197.435795,4201.025538,4210.769128,4186.666564,4184.102462,4189.230667,4179.487077,4172.30759
126,0,4184.615282,4187.179385,4247.179383,4136.922976,4191.281949,4222.051179,4194.871692,4203.589641,4212.82041,4194.358872,4182.05118,4184.102462,4182.05118,4166.153744
127,0,4188.717846,4187.692205,4247.692204,4139.487078,4197.948615,4203.589641,4182.564,4212.307589,4211.281948,4187.179385,4182.564,4184.615282,4187.692205,4168.205026
128,0,4197.435795,4197.435795,4248.717845,4145.128104,4194.871692,4201.025538,4187.179385,4212.307589,4212.307589,4188.205026,4196.410154,4192.82041,4195.384513,4179.999898
0,0,4201.025538,4201.538359,4246.153742,4161.025539,4196.922974,4214.871692,4201.538359,4214.358871,4213.846051,4209.743487,4203.589641,4201.025538,4203.589641,4191.281949
1,0,4188.717846,4192.82041,4243.076819,4155.384514,4212.82041,4208.205025,4193.333231,4211.281948,4203.589641,4207.179384,4187.179385,4191.281949,4197.948615,4183.076821
2,0,4181.538359,4189.743487,4240.512717,4138.974258,4210.256307,4201.025538,4180.512718,4202.051179,4196.922974,4183.076821,4183.589641,4178.974257,4190.256308,4168.205026
3,0,4196.410154,4205.128102,4230.769127,4177.435795,4198.461436,4218.461435,4192.30759,4215.384512,4211.794769,4192.82041,4207.179384,4192.30759,4202.051179,4182.05118
4,0,4210.256307,4216.922974,4216.410153,4236.410153,4204.615282,4223.58964,4208.205025,4234.871691,4222.563999,4213.33323,4218.461435,4211.281948,4215.897333,4203.589641
5,0,4198.974256,4204.615282,4221.025538,4226.153743,4205.128102,4215.897333,4205.640923,4225.640922,4216.410153,4206.666564,4208.717846,4209.743487,4210.769128,4194.871692
6,0,4182.05118,4186.153744,4233.84605,4184.102462,4186.153744,4224.615281,4198.461436,4209.230666,4212.82041,4197.435795,4201.025538,4198.461436,4196.922974,4178.974257
7,0,4188.717846,4190.256308,4232.820409,4177.435795,4187.692205,4223.07682,4201.025538,4210.256307,4214.358871,4198.974256,4201.025538,4196.922974,4197.435795,4184.615282
8,0,4208.205025,4209.230666,4232.307589,4184.615282,4214.358871,4203.07682,4198.974256,4217.948615,4213.846051,4206.153743,4208.205025,4206.666564,4209.230666,4198.461436
9,0,4211.794769,4221.538358,4234.358871,4197.948615,4222.051179,4196.922974,4194.358872,4224.102461,4215.897333,4218.974256,4219.999897,4217.435794,4220.512717,4209.230666
10,0,4199.487077,4208.717846,4230.769127,4195.897333,4201.025538,4210.256307,4200.512718,4221.025538,4215.897333,4214.358871,4214.871692,4212.82041,4220.512717,4208.717846
11,0,4195.384513,4192.82041,4234.871691,4165.128103,4185.128103,4216.922974,4203.589641,4210.256307,4210.256307,4197.435795,4203.589641,4201.538359,4210.769128,4196.410154
12,0,4204.102461,4209.743487,4233.33323,4186.153744,4198.974256,4216.410153,4201.025538,4219.487076,4214.871692,4207.179384,4218.461435,4210.256307,4217.948615,4201.538359
13,0,4206.666564,4225.640922,4217.948615,4246.153742,4215.384512,4219.999897,4208.205025,4241.538358,4222.051179,4217.435794,4233.84605,4222.563999,4231.281948,4217.435794
14,0,4202.564,4218.461435,4217.948615,4250.769127,4218.461435,4227.692204,4222.563999,4246.666563,4220.512717,4209.743487,4231.794768,4221.025538,4231.281948,4219.999897
15,0,4207.179384,4218.974256,4233.33323,4209.743487,4216.922974,4228.205025,4219.999897,4233.33323,4217.435794,4215.384512,4228.205025,4217.948615,4227.179384,4215.897333
16,0,4202.564,4207.692205,4237.948614,4173.333231,4200.512718,4215.384512,4197.435795,4212.307589,4210.256307,4210.769128,4211.281948,4203.07682,4215.384512,4198.974256
17,0,4184.102462,4184.615282,4229.743486,4166.153744,4179.487077,4204.615282,4186.666564,4204.102461,4207.692205,4192.82041,4188.205026,4185.128103,4197.435795,4176.922975
18,0,4188.205026,4196.410154,4221.025538,4199.999897,4188.717846,4208.717846,4202.051179,4221.538358,4215.897333,4199.487077,4196.922974,4193.846051,4201.538359,4183.589641
19,0,4212.82041,4223.07682,4222.563999,4225.640922,4219.999897,4215.384512,4214.358871,4235.897332,4219.487076,4210.769128,4219.487076,4215.384512,4227.179384,4213.33323
20,0,4219.487076,4222.051179,4228.205025,4220.512717,4236.410153,4216.410153,4209.230666,4226.153743,4213.846051,4203.589641,4219.999897,4217.948615,4234.871691,4218.974256
21,0,4206.666564,4215.384512,4227.692204,4219.487076,4221.025538,4221.025538,4206.153743,4215.897333,4213.33323,4202.051179,4209.743487,4208.717846,4220.512717,4205.640923
22,0,4201.025538,4217.948615,4229.743486,4217.948615,4198.461436,4218.461435,4210.769128,4221.538358,4215.897333,4203.07682,4204.102461,4206.153743,4212.307589,4204.615282
23,0,4212.82041,4225.640922,4233.33323,4224.102461,4208.717846,4218.461435,4218.461435,4233.84605,4218.974256,4209.230666,4209.743487,4215.384512,4222.563999,4217.435794
24,0,4218.461435,4234.358871,4222.563999,4251.281947,4238.461435,4229.230666,4225.128102,4244.10246,4222.051179,4222.051179,4220.512717,4223.07682,4231.281948,4221.538358
25,0,4204.615282,4224.615281,4212.307589,4253.333229,4235.897332,4228.205025,4219.487076,4234.358871,4214.871692,4209.230666,4215.897333,4212.307589,4219.999897,4203.589641
26,0,4197.948615,4213.33323,4214.871692,4233.84605,4220.512717,4223.07682,4211.794769,4223.07682,4210.769128,4197.948615,4207.179384,4206.153743,4210.769128,4194.358872
27,0,4203.589641,4223.07682,4216.922974,4235.384512,4229.230666,4229.230666,4214.871692,4229.743486,4216.410153,4217.435794,4210.769128,4215.384512,4215.897333,4208.205025
28,0,4204.102461,4225.640922,4221.025538,4229.230666,4233.33323,4226.666563,4217.948615,4233.33323,4219.999897,4234.871691,4217.435794,4214.871692,4219.999897,4216.922974
29,0,4208.205025,4217.435794,4222.051179,4210.256307,4217.948615,4214.358871,4210.769128,4225.640922,4222.051179,4229.743486,4218.974256,4206.666564,4220.512717,4212.307589
30,0,4214.358871,4220.512717,4209.230666,4231.281948,4210.256307,4211.794769,4204.615282,4221.538358,4222.051179,4214.871692,4217.435794,4209.230666,4221.538358,4209.743487
31,0,4215.384512,4235.384512,4199.487077,4277.948613,4222.563999,4222.051179,4213.846051,4230.256307,4221.538358,4217.948615,4225.640922,4222.051179,4231.281948,4221.538358
32,0,4223.58964,4246.153742,4201.538359,4307.179382,4234.871691,4240.512717,4236.410153,4241.025537,4226.153743,4245.640922,4242.051178,4229.743486,4245.640922,4236.410153
33,0,4232.820409,4252.307588,4199.487077,4318.974253,4238.461435,4252.307588,4250.256306,4251.281947,4234.358871,4261.538357,4248.717845,4234.871691,4253.84605,4243.58964
34,0,4227.179384,4250.256306,4199.999897,4295.38451,4234.871691,4236.410153,4240.512717,4248.717845,4232.820409,4239.999896,4239.999896,4231.281948,4248.717845,4239.487076
35,0,4209.743487,4232.307589,4205.128102,4253.84605,4229.230666,4218.974256,4222.051179,4227.692204,4223.07682,4211.281948,4222.051179,4212.307589,4235.897332,4223.58964
36,0,4199.999897,4221.538358,4204.615282,4238.461435,4229.743486,4218.461435,4215.897333,4214.871692,4217.948615,4212.307589,4212.307589,4203.589641,4225.640922,4208.717846
37,0,4213.846051,4233.84605,4204.615282,4247.179383,4233.33323,4219.487076,4215.897333,4222.051179,4218.461435,4236.922973,4223.07682,4212.82041,4228.717845,4216.410153
38,0,4227.692204,4244.10246,4211.281948,4253.84605,4230.769127,4222.051179,4211.794769,4230.256307,4216.922974,4249.230665,4233.84605,4217.435794,4239.487076,4231.794768
39,0,4221.025538,4238.461435,4215.384512,4263.076819,4226.153743,4231.794768,4220.512717,4232.820409,4216.922974,4245.128101,4234.358871,4219.487076,4243.58964,4235.384512
40,0,4220.512717,4241.538358,4216.922974,4267.179383,4228.717845,4233.33323,4231.281948,4236.410153,4222.051179,4247.179383,4242.051178,4232.820409,4248.205024,4238.974255
41,0,4232.307589,4249.230665,4218.461435,4252.820409,4232.820409,4225.128102,4225.128102,4231.794768,4221.538358,4245.128101,4242.051178,4233.33323,4250.256306,4239.487076
42,0,4227.179384,4243.58964,4215.384512,4246.153742,4230.769127,4222.563999,4212.307589,4217.948615,4215.384512,4231.794768,4228.717845,4216.410153,4243.58964,4227.692204
43,0,4217.948615,4242.563999,4218.461435,4237.435794,4223.07682,4223.07682,4206.666564,4207.692205,4217.948615,4226.666563,4226.666563,4213.846051,4240.512717,4227.179384
44,0,4219.487076,4244.615281,4225.128102,4210.256307,4211.794769,4214.871692,4198.974256,4199.999897,4214.871692,4225.128102,4223.58964,4212.82041,4242.051178,4236.922973
45,0,4223.58964,4243.58964,4230.769127,4190.256308,4202.564,4209.743487,4195.384513,4196.410154,4203.07682,4210.769128,4211.281948,4204.615282,4243.58964,4241.025537
46,0,4242.563999,4258.461434,4245.128101,4183.076821,4199.999897,4214.871692,4199.999897,4199.999897,4201.538359,4194.871692,4217.435794,4210.769128,4251.794768,4257.948614
47,0,4273.846049,4290.769126,4253.333229,4197.435795,4210.256307,4216.410153,4199.999897,4198.974256,4208.717846,4200.512718,4237.435794,4226.666563,4274.35887,4298.461433
48,0,4299.487074,4325.128099,4237.435794,4246.153742,4224.615281,4211.794769,4199.487077,4203.07682,4213.846051,4229.230666,4250.769127,4238.461435,4301.025536,4345.640919
49,0,4311.281946,4341.538355,4228.205025,4285.640921,4216.922974,4208.205025,4203.589641,4210.769128,4210.256307,4238.461435,4252.820409,4245.128101,4313.846048,4373.333226
50,0,4307.692202,4335.89733,4241.538358,4266.666562,4204.615282,4204.102461,4203.07682,4205.128102,4202.051179,4208.717846,4248.717845,4248.717845,4312.307587,4376.410149
51,0,4305.1281,4335.384509,4243.58964,4244.615281,4214.871692,4206.666564,4199.999897,4201.025538,4199.999897,4199.487077,4256.410152,4247.692204,4314.358869,4375.384508
52,0,4308.717843,4348.205022,4230.256307,4262.051178,4224.615281,4213.33323,4197.948615,4199.487077,4203.07682,4215.384512,4263.076819,4244.615281,4320.512715,4377.948611
53,0,4316.410151,4356.41015,4230.256307,4285.640921,4221.025538,4213.33323,4200.512718,4198.974256,4207.179384,4218.974256,4267.179383,4251.281947,4326.15374,4381.538354
54,0,4315.38451,4354.358868,4236.410153,4289.743485,4225.128102,4217.435794,4206.666564,4211.281948,4215.384512,4224.615281,4278.461434,4265.128101,4329.743484,4385.128098
55,0,4295.897331,4338.974253,4233.84605,4269.230665,4219.999897,4219.999897,4203.07682,4211.794769,4215.897333,4234.358871,4266.153742,4255.897332,4312.820407,4361.538355
56,0,4272.307588,4312.820407,4230.256307,4245.128101,4196.410154,4208.717846,4190.256308,4185.640923,4201.025538,4219.487076,4230.256307,4228.205025,4279.999895,4315.89733
57,0,4268.717844,4299.487074,4230.769127,4244.615281,4206.153743,4205.128102,4198.461436,4184.102462,4199.487077,4199.487077,4227.179384,4225.128102,4268.717844,4299.487074
58,0,4266.666562,4289.743485,4233.33323,4238.461435,4228.205025,4217.948615,4212.82041,4208.205025,4205.128102,4203.589641,4243.58964,4235.897332,4271.794767,4303.589638
59,0,4246.153742,4267.179383,4234.358871,4212.82041,4213.33323,4217.948615,4200.512718,4202.564,4198.974256,4207.179384,4231.794768,4225.128102,4261.025537,4285.1281
60,0,4242.051178,4261.538357,4231.281948,4216.922974,4204.615282,4211.281948,4196.410154,4195.384513,4205.640923,4209.743487,4222.563999,4222.051179,4257.948614,4269.743485
61,0,4252.820409,4269.230665,4224.615281,4257.435793,4224.102461,4214.871692,4224.615281,4219.999897,4219.487076,4221.538358,4237.948614,4233.84605,4264.10246,4275.897331
62,0,4243.58964,4259.487075,4219.999897,4255.384511,4217.948615,4217.948615,4226.666563,4225.640922,4209.230666,4217.435794,4232.820409,4226.153743,4249.743486,4266.153742
63,0,4225.128102,4244.10246,4230.769127,4203.589641,4198.461436,4213.33323,4192.82041,4197.948615,4195.897333,4199.999897,4212.82041,4208.717846,4235.897332,4241.025537
64,0,4228.717845,4249.230665,4236.410153,4201.538359,4213.846051,4213.33323,4188.205026,4197.948615,4209.743487,4211.794769,4223.58964,4213.846051,4247.692204,4242.051178
65,0,4235.897332,4249.743486,4221.025538,4239.999896,4221.025538,4213.846051,4206.153743,4213.846051,4217.435794,4236.410153,4239.999896,4218.461435,4256.410152,4249.743486
66,0,4214.358871,4225.128102,4217.948615,4223.58964,4200.512718,4212.307589,4201.025538,4197.948615,4201.025538,4226.153743,4219.487076,4202.051179,4240.512717,4229.230666
67,0,4198.974256,4208.717846,4229.743486,4183.076821,4191.794769,4215.897333,4187.179385,4178.461436,4194.871692,4204.102461,4192.82041,4191.281949,4225.128102,4205.128102
68,0,4214.358871,4218.974256,4230.769127,4185.128103,4200.512718,4211.281948,4194.871692,4186.153744,4205.128102,4198.461436,4199.487077,4196.410154,4227.692204,4208.717846
69,0,4220.512717,4222.563999,4230.256307,4194.871692,4198.974256,4201.538359,4204.102461,4195.897333,4204.102461,4201.025538,4213.33323,4198.974256,4232.820409,4217.435794
70,0,4206.666564,4208.205025,4233.84605,4191.794769,4196.410154,4207.179384,4201.538359,4199.487077,4198.461436,4209.743487,4211.281948,4196.410154,4230.256307,4209.743487
71,0,4209.743487,4214.871692,4225.640922,4205.640923,4210.769128,4221.025538,4205.640923,4214.871692,4207.179384,4219.487076,4210.769128,4198.974256,4228.717845,4205.128102
72,0,4217.948615,4234.358871,4214.871692,4228.717845,4224.102461,4227.179384,4216.410153,4228.205025,4219.999897,4221.538358,4217.948615,4204.102461,4234.871691,4213.846051
73,0,4204.615282,4226.153743,4212.307589,4238.461435,4215.897333,4225.640922,4219.487076,4224.615281,4219.999897,4221.538358,4222.563999,4205.128102,4234.871691,4217.435794
74,0,4199.487077,4205.640923,4214.871692,4231.794768,4202.564,4221.025538,4214.871692,4212.82041,4214.871692,4214.358871,4222.563999,4205.640923,4226.153743,4209.230666
75,0,4216.410153,4212.82041,4216.410153,4243.58964,4206.153743,4217.435794,4216.922974,4214.871692,4221.538358,4220.512717,4230.256307,4215.897333,4233.84605,4212.307589
76,0,4227.179384,4235.897332,4205.640923,4286.666562,4215.384512,4219.487076,4221.538358,4228.717845,4230.256307,4246.153742,4239.999896,4226.666563,4249.743486,4229.230666
77,0,4218.461435,4234.871691,4198.461436,4289.743485,4222.051179,4219.487076,4217.948615,4223.07682,4222.051179,4247.179383,4230.769127,4215.897333,4242.051178,4223.58964
78,0,4206.666564,4221.025538,4203.589641,4264.10246,4232.307589,4223.58964,4222.051179,4215.384512,4213.846051,4230.256307,4216.410153,4200.512718,4230.769127,4202.564
79,0,4198.974256,4216.922974,4204.615282,4267.692203,4240.512717,4234.871691,4233.84605,4229.230666,4217.435794,4226.666563,4217.435794,4203.07682,4231.794768,4200.512718
80,0,4196.410154,4217.435794,4207.179384,4258.974255,4223.58964,4234.871691,4230.769127,4238.461435,4219.999897,4223.07682,4218.461435,4204.102461,4226.153743,4204.615282
81,0,4205.640923,4214.871692,4213.846051,4228.717845,4198.974256,4226.153743,4217.948615,4231.281948,4216.410153,4212.307589,4212.82041,4194.358872,4221.538358,4201.538359
82,0,4216.410153,4221.538358,4215.384512,4236.410153,4212.307589,4224.102461,4217.435794,4231.794768,4216.922974,4214.358871,4223.58964,4205.640923,4234.871691,4211.794769
83,0,4212.307589,4218.461435,4234.358871,4209.230666,4226.153743,4217.435794,4213.33323,4230.769127,4218.461435,4228.205025,4232.307589,4217.435794,4236.410153,4216.410153
84,0,4182.564,4173.333231,4264.61528,4083.589644,4181.538359,4195.384513,4180.512718,4199.999897,4207.179384,4212.307589,4196.410154,4186.153744,4200.512718,4175.384513
85,0,4150.256309,4127.179386,4265.640921,4003.076825,4135.897335,4178.974257,4146.666565,4163.589642,4188.717846,4170.769129,4148.205027,4147.179386,4163.589642,4126.153745
86,0,4149.230668,4135.897335,4242.051178,4052.820414,4156.922975,4182.564,4148.717847,4159.999898,4187.179385,4159.999898,4143.076822,4146.153745,4161.53836,4122.564002
87,0,4173.333231,4166.666565,4222.563999,4130.76913,4187.179385,4196.410154,4175.384513,4179.999898,4200.512718,4192.82041,4167.692206,4161.53836,4178.974257,4143.589642
88,0,4187.179385,4172.30759,4212.82041,4163.589642,4183.589641,4211.281948,4190.769128,4194.358872,4204.615282,4209.743487,4179.487077,4168.205026,4186.666564,4154.871693
89,0,4182.05118,4171.281949,4212.307589,4174.871693,4191.281949,4215.897333,4189.230667,4195.384513,4202.564,4192.30759,4175.897334,4169.230667,4185.640923,4155.384514
90,0,4171.281949,4172.30759,4214.871692,4174.871693,4210.256307,4210.256307,4185.128103,4188.717846,4202.564,4179.999898,4168.205026,4163.589642,4181.538359,4147.179386
91,0,4167.179385,4171.79477,4216.922974,4168.205026,4210.256307,4212.307589,4187.179385,4186.666564,4203.589641,4181.025539,4169.743488,4161.025539,4183.589641,4142.564001
92,0,4177.948616,4181.025539,4222.563999,4164.102462,4198.461436,4217.435794,4189.743487,4192.30759,4204.102461,4177.948616,4180.512718,4170.769129,4192.82041,4152.820411
93,0,4183.076821,4188.717846,4231.281948,4144.615283,4183.589641,4204.615282,4179.999898,4188.717846,4199.487077,4168.205026,4182.564,4169.743488,4189.743487,4158.461437
94,0,4176.410154,4183.076821,4231.281948,4132.307591,4179.999898,4194.871692,4173.846052,4186.153744,4198.461436,4177.435795,4179.487077,4162.05118,4185.640923,4153.846052
95,0,4184.102462,4183.589641,4221.025538,4158.461437,4194.871692,4207.692205,4190.769128,4203.07682,4211.281948,4209.743487,4190.769128,4174.871693,4203.07682,4166.153744
96,0,4197.948615,4189.230667,4214.358871,4183.076821,4186.153744,4217.948615,4207.692205,4218.461435,4219.487076,4218.974256,4210.769128,4191.794769,4223.07682,4187.692205
97,0,4190.769128,4181.538359,4217.435794,4175.897334,4162.564001,4208.717846,4201.025538,4215.384512,4214.871692,4209.230666,4215.897333,4187.692205,4220.512717,4189.230667
98,0,4187.692205,4184.102462,4217.435794,4188.717846,4191.281949,4211.794769,4201.538359,4212.307589,4214.358871,4223.07682,4212.82041,4189.230667,4215.897333,4188.205026
99,0,4202.564,4201.025538,4212.82041,4230.769127,4225.640922,4236.410153,4217.435794,4218.974256,4219.487076,4237.435794,4215.384512,4203.07682,4222.051179,4200.512718
100,0,4200.512718,4199.487077,4211.794769,4242.563999,4206.666564,4234.358871,4215.384512,4217.435794,4218.974256,4219.487076,4216.410153,4204.102461,4217.948615,4201.025538
101,0,4195.384513,4196.410154,4214.871692,4230.769127,4199.487077,4214.358871,4207.692205,4211.281948,4214.358871,4206.666564,4213.846051,4198.974256,4212.82041,4193.846051
102,0,4211.281948,4216.922974,4214.871692,4237.435794,4227.179384,4221.538358,4212.307589,4216.410153,4213.33323,4221.538358,4217.948615,4204.615282,4226.153743,4209.230666
103,0,4213.846051,4228.205025,4216.922974,4233.84605,4223.58964,4227.692204,4206.666564,4218.974256,4215.384512,4222.051179,4220.512717,4205.640923,4235.897332,4222.051179
104,0,4198.461436,4212.82041,4225.640922,4197.435795,4200.512718,4217.948615,4197.435795,4213.33323,4216.922974,4213.846051,4215.897333,4199.999897,4228.717845,4208.205025
105,0,4199.487077,4205.128102,4233.33323,4182.05118,4201.025538,4221.538358,4209.230666,4219.487076,4217.948615,4225.640922,4224.615281,4206.666564,4229.230666,4204.102461
106,0,4203.589641,4204.102461,4233.33323,4199.487077,4202.564,4222.051179,4214.358871,4226.666563,4218.461435,4238.461435,4233.84605,4217.948615,4233.33323,4215.897333
107,0,4197.948615,4200.512718,4230.256307,4210.256307,4196.922974,4214.871692,4207.179384,4219.999897,4215.897333,4233.33323,4226.666563,4218.461435,4226.153743,4215.897333
108,0,4194.871692,4197.948615,4232.307589,4177.435795,4195.897333,4213.846051,4201.025538,4212.307589,4216.410153,4211.794769,4211.794769,4203.07682,4216.410153,4199.487077
109,0,4189.743487,4189.230667,4234.358871,4141.02554,4186.666564,4203.589641,4188.205026,4203.07682,4211.794769,4193.333231,4196.410154,4185.128103,4203.589641,4181.025539
110,0,4180.512718,4185.640923,4230.769127,4156.410155,4177.948616,4198.461436,4184.615282,4194.871692,4201.538359,4201.538359,4188.717846,4185.128103,4196.922974,4176.922975
111,0,4187.179385,4197.435795,4232.307589,4184.615282,4195.897333,4218.461435,4199.487077,4201.538359,4204.615282,4212.82041,4196.922974,4198.461436,4210.769128,4192.82041
112,0,4196.410154,4205.128102,4234.358871,4182.05118,4219.999897,4224.102461,4200.512718,4206.153743,4213.846051,4200.512718,4206.153743,4203.07682,4219.999897,4196.922974
113,0,4193.333231,4207.692205,4231.794768,4178.974257,4218.974256,4212.307589,4189.230667,4198.461436,4211.281948,4197.948615,4206.666564,4196.410154,4212.307589,4188.205026
114,0,4190.769128,4215.384512,4229.230666,4204.615282,4205.640923,4221.025538,4196.922974,4206.666564,4213.33323,4222.563999,4215.384512,4199.487077,4219.487076,4197.948615
115,0,4195.897333,4214.871692,4227.179384,4223.07682,4203.589641,4229.230666,4212.82041,4226.666563,4223.58964,4234.358871,4228.205025,4210.256307,4232.307589,4211.794769
116,0,4206.153743,4219.487076,4228.717845,4219.999897,4218.461435,4225.640922,4219.487076,4237.948614,4222.051179,4232.307589,4231.794768,4216.410153,4233.33323,4216.922974
117,0,4216.922974,4233.33323,4227.179384,4214.871692,4218.461435,4225.640922,4217.948615,4232.307589,4217.948615,4236.922973,4232.820409,4216.410153,4241.025537,4223.58964
118,0,4212.307589,4225.128102,4221.025538,4215.897333,4197.435795,4222.563999,4212.82041,4221.025538,4221.538358,4236.410153,4236.410153,4213.33323,4250.256306,4224.102461
119,0,4202.051179,4212.307589,4228.717845,4215.384512,4198.974256,4216.922974,4220.512717,4222.051179,4219.999897,4228.717845,4234.871691,4215.384512,4244.615281,4221.538358
120,0,4205.128102,4226.666563,4240.512717,4216.922974,4219.999897,4222.563999,4235.384512,4232.307589,4217.948615,4228.717845,4231.794768,4227.179384,4242.563999,4230.256307
121,0,4212.82041,4238.461435,4226.153743,4238.974255,4220.512717,4234.871691,4232.307589,4234.871691,4219.487076,4232.820409,4239.487076,4234.358871,4245.128101,4234.871691
122,0,4213.33323,4231.281948,4212.82041,4257.435793,4220.512717,4230.256307,4212.82041,4228.717845,4222.563999,4235.384512,4248.205024,4229.230666,4239.999896,4230.769127
123,0,4210.769128,4230.256307,4226.666563,4243.58964,4236.410153,4218.974256,4198.974256,4219.999897,4218.461435,4235.897332,4238.461435,4220.512717,4237.948614,4230.769127
124,0,4202.564,4233.33323,4230.256307,4225.128102,4232.307589,4219.999897,4198.461436,4209.230666,4210.769128,4230.769127,4223.07682,4216.410153,4233.84605,4223.58964
125,0,4199.487077,4230.769127,4217.435794,4236.410153,4219.487076,4226.153743,4208.717846,4217.435794,4218.461435,4227.179384,4222.563999,4219.999897,4230.769127,4212.82041
126,0,4211.281948,4236.922973,4216.410153,4268.717844,4227.692204,4236.922973,4226.153743,4238.974255,4231.794768,4234.358871,4239.487076,4229.230666,4244.10246,4225.640922
127,0,4226.666563,4251.281947,4224.615281,4283.076818,4236.410153,4248.205024,4239.999896,4250.256306,4234.871691,4249.230665,4257.948614,4237.948614,4261.538357,4250.769127
128,0,4235.897332,4264.61528,4231.794768,4271.794767,4233.84605,4247.179383,4249.743486,4263.076819,4233.84605,4268.205024,4270.256306,4251.281947,4272.307588,4266.153742
0,0,4236.410153,4264.10246,4238.974255,4251.281947,4233.84605,4236.410153,4249.743486,4265.128101,4231.794768,4269.230665,4269.230665,4257.948614,4273.333229,4265.128101
1,0,4229.743486,4252.820409,4244.615281,4238.461435,4230.256307,4230.256307,4236.922973,4249.230665,4227.692204,4250.256306,4264.61528,4250.769127,4267.179383,4261.025537
2,0,4228.205025,4250.256306,4241.025537,4242.563999,4230.769127,4233.84605,4232.307589,4247.692204,4231.281948,4247.692204,4268.717844,4246.153742,4265.640921,4264.10246
3,0,4227.692204,4252.307588,4233.84605,4246.153742,4238.974255,4235.384512,4230.256307,4248.205024,4229.743486,4254.35887,4262.051178,4238.974255,4264.61528,4257.435793
4,0,4217.435794,4239.999896,4231.794768,4231.281948,4225.640922,4228.205025,4216.922974,4221.538358,4216.922974,4236.410153,4235.897332,4218.974256,4249.230665,4234.358871
5,0,4207.692205,4235.384512,4228.205025,4224.615281,4218.974256,4223.07682,4208.717846,4208.205025,4216.922974,4223.07682,4223.58964,4211.281948,4241.538358,4225.640922
6,0,4208.205025,4248.205024,4218.974256,4239.999896,4240.512717,4235.897332,4215.897333,4223.58964,4219.487076,4233.33323,4229.743486,4215.897333,4246.666563,4230.256307
7,0,4213.33323,4250.769127,4213.846051,4254.871691,4246.153742,4242.051178,4225.128102,4227.179384,4213.846051,4235.384512,4230.256307,4214.358871,4244.615281,4227.179384
8,0,4217.435794,4249.743486,4222.051179,4269.743485,4231.794768,4233.33323,4230.769127,4231.281948,4225.640922,4237.435794,4236.410153,4221.025538,4246.153742,4233.84605
9,0,4219.487076,4251.794768,4234.871691,4271.794767,4233.33323,4238.974255,4234.871691,4246.666563,4237.435794,4249.743486,4246.153742,4236.410153,4254.871691,4248.717845
10,0,4216.410153,4241.538358,4237.948614,4241.538358,4235.384512,4242.051178,4227.179384,4237.948614,4220.512717,4243.076819,4237.435794,4231.281948,4252.307588,4241.025537
11,0,4213.33323,4231.794768,4235.384512,4207.179384,4224.615281,4229.230666,4216.922974,4223.58964,4210.769128,4226.666563,4230.256307,4213.33323,4242.051178,4225.128102
12,0,4219.999897,4246.153742,4236.410153,4215.384512,4231.794768,4229.743486,4228.205025,4245.128101,4228.205025,4238.974255,4248.205024,4223.07682,4248.205024,4239.487076
13,0,4230.256307,4257.435793,4238.461435,4240.512717,4239.487076,4238.461435,4242.563999,4265.128101,4234.871691,4263.076819,4262.563998,4248.717845,4265.128101,4261.538357
14,0,4229.230666,4247.692204,4239.487076,4237.435794,4219.999897,4233.84605,4235.384512,4251.281947,4227.179384,4265.640921,4252.820409,4247.692204,4268.205024,4257.435793
15,0,4225.128102,4241.025537,4244.615281,4225.128102,4214.871692,4231.794768,4228.717845,4241.025537,4229.743486,4251.281947,4248.205024,4234.358871,4261.538357,4246.153742
16,0,4221.025538,4242.563999,4249.743486,4207.179384,4238.461435,4235.384512,4232.307589,4238.461435,4228.205025,4240.512717,4245.640922,4231.281948,4252.307588,4240.512717
17,0,4204.102461,4230.769127,4239.999896,4185.128103,4236.922973,4223.58964,4218.461435,4218.461435,4213.846051,4230.256307,4219.999897,4218.974256,4232.307589,4220.512717
18,0,4195.897333,4220.512717,4221.025538,4205.640923,4216.410153,4222.051179,4204.615282,4208.205025,4207.179384,4212.82041,4203.07682,4206.666564,4221.025538,4201.538359
19,0,4218.461435,4242.051178,4213.846051,4254.871691,4235.897332,4237.948614,4224.102461,4224.615281,4214.358871,4218.974256,4228.717845,4219.487076,4235.384512,4221.025538
20,0,4236.922973,4271.281947,4216.410153,4271.281947,4257.435793,4243.58964,4244.615281,4237.435794,4226.153743,4245.128101,4250.769127,4233.84605,4251.794768,4247.179383
21,0,4229.230666,4264.61528,4221.538358,4257.435793,4243.58964,4244.10246,4239.999896,4241.538358,4233.33323,4254.871691,4247.179383,4237.435794,4256.410152,4250.769127
22,0,4225.128102,4247.692204,4229.743486,4256.410152,4230.256307,4244.10246,4230.769127,4245.128101,4231.281948,4253.333229,4254.35887,4246.153742,4262.563998,4256.922973
23,0,4233.33323,4255.384511,4232.820409,4268.205024,4231.281948,4242.051178,4232.820409,4250.256306,4229.230666,4261.538357,4265.640921,4251.794768,4270.256306,4267.179383
24,0,4238.461435,4266.153742,4232.307589,4259.487075,4240.512717,4244.10246,4245.128101,4257.435793,4234.358871,4266.153742,4266.666562,4251.794768,4277.948613,4268.205024
25,0,4234.358871,4255.384511,4235.897332,4232.820409,4248.717845,4240.512717,4246.153742,4254.871691,4233.33323,4261.538357,4263.076819,4249.230665,4279.487075,4263.589639
26,0,4228.205025,4242.051178,4228.717845,4237.435794,4235.384512,4235.384512,4237.948614,4251.794768,4228.717845,4262.051178,4258.461434,4240.512717,4268.717844,4256.410152
27,0,4224.615281,4242.563999,4217.948615,4251.281947,4215.897333,4243.076819,4240.512717,4256.922973,4229.743486,4260.512716,4251.794768,4231.281948,4261.025537,4246.666563
28,0,4229.743486,4255.897332,4219.487076,4250.769127,4231.794768,4249.743486,4249.230665,4253.333229,4230.769127,4257.948614,4255.384511,4233.84605,4271.281947,4253.333229
29,0,4238.974255,4271.281947,4218.974256,4269.743485,4269.743485,4247.179383,4247.692204,4244.615281,4229.743486,4265.128101,4268.717844,4242.563999,4285.1281,4267.692203
30,0,4241.538358,4276.922972,4215.384512,4288.205023,4281.538357,4252.820409,4240.512717,4244.615281,4231.281948,4270.256306,4267.692203,4245.128101,4279.999895,4267.179383
31,0,4238.461435,4277.435793,4225.128102,4273.333229,4267.179383,4255.384511,4238.974255,4244.10246,4236.410153,4269.743485,4256.410152,4242.051178,4268.717844,4259.487075
32,0,4227.179384,4262.563998,4232.307589,4243.076819,4251.794768,4238.461435,4224.102461,4232.307589,4229.230666,4259.487075,4243.58964,4230.769127,4260.512716,4243.58964
33,0,4211.281948,4233.33323,4227.179384,4227.692204,4235.897332,4230.769127,4209.743487,4224.102461,4216.410153,4239.487076,4231.281948,4215.384512,4248.205024,4226.153743
34,0,4213.33323,4234.871691,4225.128102,4243.58964,4229.230666,4241.025537,4227.179384,4235.384512,4224.615281,4235.897332,4240.512717,4223.58964,4248.205024,4235.384512
35,0,4233.84605,4269.743485,4225.128102,4277.435793,4248.717845,4251.281947,4250.769127,4258.461434,4238.461435,4257.948614,4268.205024,4250.769127,4271.794767,4263.589639
36,0,4250.256306,4288.205023,4215.897333,4307.692202,4271.281947,4258.974255,4253.84605,4272.307588,4236.922973,4285.1281,4285.640921,4266.666562,4293.333228,4283.589639
37,0,4248.205024,4279.487075,4212.82041,4314.358869,4262.051178,4263.076819,4254.871691,4273.333229,4236.922973,4292.820408,4282.563998,4264.61528,4294.358869,4290.256305
38,0,4233.84605,4263.589639,4228.717845,4269.743485,4247.179383,4251.281947,4256.410152,4264.10246,4241.025537,4276.410152,4265.640921,4255.897332,4284.102459,4274.87169
39,0,4212.307589,4242.051178,4231.794768,4216.410153,4237.948614,4226.153743,4228.717845,4234.358871,4224.615281,4248.205024,4243.076819,4234.358871,4265.640921,4236.922973
40,0,4198.974256,4230.256307,4219.487076,4213.33323,4220.512717,4222.563999,4196.922974,4208.717846,4209.230666,4227.179384,4225.640922,4208.205025,4244.615281,4210.769128
41,0,4205.640923,4238.974255,4223.07682,4226.666563,4220.512717,4232.820409,4202.051179,4213.33323,4216.922974,4230.256307,4221.538358,4203.589641,4241.025537,4212.307589
42,0,4214.358871,4247.692204,4234.358871,4218.461435,4236.922973,4233.84605,4213.33323,4218.461435,4221.538358,4241.025537,4221.538358,4212.307589,4248.717845,4222.051179
43,0,4213.846051,4244.615281,4236.922973,4203.589641,4233.33323,4227.692204,4203.589641,4203.589641,4211.794769,4230.256307,4217.435794,4211.794769,4250.256306,4225.128102
44,0,4214.871692,4247.179383,4231.794768,4203.07682,4233.33323,4222.051179,4196.410154,4203.07682,4209.743487,4211.794769,4216.922974,4207.179384,4248.205024,4226.666563
45,0,4218.461435,4257.948614,4222.563999,4230.769127,4249.230665,4234.871691,4210.256307,4224.102461,4223.07682,4219.487076,4224.615281,4212.82041,4254.871691,4232.820409
46,0,4216.922974,4256.410152,4221.025538,4248.717845,4235.384512,4248.717845,4226.666563,4235.384512,4233.33323,4231.281948,4229.230666,4219.487076,4260.512716,4235.384512
47,0,4215.384512,4246.153742,4231.281948,4221.025538,4213.33323,4237.948614,4231.794768,4233.84605,4229.230666,4239.487076,4234.871691,4220.512717,4262.563998,4230.769127
48,0,4218.461435,4247.179383,4233.84605,4208.717846,4227.692204,4232.307589,4233.33323,4244.615281,4228.717845,4264.10246,4246.666563,4228.717845,4273.333229,4239.487076
49,0,4216.922974,4248.205024,4230.256307,4230.256307,4238.461435,4249.230665,4235.384512,4255.384511,4236.410153,4265.640921,4249.743486,4233.33323,4280.512716,4245.640922
50,0,4212.82041,4244.10246,4229.230666,4237.435794,4230.769127,4249.743486,4236.922973,4248.205024,4236.922973,4243.076819,4244.615281,4227.179384,4275.384511,4234.358871
51,0,4216.410153,4246.666563,4220.512717,4245.640922,4236.922973,4238.461435,4243.076819,4243.076819,4231.281948,4253.333229,4246.666563,4227.179384,4273.333229,4238.461435
52,0,4224.615281,4251.794768,4214.871692,4262.563998,4247.179383,4248.717845,4247.179383,4247.692204,4234.871691,4271.794767,4250.256306,4235.384512,4275.897331,4250.256306
53,0,4224.102461,4250.769127,4218.461435,4268.205024,4247.692204,4254.35887,4241.538358,4246.666563,4236.922973,4255.897332,4249.743486,4236.410153,4273.846049,4239.487076
54,0,4214.871692,4248.717845,4215.897333,4266.153742,4248.717845,4249.230665,4234.871691,4234.871691,4227.179384,4240.512717,4241.538358,4223.58964,4266.153742,4228.205025
55,0,4211.794769,4249.743486,4208.717846,4261.025537,4248.717845,4248.205024,4229.230666,4226.153743,4222.563999,4239.999896,4229.230666,4212.82041,4259.999896,4230.769127
56,0,4215.897333,4251.794768,4217.435794,4234.358871,4242.563999,4234.358871,4217.948615,4227.692204,4227.692204,4234.358871,4228.205025,4214.358871,4258.974255,4230.769127
57,0,4215.384512,4251.794768,4231.794768,4211.281948,4232.820409,4220.512717,4210.769128,4229.230666,4229.743486,4235.384512,4232.820409,4216.922974,4260.512716,4229.230666
58,0,4217.948615,4252.307588,4221.538358,4230.769127,4232.820409,4231.281948,4222.563999,4232.820409,4229.230666,4244.10246,4231.794768,4215.384512,4264.10246,4233.33323
59,0,4215.384512,4246.153742,4218.461435,4214.871692,4233.84605,4235.897332,4222.563999,4234.358871,4226.153743,4236.410153,4225.128102,4210.769128,4260.512716,4224.102461
60,0,4198.461436,4232.820409,4245.640922,4141.02554,4219.487076,4221.025538,4199.487077,4218.461435,4216.410153,4216.922974,4210.256307,4196.922974,4247.179383,4203.07682
61,0,4191.794769,4225.640922,4250.769127,4127.179386,4216.410153,4217.435794,4192.82041,4201.538359,4212.307589,4214.358871,4203.07682,4187.179385,4246.666563,4196.922974
62,0,4197.435795,4222.563999,4232.820409,4153.846052,4218.461435,4215.897333,4200.512718,4200.512718,4216.922974,4217.948615,4203.07682,4187.692205,4247.179383,4201.538359
63,0,4189.743487,4207.179384,4244.615281,4111.281951,4192.82041,4202.564,4191.281949,4192.30759,4212.307589,4202.051179,4191.281949,4176.922975,4221.538358,4185.128103
64,0,4178.974257,4194.358872,4254.871691,4061.025542,4178.974257,4203.589641,4177.435795,4177.948616,4204.615282,4195.384513,4177.435795,4164.615283,4210.256307,4164.102462
65,0,4184.615282,4205.640923,4234.871691,4092.820413,4197.948615,4217.435794,4179.999898,4178.974257,4204.102461,4203.589641,4177.948616,4165.128103,4225.640922,4171.281949
66,0,4187.692205,4215.897333,4225.128102,4143.076822,4201.538359,4220.512717,4186.666564,4185.128103,4206.153743,4192.30759,4187.692205,4169.230667,4224.615281,4181.025539
67,0,4181.025539,4212.82041,4229.230666,4161.025539,4203.589641,4216.922974,4187.179385,4188.205026,4211.281948,4186.153744,4196.922974,4173.333231,4217.948615,4178.461436
68,0,4187.692205,4219.999897,4219.999897,4170.769129,4216.922974,4211.281948,4186.153744,4195.384513,4216.922974,4208.717846,4198.974256,4179.999898,4226.153743,4184.102462
69,0,4210.256307,4244.10246,4212.82041,4190.256308,4212.82041,4213.33323,4189.743487,4206.666564,4220.512717,4229.230666,4207.692205,4191.281949,4231.794768,4198.974256
70,0,4227.179384,4261.025537,4223.07682,4221.025538,4216.410153,4228.717845,4208.205025,4223.07682,4227.179384,4236.922973,4233.84605,4209.230666,4239.999896,4221.025538
71,0,4230.769127,4265.640921,4228.717845,4246.153742,4245.128101,4237.948614,4230.256307,4236.922973,4232.307589,4241.025537,4246.666563,4226.666563,4253.84605,4243.58964
72,0,4229.743486,4264.10246,4219.999897,4265.640921,4252.820409,4238.974255,4232.820409,4244.615281,4231.794768,4237.948614,4243.076819,4229.743486,4255.897332,4249.230665
73,0,4230.769127,4261.025537,4210.769128,4285.640921,4235.384512,4247.179383,4230.769127,4249.230665,4236.410153,4240.512717,4252.307588,4233.84605,4255.897332,4249.230665
74,0,4234.871691,4271.281947,4214.358871,4290.256305,4233.33323,4250.256306,4243.58964,4252.820409,4239.999896,4259.487075,4260.512716,4246.666563,4265.640921,4263.076819
75,0,4239.999896,4279.999895,4223.58964,4271.794767,4243.076819,4239.999896,4248.205024,4249.743486,4233.33323,4263.589639,4252.820409,4244.615281,4263.589639,4266.666562
76,0,4225.640922,4259.487075,4232.307589,4221.538358,4220.512717,4226.666563,4222.563999,4233.33323,4223.58964,4231.794768,4230.769127,4218.974256,4236.922973,4234.871691
77,0,4203.07682,4237.948614,4235.897332,4180.512718,4190.769128,4214.871692,4198.974256,4211.794769,4211.794769,4195.384513,4208.717846,4202.051179,4211.794769,4206.666564
78,0,4208.205025,4243.076819,4232.820409,4193.846051,4208.717846,4214.358871,4205.640923,4206.666564,4211.794769,4197.435795,4216.922974,4212.307589,4215.384512,4219.999897
79,0,4222.563999,4249.230665,4231.794768,4205.128102,4239.487076,4223.58964,4214.358871,4218.974256,4228.717845,4219.487076,4234.358871,4222.051179,4226.153743,4238.974255
80,0,4216.410153,4245.128101,4237.435794,4186.153744,4227.692204,4230.769127,4213.33323,4218.974256,4232.820409,4221.025538,4223.07682,4212.82041,4217.948615,4226.666563
81,0,4208.717846,4245.128101,4235.384512,4197.948615,4213.846051,4228.717845,4215.384512,4206.666564,4213.33323,4211.281948,4207.692205,4200.512718,4208.205025,4211.794769
82,0,4210.769128,4248.205024,4219.999897,4237.948614,4227.692204,4224.615281,4213.33323,4204.615282,4210.256307,4207.692205,4215.897333,4199.487077,4211.794769,4216.922974
83,0,4215.384512,4254.871691,4210.769128,4253.84605,4233.33323,4231.281948,4212.82041,4214.358871,4225.128102,4211.281948,4225.640922,4211.281948,4217.948615,4227.179384
84,0,4224.102461,4262.051178,4221.025538,4246.666563,4232.307589,4238.974255,4228.205025,4224.615281,4224.615281,4218.974256,4232.820409,4223.58964,4223.58964,4235.897332
85,0,4226.153743,4256.410152,4233.84605,4221.538358,4231.794768,4232.820409,4233.84605,4226.666563,4217.948615,4217.435794,4234.871691,4221.025538,4220.512717,4237.435794
86,0,4216.922974,4245.128101,4234.871691,4205.128102,4226.153743,4231.794768,4222.563999,4227.179384,4228.717845,4214.358871,4226.153743,4214.871692,4215.384512,4230.256307
87,0,4209.230666,4240.512717,4231.281948,4207.179384,4227.692204,4233.33323,4221.538358,4228.717845,4233.84605,4219.487076,4222.563999,4214.358871,4218.974256,4224.615281
88,0,4202.051179,4231.794768,4234.358871,4172.30759,4219.487076,4211.281948,4210.256307,4212.82041,4217.948615,4212.307589,4212.307589,4202.051179,4209.743487,4213.846051
89,0,4194.871692,4223.58964,4235.384512,4135.897335,4197.435795,4199.487077,4187.179385,4187.179385,4207.692205,4197.435795,4194.358872,4182.05118,4187.692205,4198.974256
90,0,4195.897333,4227.179384,4231.794768,4144.615283,4197.948615,4217.948615,4189.743487,4185.128103,4213.33323,4199.487077,4193.333231,4179.999898,4182.05118,4192.30759
91,0,4200.512718,4230.256307,4235.897332,4155.897334,4214.871692,4224.615281,4203.07682,4201.025538,4218.461435,4200.512718,4202.564,4192.30759,4193.333231,4195.897333
92,0,4203.589641,4229.743486,4235.384512,4165.128103,4217.435794,4212.307589,4199.999897,4196.410154,4212.82041,4194.358872,4203.589641,4195.384513,4197.435795,4203.589641
93,0,4209.743487,4239.999896,4221.538358,4203.07682,4224.102461,4219.999897,4204.615282,4190.769128,4213.33323,4205.128102,4210.256307,4199.999897,4201.538359,4216.922974
94,0,4217.948615,4253.84605,4214.871692,4239.487076,4235.897332,4237.948614,4222.051179,4213.33323,4230.769127,4223.58964,4230.769127,4217.435794,4216.922974,4231.794768
95,0,4216.922974,4250.256306,4218.461435,4237.948614,4221.025538,4227.692204,4217.435794,4222.563999,4231.794768,4219.999897,4232.820409,4220.512717,4220.512717,4231.281948
96,0,4215.384512,4245.640922,4218.461435,4230.769127,4211.281948,4216.410153,4208.205025,4211.794769,4216.922974,4211.794769,4224.615281,4210.769128,4213.846051,4226.153743
97,0,4227.179384,4264.10246,4219.999897,4243.076819,4228.717845,4230.769127,4224.102461,4223.07682,4224.615281,4226.666563,4238.461435,4221.538358,4223.58964,4239.487076
98,0,4235.384512,4274.87169,4222.563999,4254.871691,4234.358871,4242.051178,4241.538358,4236.922973,4236.410153,4234.871691,4249.230665,4234.871691,4235.384512,4250.769127
99,0,4225.128102,4259.999896,4216.410153,4244.615281,4222.563999,4233.33323,4229.743486,4219.487076,4222.051179,4215.897333,4231.281948,4217.435794,4227.692204,4239.487076
100,0,4222.563999,4259.999896,4219.487076,4233.84605,4225.128102,4230.256307,4214.871692,4207.179384,4212.82041,4212.307589,4225.640922,4207.179384,4223.07682,4237.948614
101,0,4244.615281,4287.692203,4229.743486,4252.820409,4239.999896,4234.358871,4225.128102,4221.538358,4224.615281,4234.871691,4247.692204,4230.256307,4239.999896,4270.769126
102,0,4262.563998,4300.512715,4228.717845,4261.538357,4228.205025,4229.743486,4227.179384,4219.999897,4227.179384,4236.922973,4249.230665,4238.461435,4256.410152,4299.999895
103,0,4274.87169,4309.743484,4230.256307,4252.307588,4207.692205,4226.666563,4211.794769,4204.615282,4217.948615,4214.358871,4244.615281,4231.794768,4267.692203,4318.461433
104,0,4303.589638,4348.717842,4239.999896,4275.897331,4223.07682,4229.230666,4216.922974,4212.82041,4216.410153,4212.307589,4269.743485,4250.256306,4292.307587,4359.999893
105,0,4323.076817,4369.230662,4245.128101,4292.820408,4239.999896,4227.179384,4234.358871,4226.666563,4216.922974,4223.07682,4285.640921,4269.230665,4312.307587,4399.487072
106,0,4323.076817,4356.92297,4251.281947,4264.61528,4231.794768,4226.666563,4234.358871,4227.179384,4222.051179,4220.512717,4280.512716,4267.179383,4314.358869,4410.769123
107,0,4333.846048,4370.769124,4250.256306,4267.692203,4228.205025,4231.281948,4231.281948,4231.281948,4231.281948,4213.846051,4286.153741,4273.846049,4316.922971,4419.487071
108,0,4336.922971,4382.563995,4227.692204,4313.333228,4231.281948,4222.563999,4229.230666,4229.743486,4228.717845,4211.794769,4288.205023,4281.538357,4315.89733,4415.897328
109,0,4307.179382,4352.820406,4220.512717,4303.076818,4226.153743,4211.281948,4216.410153,4204.615282,4214.358871,4207.692205,4267.692203,4264.10246,4295.897331,4385.640918
110,0,4287.179382,4330.256304,4237.948614,4251.281947,4224.615281,4221.538358,4211.281948,4192.30759,4210.256307,4211.281948,4256.922973,4244.615281,4277.435793,4356.41015
111,0,4292.820408,4336.41015,4240.512717,4247.692204,4223.58964,4235.384512,4225.640922,4212.307589,4224.102461,4229.743486,4266.153742,4246.666563,4279.999895,4341.025535
112,0,4286.666562,4330.256304,4231.281948,4269.743485,4216.410153,4231.281948,4236.410153,4225.640922,4230.769127,4236.410153,4267.692203,4250.769127,4279.999895,4330.256304
113,0,4266.153742,4309.743484,4232.307589,4252.820409,4213.846051,4221.538358,4224.615281,4213.846051,4225.128102,4218.461435,4247.692204,4236.922973,4258.461434,4312.820407
114,0,4245.128101,4285.1281,4236.922973,4203.589641,4204.615282,4210.769128,4204.102461,4196.410154,4215.384512,4190.256308,4217.948615,4213.846051,4226.153743,4279.999895
115,0,4234.358871,4268.205024,4232.820409,4199.487077,4200.512718,4209.743487,4205.128102,4198.974256,4214.871692,4183.076821,4211.794769,4210.256307,4218.461435,4259.487075
116,0,4248.717845,4282.051177,4223.07682,4253.84605,4225.640922,4231.794768,4231.281948,4224.102461,4227.692204,4213.846051,4236.922973,4227.692204,4240.512717,4278.974254
117,0,4265.128101,4296.410151,4214.871692,4285.640921,4249.230665,4246.666563,4245.640922,4237.948614,4234.358871,4240.512717,4259.999896,4237.948614,4252.307588,4296.410151
118,0,4264.10246,4291.281946,4215.897333,4276.922972,4244.10246,4236.922973,4238.974255,4234.358871,4233.33323,4240.512717,4263.589639,4237.435794,4248.717845,4287.179382
119,0,4253.84605,4288.717844,4214.871692,4273.846049,4226.666563,4232.307589,4232.307589,4235.384512,4234.358871,4232.307589,4257.435793,4235.384512,4251.794768,4279.487075
120,0,4234.871691,4276.922972,4211.794769,4263.589639,4218.461435,4234.871691,4222.563999,4228.717845,4233.84605,4225.640922,4242.051178,4223.07682,4243.076819,4265.128101
121,0,4218.974256,4256.922973,4222.051179,4237.435794,4214.871692,4226.153743,4215.897333,4209.743487,4226.153743,4214.871692,4221.538358,4206.153743,4219.999897,4244.10246
122,0,4230.256307,4259.999896,4230.769127,4226.666563,4215.897333,4220.512717,4223.58964,4207.179384,4225.640922,4211.281948,4214.871692,4207.179384,4213.33323,4242.051178
123,0,4234.871691,4266.666562,4217.435794,4243.58964,4228.717845,4227.692204,4228.205025,4215.897333,4230.769127,4216.922974,4223.07682,4213.846051,4219.999897,4247.692204
124,0,4219.999897,4251.794768,4205.640923,4268.205024,4231.281948,4232.307589,4224.102461,4216.410153,4223.58964,4220.512717,4232.307589,4214.358871,4218.974256,4243.076819
125,0,4222.051179,4246.666563,4212.307589,4276.922972,4220.512717,4233.33323,4228.717845,4222.051179,4215.384512,4216.410153,4235.897332,4221.538358,4217.948615,4243.076819
126,0,4227.179384,4249.743486,4219.487076,4268.205024,4224.615281,4233.33323,4234.871691,4231.281948,4222.563999,4210.256307,4227.179384,4223.58964,4215.384512,4243.58964
127,0,4218.461435,4246.666563,4215.897333,4256.410152,4235.384512,4234.358871,4232.820409,4231.281948,4231.794768,4225.128102,4224.102461,4216.922974,4214.871692,4229.743486
128,0,4224.615281,4255.384511,4215.384512,4261.538357,4233.33323,4242.563999,4234.358871,4230.256307,4235.897332,4252.307588,4237.435794,4223.58964,4226.153743,4232.820409
0,0,4237.948614,4268.717844,4226.153743,4264.61528,4228.717845,4240.512717,4234.871691,4234.871691,4232.820409,4244.615281,4246.153742,4235.897332,4231.281948,4249.230665
1,0,4232.820409,4264.61528,4231.281948,4246.153742,4230.256307,4226.666563,4227.692204,4230.256307,4222.051179,4215.384512,4234.358871,4228.717845,4223.07682,4241.538358
2,0,4228.205025,4258.974255,4222.563999,4255.384511,4238.461435,4233.33323,4234.358871,4225.640922,4220.512717,4222.051179,4230.256307,4225.640922,4225.128102,4233.84605
3,0,4233.84605,4267.179383,4213.846051,4293.333228,4253.84605,4250.256306,4251.281947,4235.384512,4234.358871,4255.384511,4244.615281,4236.410153,4236.922973,4250.769127
4,0,4225.640922,4260.512716,4223.07682,4262.563998,4254.35887,4242.563999,4244.615281,4238.461435,4234.871691,4252.307588,4239.487076,4227.179384,4228.717845,4244.615281
5,0,4204.615282,4236.922973,4229.230666,4182.564,4229.230666,4225.128102,4217.435794,4213.33323,4215.897333,4222.051179,4210.256307,4195.384513,4199.487077,4199.999897
6,0,4195.384513,4227.692204,4218.461435,4183.076821,4209.230666,4221.538358,4208.717846,4194.358872,4211.281948,4205.640923,4193.846051,4178.461436,4183.589641,4180.512718
7,0,4202.051179,4232.307589,4222.563999,4216.922974,4215.384512,4225.640922,4219.487076,4205.640923,4221.538358,4205.128102,4201.025538,4191.281949,4193.846051,4197.948615
8,0,4204.615282,4230.256307,4236.410153,4192.30759,4227.692204,4221.025538,4216.410153,4208.717846,4216.410153,4208.717846,4203.07682,4195.384513,4198.461436,4203.07682
9,0,4202.051179,4232.307589,4224.615281,4189.743487,4228.717845,4218.461435,4210.256307,4199.999897,4211.794769,4217.435794,4199.999897,4185.640923,4196.922974,4197.435795
10,0,4198.461436,4234.871691,4207.692205,4216.410153,4225.128102,4221.025538,4210.256307,4203.589641,4218.974256,4220.512717,4205.128102,4184.615282,4199.487077,4197.435795
11,0,4188.717846,4212.307589,4219.487076,4172.820411,4225.128102,4214.358871,4198.461436,4195.897333,4215.384512,4209.743487,4192.82041,4176.922975,4184.615282,4180.512718
12,0,4203.589641,4222.563999,4236.922973,4151.28195,4235.384512,4224.102461,4206.153743,4199.999897,4215.384512,4219.999897,4198.461436,4182.564,4190.256308,4182.564
13,0,4236.410153,4277.435793,4234.871691,4232.307589,4247.179383,4257.948614,4245.128101,4238.461435,4237.948614,4255.384511,4243.58964,4222.051179,4231.794768,4226.666563
14,0,4240.512717,4286.666562,4231.794768,4268.717844,4253.84605,4266.153742,4259.487075,4252.820409,4247.179383,4272.820408,4261.025537,4239.487076,4245.640922,4246.153742
15,0,4226.153743,4258.461434,4230.769127,4227.692204,4261.025537,4244.615281,4244.10246,4235.384512,4231.281948,4262.051178,4240.512717,4221.025538,4227.179384,4228.205025
16,0,4228.717845,4262.563998,4231.281948,4223.07682,4263.076819,4245.640922,4242.563999,4240.512717,4229.230666,4264.10246,4241.538358,4221.025538,4229.743486,4229.230666
17,0,4235.897332,4272.307588,4227.692204,4255.897332,4262.051178,4265.640921,4256.410152,4255.897332,4243.58964,4286.153741,4259.999896,4239.487076,4241.538358,4247.692204
18,0,4233.33323,4262.051178,4219.999897,4264.61528,4262.563998,4263.589639,4262.051178,4252.307588,4249.743486,4286.153741,4264.10246,4243.076819,4242.563999,4250.256306
19,0,4236.410153,4268.205024,4223.58964,4251.281947,4254.871691,4253.84605,4259.487075,4248.717845,4245.128101,4275.384511,4267.179383,4239.999896,4251.281947,4248.717845
20,0,4238.461435,4273.846049,4232.307589,4223.07682,4247.692204,4252.307588,4252.820409,4250.256306,4238.974255,4275.384511,4260.512716,4232.307589,4250.256306,4245.128101
21,0,4224.102461,4251.794768,4233.33323,4198.974256,4249.743486,4253.333229,4246.666563,4244.10246,4234.358871,4266.666562,4239.487076,4221.538358,4230.256307,4231.794768
22,0,4213.33323,4231.794768,4238.974255,4175.897334,4239.999896,4244.615281,4237.435794,4234.358871,4232.307589,4248.717845,4229.230666,4214.871692,4216.922974,4218.974256
23,0,4208.205025,4224.102461,4250.256306,4134.358873,4223.58964,4231.281948,4226.666563,4221.538358,4227.179384,4242.051178,4223.58964,4204.102461,4213.33323,4207.692205
24,0,4202.564,4221.025538,4245.640922,4130.256309,4227.179384,4234.358871,4227.692204,4218.461435,4226.666563,4250.256306,4223.07682,4197.948615,4211.281948,4197.435795
25,0,4206.153743,4226.153743,4224.102461,4188.717846,4228.717845,4245.640922,4235.384512,4228.205025,4236.410153,4257.948614,4228.717845,4208.205025,4210.769128,4202.564
26,0,4227.692204,4243.58964,4216.922974,4240.512717,4229.230666,4249.743486,4248.717845,4244.10246,4244.10246,4269.230665,4235.897332,4227.692204,4223.07682,4228.205025
27,0,4236.410153,4253.333229,4228.717845,4235.897332,4252.307588,4250.769127,4259.999896,4251.281947,4237.948614,4278.974254,4238.461435,4234.358871,4227.179384,4239.999896
28,0,4217.948615,4244.615281,4233.84605,4208.717846,4264.61528,4246.153742,4246.666563,4244.10246,4232.820409,4267.179383,4230.256307,4219.999897,4209.743487,4221.025538
29,0,4210.769128,4240.512717,4224.102461,4213.33323,4252.820409,4244.615281,4235.384512,4247.692204,4238.974255,4248.205024,4224.615281,4212.307589,4203.589641,4208.205025
30,0,4225.640922,4248.205024,4211.281948,4246.666563,4249.230665,4258.461434,4258.974255,4268.205024,4248.717845,4256.922973,4238.461435,4223.58964,4215.384512,4220.512717
31,0,4235.384512,4253.333229,4204.615282,4273.846049,4245.128101,4265.640921,4283.076818,4277.435793,4248.717845,4276.922972,4250.256306,4236.410153,4220.512717,4236.410153
32,0,4231.281948,4248.717845,4209.743487,4261.025537,4229.230666,4251.281947,4270.769126,4264.10246,4238.974255,4271.794767,4239.999896,4234.871691,4217.435794,4232.307589
33,0,4227.692204,4241.538358,4230.256307,4208.205025,4231.281948,4239.487076,4245.128101,4250.256306,4229.743486,4261.538357,4229.230666,4224.615281,4215.897333,4218.974256
34,0,4219.999897,4233.33323,4238.974255,4167.692206,4248.717845,4239.999896,4233.84605,4237.948614,4229.743486,4253.333229,4224.102461,4214.358871,4208.717846,4213.33323
35,0,4213.33323,4231.281948,4222.563999,4185.640923,4248.205024,4245.128101,4242.051178,4232.307589,4233.84605,4239.999896,4224.102461,4214.871692,4208.717846,4217.435794
36,0,4221.025538,4236.410153,4211.281948,4225.640922,4239.999896,4247.179383,4251.794768,4237.948614,4234.871691,4245.640922,4231.281948,4219.999897,4217.948615,4224.102461
37,0,4219.487076,4225.128102,4216.410153,4219.999897,4228.205025,4234.358871,4235.897332,4226.666563,4231.794768,4251.281947,4222.563999,4206.153743,4209.230666,4213.846051
38,0,4205.640923,4213.33323,4217.435794,4199.999897,4214.871692,4228.717845,4216.410153,4206.666564,4228.205025,4234.871691,4206.666564,4195.897333,4193.333231,4197.435795
39,0,4214.871692,4230.256307,4202.564,4236.922973,4223.58964,4244.615281,4232.820409,4222.051179,4232.820409,4239.999896,4221.025538,4214.871692,4203.589641,4206.666564
40,0,4223.58964,4240.512717,4196.410154,4255.897332,4237.435794,4239.999896,4242.051178,4236.922973,4231.281948,4249.743486,4227.692204,4217.435794,4209.743487,4212.307589
41,0,4196.922974,4215.384512,4211.281948,4186.153744,4222.563999,4214.358871,4206.153743,4206.666564,4213.846051,4214.871692,4195.897333,4182.564,4185.128103,4179.487077
42,0,4185.128103,4206.153743,4218.461435,4155.897334,4211.794769,4214.871692,4193.846051,4192.82041,4215.897333,4194.871692,4186.153744,4174.871693,4177.435795,4168.717847
43,0,4213.33323,4229.230666,4215.384512,4205.128102,4232.820409,4235.897332,4226.666563,4218.461435,4237.948614,4226.666563,4213.846051,4204.102461,4203.589641,4200.512718
44,0,4219.487076,4237.948614,4218.461435,4211.794769,4234.871691,4238.974255,4237.948614,4224.615281,4232.307589,4243.076819,4220.512717,4208.717846,4211.281948,4208.205025
45,0,4199.999897,4224.615281,4212.307589,4194.871692,4208.205025,4225.128102,4223.07682,4209.743487,4216.410153,4226.666563,4205.640923,4191.794769,4195.384513,4191.281949
46,0,4209.743487,4226.666563,4199.999897,4218.974256,4216.922974,4225.640922,4226.153743,4214.358871,4224.615281,4232.307589,4210.769128,4195.384513,4202.051179,4198.974256
47,0,4224.102461,4235.897332,4208.717846,4216.922974,4240.512717,4233.84605,4232.820409,4217.435794,4228.205025,4245.640922,4222.563999,4204.102461,4215.384512,4210.256307
48,0,4202.564,4224.102461,4217.435794,4184.102462,4222.051179,4225.640922,4215.384512,4198.974256,4214.871692,4232.307589,4210.769128,4191.281949,4201.025538,4192.30759
49,0,4193.846051,4219.487076,4205.640923,4196.410154,4210.256307,4221.538358,4210.769128,4194.358872,4217.948615,4227.179384,4203.589641,4181.538359,4192.30759,4183.076821
50,0,4211.281948,4231.281948,4199.999897,4225.128102,4233.84605,4234.871691,4224.615281,4206.666564,4231.281948,4236.922973,4214.358871,4192.30759,4208.205025,4198.461436
51,0,4208.205025,4234.358871,4202.564,4234.358871,4236.922973,4238.974255,4223.07682,4206.153743,4225.128102,4227.179384,4218.461435,4198.461436,4217.948615,4203.07682
52,0,4202.564,4237.435794,4196.922974,4250.769127,4225.128102,4230.256307,4219.487076,4206.153743,4215.897333,4230.769127,4220.512717,4193.333231,4215.384512,4197.948615
53,0,4217.435794,4250.256306,4197.435795,4261.025537,4237.948614,4228.717845,4231.281948,4219.999897,4224.615281,4261.025537,4229.743486,4197.948615,4218.974256,4208.205025
54,0,4216.922974,4244.10246,4205.128102,4242.563999,4247.179383,4230.769127,4231.794768,4222.051179,4234.358871,4261.538357,4225.128102,4204.102461,4216.410153,4212.82041
55,0,4199.999897,4225.640922,4205.128102,4219.487076,4229.230666,4228.717845,4217.435794,4213.33323,4230.256307,4240.512717,4210.769128,4200.512718,4210.256307,4198.461436
56,0,4206.666564,4230.769127,4202.564,4227.692204,4213.33323,4228.717845,4219.999897,4216.922974,4227.179384,4246.666563,4217.435794,4201.025538,4216.410153,4201.538359
57,0,4215.384512,4234.871691,4201.025538,4248.717845,4223.58964,4234.358871,4232.307589,4224.102461,4233.33323,4250.769127,4223.58964,4205.128102,4210.769128,4206.153743
58,0,4202.051179,4218.974256,4192.30759,4256.922973,4237.948614,4237.948614,4229.230666,4216.410153,4230.769127,4234.358871,4213.33323,4200.512718,4191.794769,4192.82041
59,0,4205.128102,4224.615281,4190.769128,4263.076819,4232.820409,4233.33323,4219.487076,4207.179384,4226.666563,4235.384512,4219.999897,4198.974256,4207.692205,4203.589641
60,0,4227.692204,4247.179383,4201.538359,4259.487075,4225.128102,4226.666563,4216.410153,4210.769128,4231.281948,4252.820409,4235.897332,4209.230666,4244.10246,4233.84605
61,0,4231.794768,4243.076819,4205.128102,4240.512717,4232.307589,4229.743486,4225.128102,4217.948615,4230.769127,4247.692204,4234.871691,4214.358871,4250.256306,4237.948614
62,0,4223.58964,4223.58964,4204.615282,4225.640922,4233.84605,4236.410153,4231.794768,4213.33323,4221.025538,4230.256307,4234.871691,4212.307589,4246.153742,4232.307589
63,0,4214.871692,4213.846051,4213.846051,4207.179384,4213.33323,4222.051179,4209.230666,4196.410154,4214.871692,4228.717845,4239.487076,4203.589641,4249.743486,4228.717845
64,0,4202.051179,4199.999897,4220.512717,4165.640924,4196.410154,4197.948615,4183.589641,4181.538359,4215.384512,4228.205025,4222.563999,4187.179385,4232.820409,4205.128102
65,0,4205.640923,4194.358872,4217.435794,4152.820411,4199.999897,4206.153743,4194.871692,4185.128103,4216.922974,4219.487076,4203.07682,4183.076821,4216.922974,4193.333231
66,0,4221.538358,4211.281948,4216.922974,4200.512718,4218.974256,4233.33323,4219.999897,4206.153743,4225.128102,4231.794768,4217.435794,4199.487077,4233.33323,4221.538358
67,0,4218.974256,4218.974256,4214.358871,4228.205025,4227.179384,4232.820409,4222.051179,4213.846051,4230.256307,4248.205024,4238.974255,4210.256307,4245.640922,4236.410153
68,0,4219.487076,4221.025538,4206.153743,4231.281948,4230.256307,4226.666563,4225.128102,4218.974256,4228.205025,4250.256306,4247.692204,4217.435794,4247.692204,4233.84605
69,0,4236.922973,4238.461435,4206.666564,4257.948614,4249.230665,4248.205024,4251.794768,4247.179383,4234.358871,4259.999896,4261.025537,4236.410153,4263.589639,4251.281947
70,0,4229.743486,4237.948614,4207.692205,4262.563998,4245.128101,4250.769127,4253.84605,4249.743486,4236.922973,4262.051178,4259.999896,4235.897332,4260.512716,4253.333229
71,0,4209.230666,4215.384512,4201.538359,4234.871691,4215.384512,4230.769127,4229.743486,4218.974256,4229.230666,4245.640922,4242.051178,4212.307589,4236.410153,4226.666563
72,0,4225.640922,4222.563999,4197.948615,4254.871691,4225.128102,4233.33323,4234.871691,4226.153743,4233.84605,4254.35887,4248.205024,4215.897333,4246.666563,4232.820409
73,0,4241.538358,4244.10246,4207.179384,4277.435793,4254.871691,4245.128101,4255.384511,4254.35887,4241.538358,4272.307588,4262.051178,4235.897332,4267.179383,4263.589639
74,0,4223.07682,4225.640922,4227.179384,4214.358871,4235.384512,4237.435794,4241.538358,4238.461435,4238.461435,4252.820409,4248.717845,4227.692204,4248.717845,4253.333229
75,0,4208.717846,4197.948615,4231.794768,4165.128103,4209.743487,4222.051179,4216.922974,4215.384512,4230.256307,4226.666563,4238.461435,4211.281948,4227.179384,4222.563999
76,0,4214.358871,4196.410154,4216.410153,4192.82041,4218.974256,4212.307589,4213.33323,4214.871692,4218.974256,4225.128102,4236.410153,4211.281948,4229.743486,4217.435794
77,0,4217.435794,4198.461436,4210.256307,4218.461435,4211.281948,4212.82041,4219.487076,4211.794769,4214.871692,4228.717845,4221.538358,4213.846051,4229.743486,4227.692204
78,0,4223.07682,4202.564,4217.435794,4228.205025,4199.999897,4225.640922,4230.256307,4222.563999,4226.666563,4229.743486,4228.205025,4223.07682,4231.794768,4238.974255
79,0,4231.794768,4215.384512,4208.717846,4252.820409,4217.435794,4228.205025,4234.871691,4237.435794,4233.84605,4232.820409,4247.692204,4235.897332,4241.025537,4247.179383
80,0,4232.307589,4221.025538,4195.384513,4275.384511,4238.461435,4221.538358,4233.33323,4231.794768,4229.230666,4238.461435,4245.128101,4235.384512,4245.640922,4246.153742
81,0,4230.256307,4217.948615,4198.974256,4276.922972,4246.666563,4231.794768,4241.538358,4228.205025,4228.205025,4244.615281,4244.10246,4231.281948,4247.179383,4246.666563
82,0,4233.33323,4217.948615,4203.589641,4275.897331,4241.025537,4239.999896,4248.205024,4236.410153,4229.743486,4247.179383,4250.769127,4236.410153,4248.205024,4254.35887
83,0,4240.512717,4227.692204,4199.999897,4286.666562,4230.256307,4234.358871,4249.230665,4241.538358,4232.307589,4254.35887,4256.410152,4246.153742,4249.743486,4264.10246
84,0,4244.615281,4233.33323,4201.538359,4289.230664,4228.717845,4232.820409,4248.205024,4242.563999,4235.897332,4264.10246,4261.538357,4249.230665,4254.35887,4265.128101
85,0,4229.743486,4222.051179,4206.666564,4262.563998,4231.281948,4227.692204,4237.435794,4237.948614,4232.307589,4252.307588,4247.692204,4235.384512,4247.692204,4248.717845
86,0,4216.922974,4211.794769,4206.666564,4237.948614,4231.281948,4221.025538,4227.692204,4226.666563,4230.769127,4229.743486,4229.743486,4218.461435,4235.384512,4233.33323
87,0,4226.153743,4216.922974,4208.717846,4234.871691,4235.384512,4224.615281,4229.230666,4221.538358,4234.871691,4227.692204,4238.461435,4216.410153,4235.384512,4235.384512
88,0,4227.692204,4218.461435,4219.487076,4209.230666,4232.820409,4223.58964,4226.153743,4218.974256,4232.820409,4232.307589,4242.051178,4215.897333,4237.435794,4233.33323
89,0,4214.871692,4210.769128,4221.538358,4189.743487,4225.128102,4219.999897,4221.025538,4216.410153,4226.666563,4229.743486,4228.205025,4211.794769,4235.897332,4225.128102
90,0,4219.487076,4212.82041,4203.07682,4240.512717,4226.153743,4232.820409,4231.281948,4223.58964,4228.717845,4238.974255,4236.410153,4215.384512,4245.128101,4234.871691
91,0,4230.769127,4224.102461,4193.846051,4284.102459,4228.717845,4238.974255,4237.435794,4231.281948,4233.84605,4249.230665,4249.230665,4217.435794,4249.743486,4246.666563
92,0,4232.307589,4233.33323,4210.769128,4264.61528,4235.897332,4228.717845,4231.281948,4235.384512,4235.897332,4244.615281,4244.615281,4222.051179,4248.205024,4248.205024
93,0,4234.871691,4228.717845,4217.435794,4249.743486,4241.025537,4229.230666,4231.281948,4235.897332,4235.384512,4246.666563,4247.179383,4232.307589,4252.820409,4246.666563
94,0,4231.794768,4213.846051,4203.07682,4254.35887,4228.717845,4232.307589,4233.33323,4229.743486,4230.769127,4249.743486,4250.769127,4226.666563,4250.256306,4235.897332
95,0,4220.512717,4214.358871,4207.692205,4234.358871,4228.205025,4226.666563,4230.256307,4226.666563,4231.794768,4244.10246,4246.153742,4217.435794,4247.692204,4231.794768
96,0,4231.794768,4237.435794,4233.84605,4227.692204,4257.435793,4234.871691,4241.538358,4243.076819,4242.563999,4257.948614,4253.84605,4234.358871,4264.10246,4255.384511
97,0,4261.025537,4261.025537,4236.410153,4265.128101,4269.230665,4246.153742,4264.10246,4263.589639,4250.256306,4273.846049,4273.846049,4257.435793,4279.487075,4280.512716
98,0,4267.179383,4268.205024,4225.640922,4287.179382,4252.307588,4248.717845,4269.743485,4266.666562,4248.205024,4268.205024,4287.179382,4263.076819,4284.102459,4283.076818
99,0,4250.256306,4258.974255,4236.410153,4255.897332,4249.743486,4256.410152,4263.076819,4260.512716,4246.666563,4269.743485,4276.922972,4256.922973,4283.076818,4278.974254
100,0,4246.153742,4251.794768,4248.205024,4220.512717,4262.051178,4263.076819,4260.512716,4253.333229,4247.692204,4279.999895,4259.487075,4247.179383,4274.35887,4277.435793
101,0,4261.025537,4267.692203,4233.84605,4246.153742,4268.205024,4254.35887,4263.076819,4249.743486,4249.230665,4284.102459,4270.256306,4246.153742,4275.384511,4281.025536
