title:JTA                                                                             , recorded:03.07.20 13.46.32, sampling:128, subject:JTA                                                                             , labels:COUNTER INTERPOLATED AF3 F7 F3 FC5 T7 P7 O1 O2 P8 T8 FC6 F4 F8 AF4,, units:emotiv,,,,,,,,,
109,0,4198.974256,4211.794769,4234.871691,4171.79477,4196.410154,4205.128102,4213.846051,4220.512717,4218.974256,4308.717843,4196.410154,4192.30759,4186.153744,4169.230667
110,0,4201.538359,4215.897333,4230.256307,4177.948616,4210.256307,4198.974256,4197.435795,4212.307589,4214.871692,4309.743484,4191.281949,4184.615282,4183.589641,4170.256308
111,0,4203.589641,4215.897333,4227.692204,4178.461436,4217.948615,4209.743487,4201.538359,4212.82041,4215.384512,4302.051177,4193.333231,4187.179385,4187.179385,4169.230667
112,0,4205.128102,4214.871692,4221.538358,4193.333231,4215.384512,4213.33323,4216.922974,4216.410153,4219.487076,4297.435792,4201.538359,4195.897333,4190.769128,4168.717847
113,0,4201.538359,4214.871692,4216.410153,4201.025538,4220.512717,4207.692205,4221.538358,4219.487076,4217.948615,4310.256305,4199.999897,4194.358872,4189.743487,4169.230667
114,0,4198.461436,4214.358871,4217.435794,4188.205026,4214.871692,4212.307589,4216.410153,4216.410153,4216.410153,4316.410151,4190.769128,4187.179385,4187.179385,4167.692206
115,0,4200.512718,4214.358871,4219.487076,4188.717846,4197.435795,4212.307589,4213.33323,4212.307589,4216.922974,4310.256305,4191.281949,4186.666564,4188.717846,4167.692206
116,0,4201.025538,4216.922974,4215.897333,4197.948615,4206.666564,4207.692205,4215.897333,4213.846051,4215.897333,4312.307587,4199.487077,4186.666564,4192.30759,4169.230667
117,0,4199.999897,4217.948615,4215.897333,4191.794769,4228.717845,4221.025538,4221.538358,4221.538358,4219.487076,4319.487074,4199.999897,4184.615282,4192.30759,4166.666565
118,0,4197.948615,4211.281948,4227.179384,4169.230667,4225.128102,4219.487076,4217.435794,4223.07682,4224.102461,4318.461433,4191.281949,4181.025539,4184.102462,4155.897334
119,0,4191.794769,4202.564,4238.974255,4136.410155,4209.743487,4192.30759,4198.461436,4206.153743,4214.358871,4310.769125,4181.025539,4174.358872,4173.333231,4147.179386
120,0,4181.538359,4189.743487,4236.410153,4118.974258,4203.07682,4186.666564,4182.564,4182.05118,4199.999897,4289.743485,4166.153744,4164.102462,4164.615283,4139.487078
121,0,4178.461436,4185.128103,4230.256307,4136.410155,4198.974256,4199.487077,4187.179385,4186.666564,4203.589641,4277.435793,4166.666565,4162.564001,4168.205026,4135.897335
122,0,4191.794769,4201.025538,4233.84605,4150.256309,4198.974256,4205.640923,4199.999897,4205.128102,4212.82041,4293.846049,4184.615282,4173.333231,4181.538359,4146.666565
123,0,4198.461436,4215.384512,4234.871691,4156.922975,4210.256307,4211.281948,4202.564,4204.102461,4214.358871,4312.820407,4190.769128,4183.076821,4186.153744,4157.948616
124,0,4186.666564,4213.846051,4230.769127,4180.512718,4222.051179,4214.871692,4204.615282,4201.025538,4213.33323,4317.948612,4188.205026,4182.05118,4184.102462,4159.487078
125,0,4187.179385,4211.281948,4229.230666,4198.974256,4229.230666,4213.33323,4211.794769,4212.82041,4215.897333,4327.692202,4199.487077,4185.128103,4190.769128,4162.05118
126,0,4203.07682,4220.512717,4224.615281,4215.384512,4234.871691,4218.461435,4218.974256,4227.179384,4227.692204,4342.563996,4214.358871,4201.025538,4205.128102,4175.897334
127,0,4202.564,4224.102461,4224.615281,4222.563999,4232.307589,4225.640922,4221.025538,4227.179384,4232.307589,4336.41015,4209.230666,4203.589641,4204.615282,4182.564
128,0,4196.922974,4220.512717,4232.307589,4207.692205,4227.692204,4219.999897,4217.435794,4219.487076,4223.07682,4319.999894,4197.435795,4188.717846,4194.871692,4174.358872
0,0,4204.102461,4220.512717,4223.58964,4210.769128,4229.743486,4215.384512,4215.897333,4216.410153,4215.384512,4324.615279,4199.487077,4190.256308,4198.461436,4176.922975
1,0,4205.640923,4219.487076,4212.307589,4225.640922,4226.666563,4218.461435,4221.025538,4220.512717,4216.922974,4330.256304,4204.615282,4202.564,4199.999897,4184.615282
2,0,4198.974256,4212.82041,4224.615281,4207.692205,4213.846051,4215.897333,4215.384512,4217.435794,4215.897333,4317.948612,4199.487077,4195.897333,4188.717846,4176.410154
3,0,4198.974256,4210.769128,4235.384512,4188.717846,4206.666564,4207.179384,4202.564,4209.743487,4213.33323,4308.205023,4194.358872,4185.640923,4186.153744,4170.256308
4,0,4205.128102,4221.538358,4228.717845,4203.07682,4216.922974,4212.82041,4208.205025,4216.410153,4218.461435,4315.38451,4205.640923,4198.461436,4202.051179,4187.179385
5,0,4206.666564,4220.512717,4229.230666,4196.410154,4219.999897,4218.461435,4211.794769,4218.461435,4219.999897,4319.487074,4212.307589,4204.615282,4203.07682,4190.256308
6,0,4195.897333,4204.615282,4241.025537,4157.435796,4204.102461,4206.666564,4195.384513,4200.512718,4208.205025,4314.358869,4197.948615,4188.717846,4187.692205,4169.743488
7,0,4190.256308,4199.487077,4249.230665,4131.28195,4200.512718,4197.435795,4190.769128,4191.281949,4199.487077,4310.769125,4187.179385,4183.076821,4183.589641,4164.615283
8,0,4196.922974,4200.512718,4249.743486,4130.256309,4213.846051,4198.461436,4198.974256,4194.871692,4203.589641,4308.205023,4192.82041,4188.205026,4185.640923,4171.281949
9,0,4202.051179,4206.153743,4237.948614,4158.461437,4219.487076,4201.538359,4198.974256,4200.512718,4214.358871,4311.281946,4199.999897,4194.358872,4188.717846,4172.30759
10,0,4196.922974,4212.307589,4219.487076,4195.384513,4214.871692,4206.666564,4201.538359,4210.256307,4216.922974,4313.846048,4203.589641,4199.487077,4196.410154,4173.846052
11,0,4190.256308,4207.179384,4212.307589,4200.512718,4207.179384,4200.512718,4201.025538,4209.230666,4207.179384,4299.487074,4198.461436,4190.256308,4187.692205,4169.230667
12,0,4181.025539,4193.846051,4220.512717,4166.666565,4195.897333,4189.230667,4186.153744,4183.076821,4195.897333,4285.1281,4180.512718,4170.769129,4167.179385,4152.307591
13,0,4176.922975,4193.333231,4225.640922,4159.487078,4200.512718,4199.487077,4184.615282,4178.461436,4203.589641,4292.307587,4173.333231,4169.743488,4168.205026,4148.205027
14,0,4194.358872,4212.82041,4215.384512,4210.256307,4221.538358,4223.58964,4205.128102,4210.769128,4225.128102,4315.38451,4193.333231,4189.230667,4187.692205,4168.717847
15,0,4202.051179,4218.461435,4208.205025,4222.051179,4224.102461,4217.435794,4206.153743,4216.410153,4225.128102,4321.025535,4203.07682,4190.769128,4192.82041,4174.358872
16,0,4179.487077,4196.410154,4218.461435,4162.564001,4207.179384,4187.179385,4186.153744,4186.666564,4203.589641,4302.051177,4185.128103,4171.79477,4179.487077,4153.846052
17,0,4168.717847,4183.589641,4221.538358,4147.692206,4198.461436,4185.640923,4187.179385,4175.897334,4194.358872,4287.179382,4175.897334,4166.666565,4171.79477,4145.128104
18,0,4184.102462,4201.538359,4207.692205,4202.564,4202.051179,4209.230666,4204.615282,4196.922974,4206.153743,4295.897331,4193.333231,4181.025539,4183.589641,4159.999898
19,0,4191.281949,4216.922974,4199.487077,4234.358871,4212.307589,4216.410153,4206.153743,4206.666564,4217.435794,4311.281946,4207.692205,4188.717846,4198.461436,4173.846052
20,0,4186.666564,4209.743487,4201.025538,4227.179384,4223.07682,4209.230666,4198.974256,4197.948615,4216.922974,4312.307587,4199.999897,4184.615282,4197.435795,4172.820411
21,0,4193.846051,4212.307589,4199.487077,4227.692204,4228.205025,4213.846051,4208.205025,4205.640923,4216.922974,4314.358869,4203.07682,4184.615282,4201.025538,4177.948616
22,0,4202.051179,4227.692204,4198.461436,4237.435794,4223.58964,4215.897333,4216.410153,4217.435794,4218.974256,4325.64092,4214.871692,4190.256308,4213.846051,4191.794769
23,0,4199.999897,4230.256307,4198.974256,4237.435794,4213.33323,4207.179384,4206.666564,4209.743487,4220.512717,4319.487074,4207.179384,4189.230667,4206.666564,4193.846051
24,0,4203.07682,4224.615281,4202.051179,4215.384512,4201.025538,4202.564,4197.948615,4194.358872,4212.82041,4288.205023,4191.794769,4184.102462,4199.487077,4195.897333
25,0,4221.538358,4236.922973,4213.33323,4200.512718,4191.794769,4199.999897,4194.871692,4190.769128,4203.07682,4277.435793,4203.07682,4189.230667,4224.102461,4226.666563
26,0,4252.820409,4270.256306,4217.435794,4238.974255,4203.07682,4205.640923,4199.999897,4202.564,4209.743487,4307.179382,4232.307589,4211.281948,4261.025537,4278.461434
27,0,4280.512716,4298.461433,4211.794769,4282.563998,4224.102461,4214.871692,4213.33323,4219.487076,4222.051179,4330.256304,4249.230665,4230.256307,4277.435793,4317.435792
28,0,4283.076818,4303.076818,4225.128102,4265.128101,4222.563999,4214.871692,4215.897333,4219.999897,4219.999897,4324.102458,4252.307588,4237.435794,4284.61528,4332.820407
29,0,4266.666562,4287.692203,4241.025537,4219.487076,4204.615282,4204.615282,4203.589641,4204.615282,4211.281948,4309.743484,4245.640922,4232.307589,4286.153741,4326.15374
30,0,4261.025537,4278.974254,4227.179384,4208.205025,4196.410154,4195.384513,4193.333231,4193.846051,4213.846051,4301.025536,4231.794768,4217.948615,4272.820408,4306.666561
31,0,4266.666562,4282.563998,4211.794769,4222.051179,4203.589641,4193.846051,4194.871692,4193.846051,4214.358871,4294.358869,4226.666563,4212.307589,4265.640921,4296.410151
32,0,4250.769127,4267.179383,4218.974256,4219.999897,4204.615282,4199.487077,4195.897333,4196.410154,4205.128102,4286.666562,4231.281948,4214.871692,4266.153742,4288.717844
33,0,4229.743486,4241.025537,4221.538358,4215.384512,4199.999897,4210.256307,4195.384513,4196.410154,4203.589641,4289.230664,4229.743486,4210.769128,4257.948614,4268.717844
34,0,4238.461435,4247.179383,4208.717846,4244.10246,4208.717846,4216.410153,4209.230666,4207.692205,4218.974256,4312.307587,4228.205025,4211.281948,4251.281947,4259.487075
35,0,4253.84605,4270.769126,4204.102461,4283.076818,4230.256307,4220.512717,4229.230666,4229.743486,4231.281948,4335.384509,4237.435794,4225.640922,4259.999896,4270.256306
36,0,4242.051178,4258.461434,4210.256307,4277.435793,4233.33323,4218.461435,4225.640922,4228.205025,4222.563999,4325.128099,4235.897332,4226.666563,4255.897332,4262.051178
37,0,4218.974256,4230.769127,4214.358871,4245.128101,4218.974256,4212.307589,4210.769128,4213.33323,4217.435794,4304.102459,4228.717845,4215.384512,4235.897332,4235.384512
38,0,4215.897333,4229.743486,4215.384512,4231.794768,4219.999897,4213.846051,4215.384512,4213.846051,4221.025538,4312.820407,4229.743486,4213.846051,4231.281948,4224.615281
39,0,4219.999897,4232.820409,4215.897333,4229.743486,4219.487076,4213.33323,4214.871692,4209.230666,4217.948615,4323.076817,4223.58964,4209.743487,4234.358871,4222.051179
40,0,4212.82041,4222.051179,4214.871692,4224.102461,4202.051179,4206.153743,4203.07682,4198.461436,4209.230666,4314.358869,4216.410153,4202.564,4231.281948,4212.307589
41,0,4202.051179,4211.281948,4213.846051,4210.769128,4205.128102,4202.564,4198.974256,4200.512718,4204.102461,4299.999895,4214.871692,4199.999897,4220.512717,4198.974256
42,0,4191.794769,4202.564,4223.58964,4178.461436,4216.922974,4199.487077,4193.333231,4197.435795,4207.692205,4293.846049,4203.07682,4190.769128,4204.615282,4179.487077
43,0,4192.30759,4197.948615,4233.33323,4152.307591,4205.640923,4196.410154,4186.666564,4186.666564,4213.33323,4293.333228,4191.794769,4181.538359,4201.025538,4166.666565
44,0,4202.564,4204.102461,4226.666563,4176.410154,4201.538359,4203.07682,4196.410154,4197.435795,4215.897333,4293.846049,4208.205025,4193.333231,4214.871692,4179.487077
45,0,4201.538359,4206.153743,4214.358871,4214.358871,4215.384512,4210.769128,4212.82041,4215.897333,4217.435794,4297.435792,4225.128102,4206.666564,4222.563999,4189.230667
46,0,4189.743487,4195.384513,4208.205025,4215.897333,4211.794769,4211.794769,4215.384512,4212.307589,4219.999897,4296.922972,4208.717846,4195.897333,4209.743487,4172.30759
47,0,4195.897333,4201.025538,4203.07682,4222.563999,4208.717846,4221.025538,4211.794769,4207.179384,4218.461435,4295.897331,4197.948615,4189.230667,4205.128102,4167.692206
48,0,4210.769128,4220.512717,4196.410154,4259.487075,4223.58964,4221.538358,4218.974256,4219.999897,4218.974256,4302.563997,4216.410153,4202.051179,4217.948615,4187.692205
49,0,4199.487077,4210.769128,4199.999897,4251.281947,4225.128102,4205.128102,4217.435794,4217.948615,4220.512717,4303.589638,4218.974256,4201.538359,4217.948615,4185.640923
50,0,4181.025539,4184.102462,4212.82041,4194.358872,4212.82041,4201.025538,4200.512718,4198.461436,4208.205025,4285.1281,4195.384513,4184.615282,4200.512718,4157.948616
51,0,4186.666564,4185.128103,4215.897333,4188.205026,4203.07682,4213.33323,4202.564,4197.948615,4199.999897,4279.487075,4195.897333,4185.128103,4195.897333,4155.897334
52,0,4202.051179,4207.692205,4208.205025,4231.794768,4206.666564,4223.58964,4225.128102,4216.922974,4214.871692,4302.563997,4218.461435,4201.538359,4211.281948,4178.461436
53,0,4205.128102,4215.384512,4200.512718,4260.512716,4229.743486,4228.717845,4233.33323,4227.179384,4224.102461,4318.461433,4222.563999,4211.794769,4218.461435,4186.666564
54,0,4201.025538,4214.358871,4202.564,4258.974255,4244.615281,4229.230666,4228.717845,4227.179384,4217.435794,4316.410151,4216.922974,4212.82041,4216.922974,4181.538359
55,0,4204.615282,4217.948615,4202.564,4256.410152,4236.410153,4229.743486,4232.820409,4228.717845,4224.102461,4320.512715,4219.999897,4213.33323,4218.461435,4184.615282
56,0,4207.179384,4213.846051,4200.512718,4253.84605,4226.153743,4230.769127,4234.358871,4233.84605,4233.84605,4319.999894,4223.07682,4213.33323,4221.025538,4187.179385
57,0,4197.435795,4204.615282,4207.179384,4232.307589,4215.384512,4221.025538,4225.128102,4231.794768,4224.615281,4308.205023,4218.461435,4209.230666,4217.435794,4177.948616
58,0,4186.153744,4195.897333,4216.922974,4206.153743,4201.025538,4211.281948,4220.512717,4223.58964,4216.922974,4307.179382,4211.794769,4201.538359,4210.769128,4165.128103
59,0,4185.640923,4187.179385,4216.410153,4190.769128,4202.564,4216.410153,4217.948615,4218.461435,4220.512717,4307.692202,4205.128102,4194.358872,4204.102461,4155.384514
60,0,4192.30759,4189.230667,4207.692205,4190.769128,4219.487076,4216.922974,4216.410153,4217.435794,4221.538358,4303.589638,4204.102461,4192.82041,4203.589641,4156.410155
61,0,4196.922974,4199.999897,4209.743487,4200.512718,4229.230666,4214.871692,4223.58964,4218.461435,4219.487076,4306.666561,4212.82041,4197.948615,4213.33323,4168.205026
62,0,4198.974256,4202.051179,4213.846051,4209.743487,4221.538358,4219.999897,4226.666563,4217.948615,4218.974256,4304.102459,4217.435794,4202.564,4216.922974,4170.769129
63,0,4192.82041,4191.281949,4218.974256,4184.102462,4208.717846,4211.794769,4209.230666,4204.102461,4211.281948,4282.051177,4206.666564,4193.846051,4202.564,4154.358873
64,0,4174.871693,4177.435795,4234.358871,4127.692207,4197.948615,4193.846051,4185.640923,4183.589641,4202.051179,4265.128101,4185.640923,4179.487077,4186.666564,4132.307591
65,0,4167.179385,4165.640924,4237.435794,4110.76913,4189.230667,4191.794769,4180.512718,4171.79477,4196.922974,4262.563998,4169.743488,4170.769129,4179.999898,4120.51272
66,0,4175.897334,4169.743488,4221.025538,4135.897335,4191.281949,4202.051179,4190.256308,4176.922975,4198.461436,4261.538357,4170.256308,4169.230667,4175.384513,4122.564002
67,0,4187.692205,4189.743487,4214.871692,4158.461437,4201.538359,4202.051179,4201.025538,4190.256308,4208.205025,4273.846049,4185.640923,4178.974257,4187.692205,4138.461437
68,0,4189.743487,4192.30759,4219.999897,4166.666565,4206.153743,4201.025538,4202.564,4193.333231,4210.769128,4281.538357,4192.82041,4187.179385,4198.974256,4143.589642
69,0,4178.461436,4170.256308,4211.794769,4167.692206,4199.999897,4210.256307,4201.025538,4188.205026,4207.179384,4268.205024,4177.435795,4179.487077,4177.948616,4123.589643
70,0,4176.410154,4169.230667,4202.564,4174.358872,4207.179384,4212.82041,4200.512718,4188.205026,4209.743487,4265.640921,4172.30759,4170.769129,4169.743488,4118.461438
71,0,4196.410154,4195.384513,4201.025538,4200.512718,4219.999897,4205.128102,4202.051179,4188.205026,4215.897333,4282.563998,4191.281949,4179.999898,4199.487077,4150.256309
72,0,4215.384512,4208.205025,4205.128102,4216.922974,4212.307589,4201.538359,4202.051179,4186.153744,4214.358871,4282.051177,4205.128102,4194.871692,4221.025538,4176.922975
73,0,4217.435794,4204.615282,4213.846051,4201.538359,4201.538359,4203.589641,4198.461436,4191.281949,4209.230666,4264.61528,4205.128102,4197.948615,4221.538358,4179.487077
74,0,4221.538358,4213.846051,4215.897333,4209.743487,4214.358871,4211.794769,4206.666564,4200.512718,4214.358871,4270.769126,4213.33323,4204.102461,4230.769127,4190.769128
75,0,4226.153743,4225.128102,4212.82041,4232.307589,4227.692204,4215.384512,4218.974256,4209.743487,4218.974256,4288.717844,4228.205025,4216.922974,4243.076819,4210.769128
76,0,4210.256307,4202.051179,4224.102461,4188.717846,4202.564,4202.564,4204.615282,4197.948615,4207.179384,4277.948613,4213.33323,4204.615282,4229.743486,4192.30759
77,0,4188.717846,4168.717847,4235.897332,4123.589643,4178.461436,4192.30759,4177.948616,4170.256308,4192.82041,4260.512716,4184.102462,4177.948616,4205.128102,4156.410155
78,0,4188.205026,4169.230667,4227.692204,4125.640925,4185.128103,4196.410154,4182.564,4172.820411,4203.07682,4270.769126,4185.128103,4180.512718,4201.538359,4154.871693
79,0,4205.640923,4196.922974,4216.922974,4174.358872,4201.025538,4203.07682,4202.051179,4200.512718,4217.435794,4285.1281,4206.153743,4201.538359,4216.922974,4175.897334
80,0,4212.82041,4203.589641,4215.897333,4197.435795,4212.82041,4206.666564,4204.615282,4206.666564,4214.358871,4281.025536,4207.692205,4204.102461,4221.538358,4178.461436
81,0,4201.025538,4186.153744,4216.922974,4185.128103,4212.82041,4208.205025,4205.128102,4197.435795,4211.281948,4274.35887,4197.948615,4196.922974,4212.82041,4170.769129
82,0,4196.922974,4186.153744,4217.948615,4186.153744,4207.692205,4209.230666,4214.871692,4206.666564,4216.922974,4276.410152,4206.153743,4198.974256,4214.871692,4176.922975
83,0,4212.307589,4203.589641,4214.358871,4215.897333,4214.871692,4216.410153,4225.640922,4222.563999,4217.948615,4289.743485,4218.974256,4204.615282,4228.205025,4190.256308
84,0,4216.922974,4207.692205,4210.769128,4225.640922,4226.153743,4224.615281,4225.128102,4222.051179,4219.487076,4299.999895,4221.538358,4206.153743,4234.358871,4192.82041
85,0,4198.974256,4188.717846,4223.07682,4178.974257,4211.281948,4217.948615,4211.794769,4209.230666,4215.384512,4288.205023,4206.666564,4196.922974,4216.922974,4174.358872
86,0,4182.564,4167.179385,4232.820409,4120.51272,4181.025539,4199.999897,4197.948615,4196.922974,4203.589641,4262.051178,4183.076821,4177.948616,4192.82041,4148.717847
87,0,4183.076821,4161.025539,4223.58964,4109.743489,4178.974257,4201.025538,4195.897333,4193.333231,4205.128102,4255.384511,4180.512718,4169.743488,4193.333231,4144.102463
88,0,4191.281949,4173.846052,4214.871692,4146.666565,4205.640923,4212.82041,4203.07682,4198.974256,4215.384512,4271.281947,4196.922974,4181.538359,4209.230666,4156.922975
89,0,4201.025538,4194.871692,4216.922974,4184.102462,4218.461435,4210.256307,4210.769128,4209.743487,4215.384512,4281.538357,4210.769128,4196.410154,4218.461435,4170.256308
90,0,4209.743487,4200.512718,4216.410153,4195.897333,4204.102461,4208.205025,4213.33323,4211.794769,4214.871692,4282.563998,4213.846051,4201.025538,4217.435794,4177.948616
91,0,4211.281948,4198.461436,4212.82041,4208.717846,4201.538359,4216.410153,4213.33323,4209.230666,4217.948615,4285.640921,4217.435794,4202.051179,4218.974256,4183.589641
92,0,4215.897333,4208.205025,4214.871692,4231.794768,4217.435794,4217.435794,4225.640922,4216.922974,4219.999897,4296.922972,4226.666563,4208.717846,4228.205025,4193.333231
93,0,4228.717845,4223.58964,4215.384512,4250.769127,4227.692204,4215.384512,4232.307589,4228.717845,4224.102461,4308.205023,4237.435794,4220.512717,4236.410153,4205.640923
94,0,4231.794768,4221.538358,4212.307589,4248.205024,4226.666563,4220.512717,4223.07682,4229.230666,4225.640922,4303.076818,4236.922973,4223.07682,4234.871691,4208.717846
95,0,4212.307589,4199.487077,4218.974256,4211.281948,4217.948615,4217.948615,4215.897333,4225.640922,4220.512717,4288.205023,4226.153743,4213.33323,4224.615281,4195.897333
96,0,4195.384513,4182.05118,4227.692204,4160.512719,4204.615282,4205.128102,4207.179384,4210.769128,4210.769128,4275.384511,4208.205025,4198.461436,4211.281948,4173.846052
97,0,4204.615282,4190.769128,4221.538358,4169.230667,4199.999897,4202.051179,4201.025538,4197.948615,4207.179384,4275.384511,4202.051179,4195.384513,4209.743487,4171.281949
98,0,4217.948615,4211.794769,4216.410153,4215.384512,4206.153743,4215.384512,4217.435794,4212.307589,4214.871692,4284.102459,4221.538358,4213.846051,4224.615281,4192.30759
99,0,4217.435794,4217.948615,4220.512717,4222.051179,4221.538358,4221.538358,4230.769127,4226.153743,4218.974256,4286.666562,4233.84605,4225.640922,4231.794768,4206.666564
100,0,4215.897333,4215.384512,4217.948615,4207.692205,4234.871691,4215.384512,4224.102461,4220.512717,4219.487076,4284.61528,4226.153743,4219.487076,4226.153743,4199.999897
101,0,4208.205025,4204.102461,4223.07682,4175.897334,4219.487076,4212.82041,4211.281948,4206.666564,4214.871692,4275.897331,4209.743487,4206.666564,4211.794769,4182.05118
102,0,4190.769128,4182.564,4231.281948,4136.922976,4193.846051,4207.179384,4202.564,4195.897333,4203.07682,4252.820409,4193.333231,4193.846051,4198.974256,4166.153744
103,0,4193.846051,4181.538359,4217.435794,4163.076821,4195.384513,4201.538359,4206.666564,4198.974256,4202.051179,4240.512717,4196.922974,4192.82041,4203.07682,4168.205026
104,0,4214.871692,4201.538359,4207.692205,4213.33323,4211.281948,4207.692205,4221.025538,4214.871692,4217.948615,4268.205024,4217.948615,4209.743487,4218.461435,4186.666564
105,0,4214.871692,4206.153743,4221.025538,4195.897333,4214.358871,4206.153743,4220.512717,4220.512717,4219.999897,4297.948613,4222.051179,4219.487076,4224.102461,4197.435795
106,0,4202.051179,4196.410154,4223.07682,4164.102462,4210.769128,4196.922974,4209.743487,4210.769128,4212.82041,4291.281946,4214.358871,4208.205025,4217.948615,4191.794769
107,0,4200.512718,4193.846051,4214.871692,4171.281949,4206.153743,4200.512718,4204.615282,4205.128102,4215.897333,4282.563998,4216.922974,4200.512718,4218.461435,4186.153744
108,0,4196.410154,4189.230667,4224.102461,4153.333232,4196.922974,4204.615282,4200.512718,4199.487077,4210.256307,4279.487075,4207.692205,4199.487077,4212.307589,4179.487077
109,0,4191.794769,4183.589641,4237.948614,4127.692207,4201.025538,4197.435795,4197.948615,4193.333231,4197.435795,4261.025537,4195.897333,4196.410154,4203.589641,4173.333231
110,0,4204.102461,4193.333231,4229.743486,4159.999898,4213.846051,4202.051179,4208.205025,4199.999897,4202.051179,4258.461434,4207.692205,4202.564,4209.743487,4181.025539
111,0,4217.948615,4205.640923,4215.384512,4205.640923,4209.230666,4213.33323,4224.102461,4216.922974,4215.897333,4283.076818,4221.025538,4211.794769,4221.025538,4196.410154
112,0,4212.82041,4200.512718,4216.922974,4197.435795,4203.589641,4207.692205,4225.128102,4216.410153,4210.256307,4284.61528,4214.358871,4203.589641,4217.948615,4192.30759
113,0,4207.692205,4198.461436,4221.025538,4182.564,4215.897333,4204.102461,4219.999897,4209.743487,4204.102461,4273.333229,4209.230666,4197.435795,4210.769128,4183.076821
114,0,4211.281948,4208.717846,4215.384512,4211.281948,4224.615281,4215.897333,4231.281948,4226.666563,4216.410153,4288.717844,4218.974256,4210.256307,4216.410153,4192.82041
115,0,4203.589641,4204.102461,4213.846051,4224.102461,4217.948615,4217.948615,4233.84605,4234.358871,4220.512717,4291.794767,4219.999897,4209.743487,4214.871692,4196.410154
116,0,4205.640923,4198.461436,4216.922974,4225.640922,4217.435794,4219.487076,4229.743486,4229.230666,4216.410153,4276.922972,4219.487076,4208.205025,4211.794769,4197.948615
117,0,4225.640922,4215.897333,4214.871692,4257.948614,4219.487076,4230.769127,4249.230665,4242.051178,4225.640922,4294.358869,4232.307589,4227.179384,4223.58964,4217.435794
118,0,4229.230666,4222.563999,4217.948615,4261.025537,4218.974256,4226.666563,4252.820409,4244.615281,4228.717845,4314.871689,4236.410153,4233.33323,4230.256307,4225.640922
119,0,4216.410153,4207.179384,4232.307589,4197.948615,4224.102461,4208.717846,4223.07682,4221.538358,4212.307589,4291.281946,4223.58964,4219.487076,4216.922974,4208.717846
120,0,4204.615282,4195.384513,4239.487076,4150.256309,4221.025538,4203.589641,4208.205025,4206.666564,4201.025538,4257.948614,4207.692205,4208.717846,4198.974256,4192.82041
121,0,4201.538359,4200.512718,4226.153743,4190.256308,4215.897333,4209.743487,4221.025538,4216.410153,4209.230666,4264.10246,4208.717846,4208.717846,4203.07682,4199.999897
122,0,4215.897333,4213.33323,4211.794769,4249.743486,4223.58964,4223.58964,4234.358871,4231.794768,4219.487076,4295.38451,4228.205025,4220.512717,4223.58964,4215.384512
123,0,4234.358871,4219.487076,4214.358871,4247.692204,4234.871691,4237.948614,4236.410153,4235.384512,4218.974256,4302.051177,4237.948614,4231.281948,4229.743486,4222.051179
124,0,4230.769127,4217.948615,4220.512717,4228.205025,4233.33323,4230.256307,4233.33323,4229.743486,4221.025538,4288.205023,4231.794768,4227.179384,4225.128102,4222.563999
125,0,4224.102461,4225.640922,4213.846051,4248.717845,4231.794768,4217.435794,4239.999896,4236.410153,4233.33323,4295.38451,4238.974255,4224.615281,4231.281948,4230.256307
126,0,4232.307589,4237.435794,4200.512718,4282.563998,4232.820409,4222.051179,4250.256306,4250.769127,4233.33323,4314.871689,4254.871691,4232.820409,4242.563999,4240.512717
127,0,4232.307589,4226.666563,4198.974256,4276.922972,4224.615281,4226.666563,4243.076819,4242.051178,4219.999897,4315.89733,4250.256306,4232.307589,4236.410153,4235.384512
128,0,4214.358871,4209.743487,4211.281948,4226.153743,4218.974256,4217.435794,4226.666563,4220.512717,4217.435794,4300.512715,4228.205025,4215.897333,4222.563999,4216.410153
0,0,4204.102461,4208.205025,4221.025538,4187.179385,4214.871692,4213.33323,4219.999897,4209.743487,4217.948615,4288.205023,4216.922974,4199.487077,4216.410153,4202.564
1,0,4217.948615,4215.897333,4215.897333,4218.461435,4217.948615,4216.922974,4222.563999,4216.922974,4217.435794,4293.333228,4228.205025,4207.179384,4223.58964,4209.743487
2,0,4232.820409,4223.07682,4210.256307,4258.974255,4236.410153,4217.948615,4232.307589,4227.692204,4226.666563,4298.461433,4241.538358,4226.666563,4232.307589,4226.666563
3,0,4231.281948,4226.153743,4224.615281,4230.256307,4241.025537,4219.487076,4234.358871,4226.153743,4232.820409,4296.410151,4239.999896,4228.205025,4236.922973,4230.769127
4,0,4217.948615,4212.307589,4241.025537,4162.564001,4218.974256,4208.205025,4215.897333,4210.256307,4219.999897,4291.281946,4228.205025,4209.743487,4230.769127,4215.384512
5,0,4206.666564,4194.871692,4246.153742,4120.51272,4202.051179,4196.922974,4200.512718,4197.948615,4209.230666,4283.076818,4214.358871,4192.82041,4215.897333,4194.871692
6,0,4228.717845,4225.128102,4255.384511,4156.922975,4225.640922,4221.538358,4225.640922,4226.153743,4225.640922,4302.563997,4237.435794,4216.410153,4236.410153,4225.128102
7,0,4268.205024,4266.153742,4265.128101,4229.230666,4259.999896,4254.35887,4276.410152,4278.974254,4251.794768,4349.230663,4294.358869,4268.717844,4283.076818,4287.179382
8,0,4268.717844,4263.589639,4257.435793,4245.128101,4263.076819,4254.871691,4289.743485,4288.717844,4252.307588,4353.846047,4307.692202,4283.589639,4286.153741,4294.358869
9,0,4247.692204,4262.563998,4245.640922,4232.820409,4253.84605,4242.051178,4266.153742,4261.538357,4233.84605,4328.205022,4277.435793,4259.999896,4262.051178,4266.153742
10,0,4255.384511,4291.794767,4245.640922,4257.435793,4260.512716,4247.692204,4262.563998,4258.461434,4236.410153,4331.281945,4274.87169,4255.897332,4264.61528,4270.256306
11,0,4271.794767,4309.743484,4246.153742,4278.461434,4271.794767,4251.281947,4274.35887,4270.769126,4249.743486,4344.102458,4286.666562,4267.179383,4271.281947,4290.256305
12,0,4254.871691,4296.410151,4246.666563,4253.333229,4264.10246,4238.461435,4260.512716,4253.84605,4239.487076,4327.179381,4263.589639,4253.84605,4249.743486,4273.333229
13,0,4232.820409,4285.640921,4245.640922,4230.769127,4250.256306,4229.743486,4240.512717,4232.820409,4225.640922,4301.538356,4238.461435,4232.820409,4227.179384,4245.640922
14,0,4245.640922,4305.64092,4237.948614,4244.615281,4253.84605,4234.358871,4244.615281,4237.948614,4232.307589,4298.461433,4244.10246,4234.358871,4227.179384,4251.281947
15,0,4267.692203,4336.41015,4232.820409,4269.743485,4263.589639,4233.84605,4250.769127,4245.640922,4237.948614,4311.794766,4253.84605,4245.640922,4234.871691,4271.794767
16,0,4270.256306,4344.102458,4224.102461,4306.153741,4264.10246,4235.384512,4254.35887,4249.230665,4235.897332,4323.589638,4257.948614,4255.897332,4235.384512,4279.487075
17,0,4268.205024,4337.435791,4220.512717,4330.256304,4265.640921,4248.717845,4268.205024,4264.61528,4234.358871,4327.179381,4262.051178,4264.10246,4233.33323,4277.948613
18,0,4258.974255,4326.666561,4230.769127,4297.435792,4270.769126,4245.640922,4268.205024,4267.692203,4234.358871,4321.025535,4252.820409,4257.435793,4231.794768,4271.281947
19,0,4245.640922,4310.769125,4236.410153,4260.512716,4264.10246,4236.922973,4259.487075,4253.84605,4239.487076,4310.256305,4242.563999,4242.051178,4232.307589,4257.435793
20,0,4252.307588,4308.717843,4234.871691,4260.512716,4256.410152,4244.615281,4260.512716,4252.307588,4241.538358,4311.281946,4242.051178,4237.435794,4230.769127,4250.769127
21,0,4255.384511,4312.307587,4233.84605,4259.487075,4261.025537,4244.615281,4261.025537,4260.512716,4233.84605,4311.281946,4235.897332,4233.84605,4221.538358,4245.640922
22,0,4246.666563,4306.666561,4229.230666,4264.61528,4259.487075,4237.435794,4264.10246,4262.563998,4231.281948,4302.051177,4234.871691,4231.281948,4221.538358,4244.615281
23,0,4253.333229,4303.589638,4229.230666,4279.487075,4250.256306,4244.10246,4272.820408,4266.153742,4239.999896,4314.358869,4250.769127,4242.051178,4235.384512,4257.948614
24,0,4258.974255,4301.025536,4237.948614,4266.666562,4239.487076,4248.717845,4267.692203,4269.230665,4245.128101,4335.384509,4252.820409,4248.717845,4236.410153,4263.076819
25,0,4250.256306,4303.076818,4227.692204,4274.87169,4250.769127,4245.640922,4261.538357,4263.589639,4241.538358,4329.230663,4242.051178,4245.640922,4230.256307,4256.922973
26,0,4248.717845,4308.205023,4216.410153,4302.563997,4276.410152,4244.10246,4263.589639,4252.307588,4235.384512,4310.769125,4243.58964,4240.512717,4229.230666,4252.307588
27,0,4253.333229,4301.538356,4230.256307,4273.846049,4273.333229,4238.974255,4257.948614,4246.666563,4231.794768,4306.153741,4247.179383,4235.384512,4223.58964,4251.281947
28,0,4246.153742,4288.205023,4238.974255,4238.461435,4248.717845,4229.230666,4244.615281,4246.666563,4232.307589,4311.281946,4243.58964,4235.897332,4219.487076,4247.692204
29,0,4232.820409,4274.35887,4228.717845,4243.076819,4231.794768,4221.025538,4235.897332,4234.871691,4229.743486,4303.589638,4230.769127,4230.256307,4218.461435,4232.820409
30,0,4228.205025,4263.589639,4217.948615,4249.743486,4225.640922,4219.487076,4238.461435,4225.640922,4226.666563,4287.692203,4216.410153,4215.897333,4208.205025,4219.999897
31,0,4233.84605,4272.307588,4213.846051,4270.769126,4233.33323,4232.307589,4255.897332,4244.615281,4234.871691,4294.87169,4224.102461,4221.025538,4210.256307,4229.743486
32,0,4239.487076,4283.589639,4221.025538,4278.461434,4252.307588,4239.487076,4258.974255,4254.35887,4238.461435,4301.025536,4234.871691,4234.871691,4219.487076,4240.512717
33,0,4225.640922,4264.61528,4235.384512,4216.922974,4243.58964,4218.974256,4221.025538,4218.974256,4215.384512,4265.128101,4207.692205,4215.384512,4197.435795,4215.897333
34,0,4209.743487,4238.974255,4232.307589,4170.769129,4213.33323,4201.538359,4191.794769,4184.615282,4193.333231,4235.384512,4175.897334,4185.128103,4168.717847,4186.153744
35,0,4217.948615,4245.640922,4218.974256,4203.589641,4216.922974,4211.794769,4209.743487,4192.30759,4203.589641,4252.820409,4187.179385,4192.30759,4175.897334,4191.794769
36,0,4234.358871,4264.61528,4217.435794,4237.435794,4241.538358,4221.025538,4231.794768,4217.435794,4219.999897,4273.333229,4208.205025,4215.384512,4197.435795,4214.871692
37,0,4227.692204,4259.999896,4217.948615,4237.948614,4233.84605,4213.846051,4227.692204,4217.948615,4215.384512,4266.153742,4204.102461,4212.307589,4201.538359,4215.897333
38,0,4215.384512,4248.717845,4212.307589,4245.640922,4211.794769,4215.384512,4227.179384,4209.230666,4211.281948,4256.922973,4199.487077,4198.974256,4192.82041,4201.538359
39,0,4221.025538,4248.205024,4211.794769,4247.179383,4220.512717,4223.07682,4232.820409,4217.948615,4219.487076,4262.563998,4200.512718,4201.025538,4189.230667,4201.025538
40,0,4218.461435,4235.384512,4212.307589,4229.743486,4232.307589,4213.33323,4217.435794,4214.358871,4218.974256,4259.487075,4188.205026,4202.051179,4184.102462,4199.999897
41,0,4217.948615,4229.230666,4206.666564,4240.512717,4221.538358,4212.82041,4209.743487,4201.025538,4212.82041,4255.384511,4185.640923,4197.435795,4182.564,4197.435795
42,0,4231.794768,4250.256306,4213.33323,4255.897332,4217.948615,4221.025538,4223.58964,4210.256307,4219.487076,4266.153742,4205.640923,4202.051179,4195.384513,4210.256307
43,0,4225.640922,4249.743486,4227.692204,4221.538358,4216.922974,4206.153743,4221.538358,4219.999897,4221.538358,4267.692203,4204.615282,4201.538359,4196.922974,4209.743487
44,0,4210.256307,4224.102461,4218.461435,4211.794769,4206.153743,4200.512718,4211.281948,4213.846051,4213.33323,4256.922973,4188.205026,4194.871692,4181.025539,4189.743487
45,0,4219.999897,4234.871691,4204.102461,4252.820409,4211.281948,4218.461435,4223.07682,4214.358871,4213.846051,4260.512716,4191.281949,4199.487077,4181.025539,4193.846051
46,0,4229.230666,4261.025537,4213.33323,4247.179383,4231.794768,4219.487076,4231.281948,4218.461435,4221.025538,4268.205024,4195.384513,4198.974256,4193.333231,4208.205025
47,0,4214.358871,4251.794768,4225.128102,4202.051179,4231.794768,4208.717846,4217.948615,4205.640923,4217.948615,4253.84605,4184.615282,4186.666564,4186.666564,4195.384513
48,0,4208.717846,4237.948614,4218.461435,4206.666564,4217.435794,4211.281948,4210.769128,4197.435795,4212.82041,4241.538358,4182.564,4184.102462,4180.512718,4187.692205
49,0,4218.461435,4248.717845,4210.769128,4229.743486,4216.410153,4210.256307,4221.025538,4202.051179,4215.897333,4248.205024,4188.205026,4191.281949,4187.692205,4202.051179
50,0,4216.922974,4247.692204,4218.461435,4200.512718,4217.435794,4200.512718,4219.487076,4201.538359,4215.897333,4242.051178,4185.640923,4185.640923,4178.974257,4196.410154
51,0,4209.743487,4229.743486,4229.230666,4161.53836,4210.256307,4199.999897,4203.589641,4192.30759,4211.794769,4226.153743,4181.538359,4178.974257,4164.615283,4176.922975
52,0,4219.487076,4235.897332,4223.58964,4189.743487,4214.358871,4207.692205,4204.615282,4193.846051,4212.82041,4237.435794,4187.179385,4188.717846,4171.79477,4187.692205
53,0,4232.820409,4259.487075,4211.794769,4258.974255,4226.666563,4217.948615,4226.666563,4216.922974,4218.974256,4262.563998,4202.564,4203.07682,4189.230667,4215.384512
54,0,4234.358871,4265.640921,4211.794769,4279.487075,4224.102461,4221.538358,4239.487076,4229.230666,4222.563999,4262.563998,4215.384512,4211.794769,4192.82041,4224.102461
55,0,4229.230666,4255.897332,4219.487076,4242.051178,4217.435794,4215.897333,4229.230666,4220.512717,4216.922974,4256.922973,4209.230666,4210.769128,4186.153744,4217.948615
56,0,4227.179384,4249.230665,4225.640922,4212.82041,4218.461435,4216.410153,4218.974256,4210.769128,4212.82041,4264.61528,4199.999897,4206.153743,4185.128103,4213.33323
57,0,4217.948615,4238.974255,4226.153743,4207.692205,4207.179384,4216.410153,4218.974256,4206.666564,4213.846051,4259.999896,4198.461436,4202.051179,4181.538359,4204.102461
58,0,4204.615282,4226.153743,4220.512717,4194.871692,4197.948615,4203.589641,4209.230666,4193.846051,4207.179384,4240.512717,4186.153744,4187.179385,4168.205026,4189.230667
59,0,4201.538359,4221.025538,4217.435794,4182.05118,4203.07682,4194.358872,4192.30759,4177.948616,4198.974256,4227.692204,4168.717847,4171.281949,4157.948616,4178.461436
60,0,4212.307589,4225.640922,4216.410153,4201.538359,4202.564,4206.153743,4197.435795,4186.666564,4207.692205,4227.179384,4176.922975,4177.435795,4166.153744,4185.128103
61,0,4226.666563,4239.999896,4214.871692,4237.435794,4206.666564,4216.922974,4217.948615,4210.769128,4221.538358,4240.512717,4203.07682,4197.948615,4183.076821,4203.589641
62,0,4231.794768,4247.692204,4214.871692,4248.205024,4228.717845,4212.82041,4224.102461,4220.512717,4223.07682,4256.410152,4216.410153,4209.230666,4194.358872,4216.410153
63,0,4234.871691,4250.769127,4215.897333,4249.230665,4238.461435,4219.487076,4228.205025,4219.487076,4220.512717,4268.717844,4221.538358,4218.461435,4202.051179,4226.153743
64,0,4226.153743,4248.717845,4211.794769,4242.051178,4215.384512,4223.07682,4227.692204,4214.871692,4216.410153,4265.128101,4214.871692,4208.717846,4195.384513,4218.461435
65,0,4210.769128,4234.871691,4214.871692,4206.666564,4194.358872,4202.564,4206.153743,4198.974256,4213.33323,4239.487076,4195.384513,4184.102462,4177.435795,4197.435795
66,0,4223.58964,4240.512717,4229.230666,4189.743487,4207.692205,4198.461436,4197.948615,4194.358872,4215.897333,4224.615281,4195.897333,4188.717846,4182.564,4207.179384
67,0,4250.256306,4271.281947,4230.256307,4222.563999,4224.615281,4219.487076,4216.410153,4209.743487,4216.410153,4235.384512,4210.769128,4210.769128,4196.410154,4239.999896
68,0,4256.922973,4285.640921,4221.025538,4249.743486,4217.435794,4216.922974,4223.07682,4211.794769,4213.33323,4246.153742,4212.307589,4217.948615,4194.871692,4255.897332
69,0,4266.153742,4293.846049,4229.743486,4246.153742,4210.256307,4201.538359,4217.948615,4207.692205,4214.871692,4245.640922,4214.871692,4224.102461,4205.128102,4275.897331
70,0,4298.461433,4324.615279,4239.999896,4252.307588,4209.230666,4205.640923,4216.922974,4210.769128,4214.871692,4246.153742,4232.820409,4234.871691,4238.461435,4319.999894
71,0,4316.922971,4340.512714,4230.256307,4265.640921,4196.922974,4205.640923,4207.179384,4203.07682,4211.281948,4245.640922,4242.563999,4235.897332,4257.435793,4348.205022
72,0,4317.435792,4338.974253,4234.871691,4265.640921,4199.487077,4203.07682,4205.128102,4201.025538,4213.846051,4243.58964,4251.794768,4243.076819,4267.692203,4362.563996
73,0,4326.15374,4348.717842,4251.281947,4266.153742,4224.102461,4216.922974,4221.025538,4213.846051,4219.487076,4252.820409,4271.281947,4256.410152,4289.743485,4381.538354
74,0,4321.025535,4338.461432,4242.051178,4264.10246,4222.051179,4215.384512,4218.461435,4208.205025,4216.922974,4255.384511,4267.692203,4250.769127,4285.640921,4372.820406
75,0,4297.948613,4307.692202,4231.794768,4244.10246,4199.487077,4199.999897,4203.07682,4192.82041,4210.769128,4245.640922,4248.717845,4239.487076,4262.051178,4343.589637
76,0,4290.256305,4296.410151,4236.922973,4235.897332,4206.153743,4205.640923,4211.281948,4205.128102,4215.897333,4254.871691,4259.999896,4244.615281,4270.769126,4335.384509
77,0,4290.769126,4288.717844,4233.33323,4258.974255,4226.666563,4220.512717,4229.743486,4230.256307,4231.794768,4286.153741,4284.102459,4252.820409,4290.256305,4338.461432
78,0,4279.487075,4267.692203,4230.256307,4262.051178,4220.512717,4223.58964,4231.794768,4242.051178,4235.897332,4293.333228,4281.538357,4248.205024,4284.61528,4322.563997
79,0,4272.307588,4257.435793,4231.281948,4250.256306,4209.743487,4226.666563,4235.897332,4246.153742,4234.358871,4286.666562,4278.461434,4249.743486,4284.102459,4307.692202
80,0,4273.333229,4255.384511,4216.922974,4278.461434,4222.563999,4230.256307,4249.743486,4251.794768,4243.076819,4304.615279,4297.948613,4262.563998,4301.025536,4315.89733
81,0,4263.589639,4244.10246,4205.640923,4307.692202,4231.281948,4233.84605,4254.35887,4254.871691,4244.615281,4319.487074,4299.999895,4261.538357,4297.948613,4309.230664
82,0,4245.128101,4228.205025,4215.384512,4278.461434,4216.410153,4229.743486,4245.640922,4249.743486,4230.256307,4309.743484,4278.974254,4243.076819,4278.461434,4281.025536
83,0,4231.794768,4211.281948,4219.999897,4239.999896,4207.692205,4218.461435,4241.025537,4245.640922,4230.769127,4302.563997,4272.820408,4236.922973,4274.35887,4269.230665
84,0,4233.84605,4202.051179,4219.487076,4241.025537,4223.07682,4219.999897,4245.128101,4251.281947,4244.615281,4308.717843,4282.051177,4244.615281,4281.025536,4271.794767
85,0,4236.410153,4203.07682,4214.358871,4251.281947,4235.384512,4227.179384,4239.999896,4252.307588,4241.538358,4312.307587,4279.487075,4240.512717,4275.384511,4259.999896
86,0,4220.512717,4195.384513,4197.948615,4259.999896,4222.051179,4231.281948,4229.743486,4242.563999,4229.230666,4302.051177,4262.563998,4226.666563,4259.999896,4236.922973
87,0,4208.205025,4182.05118,4197.435795,4262.563998,4209.743487,4237.948614,4237.948614,4242.563999,4228.205025,4291.794767,4259.487075,4226.666563,4260.512716,4232.307589
88,0,4218.974256,4181.538359,4217.948615,4241.538358,4218.461435,4238.974255,4248.205024,4247.179383,4232.820409,4297.435792,4266.153742,4234.871691,4264.61528,4239.999896
89,0,4219.487076,4181.025539,4221.538358,4224.615281,4223.07682,4225.640922,4238.461435,4236.410153,4230.256307,4297.948613,4256.922973,4225.640922,4250.769127,4233.84605
90,0,4204.615282,4170.256308,4209.230666,4234.358871,4206.153743,4215.384512,4231.281948,4229.230666,4226.153743,4286.153741,4243.076819,4214.871692,4242.051178,4221.538358
91,0,4204.615282,4164.615283,4214.358871,4236.410153,4196.410154,4215.897333,4233.33323,4240.512717,4229.230666,4283.076818,4247.692204,4223.58964,4246.153742,4222.563999
92,0,4217.435794,4166.666565,4220.512717,4219.487076,4206.666564,4216.410153,4233.84605,4249.230665,4232.307589,4285.640921,4252.307588,4225.640922,4241.025537,4222.563999
93,0,4215.897333,4170.256308,4207.692205,4228.205025,4219.487076,4223.07682,4240.512717,4246.666563,4230.769127,4286.666562,4246.153742,4217.948615,4233.84605,4214.358871
94,0,4202.564,4171.281949,4203.07682,4245.128101,4223.07682,4228.717845,4245.640922,4243.076819,4229.743486,4287.179382,4247.692204,4218.461435,4238.974255,4217.948615
95,0,4195.897333,4163.076821,4218.461435,4205.640923,4214.871692,4219.999897,4232.820409,4232.820409,4230.256307,4281.538357,4244.10246,4215.384512,4234.871691,4213.846051
96,0,4203.07682,4162.564001,4226.153743,4169.230667,4206.153743,4214.358871,4223.58964,4224.102461,4230.769127,4274.35887,4235.897332,4207.179384,4227.692204,4204.102461
97,0,4208.717846,4171.281949,4209.743487,4210.256307,4211.794769,4220.512717,4231.281948,4228.717845,4231.794768,4278.461434,4245.640922,4214.871692,4236.922973,4214.358871
98,0,4201.025538,4167.692206,4202.051179,4239.487076,4219.487076,4218.461435,4234.871691,4233.33323,4226.153743,4281.538357,4252.820409,4224.102461,4243.076819,4219.999897
99,0,4198.974256,4156.922975,4217.435794,4196.922974,4207.179384,4214.358871,4230.256307,4229.230666,4218.461435,4280.512716,4239.487076,4215.384512,4232.820409,4206.153743
100,0,4198.974256,4147.179386,4228.205025,4153.846052,4193.333231,4216.922974,4225.128102,4219.999897,4216.922974,4276.410152,4225.128102,4201.025538,4221.538358,4192.30759
101,0,4188.717846,4142.564001,4222.051179,4163.589642,4204.615282,4217.948615,4224.615281,4218.461435,4223.58964,4271.281947,4231.281948,4199.999897,4224.102461,4191.281949
102,0,4188.205026,4155.384514,4214.871692,4202.051179,4221.025538,4218.974256,4231.794768,4229.743486,4232.307589,4284.102459,4244.10246,4211.281948,4233.84605,4199.487077
103,0,4199.487077,4168.717847,4214.871692,4222.563999,4219.999897,4221.538358,4237.435794,4236.922973,4233.84605,4298.461433,4244.10246,4217.435794,4235.897332,4203.589641
104,0,4202.564,4165.128103,4219.487076,4209.743487,4214.871692,4223.58964,4240.512717,4232.307589,4231.281948,4295.38451,4239.487076,4215.384512,4230.769127,4201.538359
105,0,4199.487077,4164.102462,4218.461435,4215.384512,4218.974256,4226.666563,4244.615281,4238.461435,4229.743486,4294.358869,4240.512717,4215.897333,4226.666563,4204.102461
106,0,4202.564,4172.30759,4209.743487,4262.563998,4230.769127,4230.769127,4245.128101,4250.256306,4232.820409,4295.897331,4246.666563,4218.974256,4233.84605,4215.384512
107,0,4204.615282,4171.79477,4210.256307,4270.256306,4234.871691,4234.871691,4238.461435,4239.999896,4231.281948,4285.640921,4246.153742,4220.512717,4237.435794,4217.435794
108,0,4199.999897,4171.79477,4218.461435,4238.974255,4224.102461,4232.307589,4229.743486,4219.487076,4221.538358,4277.948613,4238.461435,4214.871692,4226.153743,4206.666564
109,0,4191.794769,4173.333231,4217.435794,4230.769127,4219.999897,4219.487076,4224.102461,4212.307589,4214.871692,4277.948613,4230.256307,4204.615282,4235.384512,4197.948615
110,0,4187.179385,4164.102462,4215.384512,4221.025538,4226.153743,4210.769128,4221.025538,4214.871692,4216.922974,4275.897331,4229.743486,4199.999897,4276.410152,4199.999897
111,0,4190.769128,4158.461437,4220.512717,4194.358872,4225.128102,4217.948615,4217.948615,4214.358871,4223.58964,4273.333229,4231.281948,4200.512718,4285.640921,4198.974256
112,0,4194.871692,4163.076821,4217.948615,4194.358872,4215.384512,4219.999897,4213.846051,4210.256307,4226.153743,4263.076819,4225.640922,4197.435795,4248.205024,4186.666564
113,0,4198.974256,4171.281949,4211.281948,4222.563999,4206.666564,4213.846051,4221.538358,4214.871692,4226.153743,4259.487075,4227.692204,4200.512718,4231.794768,4188.205026
114,0,4196.410154,4167.692206,4214.871692,4211.281948,4203.07682,4216.410153,4229.743486,4216.410153,4222.051179,4272.820408,4227.179384,4200.512718,4233.33323,4196.410154
115,0,4182.564,4153.846052,4224.102461,4175.897334,4208.717846,4221.025538,4216.410153,4204.102461,4214.871692,4271.281947,4211.281948,4187.692205,4210.769128,4185.640923
116,0,4182.564,4151.79477,4216.922974,4188.717846,4213.846051,4214.358871,4205.640923,4197.435795,4212.82041,4256.410152,4205.128102,4183.076821,4195.897333,4176.922975
117,0,4203.589641,4173.333231,4202.564,4244.10246,4217.948615,4212.82041,4224.102461,4215.897333,4223.58964,4268.205024,4225.640922,4201.025538,4214.358871,4196.410154
118,0,4224.102461,4202.051179,4204.615282,4288.717844,4233.84605,4230.769127,4251.794768,4244.615281,4237.435794,4298.461433,4256.922973,4228.717845,4238.974255,4230.256307
119,0,4218.974256,4202.564,4217.435794,4275.384511,4231.794768,4235.897332,4253.333229,4248.717845,4232.307589,4304.102459,4262.563998,4234.871691,4239.999896,4238.461435
120,0,4201.538359,4184.615282,4219.487076,4236.922973,4218.974256,4219.487076,4235.384512,4231.794768,4224.102461,4294.358869,4247.692204,4220.512717,4229.230666,4222.563999
121,0,4204.615282,4183.589641,4214.871692,4229.743486,4224.102461,4216.922974,4229.230666,4226.666563,4231.281948,4293.333228,4245.128101,4214.871692,4229.230666,4219.999897
122,0,4214.871692,4190.769128,4222.051179,4236.922973,4222.563999,4226.153743,4231.794768,4233.84605,4234.358871,4287.692203,4251.794768,4219.999897,4232.820409,4228.717845
123,0,4206.666564,4185.128103,4233.33323,4217.435794,4218.974256,4226.666563,4227.692204,4229.743486,4228.205025,4277.435793,4247.692204,4218.461435,4230.769127,4223.58964
124,0,4199.999897,4179.999898,4231.281948,4208.205025,4231.281948,4228.717845,4225.640922,4223.07682,4229.743486,4285.1281,4243.58964,4214.871692,4228.717845,4216.922974
125,0,4211.794769,4187.179385,4217.435794,4241.025537,4229.230666,4231.281948,4233.33323,4235.897332,4233.33323,4299.999895,4247.692204,4218.461435,4229.743486,4220.512717
126,0,4213.846051,4189.230667,4213.33323,4247.692204,4211.281948,4224.102461,4238.461435,4245.640922,4230.769127,4296.922972,4246.153742,4218.974256,4227.692204,4219.487076
127,0,4202.564,4181.025539,4226.666563,4206.666564,4214.358871,4212.82041,4230.769127,4239.487076,4231.794768,4285.640921,4242.563999,4215.384512,4223.07682,4214.871692
128,0,4199.487077,4171.281949,4238.461435,4167.692206,4218.461435,4204.102461,4218.461435,4228.717845,4228.717845,4274.87169,4235.897332,4209.743487,4218.974256,4210.256307
0,0,4193.333231,4165.640924,4232.820409,4163.076821,4202.051179,4206.153743,4214.358871,4221.025538,4218.461435,4263.589639,4223.07682,4201.538359,4214.358871,4201.025538
1,0,4185.640923,4168.205026,4219.487076,4184.102462,4197.435795,4217.948615,4218.461435,4218.461435,4217.435794,4265.128101,4215.384512,4195.384513,4208.717846,4195.897333
2,0,4187.692205,4170.769129,4215.384512,4190.256308,4207.692205,4221.025538,4219.487076,4216.922974,4221.538358,4267.179383,4212.82041,4189.230667,4203.589641,4192.82041
3,0,4189.743487,4169.230667,4219.999897,4178.974257,4204.102461,4214.358871,4215.384512,4214.358871,4215.897333,4246.666563,4209.230666,4184.102462,4200.512718,4187.179385
4,0,4185.640923,4168.717847,4222.563999,4178.461436,4198.974256,4215.384512,4214.358871,4213.33323,4213.33323,4228.717845,4211.281948,4189.743487,4201.025538,4189.230667
5,0,4189.230667,4172.820411,4219.487076,4192.30759,4211.794769,4220.512717,4219.487076,4218.974256,4225.640922,4237.435794,4217.948615,4197.948615,4205.128102,4197.948615
6,0,4190.256308,4172.30759,4222.051179,4174.871693,4212.307589,4211.281948,4213.846051,4221.025538,4229.743486,4237.435794,4214.871692,4190.256308,4203.589641,4199.999897
7,0,4184.102462,4165.128103,4231.281948,4149.230668,4194.358872,4204.615282,4201.025538,4215.384512,4219.487076,4224.102461,4209.230666,4182.05118,4199.999897,4194.358872
8,0,4191.794769,4172.30759,4235.384512,4165.640924,4197.435795,4212.82041,4206.153743,4214.358871,4215.384512,4233.33323,4221.538358,4192.82041,4210.256307,4197.948615
9,0,4204.615282,4183.589641,4232.820409,4189.743487,4207.692205,4220.512717,4217.948615,4216.922974,4218.974256,4247.179383,4232.307589,4205.128102,4223.07682,4209.743487
10,0,4198.461436,4175.897334,4223.07682,4193.846051,4199.487077,4214.358871,4219.487076,4220.512717,4220.512717,4243.076819,4223.07682,4200.512718,4216.922974,4206.666564
11,0,4191.794769,4172.820411,4213.33323,4208.205025,4200.512718,4214.358871,4227.179384,4223.07682,4222.051179,4241.025537,4218.461435,4197.435795,4210.256307,4198.461436
12,0,4199.487077,4186.153744,4212.82041,4230.769127,4217.948615,4225.128102,4234.871691,4226.666563,4229.230666,4243.076819,4229.230666,4203.07682,4217.948615,4207.179384
13,0,4202.051179,4190.769128,4216.922974,4233.33323,4218.974256,4228.717845,4233.33323,4231.281948,4230.256307,4244.10246,4235.897332,4206.666564,4222.563999,4217.435794
14,0,4197.948615,4186.153744,4213.33323,4222.051179,4212.82041,4231.794768,4236.410153,4229.743486,4222.051179,4247.179383,4231.281948,4203.589641,4218.461435,4214.358871
15,0,4200.512718,4188.205026,4214.358871,4210.769128,4216.410153,4229.230666,4230.256307,4221.025538,4217.948615,4242.051178,4227.692204,4199.999897,4216.410153,4211.794769
16,0,4203.589641,4192.30759,4218.974256,4203.589641,4218.974256,4218.974256,4216.922974,4215.897333,4225.128102,4243.58964,4227.692204,4201.025538,4222.051179,4216.410153
17,0,4199.999897,4190.769128,4218.974256,4199.487077,4215.897333,4223.07682,4220.512717,4221.538358,4231.281948,4257.435793,4232.307589,4203.07682,4229.743486,4215.897333
18,0,4201.538359,4193.333231,4219.487076,4205.128102,4218.974256,4231.794768,4228.717845,4232.307589,4230.769127,4258.974255,4244.10246,4202.564,4235.897332,4215.384512
19,0,4208.205025,4198.461436,4227.179384,4205.640923,4218.974256,4223.58964,4226.153743,4235.897332,4229.743486,4252.820409,4248.205024,4206.153743,4240.512717,4221.538358
20,0,4198.461436,4188.205026,4237.435794,4165.128103,4203.07682,4214.358871,4213.33323,4216.922974,4223.58964,4245.640922,4229.230666,4202.564,4230.256307,4216.410153
21,0,4188.205026,4176.922975,4233.33323,4143.589642,4194.358872,4213.33323,4200.512718,4194.871692,4213.846051,4232.820409,4209.230666,4187.179385,4211.794769,4199.999897
22,0,4196.410154,4184.615282,4226.153743,4171.281949,4207.179384,4205.128102,4199.999897,4196.410154,4210.769128,4226.666563,4209.743487,4182.564,4212.307589,4198.974256
23,0,4197.435795,4182.05118,4238.461435,4153.846052,4203.07682,4201.025538,4205.128102,4196.922974,4210.769128,4222.051179,4208.205025,4188.205026,4214.871692,4207.179384
24,0,4183.076821,4162.564001,4255.897332,4090.769131,4177.948616,4201.538359,4197.435795,4184.615282,4209.743487,4209.743487,4196.410154,4181.025539,4201.538359,4195.384513
25,0,4187.179385,4167.179385,4250.256306,4090.769131,4179.999898,4196.922974,4188.205026,4185.128103,4209.230666,4207.692205,4195.897333,4175.384513,4198.974256,4185.640923
26,0,4202.564,4186.666564,4232.820409,4151.28195,4204.102461,4203.07682,4196.922974,4203.589641,4215.384512,4227.179384,4209.230666,4190.256308,4215.384512,4205.128102
27,0,4202.564,4189.230667,4230.769127,4183.589641,4210.769128,4219.999897,4211.794769,4217.948615,4223.58964,4236.922973,4221.025538,4204.615282,4226.666563,4222.563999
28,0,4193.333231,4182.564,4244.10246,4159.487078,4194.871692,4222.051179,4213.846051,4214.871692,4217.948615,4223.07682,4216.922974,4197.435795,4217.948615,4213.846051
29,0,4183.589641,4172.820411,4248.205024,4118.974258,4182.564,4204.615282,4201.025538,4198.461436,4205.128102,4209.230666,4197.948615,4181.025539,4200.512718,4195.384513
30,0,4183.589641,4170.256308,4235.384512,4129.230668,4194.871692,4197.948615,4198.974256,4194.358872,4210.256307,4215.897333,4193.846051,4178.461436,4199.487077,4192.82041
31,0,4197.435795,4181.538359,4226.666563,4175.384513,4212.82041,4211.281948,4212.82041,4215.897333,4221.025538,4238.461435,4210.769128,4193.333231,4218.461435,4206.666564
32,0,4203.589641,4184.102462,4230.256307,4185.640923,4206.153743,4219.999897,4219.999897,4228.205025,4219.999897,4243.58964,4219.487076,4203.07682,4228.717845,4214.358871
33,0,4199.999897,4181.538359,4233.33323,4184.102462,4196.410154,4217.948615,4224.102461,4225.640922,4223.07682,4235.897332,4224.102461,4208.205025,4228.205025,4219.999897
34,0,4210.769128,4196.410154,4234.358871,4202.051179,4202.564,4223.07682,4234.358871,4234.358871,4234.871691,4244.615281,4235.384512,4221.538358,4234.358871,4235.897332
35,0,4222.051179,4202.564,4236.922973,4194.871692,4198.461436,4221.025538,4233.84605,4239.999896,4233.84605,4249.230665,4236.922973,4227.692204,4233.84605,4242.051178
36,0,4211.794769,4188.717846,4234.358871,4181.538359,4197.435795,4212.82041,4226.153743,4228.717845,4218.974256,4235.384512,4225.640922,4217.948615,4226.666563,4231.281948
37,0,4205.640923,4187.179385,4231.794768,4203.07682,4207.179384,4217.435794,4227.692204,4226.666563,4213.33323,4229.743486,4221.538358,4213.846051,4224.102461,4226.153743
38,0,4213.33323,4198.461436,4229.230666,4224.102461,4207.179384,4219.999897,4234.871691,4242.051178,4224.615281,4234.358871,4227.179384,4219.999897,4227.179384,4232.307589
39,0,4218.974256,4212.307589,4218.974256,4230.769127,4211.794769,4218.461435,4241.538358,4251.281947,4232.820409,4236.922973,4237.435794,4225.128102,4237.435794,4241.025537
40,0,4225.128102,4216.922974,4219.487076,4246.153742,4231.281948,4228.717845,4256.922973,4257.435793,4233.84605,4253.333229,4248.717845,4239.487076,4246.153742,4250.256306
41,0,4230.256307,4205.128102,4229.230666,4246.666563,4235.384512,4237.948614,4267.692203,4268.717844,4236.410153,4268.717844,4249.743486,4248.717845,4237.948614,4251.794768
42,0,4227.692204,4204.102461,4233.33323,4229.743486,4219.999897,4232.307589,4259.487075,4264.61528,4235.897332,4261.025537,4245.640922,4240.512717,4235.384512,4248.205024
43,0,4218.461435,4215.384512,4229.743486,4223.58964,4214.358871,4229.743486,4246.153742,4249.743486,4232.307589,4260.512716,4247.179383,4230.256307,4249.230665,4245.640922
44,0,4204.615282,4199.487077,4221.025538,4217.435794,4217.435794,4231.794768,4242.563999,4245.640922,4234.358871,4265.640921,4246.153742,4222.563999,4248.205024,4235.384512
45,0,4199.999897,4177.435795,4216.410153,4211.281948,4214.871692,4230.769127,4244.615281,4247.179383,4234.358871,4259.487075,4240.512717,4220.512717,4236.922973,4225.640922
46,0,4212.82041,4191.794769,4224.615281,4221.025538,4212.307589,4227.692204,4246.153742,4248.717845,4233.33323,4259.999896,4246.666563,4231.281948,4244.615281,4230.769127
47,0,4217.435794,4205.128102,4237.435794,4222.051179,4218.461435,4223.07682,4248.205024,4257.948614,4243.076819,4267.692203,4257.948614,4242.051178,4255.384511,4242.051178
48,0,4195.897333,4185.128103,4235.384512,4187.692205,4214.358871,4216.922974,4238.461435,4245.640922,4237.435794,4257.435793,4241.538358,4223.58964,4237.948614,4224.615281
49,0,4181.025539,4166.666565,4223.58964,4159.999898,4191.794769,4211.794769,4215.897333,4217.435794,4217.435794,4226.666563,4212.82041,4197.435795,4214.871692,4190.769128
50,0,4185.128103,4170.256308,4223.58964,4157.435796,4178.974257,4212.307589,4209.743487,4215.897333,4213.846051,4208.717846,4208.717846,4192.30759,4209.743487,4184.102462
51,0,4188.205026,4178.974257,4232.307589,4157.948616,4190.256308,4214.358871,4224.102461,4229.230666,4219.999897,4222.051179,4217.948615,4200.512718,4213.846051,4199.487077
52,0,4192.30759,4183.589641,4236.410153,4164.102462,4203.589641,4217.948615,4235.897332,4235.897332,4222.563999,4238.974255,4218.974256,4206.153743,4216.410153,4208.205025
53,0,4200.512718,4187.179385,4231.794768,4185.640923,4203.07682,4221.538358,4234.871691,4242.563999,4227.179384,4229.230666,4214.871692,4204.102461,4214.871692,4207.179384
54,0,4202.564,4185.128103,4223.07682,4199.487077,4195.897333,4216.410153,4234.358871,4244.615281,4228.205025,4215.897333,4213.846051,4204.615282,4213.846051,4206.153743
55,0,4206.666564,4190.769128,4216.410153,4210.256307,4193.846051,4214.871692,4243.58964,4246.153742,4226.666563,4228.205025,4223.07682,4213.33323,4224.102461,4213.846051
56,0,4214.358871,4205.128102,4215.384512,4231.281948,4206.666564,4229.743486,4249.230665,4253.333229,4233.84605,4247.179383,4236.922973,4222.563999,4236.410153,4226.666563
57,0,4204.615282,4199.487077,4217.435794,4223.58964,4216.922974,4230.256307,4236.410153,4248.205024,4230.769127,4239.999896,4231.794768,4215.384512,4231.794768,4215.897333
58,0,4194.871692,4188.205026,4217.435794,4211.281948,4204.615282,4216.922974,4228.205025,4239.999896,4221.025538,4226.666563,4224.615281,4210.769128,4227.179384,4205.640923
59,0,4208.717846,4196.922974,4216.922974,4232.820409,4197.435795,4223.58964,4239.999896,4238.974255,4223.58964,4235.384512,4238.461435,4223.58964,4234.358871,4222.051179
60,0,4221.025538,4208.205025,4215.384512,4251.281947,4212.82041,4235.384512,4246.666563,4234.871691,4230.256307,4248.205024,4247.692204,4230.769127,4240.512717,4234.358871
61,0,4219.487076,4213.33323,4225.640922,4234.871691,4222.051179,4228.205025,4242.563999,4236.922973,4229.743486,4246.666563,4245.640922,4230.256307,4247.179383,4237.435794
62,0,4217.435794,4218.974256,4231.794768,4228.717845,4216.922974,4228.205025,4243.076819,4242.563999,4230.256307,4244.10246,4246.153742,4231.281948,4250.769127,4243.076819
63,0,4218.461435,4218.461435,4208.717846,4266.153742,4214.358871,4242.563999,4246.153742,4245.128101,4243.076819,4257.435793,4249.230665,4233.84605,4247.179383,4246.666563
64,0,4220.512717,4212.307589,4195.897333,4290.256305,4217.948615,4241.538358,4248.717845,4258.461434,4249.230665,4267.692203,4256.410152,4238.461435,4250.256306,4247.692204
65,0,4229.230666,4217.435794,4210.769128,4281.538357,4225.128102,4231.281948,4253.333229,4265.640921,4238.974255,4258.974255,4261.538357,4246.153742,4256.922973,4251.794768
66,0,4232.307589,4221.538358,4218.974256,4264.10246,4224.102461,4229.743486,4248.205024,4249.743486,4229.230666,4244.615281,4254.35887,4243.58964,4252.820409,4251.281947
67,0,4220.512717,4212.82041,4217.435794,4252.307588,4213.33323,4230.256307,4236.410153,4239.487076,4230.769127,4246.153742,4246.666563,4233.84605,4244.615281,4247.692204
68,0,4214.358871,4207.692205,4216.922974,4255.384511,4208.205025,4230.256307,4236.410153,4246.666563,4233.33323,4258.461434,4248.205024,4231.794768,4244.10246,4245.128101
69,0,4221.538358,4218.461435,4206.666564,4278.974254,4215.897333,4235.897332,4248.205024,4247.179383,4231.794768,4264.10246,4250.256306,4233.33323,4248.205024,4237.435794
70,0,4219.487076,4222.051179,4203.589641,4281.025536,4218.974256,4231.281948,4246.153742,4234.871691,4230.769127,4254.871691,4247.692204,4228.205025,4247.692204,4231.281948
71,0,4209.230666,4212.82041,4222.051179,4243.58964,4214.871692,4216.922974,4232.307589,4229.230666,4230.256307,4240.512717,4244.615281,4226.666563,4246.666563,4236.922973
72,0,4221.538358,4221.538358,4230.769127,4236.410153,4222.051179,4222.563999,4230.769127,4238.974255,4232.307589,4241.538358,4254.871691,4238.461435,4257.435793,4253.84605
73,0,4235.384512,4231.281948,4221.025538,4259.487075,4228.205025,4234.358871,4234.871691,4246.666563,4232.820409,4248.717845,4261.538357,4240.512717,4263.076819,4257.948614
74,0,4223.07682,4224.102461,4214.871692,4254.871691,4223.07682,4232.307589,4236.922973,4246.666563,4231.281948,4250.256306,4252.820409,4230.769127,4254.35887,4245.128101
75,0,4209.230666,4213.33323,4219.487076,4233.33323,4217.435794,4229.743486,4244.10246,4247.179383,4231.794768,4256.922973,4247.179383,4226.666563,4250.256306,4240.512717
76,0,4210.769128,4202.051179,4228.205025,4212.82041,4211.794769,4230.769127,4241.538358,4238.461435,4228.717845,4251.281947,4241.025537,4221.025538,4246.666563,4235.384512
77,0,4214.358871,4202.051179,4221.025538,4221.025538,4205.640923,4229.230666,4229.743486,4230.256307,4229.230666,4233.84605,4235.897332,4219.487076,4242.563999,4229.743486
78,0,4215.897333,4217.948615,4205.128102,4268.205024,4214.871692,4228.205025,4238.461435,4243.58964,4234.871691,4239.999896,4247.692204,4232.820409,4250.256306,4242.563999
79,0,4216.922974,4217.435794,4206.153743,4279.487075,4225.640922,4227.692204,4250.769127,4249.743486,4231.281948,4253.333229,4249.230665,4232.820409,4250.256306,4245.128101
80,0,4214.871692,4203.07682,4216.922974,4234.871691,4214.358871,4223.58964,4236.922973,4231.794768,4224.615281,4244.10246,4233.33323,4217.948615,4239.999896,4232.820409
81,0,4217.435794,4210.769128,4218.461435,4223.07682,4207.179384,4226.153743,4231.281948,4227.179384,4226.666563,4237.948614,4236.410153,4224.102461,4244.10246,4241.025537
82,0,4218.974256,4221.538358,4222.563999,4242.051178,4216.410153,4233.84605,4246.153742,4244.615281,4232.307589,4245.128101,4252.307588,4234.871691,4254.871691,4252.307588
83,0,4216.410153,4215.384512,4229.743486,4238.974255,4221.025538,4235.384512,4247.179383,4251.794768,4233.33323,4247.179383,4255.384511,4231.794768,4255.384511,4247.179383
84,0,4215.897333,4214.871692,4228.205025,4228.205025,4219.487076,4227.692204,4233.33323,4240.512717,4233.84605,4249.230665,4253.333229,4232.307589,4251.281947,4246.666563
85,0,4215.384512,4215.897333,4231.794768,4216.410153,4218.974256,4216.922974,4223.07682,4229.230666,4229.230666,4249.743486,4246.153742,4231.281948,4246.666563,4248.205024
86,0,4215.897333,4208.717846,4229.743486,4216.410153,4214.871692,4213.33323,4218.461435,4226.666563,4218.974256,4245.640922,4238.974255,4221.025538,4245.128101,4244.615281
87,0,4217.948615,4209.230666,4215.897333,4237.948614,4214.871692,4222.051179,4222.563999,4227.692204,4218.461435,4246.153742,4243.076819,4216.922974,4248.717845,4245.128101
88,0,4217.435794,4217.435794,4211.794769,4253.84605,4226.666563,4231.281948,4232.820409,4228.717845,4228.205025,4248.205024,4247.692204,4223.07682,4251.281947,4245.128101
89,0,4216.922974,4222.051179,4217.435794,4256.922973,4238.461435,4230.769127,4236.410153,4231.281948,4233.33323,4243.58964,4246.666563,4228.205025,4254.871691,4244.615281
90,0,4219.487076,4221.025538,4218.461435,4252.307588,4233.84605,4227.179384,4234.358871,4234.871691,4229.743486,4245.128101,4246.153742,4226.666563,4260.512716,4247.179383
91,0,4217.435794,4216.922974,4215.384512,4257.948614,4219.487076,4233.84605,4236.410153,4237.435794,4231.794768,4258.461434,4245.128101,4224.102461,4261.025537,4244.10246
92,0,4217.435794,4213.846051,4221.025538,4256.410152,4215.384512,4230.769127,4235.897332,4232.820409,4232.820409,4261.025537,4243.58964,4221.025538,4251.281947,4238.461435
93,0,4215.384512,4212.307589,4235.384512,4208.205025,4223.07682,4211.794769,4223.07682,4218.974256,4222.051179,4244.615281,4231.281948,4211.281948,4235.384512,4230.256307
94,0,4206.153743,4211.794769,4238.461435,4170.256308,4231.281948,4210.769128,4213.846051,4211.281948,4211.281948,4227.692204,4216.410153,4199.487077,4228.205025,4217.948615
95,0,4207.179384,4215.384512,4228.205025,4209.230666,4230.256307,4230.256307,4223.58964,4221.025538,4215.897333,4235.384512,4226.666563,4206.666564,4240.512717,4223.07682
96,0,4218.974256,4221.025538,4225.128102,4250.256306,4221.538358,4237.435794,4237.948614,4232.820409,4228.717845,4255.897332,4247.179383,4222.563999,4257.948614,4242.051178
97,0,4223.58964,4222.563999,4221.538358,4249.230665,4223.07682,4231.794768,4237.948614,4234.358871,4233.84605,4265.128101,4248.205024,4225.128102,4263.589639,4250.256306
98,0,4227.692204,4228.717845,4217.948615,4264.10246,4239.487076,4231.281948,4239.487076,4235.897332,4232.820409,4270.256306,4250.769127,4229.230666,4259.487075,4255.897332
99,0,4231.281948,4233.33323,4224.615281,4275.897331,4243.58964,4230.769127,4245.128101,4239.487076,4231.281948,4271.281947,4258.461434,4236.922973,4254.871691,4263.076819
100,0,4218.974256,4219.999897,4222.051179,4255.384511,4227.692204,4226.666563,4237.948614,4230.256307,4225.128102,4251.794768,4242.563999,4226.666563,4247.692204,4249.230665
101,0,4210.256307,4208.717846,4214.358871,4240.512717,4224.615281,4228.717845,4227.692204,4218.974256,4215.897333,4238.461435,4228.205025,4212.82041,4242.563999,4233.33323
102,0,4224.102461,4219.487076,4224.102461,4245.128101,4235.897332,4232.307589,4230.769127,4226.153743,4217.435794,4255.384511,4246.153742,4222.051179,4252.820409,4245.640922
103,0,4229.743486,4234.358871,4234.871691,4252.820409,4238.974255,4231.794768,4236.410153,4236.410153,4231.281948,4271.281947,4259.487075,4235.384512,4267.179383,4261.025537
104,0,4222.051179,4233.33323,4229.230666,4249.743486,4234.358871,4231.281948,4236.410153,4234.871691,4233.33323,4267.179383,4250.256306,4230.256307,4262.563998,4255.384511
105,0,4214.358871,4221.025538,4221.538358,4239.487076,4222.051179,4232.820409,4232.307589,4227.692204,4216.410153,4250.769127,4237.435794,4216.410153,4248.717845,4244.615281
106,0,4218.461435,4220.512717,4217.948615,4254.35887,4223.58964,4234.358871,4233.84605,4224.615281,4218.974256,4247.179383,4241.025537,4217.948615,4252.820409,4249.743486
107,0,4231.794768,4242.563999,4219.487076,4282.051177,4242.051178,4236.922973,4239.999896,4234.358871,4244.10246,4270.769126,4258.461434,4233.84605,4267.692203,4268.205024
108,0,4235.384512,4252.307588,4221.538358,4270.256306,4245.128101,4233.84605,4238.974255,4239.999896,4243.076819,4287.692203,4258.461434,4234.358871,4266.666562,4270.256306
109,0,4228.717845,4238.461435,4218.974256,4254.35887,4233.33323,4228.717845,4232.820409,4231.794768,4226.153743,4279.999895,4245.640922,4224.102461,4259.999896,4259.487075
110,0,4227.692204,4229.743486,4221.538358,4258.974255,4231.794768,4235.897332,4232.307589,4229.743486,4230.769127,4268.205024,4244.10246,4224.102461,4262.051178,4258.974255
111,0,4230.769127,4236.922973,4225.640922,4263.076819,4236.922973,4246.666563,4235.384512,4239.487076,4236.410153,4264.10246,4251.281947,4229.743486,4263.076819,4264.61528
112,0,4230.769127,4245.128101,4214.871692,4281.025536,4241.025537,4239.487076,4239.999896,4246.153742,4234.871691,4274.87169,4256.922973,4230.769127,4264.61528,4266.153742
113,0,4233.33323,4247.179383,4209.230666,4300.512715,4249.743486,4227.179384,4248.205024,4249.230665,4239.999896,4283.076818,4262.051178,4231.281948,4274.87169,4268.205024
114,0,4234.358871,4245.640922,4221.538358,4291.281946,4245.128101,4237.948614,4253.333229,4249.743486,4238.974255,4265.128101,4263.589639,4232.820409,4277.435793,4270.769126
115,0,4230.256307,4245.128101,4230.256307,4276.410152,4232.820409,4251.281947,4248.205024,4248.205024,4238.461435,4260.512716,4261.025537,4233.33323,4268.205024,4272.307588
116,0,4232.820409,4245.640922,4231.281948,4257.948614,4237.435794,4239.999896,4240.512717,4249.230665,4244.615281,4282.563998,4257.948614,4233.84605,4265.128101,4272.307588
117,0,4228.717845,4238.974255,4234.871691,4229.230666,4233.33323,4228.205025,4229.743486,4242.563999,4233.84605,4276.922972,4250.769127,4227.692204,4267.179383,4265.128101
118,0,4215.897333,4229.743486,4235.384512,4223.07682,4212.82041,4229.230666,4218.461435,4228.717845,4221.538358,4250.256306,4246.153742,4218.974256,4263.076819,4258.461434
119,0,4224.102461,4233.33323,4233.33323,4236.410153,4221.025538,4224.102461,4223.07682,4227.179384,4230.256307,4257.948614,4247.179383,4225.128102,4261.025537,4262.051178
120,0,4232.820409,4237.435794,4236.410153,4228.205025,4246.153742,4217.435794,4229.743486,4232.307589,4235.897332,4277.435793,4246.666563,4233.33323,4263.589639,4263.076819
121,0,4219.999897,4228.717845,4237.435794,4217.948615,4235.384512,4225.640922,4225.640922,4226.153743,4227.692204,4266.666562,4242.563999,4225.128102,4260.512716,4256.922973
122,0,4219.487076,4228.717845,4237.435794,4228.717845,4218.461435,4240.512717,4236.922973,4230.769127,4230.256307,4259.999896,4245.128101,4224.615281,4260.512716,4258.974255
123,0,4233.33323,4236.410153,4243.58964,4224.615281,4228.717845,4244.615281,4248.205024,4239.999896,4236.410153,4266.153742,4249.230665,4231.794768,4264.10246,4262.563998
124,0,4231.794768,4236.922973,4240.512717,4217.948615,4234.871691,4234.871691,4235.384512,4233.33323,4232.307589,4256.922973,4248.717845,4225.128102,4266.153742,4260.512716
125,0,4229.230666,4240.512717,4227.692204,4258.461434,4233.84605,4234.871691,4233.33323,4235.897332,4230.769127,4254.35887,4251.281947,4224.102461,4270.769126,4264.61528
126,0,4232.307589,4241.025537,4225.128102,4288.205023,4232.820409,4243.58964,4250.256306,4250.769127,4239.999896,4268.717844,4253.84605,4232.307589,4272.820408,4270.769126
127,0,4227.179384,4232.307589,4233.33323,4247.179383,4218.461435,4237.435794,4248.205024,4248.717845,4245.128101,4273.333229,4250.769127,4227.179384,4271.281947,4263.589639
128,0,4230.769127,4241.025537,4241.025537,4224.102461,4223.07682,4234.871691,4243.076819,4243.076819,4244.10246,4278.461434,4258.461434,4226.666563,4279.487075,4265.128101
0,0,4235.384512,4252.820409,4244.615281,4240.512717,4248.205024,4246.153742,4245.128101,4246.153742,4247.692204,4278.974254,4265.640921,4232.820409,4284.102459,4275.897331
1,0,4228.205025,4238.461435,4250.256306,4216.922974,4246.153742,4237.435794,4237.948614,4237.948614,4246.153742,4262.051178,4252.820409,4222.563999,4266.666562,4271.794767
2,0,4228.205025,4226.666563,4259.487075,4183.589641,4224.102461,4222.563999,4235.384512,4230.256307,4236.410153,4260.512716,4243.58964,4213.846051,4250.256306,4261.025537
3,0,4228.205025,4228.717845,4262.563998,4182.564,4218.974256,4229.743486,4229.743486,4226.153743,4229.230666,4263.076819,4243.076819,4217.435794,4243.58964,4251.794768
4,0,4222.563999,4228.205025,4254.871691,4182.05118,4218.461435,4231.794768,4218.461435,4217.948615,4228.717845,4249.230665,4239.487076,4216.410153,4236.922973,4249.743486
5,0,4222.051179,4227.692204,4250.256306,4179.487077,4210.769128,4221.025538,4223.58964,4222.051179,4230.769127,4252.307588,4240.512717,4214.358871,4239.999896,4257.435793
6,0,4218.974256,4226.153743,4247.179383,4202.051179,4211.794769,4227.179384,4234.358871,4230.769127,4231.794768,4266.666562,4242.051178,4215.897333,4245.640922,4263.076819
7,0,4219.999897,4228.717845,4238.461435,4230.769127,4226.153743,4242.051178,4231.794768,4231.281948,4231.794768,4261.025537,4243.076819,4219.999897,4244.10246,4261.025537
8,0,4233.84605,4238.461435,4233.84605,4244.10246,4236.922973,4241.538358,4233.33323,4237.435794,4235.897332,4258.461434,4251.794768,4226.666563,4244.10246,4264.10246
9,0,4235.897332,4241.538358,4232.820409,4253.84605,4230.769127,4231.794768,4235.897332,4239.999896,4237.948614,4266.153742,4252.307588,4231.281948,4248.205024,4271.281947
10,0,4225.128102,4237.435794,4231.794768,4261.538357,4229.230666,4229.230666,4231.281948,4232.307589,4230.769127,4261.025537,4244.615281,4227.692204,4245.128101,4272.820408
11,0,4236.410153,4247.692204,4234.358871,4267.692203,4246.666563,4240.512717,4243.58964,4239.487076,4230.769127,4264.61528,4253.84605,4232.307589,4246.153742,4281.025536
12,0,4252.307588,4261.538357,4236.410153,4270.256306,4254.871691,4250.256306,4259.999896,4254.35887,4242.051178,4273.846049,4266.666562,4242.051178,4253.84605,4289.230664
13,0,4249.230665,4260.512716,4236.922973,4278.974254,4243.076819,4249.743486,4261.538357,4259.487075,4246.666563,4270.769126,4271.794767,4246.666563,4261.025537,4292.820408
14,0,4247.692204,4260.512716,4245.640922,4291.794767,4240.512717,4244.10246,4261.538357,4263.589639,4246.153742,4276.922972,4278.461434,4252.820409,4264.10246,4303.076818
15,0,4262.563998,4276.410152,4247.692204,4295.897331,4257.435793,4248.205024,4264.61528,4266.153742,4249.743486,4295.897331,4282.563998,4263.076819,4264.61528,4315.38451
16,0,4272.820408,4287.179382,4234.871691,4302.051177,4271.794767,4261.538357,4267.179383,4266.153742,4251.794768,4299.999895,4286.153741,4268.717844,4272.820408,4320.512715
17,0,4252.820409,4269.230665,4236.410153,4298.461433,4255.897332,4261.538357,4265.640921,4266.153742,4249.230665,4289.743485,4287.692203,4258.461434,4273.333229,4311.794766
18,0,4228.205025,4245.640922,4248.717845,4259.487075,4230.256307,4243.58964,4248.205024,4253.84605,4237.948614,4277.435793,4268.205024,4237.435794,4253.84605,4288.205023
19,0,4233.33323,4239.999896,4249.230665,4225.128102,4233.33323,4234.358871,4230.256307,4237.435794,4226.153743,4259.487075,4247.692204,4227.692204,4238.974255,4273.846049
20,0,4249.230665,4247.179383,4251.794768,4227.692204,4249.230665,4247.179383,4239.487076,4241.025537,4234.358871,4256.410152,4256.410152,4237.435794,4247.179383,4285.1281
21,0,4250.769127,4256.410152,4261.025537,4236.922973,4250.256306,4253.333229,4252.820409,4257.435793,4249.743486,4279.999895,4275.384511,4249.743486,4262.051178,4299.487074
22,0,4250.256306,4259.999896,4257.435793,4245.128101,4243.58964,4244.10246,4254.871691,4269.743485,4250.256306,4292.307587,4278.974254,4252.307588,4263.589639,4301.025536
23,0,4262.563998,4265.128101,4247.692204,4276.410152,4246.666563,4250.769127,4272.820408,4281.025536,4249.230665,4293.333228,4280.512716,4259.999896,4262.563998,4309.230664
24,0,4262.563998,4267.179383,4250.256306,4291.281946,4259.999896,4266.666562,4286.153741,4282.563998,4252.820409,4297.435792,4283.589639,4265.128101,4267.692203,4316.410151
25,0,4248.717845,4256.922973,4255.384511,4252.820409,4262.051178,4257.948614,4266.666562,4266.666562,4248.205024,4279.999895,4270.256306,4251.281947,4260.512716,4302.563997
26,0,4248.205024,4250.769127,4261.538357,4210.769128,4250.769127,4238.461435,4250.769127,4256.410152,4244.615281,4253.84605,4258.461434,4239.487076,4245.640922,4287.692203
27,0,4261.538357,4261.025537,4271.281947,4216.922974,4249.743486,4247.692204,4262.051178,4263.076819,4247.179383,4270.256306,4274.35887,4254.871691,4255.897332,4300.512715
28,0,4265.640921,4269.230665,4266.153742,4249.743486,4251.281947,4263.589639,4269.743485,4265.640921,4247.692204,4297.435792,4290.256305,4267.179383,4274.35887,4319.487074
29,0,4261.025537,4269.743485,4251.794768,4259.999896,4244.10246,4253.333229,4259.487075,4257.435793,4244.615281,4284.102459,4278.461434,4252.307588,4266.666562,4312.307587
30,0,4263.589639,4275.897331,4249.230665,4269.743485,4255.384511,4250.256306,4258.974255,4258.461434,4242.563999,4276.410152,4273.846049,4250.769127,4259.487075,4307.179382
31,0,4264.10246,4278.974254,4247.692204,4301.025536,4279.487075,4265.128101,4275.897331,4277.948613,4253.333229,4296.410151,4290.769126,4273.333229,4272.820408,4323.076817
32,0,4265.128101,4277.948613,4248.717845,4310.256305,4278.974254,4270.769126,4286.666562,4294.87169,4266.666562,4298.461433,4299.999895,4285.1281,4282.051177,4330.256304
33,0,4274.87169,4281.538357,4256.922973,4296.922972,4270.256306,4265.640921,4280.512716,4292.820408,4262.051178,4295.38451,4299.999895,4278.974254,4279.999895,4328.205022
34,0,4272.820408,4275.897331,4262.563998,4269.230665,4265.128101,4254.871691,4265.640921,4275.897331,4248.205024,4302.051177,4287.692203,4267.179383,4269.743485,4319.999894
35,0,4259.487075,4254.871691,4264.61528,4233.33323,4247.179383,4248.205024,4260.512716,4263.076819,4246.666563,4288.717844,4266.153742,4257.435793,4254.871691,4303.589638
36,0,4256.922973,4246.666563,4265.640921,4234.358871,4245.640922,4254.871691,4265.640921,4264.10246,4250.256306,4273.333229,4267.179383,4261.025537,4254.35887,4302.563997
37,0,4260.512716,4257.948614,4250.769127,4273.846049,4257.948614,4260.512716,4262.563998,4267.179383,4246.666563,4275.384511,4275.384511,4264.61528,4259.999896,4305.1281
38,0,4257.948614,4262.563998,4236.410153,4288.205023,4250.256306,4254.871691,4256.410152,4263.589639,4242.563999,4278.461434,4267.692203,4256.410152,4257.435793,4297.435792
39,0,4263.589639,4259.487075,4253.333229,4260.512716,4250.256306,4253.333229,4263.589639,4264.61528,4247.179383,4288.717844,4271.794767,4258.974255,4259.999896,4305.1281
40,0,4269.230665,4255.384511,4275.897331,4230.769127,4263.076819,4251.794768,4263.589639,4267.692203,4247.179383,4287.692203,4282.563998,4266.666562,4267.692203,4313.333228
41,0,4249.743486,4238.974255,4278.461434,4197.948615,4253.84605,4241.025537,4246.153742,4255.897332,4236.922973,4256.922973,4263.076819,4251.281947,4257.435793,4290.769126
42,0,4224.615281,4221.025538,4263.589639,4182.564,4236.922973,4234.871691,4240.512717,4245.640922,4234.358871,4246.666563,4238.974255,4228.717845,4239.999896,4266.153742
43,0,4231.794768,4232.307589,4246.153742,4221.538358,4241.025537,4243.58964,4254.35887,4258.461434,4244.10246,4275.897331,4249.230665,4229.230666,4242.563999,4272.307588
44,0,4259.487075,4262.563998,4244.615281,4276.410152,4255.897332,4260.512716,4265.128101,4277.948613,4258.461434,4293.846049,4271.794767,4247.179383,4261.025537,4292.307587
45,0,4270.256306,4274.35887,4244.615281,4296.922972,4267.179383,4265.640921,4265.640921,4281.025536,4263.589639,4293.846049,4281.025536,4262.563998,4271.281947,4309.230664
46,0,4258.974255,4266.666562,4235.384512,4290.769126,4271.794767,4262.563998,4263.589639,4271.794767,4254.871691,4298.461433,4283.076818,4265.128101,4271.281947,4309.230664
47,0,4247.692204,4258.461434,4234.358871,4273.333229,4261.538357,4263.589639,4255.897332,4258.461434,4244.10246,4288.205023,4277.948613,4248.717845,4263.589639,4292.820408
48,0,4253.84605,4260.512716,4249.743486,4252.307588,4252.307588,4256.922973,4246.666563,4245.128101,4241.025537,4266.153742,4265.128101,4236.410153,4253.84605,4286.153741
49,0,4265.128101,4262.563998,4261.538357,4243.58964,4250.769127,4250.769127,4250.256306,4245.128101,4240.512717,4265.640921,4259.487075,4249.230665,4253.333229,4297.435792
50,0,4269.230665,4265.640921,4254.871691,4272.820408,4260.512716,4260.512716,4271.281947,4267.692203,4249.743486,4289.743485,4273.333229,4266.153742,4266.666562,4311.281946
51,0,4263.589639,4266.666562,4245.128101,4297.948613,4274.87169,4269.230665,4286.666562,4288.717844,4262.563998,4298.461433,4287.692203,4269.743485,4275.897331,4315.38451
52,0,4251.281947,4254.35887,4249.230665,4266.666562,4272.820408,4261.025537,4274.87169,4278.974254,4251.794768,4276.410152,4275.897331,4259.487075,4261.025537,4297.435792
53,0,4245.128101,4241.538358,4253.333229,4242.051178,4261.538357,4257.948614,4263.589639,4269.230665,4241.538358,4266.666562,4257.435793,4248.205024,4246.666563,4278.974254
54,0,4256.410152,4246.666563,4246.153742,4263.589639,4259.487075,4264.10246,4269.230665,4280.512716,4254.871691,4276.922972,4262.563998,4252.820409,4255.897332,4285.1281
55,0,4261.025537,4256.922973,4245.640922,4272.820408,4263.076819,4255.384511,4267.692203,4282.563998,4256.410152,4284.61528,4275.384511,4262.563998,4267.179383,4296.922972
56,0,4255.384511,4258.461434,4248.205024,4272.820408,4261.538357,4249.230665,4264.61528,4273.333229,4246.666563,4290.256305,4275.384511,4261.538357,4265.640921,4295.897331
57,0,4264.10246,4266.153742,4243.58964,4294.358869,4261.025537,4263.076819,4273.846049,4277.435793,4258.461434,4296.922972,4276.922972,4259.487075,4268.717844,4300.512715
58,0,4278.461434,4275.384511,4245.128101,4301.025536,4268.205024,4269.743485,4273.846049,4285.1281,4266.666562,4297.948613,4282.563998,4265.128101,4276.922972,4307.692202
59,0,4277.948613,4270.769126,4246.153742,4300.512715,4278.974254,4264.10246,4269.743485,4277.435793,4251.794768,4296.922972,4280.512716,4270.256306,4274.87169,4306.666561
60,0,4272.307588,4266.666562,4233.84605,4331.794766,4291.281946,4269.230665,4279.999895,4269.230665,4247.692204,4301.025536,4279.999895,4272.820408,4277.948613,4313.333228
61,0,4262.563998,4262.051178,4231.281948,4325.64092,4284.102459,4273.846049,4282.563998,4266.666562,4253.333229,4293.333228,4275.897331,4265.128101,4272.307588,4308.717843
62,0,4249.230665,4246.153742,4248.717845,4258.974255,4263.589639,4258.974255,4266.666562,4260.512716,4246.153742,4269.743485,4258.974255,4247.179383,4251.794768,4283.589639
63,0,4251.794768,4241.025537,4258.974255,4223.58964,4264.10246,4247.179383,4252.307588,4256.410152,4242.563999,4259.999896,4257.435793,4242.563999,4249.743486,4277.435793
64,0,4266.666562,4256.922973,4249.743486,4262.051178,4271.281947,4251.794768,4252.307588,4262.051178,4250.256306,4274.35887,4273.333229,4258.974255,4265.640921,4297.435792
65,0,4268.717844,4262.051178,4241.025537,4300.512715,4255.897332,4257.435793,4261.025537,4266.153742,4251.794768,4285.1281,4272.307588,4266.153742,4269.230665,4305.64092
66,0,4254.871691,4248.205024,4248.717845,4266.153742,4244.615281,4258.974255,4263.076819,4261.538357,4246.666563,4277.948613,4257.435793,4251.794768,4257.948614,4290.256305
67,0,4244.615281,4236.922973,4251.281947,4226.666563,4252.820409,4260.512716,4262.051178,4258.974255,4248.205024,4270.769126,4258.461434,4243.58964,4251.281947,4279.999895
68,0,4244.615281,4232.307589,4245.128101,4231.794768,4253.84605,4256.410152,4259.999896,4257.435793,4252.307588,4264.61528,4257.435793,4243.58964,4248.205024,4275.384511
69,0,4243.58964,4228.717845,4252.820409,4224.615281,4250.769127,4242.051178,4249.743486,4253.84605,4248.205024,4257.948614,4247.179383,4238.461435,4244.615281,4267.179383
70,0,4244.615281,4235.897332,4259.487075,4223.07682,4252.820409,4241.538358,4249.230665,4261.025537,4243.076819,4266.666562,4250.769127,4245.128101,4249.230665,4272.820408
71,0,4257.948614,4251.281947,4247.692204,4271.281947,4255.897332,4261.538357,4266.153742,4276.410152,4250.256306,4290.769126,4268.205024,4265.128101,4262.563998,4294.87169
72,0,4264.10246,4252.307588,4239.487076,4289.743485,4263.589639,4261.538357,4267.692203,4273.333229,4252.307588,4292.820408,4268.717844,4262.563998,4266.153742,4295.38451
73,0,4253.84605,4245.640922,4248.205024,4253.84605,4272.307588,4249.743486,4253.333229,4255.897332,4244.10246,4269.230665,4253.84605,4245.640922,4251.794768,4277.948613
74,0,4268.205024,4270.256306,4255.384511,4277.948613,4284.102459,4273.333229,4274.87169,4271.281947,4255.384511,4284.61528,4270.256306,4264.10246,4264.10246,4300.512715
75,0,4305.1281,4315.38451,4259.999896,4359.487073,4307.179382,4309.743484,4319.487074,4318.974253,4279.487075,4338.974253,4318.461433,4308.205023,4307.692202,4354.871688
76,0,4318.461433,4331.281945,4262.051178,4394.871687,4323.589638,4307.692202,4332.820407,4338.461432,4283.076818,4356.41015,4342.563996,4326.15374,4329.230663,4376.410149
77,0,4309.230664,4317.435792,4260.512716,4379.999893,4322.051176,4295.38451,4322.563997,4328.205022,4278.461434,4349.743483,4339.999894,4320.512715,4325.64092,4366.66656
78,0,4299.487074,4303.589638,4270.256306,4346.66656,4313.333228,4295.897331,4321.025535,4328.717843,4281.538357,4353.846047,4338.974253,4315.89733,4321.538356,4362.563996
79,0,4287.179382,4297.948613,4276.410152,4316.410151,4301.538356,4288.205023,4314.871689,4322.051176,4274.87169,4341.538355,4326.666561,4305.1281,4309.230664,4351.281945
80,0,4282.051177,4294.87169,4273.846049,4305.64092,4295.897331,4281.538357,4299.487074,4297.948613,4262.051178,4318.974253,4307.692202,4292.820408,4295.38451,4329.743484
81,0,4283.076818,4294.358869,4283.589639,4292.307587,4296.410151,4280.512716,4295.897331,4294.358869,4265.640921,4325.128099,4308.205023,4294.87169,4294.358869,4325.128099
82,0,4270.769126,4283.076818,4296.922972,4249.230665,4286.153741,4266.666562,4287.692203,4297.435792,4266.153742,4330.256304,4302.051177,4290.256305,4286.666562,4324.102458
83,0,4259.487075,4262.051178,4294.358869,4215.897333,4274.87169,4257.948614,4273.846049,4276.410152,4253.333229,4305.1281,4279.487075,4275.897331,4273.333229,4308.717843
84,0,4270.256306,4260.512716,4285.1281,4238.461435,4278.461434,4271.281947,4273.846049,4269.743485,4253.84605,4290.769126,4282.563998,4275.384511,4275.384511,4306.666561
85,0,4284.102459,4281.025536,4282.051177,4276.922972,4281.025536,4275.384511,4282.563998,4287.692203,4264.10246,4305.1281,4298.461433,4285.1281,4283.076818,4321.538356
86,0,4279.487075,4285.1281,4279.487075,4276.922972,4276.922972,4265.640921,4285.1281,4286.666562,4259.487075,4312.820407,4287.179382,4281.025536,4278.461434,4317.435792
87,0,4261.538357,4262.563998,4278.461434,4249.743486,4277.435793,4256.922973,4277.435793,4267.692203,4245.128101,4295.897331,4265.128101,4262.051178,4263.076819,4293.846049
88,0,4255.384511,4251.794768,4280.512716,4225.640922,4283.076818,4254.871691,4266.153742,4261.538357,4243.58964,4278.461434,4260.512716,4248.205024,4256.410152,4280.512716
89,0,4257.948614,4253.84605,4277.435793,4215.384512,4274.35887,4253.333229,4256.410152,4255.897332,4246.666563,4273.333229,4257.948614,4242.563999,4255.384511,4277.948613
90,0,4253.84605,4247.692204,4274.87169,4221.538358,4252.820409,4249.743486,4256.410152,4251.281947,4244.615281,4273.846049,4253.333229,4238.974255,4251.281947,4274.35887
91,0,4253.84605,4250.256306,4279.999895,4232.307589,4254.35887,4250.769127,4263.076819,4262.051178,4247.179383,4278.461434,4260.512716,4242.563999,4254.871691,4275.384511
92,0,4264.10246,4264.10246,4280.512716,4228.205025,4275.384511,4255.897332,4259.487075,4266.153742,4250.769127,4280.512716,4265.640921,4247.692204,4264.10246,4278.461434
93,0,4265.128101,4262.051178,4266.153742,4237.435794,4277.435793,4259.487075,4254.871691,4257.948614,4249.230665,4287.179382,4261.538357,4242.563999,4260.512716,4279.487075
94,0,4254.871691,4250.769127,4258.974255,4250.769127,4258.974255,4254.35887,4258.461434,4254.871691,4245.640922,4291.281946,4252.820409,4234.871691,4252.307588,4277.435793
95,0,4249.743486,4248.717845,4263.076819,4242.051178,4248.717845,4247.692204,4255.897332,4253.333229,4245.640922,4275.384511,4246.153742,4230.256307,4249.743486,4271.281947
96,0,4246.153742,4239.999896,4257.435793,4230.256307,4246.666563,4246.153742,4244.615281,4247.179383,4246.153742,4259.487075,4245.128101,4221.538358,4243.58964,4261.025537
97,0,4241.025537,4227.692204,4259.999896,4212.307589,4246.666563,4241.538358,4241.538358,4241.538358,4239.999896,4257.948614,4243.076819,4212.82041,4236.410153,4252.307588
98,0,4251.794768,4238.974255,4271.794767,4217.435794,4257.948614,4247.179383,4252.820409,4249.743486,4241.538358,4270.256306,4245.640922,4222.563999,4245.128101,4263.589639
99,0,4267.179383,4257.948614,4265.128101,4258.461434,4268.205024,4264.61528,4263.589639,4267.179383,4257.948614,4290.769126,4265.128101,4243.076819,4263.076819,4287.179382
100,0,4258.461434,4247.692204,4248.205024,4267.179383,4259.487075,4254.871691,4256.410152,4261.025537,4253.84605,4288.717844,4265.640921,4236.922973,4258.461434,4282.563998
101,0,4244.10246,4235.897332,4244.10246,4254.35887,4250.769127,4231.281948,4246.666563,4243.58964,4235.897332,4264.61528,4244.10246,4217.435794,4244.615281,4262.563998
102,0,4249.743486,4247.179383,4249.230665,4255.384511,4251.794768,4237.948614,4249.230665,4244.10246,4235.897332,4252.820409,4237.435794,4217.948615,4245.128101,4258.974255
103,0,4248.717845,4240.512717,4249.743486,4238.461435,4235.897332,4243.076819,4242.051178,4237.435794,4238.974255,4250.256306,4232.820409,4213.33323,4237.435794,4249.743486
104,0,4241.538358,4231.281948,4246.153742,4241.025537,4225.128102,4234.358871,4233.84605,4230.769127,4240.512717,4255.384511,4230.256307,4208.205025,4232.307589,4245.640922
105,0,4249.743486,4246.666563,4242.563999,4279.487075,4250.256306,4243.076819,4247.179383,4249.743486,4246.666563,4273.846049,4249.743486,4225.640922,4249.230665,4267.179383
106,0,4253.333229,4245.640922,4249.230665,4261.025537,4263.589639,4249.230665,4253.84605,4255.897332,4241.025537,4272.820408,4255.897332,4229.230666,4253.333229,4270.256306
107,0,4241.538358,4229.743486,4253.333229,4228.205025,4242.563999,4242.563999,4244.10246,4242.563999,4234.358871,4257.435793,4241.025537,4217.435794,4239.999896,4254.871691
108,0,4246.153742,4239.487076,4239.999896,4266.666562,4231.281948,4245.640922,4244.10246,4246.153742,4245.640922,4261.538357,4244.10246,4228.717845,4245.128101,4261.025537
109,0,4257.948614,4252.307588,4233.33323,4287.692203,4250.769127,4247.179383,4248.717845,4248.717845,4248.717845,4265.128101,4252.820409,4237.435794,4252.820409,4269.743485
110,0,4254.871691,4246.666563,4249.743486,4250.256306,4269.743485,4240.512717,4243.076819,4242.563999,4243.076819,4261.025537,4247.179383,4227.692204,4246.666563,4265.128101
111,0,4247.692204,4241.538358,4266.666562,4225.640922,4258.461434,4241.025537,4234.871691,4244.10246,4244.615281,4262.563998,4243.076819,4227.179384,4244.10246,4264.61528
112,0,4253.333229,4239.999896,4255.897332,4250.256306,4236.410153,4243.076819,4237.435794,4245.640922,4246.153742,4262.563998,4246.666563,4230.769127,4248.717845,4267.692203
113,0,4262.563998,4253.84605,4234.871691,4302.563997,4252.820409,4250.256306,4254.35887,4252.307588,4249.743486,4270.256306,4257.948614,4235.897332,4256.922973,4277.435793
114,0,4264.61528,4269.230665,4237.435794,4313.846048,4278.461434,4252.307588,4268.205024,4264.61528,4251.281947,4282.563998,4269.230665,4248.717845,4265.128101,4289.230664
115,0,4262.051178,4260.512716,4251.794768,4276.922972,4263.076819,4246.666563,4264.61528,4266.153742,4248.205024,4280.512716,4265.128101,4247.692204,4264.61528,4289.230664
116,0,4253.84605,4244.10246,4251.794768,4252.820409,4247.179383,4246.153742,4250.256306,4258.461434,4248.717845,4274.87169,4251.281947,4232.820409,4252.820409,4274.87169
117,0,4251.281947,4247.692204,4245.640922,4261.538357,4260.512716,4248.205024,4246.666563,4252.307588,4247.692204,4278.974254,4248.717845,4229.743486,4246.666563,4264.61528
118,0,4261.538357,4258.974255,4248.717845,4275.897331,4267.692203,4246.666563,4257.948614,4250.256306,4243.58964,4281.538357,4258.461434,4241.025537,4255.384511,4272.307588
119,0,4265.128101,4263.076819,4245.128101,4293.333228,4262.563998,4245.640922,4256.922973,4251.794768,4246.666563,4281.538357,4264.10246,4249.230665,4261.538357,4281.025536
120,0,4260.512716,4262.563998,4233.84605,4314.871689,4263.589639,4247.692204,4250.256306,4251.794768,4249.230665,4279.999895,4263.076819,4248.205024,4257.948614,4279.487075
121,0,4254.871691,4257.948614,4233.84605,4311.281946,4262.563998,4249.743486,4257.435793,4248.205024,4244.615281,4268.205024,4258.461434,4242.563999,4253.84605,4269.743485
122,0,4255.897332,4256.410152,4237.948614,4303.076818,4259.487075,4250.769127,4258.974255,4251.281947,4245.128101,4271.281947,4256.922973,4242.563999,4252.307588,4266.666562
123,0,4258.461434,4258.461434,4241.025537,4309.230664,4262.051178,4253.333229,4252.307588,4254.871691,4249.230665,4287.179382,4256.922973,4247.692204,4251.281947,4272.820408
124,0,4252.307588,4247.692204,4251.281947,4274.87169,4258.461434,4244.615281,4243.076819,4243.58964,4240.512717,4270.256306,4250.769127,4241.538358,4249.230665,4268.717844
125,0,4242.563999,4233.84605,4260.512716,4221.025538,4251.281947,4230.769127,4232.820409,4227.692204,4231.281948,4247.692204,4243.076819,4224.615281,4244.615281,4256.410152
126,0,4245.640922,4238.461435,4246.666563,4239.999896,4246.153742,4236.410153,4236.922973,4230.256307,4234.871691,4264.61528,4244.615281,4221.538358,4244.615281,4257.948614
127,0,4254.35887,4251.794768,4229.743486,4294.358869,4244.615281,4252.820409,4250.256306,4241.538358,4236.922973,4283.076818,4248.205024,4232.820409,4249.230665,4267.692203
128,0,4249.230665,4250.769127,4243.58964,4276.922972,4249.743486,4247.692204,4242.563999,4237.948614,4230.769127,4272.820408,4246.153742,4232.820409,4248.717845,4262.563998
0,0,4236.922973,4237.435794,4259.487075,4232.307589,4247.179383,4232.307589,4227.179384,4228.205025,4229.230666,4255.897332,4241.538358,4218.974256,4245.640922,4248.717845
1,0,4238.461435,4232.307589,4249.743486,4241.538358,4245.640922,4232.820409,4230.256307,4227.692204,4232.307589,4249.230665,4237.948614,4214.871692,4244.615281,4245.128101
2,0,4249.230665,4242.051178,4240.512717,4266.153742,4257.948614,4240.512717,4241.025537,4235.897332,4232.820409,4263.076819,4240.512717,4225.640922,4246.666563,4255.384511
3,0,4250.256306,4250.769127,4246.153742,4264.61528,4257.948614,4244.10246,4242.051178,4243.58964,4234.358871,4276.410152,4246.153742,4232.307589,4249.230665,4264.10246
4,0,4244.615281,4249.743486,4243.58964,4262.051178,4245.640922,4242.563999,4234.871691,4243.076819,4237.948614,4265.640921,4246.153742,4228.205025,4249.230665,4260.512716
5,0,4245.640922,4244.10246,4244.10246,4265.128101,4249.230665,4235.897332,4232.820409,4243.076819,4237.948614,4259.487075,4247.692204,4229.743486,4250.769127,4258.974255
6,0,4245.128101,4236.410153,4254.871691,4249.230665,4248.205024,4230.256307,4233.33323,4244.615281,4233.33323,4264.61528,4246.666563,4233.84605,4249.230665,4256.922973
7,0,4241.538358,4237.435794,4246.153742,4242.051178,4234.358871,4234.358871,4232.820409,4241.025537,4233.33323,4256.922973,4240.512717,4229.743486,4244.615281,4250.256306
8,0,4251.281947,4255.384511,4229.743486,4288.205023,4250.256306,4249.743486,4247.692204,4250.769127,4242.051178,4261.538357,4250.256306,4233.33323,4254.35887,4261.538357
9,0,4265.640921,4270.256306,4230.256307,4336.41015,4277.435793,4264.61528,4271.281947,4271.794767,4252.820409,4286.153741,4270.769126,4250.769127,4274.87169,4284.61528
10,0,4264.61528,4267.179383,4233.33323,4327.692202,4267.179383,4259.487075,4268.717844,4267.179383,4248.717845,4290.256305,4269.743485,4254.871691,4274.35887,4282.563998
11,0,4250.256306,4255.897332,4229.743486,4298.974254,4249.230665,4241.538358,4250.769127,4246.153742,4234.358871,4274.35887,4251.794768,4237.435794,4253.84605,4262.563998
12,0,4244.615281,4249.230665,4234.358871,4283.076818,4250.256306,4238.974255,4245.640922,4242.563999,4230.769127,4262.563998,4244.615281,4224.615281,4245.640922,4255.384511
13,0,4248.205024,4248.205024,4245.640922,4266.153742,4248.717845,4244.10246,4242.051178,4244.615281,4235.384512,4254.871691,4249.743486,4229.743486,4248.717845,4262.051178
14,0,4243.58964,4247.692204,4253.84605,4243.076819,4242.051178,4236.922973,4234.358871,4236.922973,4233.84605,4251.794768,4250.769127,4234.358871,4248.717845,4262.051178
15,0,4237.435794,4244.10246,4249.743486,4238.461435,4248.205024,4225.640922,4229.230666,4229.230666,4230.256307,4257.435793,4244.615281,4225.640922,4245.128101,4249.230665
16,0,4241.538358,4246.153742,4233.84605,4261.025537,4250.769127,4230.256307,4230.256307,4229.230666,4231.794768,4261.025537,4238.974255,4218.974256,4242.051178,4242.051178
17,0,4248.205024,4254.871691,4228.205025,4295.38451,4242.051178,4244.10246,4244.10246,4241.025537,4239.999896,4258.461434,4244.615281,4228.205025,4244.615281,4251.281947
18,0,4251.281947,4263.589639,4233.33323,4319.999894,4248.717845,4251.794768,4265.128101,4264.61528,4248.717845,4264.10246,4262.563998,4246.666563,4257.435793,4268.205024
19,0,4250.769127,4266.153742,4225.128102,4324.102458,4264.10246,4248.717845,4268.205024,4271.794767,4248.717845,4277.435793,4272.307588,4251.794768,4266.666562,4269.743485
20,0,4244.10246,4261.538357,4210.256307,4323.589638,4267.179383,4245.128101,4256.922973,4259.999896,4245.128101,4282.563998,4263.076819,4243.076819,4262.563998,4262.051178
21,0,4246.153742,4262.051178,4213.846051,4333.846048,4264.61528,4253.84605,4264.61528,4264.10246,4248.717845,4280.512716,4262.563998,4243.58964,4259.487075,4270.256306
22,0,4259.487075,4270.769126,4231.281948,4326.666561,4266.153742,4262.051178,4274.87169,4275.384511,4250.256306,4280.512716,4275.384511,4250.769127,4264.61528,4279.487075
23,0,4258.461434,4273.846049,4236.410153,4298.974254,4263.076819,4257.948614,4266.666562,4270.256306,4248.205024,4284.61528,4270.256306,4251.281947,4264.10246,4268.205024
24,0,4243.076819,4262.051178,4229.230666,4290.256305,4260.512716,4249.230665,4261.538357,4261.538357,4249.230665,4277.435793,4250.769127,4245.640922,4253.84605,4257.435793
25,0,4242.563999,4251.281947,4230.769127,4294.358869,4265.640921,4245.640922,4262.563998,4258.461434,4249.230665,4264.61528,4247.179383,4239.999896,4246.666563,4258.974255
26,0,4248.205024,4250.256306,4232.820409,4296.922972,4252.307588,4246.153742,4252.307588,4259.487075,4248.205024,4265.128101,4253.84605,4235.384512,4247.179383,4253.84605
27,0,4245.640922,4250.769127,4217.435794,4313.846048,4232.820409,4246.153742,4247.179383,4258.974255,4245.128101,4269.743485,4248.205024,4233.84605,4246.153742,4246.153742
28,0,4248.205024,4254.35887,4210.769128,4327.692202,4248.717845,4247.692204,4259.487075,4255.897332,4244.615281,4264.10246,4246.666563,4237.435794,4244.615281,4252.820409
29,0,4245.640922,4250.769127,4227.692204,4293.846049,4267.179383,4250.769127,4255.897332,4249.743486,4244.615281,4257.948614,4248.717845,4233.84605,4244.615281,4252.307588
30,0,4237.435794,4245.128101,4237.435794,4271.794767,4253.84605,4245.128101,4239.999896,4246.666563,4247.179383,4263.589639,4246.153742,4232.307589,4244.615281,4248.717845
31,0,4246.666563,4258.974255,4229.743486,4306.666561,4253.333229,4234.358871,4244.615281,4253.333229,4249.230665,4265.640921,4256.922973,4244.615281,4253.333229,4263.076819
32,0,4246.153742,4261.025537,4228.205025,4299.999895,4253.333229,4232.820409,4246.153742,4246.153742,4240.512717,4251.281947,4257.435793,4242.563999,4248.717845,4258.974255
32,0,4246.153742,4261.025537,4228.205025,4299.999895,4253.333229,4232.820409,4246.153742,4246.153742,4240.512717,4251.281947,4257.435793,4242.563999,4248.717845,4258.974255
33,0,4217.948615,4227.692204,4235.897332,4219.999897,4221.538358,4231.281948,4223.07682,4218.974256,4226.666563,4228.717845,4217.948615,4208.717846,4213.846051,4216.922974
34,0,4211.794769,4214.358871,4237.948614,4185.128103,4215.897333,4221.538358,4210.256307,4204.615282,4225.128102,4220.512717,4193.846051,4189.743487,4197.948615,4197.948615
35,0,4232.820409,4240.512717,4232.820409,4229.230666,4243.58964,4215.384512,4224.102461,4223.07682,4234.871691,4241.538358,4217.948615,4210.256307,4222.051179,4223.58964
36,0,4234.358871,4251.794768,4225.640922,4269.230665,4246.153742,4227.179384,4238.974255,4243.58964,4243.58964,4263.589639,4241.025537,4228.205025,4239.999896,4240.512717
37,0,4235.897332,4246.153742,4222.051179,4287.692203,4246.666563,4247.179383,4247.692204,4252.307588,4250.256306,4259.999896,4245.128101,4230.256307,4241.025537,4244.615281
38,0,4247.179383,4245.640922,4230.769127,4274.35887,4256.922973,4244.615281,4244.10246,4249.230665,4242.051178,4245.128101,4238.461435,4228.205025,4238.461435,4244.615281
39,0,4239.487076,4238.974255,4243.58964,4227.692204,4236.410153,4231.281948,4232.307589,4236.922973,4229.230666,4244.615281,4225.128102,4220.512717,4233.84605,4233.33323
40,0,4231.281948,4233.84605,4237.948614,4222.563999,4217.435794,4233.84605,4226.153743,4238.974255,4237.948614,4253.333229,4228.717845,4218.461435,4230.256307,4230.256307
41,0,4234.871691,4233.33323,4228.717845,4243.076819,4229.230666,4228.205025,4219.487076,4238.974255,4244.615281,4245.128101,4230.769127,4217.948615,4225.640922,4228.717845
42,0,4232.307589,4226.666563,4241.025537,4217.948615,4233.84605,4210.256307,4209.230666,4221.538358,4230.769127,4230.256307,4215.897333,4209.743487,4212.82041,4215.384512
43,0,4232.307589,4228.717845,4245.128101,4205.640923,4227.692204,4216.410153,4210.769128,4213.846051,4226.666563,4228.717845,4216.922974,4209.743487,4202.564,4219.999897
44,0,4245.640922,4247.692204,4230.769127,4251.281947,4231.281948,4239.999896,4227.179384,4228.717845,4238.974255,4241.538358,4236.410153,4223.58964,4203.589641,4237.435794
45,0,4247.692204,4250.769127,4232.820409,4262.563998,4238.461435,4239.487076,4237.948614,4244.615281,4240.512717,4250.256306,4233.33323,4229.743486,4202.564,4230.256307
46,0,4233.84605,4233.33323,4246.153742,4220.512717,4239.487076,4219.999897,4229.743486,4238.974255,4231.794768,4238.974255,4217.435794,4217.948615,4191.794769,4214.871692
47,0,4227.179384,4227.179384,4247.179383,4199.999897,4229.230666,4214.871692,4214.358871,4220.512717,4229.743486,4225.640922,4212.82041,4203.589641,4181.538359,4216.410153
48,0,4232.820409,4234.871691,4248.717845,4198.974256,4219.999897,4225.128102,4215.897333,4220.512717,4229.230666,4229.743486,4214.358871,4206.153743,4184.102462,4221.538358
49,0,4237.435794,4233.33323,4245.640922,4199.487077,4224.615281,4226.153743,4219.487076,4230.256307,4229.743486,4233.33323,4215.897333,4216.410153,4185.128103,4219.487076
50,0,4233.33323,4219.487076,4229.743486,4212.82041,4224.102461,4217.435794,4207.692205,4219.999897,4225.640922,4217.435794,4216.410153,4213.33323,4175.384513,4212.82041
51,0,4226.666563,4212.307589,4234.871691,4197.948615,4203.589641,4211.281948,4195.897333,4205.128102,4218.461435,4206.666564,4211.281948,4206.153743,4167.692206,4208.717846
52,0,4229.230666,4222.563999,4253.333229,4174.358872,4197.948615,4209.743487,4199.999897,4212.82041,4221.025538,4215.384512,4207.692205,4210.769128,4172.30759,4213.846051
53,0,4242.051178,4236.410153,4248.205024,4204.102461,4217.435794,4222.051179,4211.794769,4227.179384,4230.769127,4223.58964,4216.410153,4216.410153,4182.564,4226.153743
54,0,4250.256306,4240.512717,4233.33323,4238.974255,4232.820409,4232.307589,4217.948615,4234.358871,4232.820409,4228.205025,4228.205025,4219.487076,4187.692205,4232.307589
55,0,4248.717845,4243.58964,4230.769127,4244.10246,4241.025537,4223.07682,4224.102461,4236.410153,4230.769127,4242.563999,4232.307589,4227.692204,4189.743487,4232.307589
56,0,4246.666563,4247.179383,4232.820409,4252.307588,4241.025537,4223.07682,4232.820409,4234.871691,4232.820409,4249.230665,4234.358871,4232.307589,4194.358872,4233.33323
57,0,4247.692204,4243.58964,4224.615281,4264.61528,4224.102461,4235.384512,4231.281948,4233.84605,4231.794768,4237.435794,4233.84605,4231.794768,4191.794769,4232.820409
58,0,4248.205024,4245.640922,4213.33323,4272.820408,4214.358871,4233.84605,4226.153743,4230.769127,4230.256307,4232.307589,4230.769127,4226.666563,4184.615282,4231.794768
59,0,4246.666563,4245.640922,4222.051179,4255.384511,4227.179384,4223.07682,4226.666563,4227.692204,4229.743486,4235.384512,4227.179384,4219.999897,4184.102462,4229.743486
60,0,4244.10246,4235.897332,4241.025537,4219.999897,4234.871691,4218.974256,4221.025538,4230.256307,4230.769127,4235.384512,4227.692204,4221.538358,4186.666564,4229.230666
61,0,4246.666563,4239.999896,4237.435794,4234.358871,4228.717845,4222.051179,4214.871692,4233.84605,4233.84605,4239.487076,4232.307589,4229.743486,4184.102462,4235.384512
62,0,4245.640922,4242.051178,4226.666563,4257.948614,4228.717845,4228.717845,4218.974256,4227.692204,4233.84605,4238.974255,4226.666563,4227.179384,4175.384513,4232.307589
63,0,4233.33323,4217.948615,4242.051178,4213.33323,4231.281948,4234.358871,4217.435794,4212.82041,4230.256307,4225.128102,4212.82041,4211.794769,4170.769129,4214.871692
64,0,4237.435794,4218.461435,4251.794768,4207.692205,4230.256307,4230.256307,4212.82041,4215.897333,4229.230666,4225.128102,4219.999897,4215.384512,4178.974257,4218.461435
65,0,4254.871691,4248.717845,4234.358871,4260.512716,4232.820409,4219.487076,4212.82041,4232.307589,4232.307589,4239.487076,4235.897332,4228.205025,4188.205026,4237.435794
66,0,4249.230665,4244.10246,4225.640922,4253.84605,4231.281948,4215.384512,4209.743487,4227.692204,4233.33323,4244.10246,4226.666563,4224.102461,4185.128103,4231.281948
67,0,4226.666563,4214.871692,4242.563999,4192.30759,4219.999897,4215.384512,4197.435795,4206.153743,4224.102461,4231.281948,4205.128102,4202.564,4169.743488,4203.589641
68,0,4219.487076,4208.205025,4253.333229,4159.487078,4207.179384,4203.589641,4182.05118,4193.333231,4213.846051,4204.102461,4189.230667,4184.102462,4152.307591,4182.05118
69,0,4234.358871,4223.58964,4246.666563,4189.743487,4214.871692,4208.717846,4192.30759,4201.025538,4221.538358,4201.025538,4193.846051,4192.30759,4156.922975,4188.717846
70,0,4243.58964,4235.384512,4244.10246,4217.435794,4231.281948,4228.205025,4215.384512,4222.051179,4236.922973,4229.743486,4211.281948,4209.230666,4171.281949,4205.640923
71,0,4233.84605,4226.666563,4242.563999,4197.948615,4224.615281,4221.025538,4206.666564,4219.999897,4233.84605,4237.948614,4207.179384,4203.07682,4167.692206,4200.512718
72,0,4235.384512,4221.538358,4231.281948,4199.999897,4217.435794,4216.922974,4197.948615,4199.999897,4225.640922,4229.230666,4201.025538,4196.922974,4163.589642,4200.512718
73,0,4250.256306,4230.769127,4226.666563,4230.769127,4231.281948,4231.794768,4218.461435,4207.179384,4228.717845,4230.256307,4215.384512,4210.769128,4172.820411,4217.948615
74,0,4239.487076,4225.640922,4234.871691,4204.615282,4234.358871,4226.666563,4216.922974,4216.922974,4231.794768,4223.07682,4212.82041,4209.230666,4169.743488,4211.281948
75,0,4225.128102,4216.922974,4233.33323,4190.769128,4221.025538,4216.410153,4198.974256,4203.07682,4229.230666,4222.563999,4201.025538,4199.999897,4163.589642,4199.999897
76,0,4245.640922,4234.871691,4219.999897,4266.153742,4229.743486,4229.230666,4217.435794,4209.230666,4233.84605,4249.230665,4222.563999,4221.025538,4183.076821,4227.179384
77,0,4256.410152,4246.153742,4216.410153,4292.307587,4243.076819,4237.435794,4231.281948,4229.230666,4235.897332,4257.435793,4239.999896,4231.281948,4195.384513,4241.538358
78,0,4233.84605,4226.153743,4220.512717,4224.615281,4222.051179,4225.128102,4207.692205,4216.410153,4225.128102,4236.410153,4216.922974,4206.666564,4176.410154,4211.794769
79,0,4222.051179,4212.82041,4222.051179,4190.769128,4205.640923,4214.871692,4195.897333,4198.974256,4222.563999,4229.743486,4198.461436,4193.333231,4164.615283,4191.281949
80,0,4227.692204,4215.897333,4217.435794,4220.512717,4220.512717,4213.846051,4202.564,4203.589641,4231.281948,4232.307589,4206.666564,4202.051179,4171.281949,4196.922974
81,0,4229.230666,4217.435794,4208.205025,4246.153742,4229.230666,4218.461435,4201.538359,4204.102461,4230.769127,4228.717845,4213.846051,4201.025538,4172.30759,4200.512718
82,0,4235.897332,4222.051179,4203.589641,4263.589639,4213.846051,4224.615281,4206.153743,4206.153743,4225.640922,4237.435794,4214.871692,4197.435795,4173.846052,4204.102461
83,0,4246.666563,4237.948614,4212.82041,4273.333229,4218.974256,4231.794768,4222.563999,4220.512717,4232.307589,4254.35887,4218.974256,4207.692205,4186.153744,4215.897333
84,0,4244.615281,4248.205024,4222.563999,4251.794768,4247.692204,4236.410153,4230.256307,4224.102461,4235.897332,4253.333229,4222.563999,4214.871692,4189.230667,4218.974256
85,0,4241.025537,4242.563999,4213.846051,4255.897332,4253.84605,4236.410153,4232.307589,4219.487076,4232.820409,4247.692204,4226.666563,4212.307589,4184.102462,4218.461435
86,0,4242.563999,4238.461435,4207.179384,4288.205023,4236.922973,4234.358871,4232.307589,4221.538358,4232.820409,4251.281947,4228.717845,4215.897333,4187.692205,4226.153743
87,0,4236.922973,4234.358871,4217.435794,4265.640921,4230.769127,4223.58964,4215.384512,4212.307589,4228.205025,4240.512717,4218.974256,4215.897333,4184.615282,4219.999897
88,0,4228.205025,4221.538358,4222.563999,4223.58964,4233.84605,4213.846051,4203.589641,4199.999897,4224.615281,4226.153743,4203.07682,4204.102461,4167.692206,4202.564
89,0,4225.640922,4213.846051,4215.384512,4224.615281,4212.307589,4215.897333,4210.256307,4207.179384,4222.563999,4223.07682,4197.948615,4197.435795,4160.512719,4199.487077
90,0,4221.025538,4213.33323,4218.974256,4218.461435,4192.30759,4217.435794,4207.179384,4209.230666,4215.384512,4218.974256,4198.461436,4200.512718,4167.692206,4198.974256
91,0,4217.435794,4212.307589,4220.512717,4212.82041,4212.82041,4215.384512,4194.871692,4196.410154,4218.974256,4222.563999,4197.948615,4199.487077,4169.743488,4189.230667
92,0,4223.07682,4213.846051,4204.615282,4250.256306,4232.820409,4219.487076,4202.051179,4199.487077,4229.230666,4231.794768,4204.615282,4199.487077,4168.717847,4183.589641
93,0,4228.717845,4220.512717,4204.102461,4261.025537,4230.769127,4221.538358,4217.435794,4214.871692,4226.153743,4229.743486,4211.794769,4205.128102,4175.384513,4189.230667
94,0,4231.794768,4228.205025,4221.025538,4230.769127,4230.769127,4217.435794,4221.025538,4218.461435,4224.615281,4235.897332,4215.384512,4213.33323,4184.615282,4197.435795
95,0,4235.897332,4235.897332,4223.07682,4228.717845,4227.692204,4218.461435,4215.897333,4215.384512,4236.410153,4251.281947,4219.999897,4218.974256,4189.230667,4203.07682
96,0,4230.256307,4229.743486,4216.922974,4224.102461,4213.846051,4222.051179,4204.615282,4207.692205,4229.743486,4234.358871,4213.846051,4206.153743,4182.05118,4192.82041
97,0,4217.435794,4214.358871,4219.999897,4197.435795,4212.307589,4216.410153,4196.410154,4193.846051,4214.871692,4211.794769,4197.435795,4186.666564,4168.205026,4171.281949
98,0,4218.461435,4219.487076,4217.435794,4208.717846,4225.640922,4209.743487,4196.410154,4190.256308,4221.538358,4220.512717,4194.871692,4187.179385,4171.281949,4167.692206
99,0,4228.717845,4232.820409,4205.640923,4246.153742,4230.256307,4220.512717,4199.487077,4202.051179,4233.33323,4234.358871,4207.692205,4200.512718,4185.640923,4182.05118
100,0,4231.794768,4234.358871,4199.999897,4262.051178,4227.692204,4227.179384,4208.205025,4215.897333,4231.281948,4243.076819,4218.974256,4205.128102,4189.230667,4191.794769
101,0,4229.743486,4229.743486,4200.512718,4257.948614,4227.179384,4216.922974,4214.871692,4214.358871,4224.615281,4241.538358,4217.435794,4201.025538,4183.589641,4185.640923
102,0,4230.769127,4229.743486,4200.512718,4265.128101,4225.640922,4221.538358,4215.384512,4209.743487,4225.640922,4231.794768,4213.33323,4203.589641,4185.128103,4181.538359
103,0,4241.025537,4240.512717,4203.589641,4291.281946,4231.794768,4237.435794,4225.640922,4227.179384,4233.33323,4241.538358,4227.179384,4217.435794,4197.948615,4197.948615
104,0,4249.230665,4249.230665,4214.358871,4292.307587,4243.58964,4227.179384,4234.358871,4238.974255,4235.897332,4253.333229,4238.974255,4226.666563,4204.615282,4207.692205
105,0,4239.999896,4239.487076,4219.999897,4244.10246,4238.974255,4211.281948,4218.974256,4217.948615,4225.640922,4238.974255,4222.051179,4216.410153,4192.82041,4191.281949
106,0,4226.666563,4224.102461,4219.487076,4205.640923,4217.948615,4217.435794,4202.051179,4202.051179,4215.897333,4224.102461,4205.128102,4204.102461,4181.025539,4176.922975
107,0,4228.205025,4221.025538,4218.461435,4218.461435,4207.179384,4221.025538,4202.564,4210.769128,4217.948615,4229.230666,4209.230666,4203.07682,4184.615282,4178.461436
108,0,4222.563999,4217.435794,4211.794769,4229.230666,4212.82041,4211.281948,4202.564,4209.230666,4222.051179,4230.256307,4209.230666,4201.538359,4185.128103,4172.820411
109,0,4214.871692,4213.33323,4202.564,4229.743486,4218.974256,4208.205025,4199.999897,4196.410154,4225.128102,4229.230666,4202.564,4197.948615,4182.05118,4166.153744
110,0,4223.58964,4218.974256,4209.230666,4238.461435,4221.538358,4217.948615,4204.102461,4202.564,4224.615281,4235.384512,4209.743487,4200.512718,4187.179385,4172.820411
111,0,4223.07682,4218.461435,4226.666563,4217.948615,4217.948615,4220.512717,4205.640923,4215.384512,4218.461435,4233.33323,4217.948615,4205.128102,4189.743487,4173.846052
112,0,4216.922974,4214.358871,4228.717845,4196.410154,4213.846051,4216.922974,4202.564,4213.846051,4216.922974,4223.58964,4215.384512,4206.153743,4185.128103,4169.230667
113,0,4226.666563,4221.538358,4215.897333,4221.538358,4221.025538,4212.307589,4202.051179,4206.666564,4224.102461,4223.07682,4209.230666,4203.589641,4185.128103,4170.256308
114,0,4236.410153,4228.717845,4210.769128,4239.487076,4220.512717,4204.102461,4200.512718,4200.512718,4217.948615,4218.461435,4203.07682,4201.025538,4184.615282,4168.205026
115,0,4230.769127,4218.974256,4217.948615,4213.846051,4206.666564,4202.564,4198.974256,4197.435795,4206.666564,4206.153743,4192.82041,4196.922974,4178.461436,4157.948616
116,0,4216.922974,4198.461436,4214.871692,4205.640923,4204.102461,4216.410153,4208.205025,4198.974256,4211.794769,4206.153743,4184.102462,4190.256308,4167.179385,4147.179386
117,0,4217.435794,4197.948615,4205.640923,4225.640922,4215.384512,4224.615281,4214.358871,4202.051179,4219.999897,4211.281948,4185.128103,4185.640923,4166.153744,4146.666565
118,0,4235.897332,4214.358871,4213.33323,4215.897333,4214.871692,4216.922974,4202.564,4199.487077,4216.922974,4202.051179,4188.205026,4185.128103,4178.461436,4157.435796
119,0,4251.281947,4229.230666,4220.512717,4208.717846,4210.256307,4210.769128,4198.974256,4197.435795,4211.794769,4197.948615,4193.846051,4193.846051,4188.205026,4178.461436
120,0,4251.794768,4242.563999,4214.871692,4233.33323,4213.846051,4208.717846,4205.640923,4201.025538,4215.384512,4204.615282,4198.974256,4205.640923,4187.179385,4195.897333
121,0,4253.333229,4247.179383,4221.538358,4229.743486,4209.743487,4206.153743,4198.461436,4199.999897,4215.897333,4200.512718,4200.512718,4209.743487,4187.179385,4197.435795
122,0,4248.717845,4236.410153,4236.922973,4184.102462,4195.897333,4196.922974,4184.102462,4191.281949,4208.205025,4191.794769,4194.358872,4202.564,4187.179385,4185.128103
123,0,4234.358871,4223.07682,4231.281948,4161.025539,4189.743487,4188.717846,4176.922975,4177.435795,4203.07682,4181.025539,4179.999898,4189.230667,4177.435795,4170.769129
124,0,4244.615281,4240.512717,4231.794768,4188.717846,4206.666564,4208.205025,4187.179385,4184.102462,4215.384512,4185.128103,4192.30759,4194.871692,4184.102462,4182.05118
125,0,4275.897331,4274.87169,4252.307588,4224.615281,4239.487076,4234.871691,4212.82041,4223.07682,4235.384512,4222.051179,4233.84605,4225.128102,4214.358871,4219.487076
126,0,4282.563998,4285.640921,4253.84605,4234.358871,4253.84605,4237.435794,4225.640922,4243.58964,4236.922973,4246.153742,4249.230665,4241.025537,4226.666563,4234.358871
127,0,4265.640921,4275.384511,4243.58964,4226.666563,4233.33323,4225.640922,4216.410153,4223.58964,4229.230666,4239.487076,4232.820409,4230.256307,4216.410153,4218.461435
128,0,4259.999896,4268.205024,4246.666563,4222.563999,4214.871692,4221.025538,4212.307589,4210.769128,4228.717845,4229.743486,4225.640922,4223.58964,4214.358871,4212.82041
0,0,4265.128101,4267.692203,4244.10246,4220.512717,4226.666563,4224.102461,4216.410153,4218.974256,4230.256307,4222.051179,4227.692204,4221.538358,4218.974256,4217.948615
1,0,4267.692203,4272.307588,4232.307589,4224.102461,4249.230665,4235.897332,4217.435794,4221.538358,4231.794768,4223.58964,4227.692204,4215.384512,4216.410153,4214.871692
2,0,4271.794767,4284.61528,4232.820409,4233.84605,4254.35887,4246.153742,4222.051179,4221.025538,4234.871691,4241.025537,4232.307589,4221.025538,4221.025538,4221.538358
3,0,4276.922972,4291.794767,4238.461435,4247.179383,4246.153742,4244.615281,4229.230666,4228.717845,4237.948614,4253.333229,4244.615281,4237.435794,4237.948614,4241.538358
4,0,4286.153741,4296.922972,4240.512717,4266.666562,4244.615281,4245.640922,4236.922973,4243.076819,4242.563999,4253.333229,4259.487075,4250.769127,4251.281947,4260.512716
5,0,4290.256305,4300.512715,4245.128101,4259.999896,4240.512717,4239.487076,4238.461435,4242.563999,4239.999896,4243.58964,4258.461434,4250.256306,4247.692204,4262.563998
6,0,4288.717844,4301.025536,4246.666563,4236.410153,4227.179384,4224.102461,4228.717845,4229.230666,4231.281948,4224.615281,4245.640922,4242.563999,4244.615281,4261.025537
7,0,4306.666561,4318.974253,4250.256306,4258.461434,4230.769127,4233.84605,4231.794768,4241.538358,4238.974255,4235.384512,4263.589639,4257.435793,4269.743485,4290.256305
8,0,4342.051176,4350.256304,4261.025537,4297.435792,4255.897332,4249.743486,4245.640922,4266.153742,4254.871691,4267.692203,4296.410151,4285.1281,4300.512715,4337.948612
9,0,4363.076816,4372.820406,4268.205024,4289.230664,4262.051178,4237.435794,4239.999896,4252.307588,4241.025537,4263.076819,4299.487074,4293.846049,4309.230664,4367.17938
10,0,4370.256303,4383.589636,4274.87169,4263.589639,4242.051178,4227.179384,4226.666563,4230.256307,4215.384512,4234.358871,4294.87169,4292.820408,4315.89733,4386.153739
11,0,4371.281944,4379.487072,4290.769126,4236.922973,4229.230666,4228.717845,4227.179384,4238.974255,4221.538358,4223.07682,4294.87169,4292.820408,4324.102458,4396.922969
12,0,4359.487073,4367.692201,4293.846049,4215.384512,4234.358871,4219.999897,4226.666563,4241.025537,4233.84605,4223.58964,4281.538357,4284.61528,4315.89733,4383.076816
13,0,4357.948611,4370.769124,4274.87169,4241.025537,4239.999896,4222.563999,4227.692204,4232.820409,4231.281948,4232.307589,4281.538357,4278.461434,4312.820407,4376.410149
14,0,4361.025534,4374.358867,4263.076819,4272.820408,4236.410153,4237.948614,4237.435794,4238.974255,4230.256307,4235.897332,4292.820408,4281.025536,4320.512715,4378.461431
15,0,4343.589637,4362.563996,4263.589639,4268.717844,4233.84605,4236.410153,4243.58964,4247.179383,4232.820409,4233.33323,4286.153741,4279.487075,4313.846048,4359.487073
16,0,4325.128099,4341.538355,4262.051178,4251.281947,4239.999896,4232.307589,4244.10246,4245.128101,4234.871691,4238.461435,4275.384511,4273.846049,4298.461433,4334.871689
17,0,4317.948612,4319.999894,4261.025537,4240.512717,4252.820409,4237.948614,4242.563999,4247.692204,4241.025537,4237.435794,4279.487075,4273.333229,4293.333228,4325.128099
18,0,4312.820407,4311.281946,4264.10246,4235.384512,4253.84605,4235.897332,4239.999896,4253.333229,4246.666563,4235.897332,4287.179382,4275.897331,4295.38451,4321.025535
19,0,4308.717843,4307.179382,4263.076819,4235.384512,4237.948614,4234.358871,4242.563999,4250.256306,4246.153742,4254.35887,4289.743485,4279.487075,4293.846049,4315.38451
20,0,4308.717843,4297.435792,4257.435793,4239.487076,4229.743486,4235.897332,4238.974255,4248.205024,4245.128101,4266.666562,4289.230664,4279.999895,4295.38451,4307.692202
21,0,4298.461433,4288.717844,4252.820409,4243.58964,4235.897332,4231.794768,4230.769127,4251.281947,4239.487076,4252.820409,4287.692203,4272.820408,4296.922972,4297.435792
22,0,4284.61528,4283.076818,4251.794768,4238.461435,4235.384512,4229.230666,4231.281948,4243.58964,4231.794768,4245.640922,4280.512716,4263.589639,4287.179382,4285.640921
23,0,4278.461434,4269.743485,4249.230665,4224.102461,4229.743486,4230.769127,4231.794768,4229.230666,4226.666563,4251.281947,4265.128101,4256.922973,4274.35887,4270.769126
24,0,4278.461434,4258.974255,4239.999896,4228.205025,4236.922973,4233.33323,4228.717845,4234.358871,4230.256307,4248.205024,4261.538357,4255.897332,4273.846049,4262.051178
25,0,4276.922972,4262.563998,4234.358871,4241.538358,4248.205024,4237.948614,4236.410153,4251.794768,4241.538358,4245.640922,4269.230665,4253.84605,4273.846049,4261.025537
26,0,4265.128101,4261.025537,4227.692204,4248.717845,4244.615281,4236.410153,4243.076819,4254.871691,4241.025537,4248.205024,4264.61528,4249.230665,4266.666562,4249.743486
27,0,4264.61528,4261.025537,4214.358871,4279.487075,4243.58964,4232.307589,4245.640922,4257.435793,4237.435794,4262.051178,4266.666562,4255.897332,4271.281947,4247.692204
28,0,4283.076818,4272.307588,4217.435794,4311.281946,4253.84605,4241.538358,4254.871691,4268.717844,4245.640922,4281.025536,4283.589639,4266.666562,4285.1281,4265.128101
29,0,4284.102459,4276.410152,4231.281948,4303.076818,4252.307588,4249.743486,4258.974255,4270.769126,4251.794768,4276.922972,4282.051177,4266.666562,4279.487075,4261.538357
30,0,4264.61528,4261.025537,4230.769127,4271.281947,4238.461435,4247.179383,4250.256306,4264.10246,4248.205024,4261.025537,4264.61528,4259.999896,4262.051178,4237.435794
