title:JTA                                                                             , recorded:03.07.20 14.04.27, sampling:128, subject:JTA                                                                             , labels:COUNTER INTERPOLATED AF3 F7 F3 FC5 T7 P7 O1 O2 P8 T8 FC6 F4 F8 AF4,, units:emotiv,,,,,,,,,
50,0,4246.153742,4232.307589,4243.58964,4225.640922,4249.743486,4232.307589,4233.84605,4227.692204,4262.051178,4226.153743,4237.948614,4229.743486,4201.025538,4247.179383
51,0,4247.179383,4239.487076,4249.743486,4229.230666,4239.999896,4242.051178,4233.84605,4228.717845,4262.051178,4229.743486,4230.256307,4235.384512,4202.564,4256.922973
52,0,4248.205024,4239.487076,4244.10246,4226.666563,4240.512717,4238.974255,4232.307589,4222.051179,4262.051178,4233.84605,4231.281948,4233.33323,4202.564,4263.589639
53,0,4246.666563,4232.820409,4234.871691,4219.999897,4253.84605,4230.769127,4234.358871,4220.512717,4261.025537,4229.230666,4233.84605,4233.33323,4198.461436,4248.717845
54,0,4244.10246,4229.743486,4231.281948,4224.615281,4243.076819,4232.307589,4233.84605,4224.615281,4261.538357,4231.281948,4223.07682,4234.358871,4190.256308,4236.922973
55,0,4241.025537,4230.769127,4229.743486,4232.307589,4226.666563,4234.871691,4232.307589,4225.128102,4262.563998,4242.051178,4210.769128,4232.307589,4176.922975,4240.512717
56,0,4241.025537,4230.769127,4229.743486,4235.897332,4237.948614,4233.84605,4240.512717,4229.230666,4267.179383,4251.281947,4230.769127,4238.974255,4189.230667,4248.717845
57,0,4245.640922,4230.769127,4243.076819,4230.256307,4250.256306,4238.461435,4246.666563,4235.897332,4275.897331,4249.743486,4261.025537,4246.153742,4222.563999,4259.999896
58,0,4246.153742,4231.794768,4256.410152,4221.538358,4247.179383,4243.076819,4243.076819,4233.33323,4273.333229,4234.871691,4257.948614,4240.512717,4230.769127,4262.051178
59,0,4234.871691,4230.769127,4252.307588,4224.615281,4243.076819,4245.640922,4242.563999,4231.794768,4264.61528,4231.281948,4242.563999,4237.435794,4218.974256,4248.717845
60,0,4229.743486,4228.717845,4242.563999,4224.615281,4246.666563,4241.025537,4244.10246,4233.33323,4262.051178,4247.692204,4237.948614,4244.615281,4211.281948,4238.461435
61,0,4238.461435,4230.256307,4245.640922,4213.846051,4248.717845,4235.384512,4242.563999,4230.769127,4267.179383,4253.333229,4236.410153,4246.666563,4208.205025,4242.563999
62,0,4241.538358,4233.33323,4250.256306,4222.563999,4242.051178,4241.538358,4246.153742,4234.358871,4275.384511,4248.205024,4226.153743,4243.58964,4194.871692,4247.692204
63,0,4232.307589,4232.820409,4245.128101,4236.410153,4240.512717,4244.615281,4249.230665,4235.384512,4274.87169,4250.256306,4215.897333,4243.58964,4182.05118,4239.999896
64,0,4226.666563,4230.769127,4244.615281,4222.563999,4247.692204,4239.487076,4245.640922,4223.58964,4262.051178,4243.076819,4233.84605,4237.948614,4197.435795,4223.07682
65,0,4229.230666,4231.281948,4247.692204,4215.897333,4246.666563,4242.563999,4245.640922,4221.025538,4259.999896,4228.717845,4253.333229,4230.256307,4218.461435,4228.205025
66,0,4233.33323,4229.230666,4241.538358,4233.84605,4240.512717,4243.58964,4247.179383,4229.743486,4266.666562,4230.256307,4237.435794,4230.256307,4202.564,4251.281947
67,0,4233.33323,4225.640922,4236.410153,4235.897332,4245.128101,4233.84605,4241.538358,4230.256307,4261.025537,4231.794768,4229.230666,4230.769127,4190.256308,4251.794768
68,0,4230.256307,4228.205025,4248.717845,4219.999897,4248.717845,4236.410153,4243.58964,4227.692204,4257.948614,4235.897332,4246.153742,4232.820409,4215.897333,4240.512717
69,0,4230.256307,4231.794768,4258.461434,4217.435794,4245.128101,4245.128101,4248.205024,4231.281948,4265.640921,4246.153742,4253.333229,4234.358871,4226.153743,4239.999896
70,0,4232.307589,4224.102461,4247.179383,4218.974256,4241.538358,4235.384512,4240.512717,4224.102461,4256.410152,4227.692204,4230.256307,4229.743486,4205.640923,4228.717845
71,0,4226.153743,4216.410153,4247.179383,4203.07682,4236.410153,4231.281948,4235.384512,4213.33323,4243.076819,4210.769128,4187.692205,4230.256307,4178.461436,4215.384512
72,0,4220.512717,4223.58964,4273.846049,4187.179385,4239.999896,4242.051178,4244.10246,4222.051179,4256.410152,4240.512717,4190.769128,4236.410153,4170.769129,4217.435794
73,0,4218.974256,4228.717845,4283.589639,4185.128103,4252.307588,4243.58964,4247.692204,4231.281948,4269.230665,4262.563998,4245.640922,4229.743486,4196.922974,4217.435794
74,0,4218.461435,4219.487076,4263.589639,4188.717846,4250.769127,4240.512717,4243.076819,4227.692204,4261.538357,4240.512717,4257.435793,4216.410153,4214.871692,4216.410153
75,0,4223.07682,4215.384512,4261.538357,4189.743487,4239.999896,4241.025537,4244.10246,4226.666563,4257.948614,4224.615281,4223.07682,4215.384512,4206.153743,4228.717845
76,0,4228.205025,4224.615281,4278.461434,4190.769128,4236.922973,4236.410153,4242.563999,4226.666563,4258.974255,4233.33323,4218.461435,4218.461435,4201.538359,4237.948614
77,0,4229.230666,4231.281948,4274.35887,4194.358872,4244.10246,4232.820409,4235.384512,4219.999897,4254.871691,4235.897332,4219.999897,4216.410153,4195.897333,4230.256307
78,0,4227.179384,4230.256307,4255.384511,4204.102461,4247.692204,4233.33323,4232.820409,4214.871692,4256.922973,4226.666563,4204.102461,4215.897333,4185.128103,4215.384512
79,0,4222.051179,4226.666563,4255.384511,4207.692205,4239.487076,4231.794768,4234.871691,4218.974256,4263.589639,4226.666563,4196.410154,4217.948615,4185.640923,4207.179384
80,0,4213.33323,4221.025538,4274.35887,4190.769128,4232.820409,4231.794768,4234.871691,4217.948615,4259.487075,4233.84605,4197.435795,4216.922974,4190.769128,4207.179384
81,0,4217.435794,4218.974256,4283.076818,4178.974257,4245.640922,4235.897332,4234.358871,4218.974256,4251.281947,4235.897332,4205.640923,4215.897333,4200.512718,4213.33323
82,0,4226.666563,4219.487076,4270.769126,4192.30759,4248.717845,4234.358871,4237.435794,4227.179384,4250.256306,4232.820409,4195.384513,4218.461435,4207.179384,4226.666563
83,0,4221.538358,4216.922974,4248.717845,4206.153743,4233.33323,4232.820409,4238.461435,4225.128102,4248.717845,4232.820409,4168.205026,4217.435794,4194.358872,4234.871691
84,0,4212.307589,4215.384512,4245.128101,4204.615282,4237.435794,4235.384512,4232.307589,4215.384512,4247.179383,4241.025537,4168.205026,4211.794769,4178.974257,4222.563999
85,0,4212.307589,4216.922974,4258.974255,4194.358872,4249.230665,4233.84605,4232.820409,4213.846051,4251.281947,4245.640922,4190.256308,4209.743487,4187.179385,4210.256307
86,0,4216.410153,4215.384512,4257.948614,4189.230667,4245.640922,4232.307589,4241.538358,4219.487076,4248.205024,4236.410153,4195.384513,4217.948615,4213.33323,4216.410153
87,0,4219.999897,4216.410153,4255.897332,4191.281949,4244.615281,4234.358871,4240.512717,4222.563999,4237.948614,4230.256307,4176.922975,4224.615281,4215.897333,4223.07682
88,0,4218.461435,4219.999897,4288.205023,4178.974257,4243.58964,4232.820409,4231.281948,4217.948615,4233.84605,4234.358871,4156.922975,4217.948615,4188.717846,4219.487076
89,0,4216.922974,4219.487076,4297.948613,4168.717847,4229.230666,4228.205025,4229.743486,4213.33323,4235.384512,4224.615281,4157.948616,4212.82041,4184.102462,4218.974256
90,0,4219.487076,4219.999897,4261.025537,4187.692205,4228.205025,4231.794768,4235.384512,4217.435794,4236.410153,4220.512717,4176.410154,4215.897333,4210.769128,4220.512717
91,0,4206.666564,4211.794769,4312.307587,4144.102463,4233.33323,4225.640922,4232.307589,4212.307589,4233.84605,4227.179384,4161.025539,4204.615282,4209.743487,4210.256307
92,0,4173.846052,4188.205026,4447.179378,4010.769133,4210.256307,4204.102461,4210.769128,4188.717846,4216.410153,4207.179384,4107.692207,4179.999898,4167.179385,4183.076821
93,0,4159.999898,4175.897334,4494.358864,3946.15375,4200.512718,4194.871692,4195.897333,4178.974257,4201.538359,4189.230667,4089.74349,4176.410154,4145.640924,4164.615283
94,0,4170.769129,4182.05118,4460.512711,3976.92298,4216.922974,4199.487077,4200.512718,4183.076821,4202.564,4199.999897,4112.307592,4187.692205,4168.205026,4167.179385
95,0,4170.769129,4183.076821,4458.97425,3981.025544,4206.666564,4198.974256,4200.512718,4175.897334,4201.025538,4202.051179,4111.794771,4181.538359,4181.025539,4167.179385
96,0,4163.589642,4177.435795,4476.410147,3963.589647,4188.205026,4195.897333,4193.846051,4166.153744,4195.384513,4194.871692,4093.333233,4173.846052,4164.102462,4170.256308
97,0,4171.281949,4182.564,4468.717839,3976.92298,4204.615282,4197.435795,4195.897333,4167.179385,4197.435795,4198.974256,4111.794771,4178.974257,4166.666565,4180.512718
98,0,4183.076821,4191.794769,4446.666558,3996.922979,4218.974256,4203.07682,4198.461436,4174.358872,4197.435795,4196.922974,4108.717848,4184.102462,4172.820411,4183.076821
99,0,4191.794769,4197.948615,4403.589636,4033.846055,4214.871692,4215.897333,4205.640923,4183.589641,4203.07682,4205.640923,4067.692208,4189.230667,4148.205027,4187.692205
100,0,4198.974256,4206.153743,4350.256304,4089.230669,4223.07682,4218.974256,4215.897333,4194.871692,4218.461435,4219.487076,4095.897336,4198.974256,4156.410155,4196.410154
101,0,4206.153743,4214.871692,4308.205023,4129.743489,4231.794768,4217.948615,4220.512717,4206.666564,4221.025538,4208.205025,4162.564001,4209.743487,4206.666564,4200.512718
102,0,4216.410153,4220.512717,4272.307588,4167.692206,4235.384512,4230.256307,4228.205025,4217.435794,4216.410153,4218.461435,4162.05118,4217.435794,4226.666563,4210.769128
103,0,4218.974256,4219.999897,4259.487075,4192.82041,4244.615281,4231.281948,4232.820409,4219.999897,4217.435794,4251.794768,4133.333232,4218.461435,4208.717846,4221.538358
104,0,4214.358871,4216.410153,4284.102459,4175.897334,4238.974255,4218.461435,4226.153743,4211.281948,4210.769128,4238.974255,4131.794771,4214.358871,4201.538359,4216.410153
105,0,4215.897333,4216.410153,4294.358869,4165.128103,4224.615281,4223.07682,4225.128102,4209.743487,4205.640923,4206.153743,4128.717848,4213.33323,4205.128102,4210.769128
106,0,4217.948615,4216.922974,4252.307588,4196.410154,4238.974255,4236.410153,4233.33323,4217.948615,4217.948615,4224.102461,4120.51272,4214.358871,4199.487077,4213.33323
107,0,4215.384512,4225.128102,4214.871692,4227.179384,4251.281947,4235.897332,4233.84605,4220.512717,4224.615281,4251.794768,4127.179386,4216.922974,4198.974256,4213.846051
108,0,4216.410153,4232.820409,4215.897333,4227.692204,4236.922973,4232.820409,4233.33323,4215.384512,4218.461435,4241.538358,4138.461437,4219.487076,4211.281948,4217.948615
109,0,4214.358871,4226.666563,4216.922974,4220.512717,4233.84605,4232.820409,4230.769127,4213.846051,4214.871692,4227.179384,4136.922976,4216.922974,4215.897333,4217.948615
110,0,4213.846051,4221.025538,4214.358871,4218.461435,4244.10246,4229.743486,4224.102461,4215.384512,4215.897333,4234.358871,4122.051181,4214.358871,4207.179384,4213.846051
111,0,4228.205025,4232.820409,4230.769127,4221.025538,4245.640922,4234.871691,4231.794768,4219.999897,4225.640922,4242.051178,4131.28195,4219.487076,4212.82041,4222.563999
112,0,4226.666563,4231.281948,4236.410153,4213.846051,4243.58964,4231.794768,4232.820409,4219.487076,4228.717845,4234.871691,4149.743488,4216.922974,4221.538358,4226.666563
113,0,4202.051179,4213.33323,4224.615281,4202.051179,4243.076819,4218.974256,4217.948615,4210.769128,4212.307589,4234.871691,4143.589642,4203.07682,4213.33323,4211.281948
114,0,4204.615282,4219.487076,4228.717845,4211.281948,4243.58964,4224.615281,4218.974256,4211.281948,4207.692205,4251.281947,4138.461437,4206.666564,4213.846051,4204.615282
115,0,4228.205025,4236.410153,4236.410153,4214.871692,4243.076819,4237.435794,4233.84605,4222.051179,4222.563999,4259.999896,4146.153745,4222.051179,4221.025538,4217.948615
116,0,4224.615281,4230.256307,4231.281948,4202.051179,4238.974255,4232.820409,4233.33323,4221.538358,4223.07682,4249.230665,4148.205027,4220.512717,4213.846051,4221.538358
117,0,4210.256307,4222.051179,4232.307589,4205.128102,4238.461435,4228.205025,4226.666563,4214.871692,4214.358871,4244.10246,4149.230668,4210.256307,4209.743487,4215.897333
118,0,4219.999897,4230.769127,4236.410153,4218.974256,4246.153742,4232.820409,4230.769127,4217.948615,4224.615281,4251.281947,4151.79477,4211.281948,4222.563999,4222.051179
119,0,4236.410153,4239.999896,4234.358871,4226.666563,4247.692204,4237.435794,4235.384512,4223.07682,4236.410153,4252.820409,4156.410155,4225.640922,4238.974255,4233.33323
120,0,4237.435794,4239.487076,4241.538358,4227.692204,4248.205024,4239.999896,4235.897332,4220.512717,4231.281948,4254.871691,4164.615283,4233.33323,4243.076819,4236.410153
121,0,4228.717845,4233.33323,4245.640922,4219.487076,4249.230665,4236.410153,4234.358871,4214.358871,4226.666563,4254.871691,4159.487078,4226.666563,4232.820409,4223.58964
122,0,4227.179384,4232.820409,4235.897332,4217.435794,4245.640922,4236.410153,4233.33323,4219.487076,4232.820409,4250.256306,4152.307591,4223.07682,4225.640922,4214.871692
123,0,4233.33323,4239.487076,4229.743486,4232.307589,4249.230665,4245.640922,4234.871691,4227.179384,4233.84605,4245.128101,4157.948616,4227.692204,4228.717845,4228.205025
124,0,4236.410153,4239.999896,4224.102461,4238.461435,4252.820409,4243.076819,4234.358871,4222.051179,4228.205025,4229.743486,4152.307591,4223.58964,4222.051179,4232.820409
125,0,4234.871691,4234.358871,4214.871692,4229.743486,4250.256306,4235.384512,4233.33323,4218.461435,4229.743486,4227.692204,4146.666565,4216.410153,4213.33323,4221.538358
126,0,4231.794768,4231.281948,4219.999897,4221.025538,4255.384511,4241.538358,4233.84605,4225.640922,4232.820409,4261.538357,4159.999898,4217.435794,4218.461435,4221.025538
127,0,4228.717845,4231.794768,4233.33323,4209.743487,4258.974255,4246.666563,4234.358871,4228.717845,4229.230666,4277.435793,4149.230668,4215.897333,4220.512717,4223.58964
128,0,4229.743486,4233.84605,4230.256307,4218.461435,4252.307588,4241.025537,4235.384512,4225.640922,4226.153743,4249.230665,4127.692207,4213.846051,4211.794769,4215.384512
0,0,4232.307589,4233.84605,4225.128102,4232.307589,4246.666563,4236.410153,4234.871691,4226.666563,4230.256307,4241.025537,4150.769129,4217.435794,4213.846051,4214.871692
1,0,4228.717845,4227.179384,4231.794768,4218.461435,4243.58964,4237.435794,4232.307589,4228.205025,4233.84605,4257.435793,4180.512718,4215.897333,4227.692204,4219.487076
2,0,4229.743486,4230.256307,4234.358871,4215.384512,4244.615281,4240.512717,4233.84605,4225.128102,4229.743486,4249.230665,4171.79477,4217.435794,4234.871691,4225.128102
3,0,4236.922973,4241.538358,4229.230666,4234.871691,4249.743486,4238.461435,4235.897332,4224.102461,4229.743486,4240.512717,4163.076821,4226.666563,4234.358871,4235.384512
4,0,4233.84605,4239.999896,4232.820409,4236.922973,4248.717845,4230.256307,4231.281948,4225.640922,4232.307589,4255.897332,4169.743488,4229.230666,4231.794768,4235.384512
5,0,4232.820409,4234.358871,4234.871691,4229.743486,4255.897332,4233.33323,4233.33323,4230.769127,4230.769127,4263.076819,4172.30759,4226.153743,4229.230666,4227.692204
6,0,4242.563999,4235.384512,4221.025538,4235.897332,4265.640921,4242.051178,4242.563999,4233.33323,4230.769127,4254.871691,4166.666565,4226.153743,4231.281948,4232.820409
7,0,4240.512717,4234.871691,4212.307589,4234.358871,4251.281947,4236.410153,4235.897332,4225.640922,4229.743486,4237.948614,4156.410155,4228.205025,4234.358871,4235.384512
8,0,4231.281948,4232.307589,4222.563999,4229.743486,4236.410153,4232.820409,4230.256307,4221.538358,4226.666563,4231.281948,4159.999898,4228.717845,4229.743486,4228.717845
9,0,4235.384512,4234.871691,4229.230666,4235.897332,4242.051178,4239.999896,4242.563999,4231.794768,4232.307589,4257.948614,4178.461436,4226.666563,4228.717845,4233.33323
10,0,4238.461435,4237.435794,4224.615281,4227.692204,4253.84605,4238.974255,4244.10246,4235.897332,4238.461435,4274.87169,4176.922975,4219.999897,4235.897332,4236.410153
11,0,4229.743486,4232.820409,4227.692204,4213.33323,4261.538357,4232.307589,4231.281948,4222.051179,4224.615281,4244.10246,4165.128103,4214.358871,4233.84605,4224.102461
12,0,4225.640922,4229.230666,4232.820409,4215.384512,4256.922973,4233.84605,4229.743486,4212.307589,4214.358871,4229.230666,4168.205026,4217.435794,4229.230666,4215.897333
13,0,4227.692204,4227.692204,4233.33323,4213.846051,4240.512717,4231.281948,4232.307589,4217.948615,4222.563999,4249.230665,4167.692206,4214.871692,4229.743486,4217.435794
14,0,4233.84605,4230.256307,4243.076819,4205.640923,4241.538358,4231.794768,4229.743486,4227.692204,4235.384512,4249.743486,4168.205026,4211.794769,4233.33323,4224.615281
15,0,4233.33323,4232.307589,4248.717845,4210.769128,4243.076819,4241.538358,4234.871691,4236.410153,4242.563999,4254.35887,4187.692205,4224.615281,4237.948614,4234.871691
16,0,4217.435794,4227.692204,4232.820409,4214.358871,4230.769127,4237.948614,4238.461435,4236.410153,4237.435794,4262.563998,4187.179385,4231.281948,4235.384512,4225.128102
17,0,4222.051179,4232.307589,4228.205025,4213.33323,4244.615281,4238.974255,4238.974255,4229.743486,4227.179384,4240.512717,4166.666565,4225.640922,4229.230666,4215.897333
18,0,4249.230665,4249.230665,4247.179383,4224.102461,4272.307588,4249.743486,4245.128101,4233.33323,4230.769127,4236.410153,4174.358872,4227.692204,4231.794768,4236.410153
19,0,4252.307588,4252.820409,4246.666563,4232.820409,4271.794767,4241.025537,4243.076819,4235.384512,4238.461435,4255.897332,4191.794769,4228.205025,4235.897332,4247.179383
20,0,4235.384512,4243.076819,4226.666563,4229.230666,4253.84605,4229.743486,4232.820409,4224.615281,4235.384512,4261.538357,4182.05118,4215.897333,4234.358871,4233.33323
21,0,4233.84605,4242.051178,4228.205025,4223.58964,4254.35887,4236.410153,4230.256307,4219.487076,4233.33323,4260.512716,4169.743488,4211.281948,4232.820409,4226.666563
22,0,4234.871691,4242.051178,4230.256307,4222.051179,4262.563998,4238.461435,4233.84605,4229.230666,4233.33323,4254.35887,4172.820411,4216.410153,4229.230666,4225.128102
23,0,4223.07682,4234.358871,4218.461435,4219.999897,4255.897332,4230.256307,4234.358871,4232.307589,4228.717845,4235.384512,4170.769129,4213.846051,4223.58964,4212.82041
24,0,4222.051179,4232.820409,4222.051179,4213.846051,4247.692204,4231.281948,4231.794768,4221.538358,4230.256307,4231.281948,4161.025539,4212.307589,4212.307589,4203.589641
25,0,4226.666563,4233.33323,4236.410153,4212.82041,4244.10246,4233.33323,4229.743486,4217.948615,4226.153743,4238.461435,4161.025539,4214.871692,4202.564,4203.07682
26,0,4221.025538,4231.281948,4241.025537,4216.922974,4233.84605,4230.769127,4228.205025,4225.640922,4217.948615,4230.769127,4174.871693,4210.256307,4211.281948,4206.153743
27,0,4215.384512,4232.307589,4242.563999,4205.640923,4229.230666,4232.307589,4231.794768,4230.256307,4222.051179,4222.563999,4179.999898,4202.564,4226.153743,4210.769128
28,0,4212.307589,4226.666563,4241.025537,4184.615282,4239.487076,4232.307589,4228.717845,4222.051179,4221.025538,4218.461435,4149.230668,4203.589641,4214.358871,4205.128102
29,0,4206.666564,4216.922974,4242.051178,4181.025539,4238.974255,4227.692204,4219.487076,4215.384512,4213.33323,4218.461435,4134.358873,4212.82041,4193.333231,4196.410154
30,0,4212.307589,4220.512717,4247.179383,4194.358872,4237.435794,4230.256307,4222.563999,4223.58964,4226.666563,4227.692204,4175.384513,4213.846051,4204.102461,4203.589641
31,0,4224.615281,4232.820409,4235.897332,4213.846051,4245.128101,4240.512717,4233.33323,4236.410153,4247.179383,4237.435794,4206.153743,4207.179384,4223.58964,4217.435794
32,0,4220.512717,4235.897332,4223.07682,4222.051179,4242.051178,4245.640922,4235.897332,4239.999896,4238.974255,4231.794768,4186.153744,4201.538359,4221.538358,4214.358871
33,0,4214.358871,4234.358871,4236.922973,4208.717846,4234.871691,4244.10246,4234.358871,4235.384512,4224.615281,4214.358871,4163.589642,4202.051179,4214.871692,4200.512718
34,0,4216.410153,4232.820409,4251.794768,4196.410154,4233.33323,4237.435794,4234.871691,4233.33323,4228.205025,4211.281948,4166.153744,4210.256307,4213.33323,4201.538359
35,0,4216.410153,4231.281948,4247.692204,4200.512718,4236.410153,4232.307589,4233.84605,4232.307589,4231.281948,4224.615281,4178.974257,4213.33323,4210.256307,4204.615282
36,0,4225.640922,4245.128101,4246.666563,4204.615282,4246.666563,4237.435794,4234.871691,4237.435794,4232.307589,4237.435794,4192.82041,4212.307589,4219.999897,4205.128102
37,0,4237.435794,4263.589639,4251.794768,4205.128102,4255.384511,4244.10246,4239.487076,4245.640922,4236.922973,4232.307589,4193.333231,4219.487076,4238.974255,4215.897333
38,0,4223.07682,4259.487075,4246.153742,4201.025538,4246.153742,4235.384512,4234.358871,4243.076819,4236.410153,4219.999897,4182.564,4215.384512,4232.820409,4216.410153
39,0,4208.205025,4252.820409,4241.025537,4199.999897,4233.84605,4229.743486,4230.769127,4239.999896,4236.922973,4227.179384,4181.025539,4199.487077,4217.948615,4199.487077
40,0,4227.179384,4264.10246,4249.743486,4212.307589,4237.948614,4244.615281,4242.563999,4249.743486,4248.717845,4249.230665,4186.666564,4208.205025,4227.692204,4204.615282
41,0,4241.025537,4268.717844,4247.179383,4221.025538,4247.179383,4248.717845,4247.692204,4252.307588,4250.256306,4244.615281,4185.128103,4221.538358,4235.384512,4221.025538
42,0,4220.512717,4260.512716,4226.153743,4220.512717,4247.692204,4235.897332,4233.33323,4235.384512,4231.281948,4220.512717,4174.871693,4208.717846,4217.435794,4205.128102
43,0,4210.256307,4258.974255,4222.563999,4215.384512,4243.076819,4235.384512,4226.666563,4230.256307,4224.102461,4215.384512,4163.589642,4197.948615,4202.564,4183.076821
44,0,4224.102461,4259.999896,4240.512717,4203.589641,4245.640922,4239.999896,4232.820409,4240.512717,4238.461435,4221.538358,4164.615283,4202.051179,4212.307589,4193.333231
45,0,4230.256307,4255.897332,4248.205024,4198.461436,4245.640922,4234.358871,4234.871691,4246.153742,4245.640922,4225.128102,4185.640923,4207.692205,4229.743486,4214.358871
46,0,4222.051179,4255.897332,4247.179383,4201.025538,4236.922973,4231.281948,4232.820409,4242.051178,4237.435794,4229.743486,4201.025538,4211.794769,4232.820409,4220.512717
47,0,4214.871692,4262.051178,4250.769127,4200.512718,4228.717845,4231.794768,4229.743486,4231.281948,4228.205025,4233.33323,4197.435795,4210.256307,4228.205025,4212.307589
48,0,4221.538358,4263.589639,4249.230665,4208.205025,4229.743486,4230.769127,4228.205025,4233.84605,4231.794768,4233.84605,4198.461436,4210.256307,4231.281948,4207.179384
49,0,4231.794768,4256.410152,4242.051178,4218.461435,4238.461435,4237.435794,4232.820409,4246.153742,4239.487076,4233.84605,4201.025538,4217.435794,4236.410153,4216.922974
50,0,4225.640922,4249.230665,4246.153742,4205.128102,4247.179383,4241.025537,4233.33323,4242.563999,4238.461435,4233.33323,4182.564,4218.974256,4225.640922,4218.974256
51,0,4213.33323,4248.717845,4252.307588,4192.82041,4249.743486,4237.948614,4231.281948,4234.358871,4233.33323,4234.871691,4173.333231,4213.33323,4211.281948,4201.025538
52,0,4215.384512,4250.256306,4238.974255,4207.692205,4239.999896,4238.974255,4231.281948,4237.948614,4233.33323,4233.33323,4189.743487,4211.281948,4213.846051,4195.384513
53,0,4221.025538,4245.128101,4224.102461,4213.33323,4228.717845,4233.84605,4224.615281,4235.384512,4233.33323,4222.051179,4187.692205,4208.717846,4220.512717,4204.615282
54,0,4212.82041,4237.948614,4237.948614,4190.769128,4230.769127,4227.179384,4213.846051,4227.692204,4229.230666,4214.358871,4172.30759,4199.487077,4217.948615,4201.025538
55,0,4205.640923,4233.84605,4252.820409,4178.974257,4234.871691,4231.281948,4215.897333,4229.230666,4222.563999,4217.435794,4178.974257,4190.256308,4214.358871,4194.871692
56,0,4210.256307,4233.84605,4240.512717,4192.30759,4231.281948,4233.33323,4225.128102,4228.717845,4213.846051,4211.794769,4187.179385,4191.794769,4216.410153,4198.974256
57,0,4213.33323,4236.922973,4227.692204,4204.102461,4229.743486,4231.794768,4224.615281,4229.743486,4218.974256,4199.487077,4182.564,4201.538359,4219.999897,4203.07682
58,0,4206.666564,4235.384512,4231.794768,4196.922974,4232.307589,4231.794768,4217.948615,4235.384512,4231.794768,4207.179384,4186.153744,4200.512718,4214.358871,4198.461436
59,0,4195.897333,4230.769127,4239.999896,4178.974257,4227.179384,4223.58964,4215.384512,4227.179384,4222.563999,4213.33323,4184.615282,4192.82041,4198.974256,4189.743487
60,0,4195.897333,4229.743486,4247.179383,4174.358872,4220.512717,4218.974256,4216.922974,4222.051179,4215.384512,4209.743487,4183.589641,4196.410154,4206.666564,4190.256308
61,0,4207.179384,4234.871691,4248.717845,4189.743487,4224.615281,4229.230666,4224.615281,4234.358871,4233.33323,4224.102461,4200.512718,4205.128102,4229.743486,4202.051179
62,0,4208.205025,4234.358871,4234.358871,4201.538359,4233.84605,4235.897332,4228.205025,4237.948614,4237.435794,4232.820409,4200.512718,4202.564,4218.461435,4197.948615
63,0,4195.384513,4226.666563,4209.743487,4197.948615,4234.358871,4225.128102,4222.563999,4226.666563,4222.051179,4218.461435,4180.512718,4193.846051,4201.538359,4185.640923
64,0,4197.435795,4230.769127,4203.07682,4199.999897,4226.666563,4218.461435,4216.410153,4231.281948,4229.743486,4223.07682,4184.615282,4197.435795,4220.512717,4195.384513
65,0,4205.640923,4232.820409,4212.82041,4206.666564,4224.102461,4218.461435,4217.948615,4232.820409,4235.897332,4237.435794,4192.82041,4203.07682,4228.717845,4206.666564
66,0,4201.538359,4221.538358,4219.487076,4201.538359,4215.384512,4216.922974,4214.871692,4218.461435,4217.948615,4218.974256,4183.076821,4196.922974,4212.307589,4199.999897
67,0,4202.564,4217.948615,4219.487076,4197.948615,4202.564,4222.563999,4214.358871,4221.538358,4217.435794,4210.769128,4188.205026,4194.358872,4219.999897,4197.948615
68,0,4213.846051,4229.743486,4217.435794,4211.281948,4221.025538,4232.820409,4225.128102,4236.922973,4235.897332,4226.153743,4202.051179,4206.153743,4232.820409,4204.102461
69,0,4217.435794,4235.384512,4211.281948,4230.256307,4253.84605,4236.922973,4232.820409,4236.410153,4234.871691,4225.640922,4199.487077,4217.435794,4227.179384,4210.769128
70,0,4214.358871,4232.820409,4213.33323,4229.230666,4254.35887,4234.358871,4229.743486,4231.794768,4227.179384,4223.58964,4201.025538,4212.82041,4229.743486,4217.948615
71,0,4213.33323,4234.871691,4222.051179,4216.922974,4229.743486,4231.794768,4230.769127,4236.922973,4237.948614,4235.897332,4206.666564,4206.666564,4235.384512,4217.435794
72,0,4213.33323,4233.84605,4211.794769,4221.025538,4219.999897,4231.281948,4230.769127,4236.922973,4241.538358,4236.410153,4199.999897,4207.692205,4230.256307,4209.743487
73,0,4216.410153,4231.794768,4203.07682,4227.179384,4229.743486,4232.820409,4222.563999,4232.307589,4229.230666,4226.666563,4196.922974,4207.179384,4229.230666,4211.794769
74,0,4219.999897,4235.384512,4214.871692,4219.487076,4237.435794,4235.384512,4224.615281,4233.84605,4227.692204,4228.717845,4204.102461,4203.589641,4230.769127,4222.051179
75,0,4211.794769,4234.871691,4221.538358,4211.281948,4233.84605,4230.256307,4230.256307,4235.384512,4232.820409,4229.230666,4202.051179,4199.999897,4222.563999,4215.384512
76,0,4201.025538,4228.717845,4213.33323,4212.307589,4226.153743,4226.153743,4221.025538,4232.820409,4231.281948,4216.410153,4195.897333,4195.384513,4218.461435,4200.512718
77,0,4203.589641,4225.640922,4212.307589,4211.281948,4226.153743,4230.256307,4218.461435,4229.230666,4230.769127,4212.307589,4197.435795,4195.384513,4220.512717,4200.512718
78,0,4215.384512,4230.256307,4226.153743,4206.153743,4227.179384,4233.84605,4229.743486,4234.358871,4235.384512,4236.922973,4200.512718,4206.153743,4214.871692,4203.589641
79,0,4215.384512,4230.769127,4241.025537,4198.461436,4226.666563,4233.84605,4233.33323,4241.025537,4235.384512,4264.10246,4201.025538,4212.307589,4214.358871,4201.025538
80,0,4207.179384,4221.025538,4241.025537,4187.692205,4224.102461,4234.358871,4229.230666,4238.461435,4232.307589,4254.35887,4200.512718,4204.615282,4224.102461,4205.128102
81,0,4204.615282,4215.897333,4226.666563,4186.153744,4225.128102,4231.794768,4223.07682,4230.256307,4232.307589,4230.256307,4199.999897,4197.435795,4222.051179,4206.666564
82,0,4205.128102,4219.999897,4222.051179,4193.846051,4228.205025,4229.743486,4217.948615,4229.230666,4228.717845,4230.769127,4202.051179,4199.487077,4214.871692,4200.512718
83,0,4204.615282,4220.512717,4233.84605,4196.410154,4221.538358,4229.230666,4219.487076,4230.769127,4221.025538,4237.435794,4200.512718,4199.487077,4216.922974,4203.589641
84,0,4200.512718,4212.82041,4236.410153,4183.589641,4208.717846,4219.487076,4214.358871,4221.025538,4217.435794,4217.948615,4190.256308,4189.230667,4213.846051,4198.461436
85,0,4198.461436,4212.82041,4222.051179,4181.025539,4209.743487,4213.33323,4207.179384,4214.358871,4219.487076,4205.640923,4186.153744,4182.564,4207.179384,4184.102462
86,0,4201.025538,4216.410153,4214.871692,4194.871692,4227.179384,4227.179384,4213.846051,4223.07682,4223.07682,4225.640922,4193.333231,4187.179385,4214.871692,4189.230667
87,0,4202.051179,4214.358871,4220.512717,4197.435795,4230.256307,4234.358871,4222.563999,4232.307589,4230.769127,4239.999896,4200.512718,4194.358872,4223.58964,4195.897333
88,0,4199.999897,4213.846051,4230.769127,4184.615282,4219.999897,4226.153743,4217.948615,4233.84605,4237.948614,4229.230666,4199.487077,4199.487077,4214.358871,4183.589641
89,0,4201.538359,4214.358871,4244.615281,4171.79477,4216.410153,4225.640922,4213.846051,4226.666563,4230.256307,4223.07682,4188.205026,4199.487077,4203.589641,4180.512718
90,0,4197.435795,4213.33323,4249.743486,4165.640924,4216.922974,4226.666563,4218.461435,4217.948615,4218.974256,4229.743486,4181.538359,4191.794769,4205.128102,4189.743487
91,0,4186.666564,4212.82041,4236.410153,4167.179385,4211.794769,4219.487076,4217.948615,4216.410153,4217.948615,4224.102461,4192.82041,4183.076821,4212.82041,4189.743487
92,0,4192.30759,4214.358871,4226.153743,4181.538359,4210.256307,4221.025538,4213.33323,4218.461435,4218.974256,4209.230666,4202.564,4181.538359,4216.410153,4186.153744
93,0,4197.948615,4207.692205,4227.692204,4187.179385,4219.487076,4227.179384,4212.82041,4215.897333,4214.871692,4208.717846,4195.897333,4183.589641,4211.794769,4185.128103
94,0,4190.769128,4199.487077,4226.666563,4179.999898,4217.948615,4221.538358,4215.384512,4211.794769,4214.871692,4216.410153,4192.82041,4183.076821,4207.692205,4183.076821
95,0,4196.922974,4207.692205,4237.435794,4175.897334,4204.102461,4218.461435,4216.922974,4216.410153,4221.025538,4217.948615,4197.948615,4184.615282,4210.256307,4188.205026
96,0,4203.589641,4214.358871,4271.794767,4157.948616,4200.512718,4218.461435,4211.281948,4218.461435,4219.999897,4217.435794,4195.897333,4185.640923,4211.281948,4189.230667
97,0,4182.05118,4198.461436,4304.102459,4111.281951,4207.692205,4207.692205,4201.538359,4208.205025,4207.692205,4216.410153,4181.025539,4173.333231,4193.846051,4167.179385
98,0,4167.692206,4185.128103,4324.615279,4076.922977,4193.846051,4198.974256,4197.435795,4196.922974,4195.897333,4196.922974,4169.743488,4163.076821,4175.897334,4149.230668
99,0,4178.974257,4188.717846,4335.384509,4078.461439,4175.897334,4201.538359,4201.538359,4198.461436,4196.922974,4181.538359,4175.897334,4168.717847,4185.640923,4158.974257
100,0,4181.025539,4188.205026,4332.820407,4079.48708,4194.871692,4203.07682,4202.051179,4203.07682,4205.128102,4202.051179,4187.692205,4172.30759,4203.07682,4170.769129
101,0,4179.487077,4190.769128,4328.717843,4074.358875,4221.538358,4202.051179,4199.487077,4202.051179,4211.794769,4226.153743,4185.640923,4169.743488,4200.512718,4175.897334
102,0,4185.128103,4198.974256,4330.256304,4083.076823,4218.461435,4203.589641,4202.051179,4203.07682,4216.922974,4222.563999,4182.05118,4175.897334,4192.30759,4183.589641
103,0,4178.461436,4192.82041,4321.538356,4091.794772,4203.589641,4202.564,4198.461436,4202.051179,4213.846051,4209.743487,4186.153744,4176.922975,4195.897333,4180.512718
104,0,4168.717847,4183.076821,4308.205023,4093.333233,4195.384513,4200.512718,4188.717846,4197.435795,4201.538359,4199.999897,4186.153744,4168.717847,4199.487077,4164.615283
105,0,4176.922975,4188.717846,4302.563997,4102.051182,4198.461436,4202.564,4192.30759,4198.461436,4197.948615,4197.435795,4185.640923,4169.230667,4197.948615,4162.564001
106,0,4186.153744,4192.30759,4299.999895,4109.230669,4204.615282,4210.256307,4201.538359,4201.025538,4199.487077,4208.205025,4191.794769,4173.846052,4196.922974,4177.435795
107,0,4183.076821,4185.640923,4293.333228,4104.102464,4200.512718,4215.384512,4200.512718,4199.999897,4199.999897,4218.461435,4187.692205,4171.79477,4196.922974,4180.512718
108,0,4180.512718,4191.281949,4288.205023,4108.205028,4203.589641,4214.871692,4198.461436,4203.589641,4206.153743,4216.922974,4183.589641,4170.769129,4199.999897,4171.79477
109,0,4182.564,4202.051179,4292.307587,4117.435797,4216.410153,4215.384512,4203.07682,4212.82041,4215.384512,4213.33323,4193.333231,4175.897334,4204.102461,4171.281949
110,0,4191.281949,4201.025538,4291.281946,4122.051181,4215.897333,4215.897333,4207.179384,4217.435794,4222.051179,4215.384512,4204.615282,4182.05118,4205.640923,4186.153744
111,0,4208.717846,4205.128102,4264.10246,4150.256309,4209.230666,4216.922974,4212.82041,4219.487076,4228.717845,4226.153743,4210.769128,4194.358872,4217.948615,4206.153743
112,0,4219.487076,4215.897333,4239.999896,4181.025539,4199.999897,4217.948615,4216.922974,4219.487076,4225.128102,4228.205025,4214.358871,4204.102461,4229.743486,4216.922974
113,0,4217.435794,4214.358871,4244.615281,4177.435795,4197.435795,4214.871692,4214.871692,4214.358871,4215.897333,4216.410153,4213.33323,4203.07682,4221.025538,4216.410153
114,0,4236.922973,4215.897333,4247.692204,4187.692205,4222.563999,4216.922974,4215.897333,4221.025538,4223.58964,4222.051179,4213.846051,4207.179384,4223.58964,4226.153743
115,0,4268.717844,4233.33323,4239.999896,4218.974256,4234.871691,4225.640922,4218.974256,4233.84605,4234.358871,4243.076819,4218.461435,4220.512717,4234.871691,4246.666563
116,0,4273.846049,4239.999896,4242.051178,4213.846051,4219.487076,4222.563999,4217.948615,4227.179384,4225.128102,4236.922973,4215.384512,4217.948615,4224.615281,4248.205024
117,0,4266.153742,4232.307589,4253.333229,4191.794769,4225.128102,4216.922974,4215.384512,4213.846051,4213.33323,4210.256307,4215.897333,4203.589641,4217.948615,4251.281947
118,0,4281.538357,4235.384512,4264.61528,4197.948615,4242.563999,4221.025538,4216.410153,4216.922974,4211.281948,4206.153743,4216.410153,4205.640923,4232.307589,4269.743485
119,0,4298.974254,4242.051178,4263.589639,4206.666564,4234.358871,4222.051179,4219.487076,4222.563999,4212.82041,4231.794768,4203.07682,4219.999897,4236.410153,4263.589639
120,0,4283.076818,4234.871691,4262.563998,4195.384513,4222.051179,4217.948615,4214.358871,4216.922974,4214.871692,4251.281947,4204.615282,4219.999897,4228.205025,4249.230665
121,0,4262.563998,4225.640922,4275.384511,4182.564,4218.461435,4213.846051,4206.666564,4212.307589,4216.922974,4243.076819,4218.974256,4205.640923,4228.205025,4262.051178
122,0,4269.743485,4228.205025,4271.794767,4180.512718,4213.33323,4210.769128,4207.692205,4213.33323,4216.410153,4226.153743,4206.666564,4198.461436,4220.512717,4269.743485
122,0,4269.743485,4228.205025,4271.794767,4180.512718,4213.33323,4210.769128,4207.692205,4213.33323,4216.410153,4226.153743,4206.666564,4198.461436,4220.512717,4269.743485
123,0,4280.512716,4235.384512,4253.84605,4191.281949,4213.33323,4214.871692,4212.307589,4216.922974,4214.871692,4221.025538,4197.948615,4203.07682,4212.307589,4252.820409
124,0,4271.794767,4235.897332,4251.281947,4200.512718,4222.563999,4218.974256,4213.33323,4217.435794,4214.871692,4214.871692,4225.640922,4204.102461,4228.205025,4246.153742
125,0,4257.435793,4226.666563,4251.794768,4193.333231,4229.230666,4215.897333,4213.33323,4212.82041,4213.33323,4204.615282,4234.871691,4195.897333,4243.58964,4252.307588
126,0,4253.333229,4219.487076,4248.717845,4185.640923,4223.58964,4215.897333,4215.897333,4213.33323,4214.358871,4206.153743,4216.410153,4195.897333,4240.512717,4250.769127
127,0,4246.153742,4218.974256,4250.769127,4186.666564,4217.948615,4219.487076,4213.33323,4217.948615,4217.948615,4213.33323,4211.281948,4203.07682,4226.153743,4234.358871
128,0,4233.33323,4215.897333,4248.717845,4179.487077,4214.358871,4214.358871,4207.179384,4214.871692,4217.948615,4217.435794,4207.692205,4197.435795,4217.435794,4216.922974
0,0,4227.692204,4216.410153,4243.58964,4174.358872,4213.33323,4214.871692,4212.82041,4211.794769,4212.307589,4217.435794,4205.640923,4189.230667,4221.538358,4221.538358
1,0,4234.358871,4225.128102,4248.717845,4186.666564,4227.179384,4228.205025,4225.640922,4222.563999,4215.384512,4215.384512,4226.666563,4197.435795,4228.717845,4233.33323
2,0,4237.948614,4222.051179,4256.410152,4187.179385,4236.410153,4233.33323,4225.640922,4232.820409,4224.102461,4224.615281,4242.563999,4205.128102,4233.33323,4230.256307
3,0,4231.281948,4215.384512,4259.999896,4174.871693,4230.256307,4228.205025,4215.897333,4230.769127,4222.563999,4238.461435,4215.384512,4202.564,4223.07682,4226.666563
4,0,4228.717845,4226.666563,4261.025537,4178.974257,4232.307589,4228.205025,4216.922974,4226.666563,4218.461435,4239.487076,4189.743487,4201.025538,4202.564,4226.153743
5,0,4228.205025,4231.794768,4259.487075,4189.230667,4238.461435,4232.307589,4222.051179,4224.102461,4221.538358,4231.281948,4214.358871,4199.999897,4208.717846,4221.025538
6,0,4227.692204,4219.999897,4256.410152,4193.333231,4232.820409,4229.743486,4217.435794,4219.487076,4221.538358,4225.128102,4246.666563,4203.589641,4243.076819,4224.615281
7,0,4228.205025,4220.512717,4247.692204,4199.487077,4227.179384,4228.205025,4214.871692,4216.922974,4216.922974,4214.871692,4235.384512,4210.256307,4253.84605,4228.717845
8,0,4227.179384,4228.717845,4236.410153,4205.640923,4225.640922,4230.256307,4218.461435,4222.051179,4219.999897,4214.871692,4229.230666,4209.743487,4236.922973,4216.410153
9,0,4232.307589,4232.820409,4232.820409,4215.384512,4226.666563,4233.33323,4221.025538,4228.205025,4224.102461,4222.051179,4235.897332,4212.307589,4231.281948,4215.384512
10,0,4234.358871,4230.256307,4228.717845,4224.615281,4229.743486,4232.820409,4216.922974,4223.58964,4215.384512,4200.512718,4195.897333,4217.948615,4217.948615,4225.128102
11,0,4219.999897,4216.410153,4228.205025,4207.692205,4224.615281,4222.051179,4210.769128,4211.794769,4203.589641,4183.076821,4174.871693,4207.179384,4197.948615,4212.82041
12,0,4210.256307,4211.794769,4241.025537,4187.179385,4215.384512,4214.358871,4215.384512,4216.410153,4209.743487,4209.230666,4236.410153,4197.435795,4216.922974,4203.589641
13,0,4218.974256,4222.051179,4250.769127,4193.333231,4213.846051,4223.58964,4223.58964,4230.256307,4228.205025,4230.769127,4265.640921,4209.230666,4243.076819,4222.051179
14,0,4222.563999,4226.153743,4239.999896,4210.256307,4221.538358,4232.820409,4223.07682,4231.794768,4234.871691,4225.640922,4218.974256,4219.487076,4225.128102,4230.256307
15,0,4216.410153,4223.58964,4219.999897,4226.666563,4230.256307,4229.743486,4222.051179,4230.769127,4233.33323,4235.384512,4211.281948,4214.358871,4207.692205,4215.384512
16,0,4216.410153,4222.051179,4215.384512,4233.33323,4234.871691,4229.743486,4224.615281,4231.794768,4229.230666,4243.58964,4242.563999,4209.230666,4230.256307,4212.307589
17,0,4216.410153,4214.358871,4221.538358,4216.410153,4231.281948,4231.281948,4221.025538,4224.102461,4221.025538,4217.435794,4237.435794,4209.743487,4242.051178,4221.538358
18,0,4212.307589,4213.846051,4230.256307,4197.435795,4221.025538,4222.563999,4216.410153,4215.384512,4214.871692,4196.410154,4224.615281,4206.666564,4227.692204,4219.487076
19,0,4215.384512,4226.666563,4242.563999,4202.051179,4216.410153,4218.974256,4218.461435,4221.538358,4214.871692,4199.999897,4230.769127,4202.051179,4228.205025,4213.846051
20,0,4220.512717,4224.102461,4244.615281,4206.153743,4220.512717,4224.615281,4217.435794,4229.230666,4216.922974,4204.102461,4224.102461,4199.487077,4228.205025,4211.794769
21,0,4213.33323,4211.794769,4235.384512,4200.512718,4218.974256,4222.563999,4214.871692,4225.640922,4216.410153,4198.461436,4208.205025,4198.974256,4209.743487,4204.102461
22,0,4203.589641,4215.384512,4238.974255,4194.871692,4209.230666,4217.948615,4215.384512,4217.948615,4214.358871,4198.461436,4212.82041,4196.410154,4201.538359,4188.717846
23,0,4199.999897,4215.384512,4244.615281,4184.102462,4206.666564,4217.435794,4208.717846,4211.281948,4210.769128,4196.410154,4215.897333,4187.179385,4202.051179,4179.487077
24,0,4201.538359,4206.666564,4233.84605,4183.589641,4215.384512,4217.435794,4206.153743,4212.82041,4212.82041,4183.589641,4199.487077,4184.615282,4201.538359,4191.281949
25,0,4209.230666,4212.307589,4232.820409,4202.051179,4219.999897,4222.051179,4213.846051,4218.974256,4218.461435,4188.717846,4207.179384,4196.410154,4214.358871,4204.102461
26,0,4217.948615,4223.07682,4250.256306,4211.281948,4210.769128,4228.205025,4219.487076,4221.025538,4218.974256,4209.743487,4244.615281,4208.205025,4232.307589,4204.102461
27,0,4216.922974,4217.948615,4256.410152,4199.487077,4207.179384,4223.58964,4215.897333,4218.974256,4216.922974,4203.589641,4253.84605,4202.564,4234.871691,4201.538359
28,0,4213.846051,4213.846051,4258.461434,4182.05118,4222.051179,4219.999897,4215.897333,4217.435794,4215.897333,4192.30759,4229.230666,4190.256308,4231.281948,4204.615282
29,0,4214.871692,4219.999897,4266.666562,4173.333231,4235.897332,4219.487076,4218.974256,4217.435794,4215.897333,4213.33323,4214.358871,4191.281949,4226.153743,4207.179384
30,0,4212.307589,4217.948615,4257.948614,4175.897334,4234.358871,4214.871692,4213.33323,4215.384512,4214.871692,4217.435794,4215.384512,4199.999897,4221.025538,4204.102461
31,0,4210.769128,4210.769128,4242.051178,4183.076821,4221.025538,4220.512717,4210.769128,4215.897333,4214.358871,4185.640923,4217.948615,4200.512718,4217.435794,4201.538359
32,0,4210.769128,4213.33323,4241.025537,4187.692205,4217.948615,4232.307589,4216.410153,4220.512717,4216.410153,4182.564,4207.179384,4197.435795,4201.538359,4202.564
33,0,4203.589641,4218.974256,4247.692204,4187.179385,4216.410153,4224.102461,4213.846051,4221.538358,4217.948615,4206.153743,4207.179384,4203.07682,4202.051179,4201.538359
34,0,4197.435795,4214.358871,4249.743486,4184.102462,4205.128102,4212.307589,4207.179384,4216.410153,4216.410153,4201.538359,4233.84605,4202.051179,4231.794768,4196.922974
35,0,4197.435795,4204.102461,4237.435794,4185.128103,4203.07682,4222.563999,4212.307589,4214.358871,4215.384512,4183.076821,4225.640922,4188.205026,4232.307589,4197.948615
36,0,4199.999897,4199.487077,4227.692204,4183.589641,4217.948615,4231.794768,4218.974256,4217.948615,4215.897333,4182.05118,4193.333231,4184.102462,4201.538359,4199.999897
37,0,4201.538359,4202.564,4240.512717,4174.871693,4218.974256,4221.538358,4214.871692,4219.487076,4211.281948,4189.743487,4215.897333,4194.358872,4206.666564,4196.922974
38,0,4199.487077,4206.153743,4250.769127,4174.871693,4199.999897,4214.358871,4211.281948,4215.384512,4203.07682,4191.281949,4248.717845,4197.435795,4236.410153,4189.743487
39,0,4195.384513,4205.640923,4236.922973,4181.538359,4200.512718,4221.538358,4212.307589,4216.410153,4199.999897,4192.82041,4226.666563,4194.871692,4235.384512,4185.640923
40,0,4199.487077,4210.769128,4235.897332,4185.128103,4225.128102,4231.794768,4216.410153,4226.153743,4202.564,4197.948615,4212.307589,4199.999897,4217.948615,4194.358872
41,0,4203.589641,4215.897333,4254.35887,4185.128103,4237.435794,4232.820409,4215.897333,4228.205025,4201.538359,4195.897333,4232.820409,4202.051179,4214.871692,4202.051179
42,0,4199.999897,4213.33323,4255.384511,4176.410154,4224.615281,4226.153743,4212.82041,4224.615281,4202.564,4193.846051,4228.205025,4197.435795,4218.461435,4202.051179
43,0,4203.07682,4213.846051,4246.153742,4170.256308,4208.205025,4223.07682,4214.871692,4226.666563,4205.128102,4201.025538,4201.538359,4199.487077,4215.384512,4210.769128
44,0,4211.281948,4219.487076,4247.692204,4177.435795,4204.615282,4228.205025,4216.410153,4226.666563,4201.538359,4201.538359,4211.794769,4203.07682,4211.794769,4213.33323
45,0,4211.281948,4216.922974,4246.666563,4189.230667,4204.615282,4230.769127,4215.384512,4228.205025,4206.153743,4197.435795,4244.10246,4203.589641,4224.102461,4202.051179
46,0,4204.615282,4214.358871,4234.358871,4193.846051,4205.128102,4221.025538,4215.897333,4232.820409,4215.384512,4201.025538,4243.58964,4203.589641,4236.922973,4205.640923
47,0,4203.07682,4216.922974,4231.281948,4191.794769,4209.230666,4211.281948,4209.230666,4223.07682,4207.692205,4199.999897,4228.205025,4201.538359,4234.358871,4215.897333
48,0,4203.07682,4209.743487,4238.974255,4182.564,4214.871692,4220.512717,4206.153743,4212.307589,4196.410154,4193.333231,4231.281948,4199.999897,4230.769127,4206.666564
49,0,4200.512718,4205.640923,4237.948614,4180.512718,4214.871692,4230.256307,4215.384512,4219.999897,4201.538359,4198.461436,4235.384512,4203.589641,4229.230666,4197.435795
50,0,4201.538359,4215.897333,4225.128102,4193.333231,4213.846051,4221.538358,4213.33323,4222.563999,4204.102461,4203.07682,4228.717845,4204.102461,4220.512717,4201.538359
51,0,4204.615282,4222.563999,4227.179384,4195.384513,4214.358871,4215.897333,4202.051179,4215.384512,4199.999897,4207.179384,4217.948615,4202.051179,4212.82041,4206.666564
52,0,4196.922974,4212.82041,4239.999896,4176.410154,4207.179384,4219.487076,4201.538359,4216.922974,4205.640923,4213.33323,4214.871692,4197.948615,4214.871692,4206.666564
53,0,4182.05118,4201.538359,4237.948614,4164.615283,4203.07682,4216.410153,4201.538359,4215.897333,4203.07682,4205.128102,4222.563999,4189.230667,4217.435794,4196.922974
54,0,4179.999898,4202.564,4243.076819,4164.615283,4195.897333,4213.33323,4197.435795,4213.33323,4192.30759,4188.717846,4225.640922,4184.615282,4216.410153,4185.640923
55,0,4185.640923,4204.615282,4268.717844,4155.897334,4184.102462,4216.922974,4199.999897,4212.307589,4189.230667,4183.076821,4219.487076,4188.717846,4218.461435,4185.640923
56,0,4181.025539,4203.07682,4274.35887,4142.564001,4198.461436,4213.846051,4199.999897,4206.153743,4189.743487,4184.102462,4207.692205,4188.717846,4211.794769,4184.615282
57,0,4179.999898,4207.179384,4255.384511,4153.846052,4225.128102,4213.846051,4201.538359,4207.179384,4191.794769,4186.666564,4210.256307,4187.179385,4203.07682,4183.076821
58,0,4194.871692,4219.487076,4246.666563,4179.999898,4225.640922,4219.999897,4209.743487,4218.461435,4199.999897,4190.256308,4225.640922,4188.205026,4209.743487,4188.205026
59,0,4197.948615,4217.435794,4240.512717,4189.743487,4210.769128,4216.922974,4208.717846,4217.948615,4202.051179,4184.102462,4221.538358,4185.640923,4216.922974,4186.666564
60,0,4188.717846,4204.102461,4229.743486,4185.128103,4205.128102,4214.871692,4205.128102,4215.897333,4196.410154,4182.564,4219.487076,4189.743487,4216.410153,4186.153744
61,0,4191.794769,4206.666564,4237.948614,4185.640923,4204.615282,4220.512717,4209.230666,4228.205025,4203.589641,4203.589641,4241.025537,4199.487077,4221.025538,4202.051179
62,0,4191.794769,4209.230666,4242.563999,4187.179385,4204.615282,4215.897333,4208.205025,4221.538358,4206.666564,4215.384512,4239.999896,4193.333231,4214.871692,4206.153743
63,0,4181.025539,4199.999897,4230.256307,4184.615282,4199.999897,4206.666564,4196.922974,4196.922974,4189.743487,4196.922974,4207.692205,4179.999898,4196.922974,4187.179385
64,0,4178.974257,4202.564,4236.922973,4182.05118,4202.051179,4209.230666,4197.435795,4199.487077,4186.666564,4190.256308,4209.743487,4182.05118,4201.538359,4178.974257
65,0,4185.128103,4215.897333,4252.820409,4185.640923,4220.512717,4220.512717,4211.794769,4218.461435,4202.564,4203.589641,4231.794768,4192.30759,4219.487076,4188.717846
66,0,4194.871692,4218.461435,4246.666563,4193.846051,4223.07682,4225.128102,4219.487076,4223.07682,4206.153743,4203.07682,4214.358871,4199.487077,4217.948615,4199.487077
67,0,4200.512718,4214.871692,4245.128101,4194.871692,4201.025538,4222.051179,4218.461435,4219.999897,4201.025538,4198.461436,4198.974256,4205.128102,4208.205025,4197.948615
68,0,4190.769128,4215.897333,4258.974255,4180.512718,4195.384513,4216.410153,4214.358871,4217.435794,4203.589641,4204.615282,4230.256307,4205.128102,4212.82041,4189.743487
69,0,4187.179385,4214.871692,4258.461434,4174.358872,4212.307589,4214.871692,4211.794769,4213.846051,4206.153743,4204.615282,4259.999896,4198.974256,4224.615281,4190.256308
70,0,4203.589641,4214.358871,4245.128101,4189.743487,4209.230666,4218.461435,4211.794769,4216.410153,4208.717846,4198.974256,4247.692204,4197.435795,4229.743486,4202.564
71,0,4206.666564,4213.846051,4235.384512,4194.871692,4195.897333,4218.461435,4213.846051,4219.487076,4211.794769,4204.615282,4230.256307,4198.461436,4228.717845,4211.281948
72,0,4194.871692,4211.794769,4229.230666,4186.666564,4204.615282,4215.897333,4213.33323,4216.922974,4206.153743,4208.205025,4232.307589,4197.948615,4228.205025,4207.692205
73,0,4201.538359,4214.871692,4234.358871,4193.846051,4212.82041,4215.897333,4210.256307,4215.897333,4204.615282,4192.30759,4233.33323,4197.948615,4232.820409,4208.205025
74,0,4205.640923,4217.435794,4247.179383,4194.871692,4208.205025,4216.410153,4209.230666,4220.512717,4216.410153,4199.999897,4231.794768,4201.025538,4230.256307,4213.33323
75,0,4188.717846,4210.256307,4250.256306,4175.897334,4211.281948,4216.410153,4206.666564,4220.512717,4223.58964,4240.512717,4229.230666,4201.025538,4216.922974,4205.640923
76,0,4184.615282,4206.666564,4242.563999,4173.333231,4217.435794,4216.922974,4204.102461,4215.384512,4214.871692,4251.794768,4230.256307,4199.487077,4217.435794,4196.410154
77,0,4201.538359,4213.33323,4242.051178,4190.256308,4219.487076,4217.948615,4203.589641,4212.307589,4203.589641,4225.640922,4234.358871,4199.999897,4235.897332,4207.179384
78,0,4206.153743,4218.461435,4248.205024,4189.743487,4222.051179,4216.410153,4201.538359,4206.666564,4199.487077,4216.922974,4230.769127,4199.487077,4237.948614,4215.384512
79,0,4199.999897,4217.948615,4246.153742,4178.974257,4216.922974,4214.358871,4201.025538,4202.564,4200.512718,4221.025538,4231.794768,4197.948615,4225.640922,4205.640923
80,0,4205.128102,4219.487076,4237.435794,4186.666564,4210.256307,4216.410153,4205.640923,4210.256307,4206.666564,4214.358871,4235.384512,4198.461436,4227.179384,4203.589641
81,0,4208.205025,4220.512717,4233.84605,4200.512718,4218.461435,4217.435794,4205.128102,4216.922974,4214.871692,4211.794769,4228.205025,4200.512718,4228.205025,4205.128102
82,0,4202.051179,4216.410153,4231.281948,4202.051179,4221.538358,4214.871692,4198.974256,4213.846051,4216.410153,4210.769128,4230.769127,4199.999897,4223.58964,4203.07682
83,0,4202.564,4219.487076,4233.33323,4203.589641,4213.33323,4216.922974,4208.205025,4217.435794,4215.897333,4210.256307,4249.743486,4202.051179,4229.743486,4212.307589
84,0,4203.589641,4222.051179,4239.487076,4206.153743,4214.358871,4221.025538,4217.435794,4223.07682,4218.974256,4214.358871,4250.769127,4204.615282,4235.384512,4219.487076
85,0,4197.435795,4214.871692,4237.948614,4191.794769,4219.999897,4216.410153,4206.666564,4216.922974,4217.435794,4214.871692,4231.794768,4200.512718,4227.179384,4204.615282
86,0,4197.948615,4211.794769,4231.794768,4181.538359,4216.410153,4211.794769,4203.07682,4213.33323,4213.846051,4214.871692,4231.794768,4199.487077,4227.692204,4197.435795
87,0,4202.564,4211.794769,4229.230666,4191.794769,4213.33323,4215.384512,4212.82041,4216.922974,4217.435794,4219.999897,4239.487076,4203.589641,4234.871691,4209.230666
88,0,4198.974256,4207.179384,4229.743486,4191.794769,4217.948615,4217.435794,4213.33323,4216.922974,4218.974256,4218.461435,4230.256307,4203.07682,4226.153743,4213.33323
89,0,4207.179384,4211.794769,4236.922973,4185.640923,4220.512717,4222.051179,4211.794769,4214.871692,4214.358871,4221.025538,4229.230666,4205.128102,4219.999897,4216.410153
90,0,4219.487076,4225.128102,4241.538358,4201.025538,4219.999897,4227.692204,4217.948615,4218.461435,4215.384512,4234.871691,4242.563999,4209.743487,4233.84605,4220.512717
91,0,4208.205025,4217.948615,4229.743486,4206.666564,4213.846051,4222.563999,4211.794769,4215.384512,4218.974256,4224.102461,4239.999896,4200.512718,4235.897332,4202.564
92,0,4195.384513,4203.07682,4217.948615,4190.769128,4208.717846,4213.846051,4202.051179,4203.589641,4210.256307,4199.487077,4226.666563,4190.256308,4217.948615,4181.025539
93,0,4201.025538,4208.205025,4217.948615,4186.153744,4214.871692,4215.384512,4209.230666,4209.230666,4207.692205,4211.281948,4227.692204,4198.974256,4219.999897,4192.30759
94,0,4203.589641,4213.33323,4222.051179,4191.281949,4221.025538,4222.563999,4218.974256,4218.974256,4213.846051,4229.743486,4237.435794,4205.640923,4233.33323,4208.205025
95,0,4198.974256,4204.615282,4230.769127,4186.153744,4220.512717,4215.897333,4212.82041,4208.717846,4208.205025,4211.794769,4231.281948,4194.358872,4221.025538,4203.07682
96,0,4194.358872,4197.948615,4230.256307,4174.358872,4212.82041,4201.538359,4201.025538,4197.948615,4198.974256,4206.666564,4213.33323,4181.025539,4196.922974,4196.922974
97,0,4191.794769,4202.564,4223.58964,4172.30759,4204.615282,4204.102461,4200.512718,4202.051179,4201.025538,4233.84605,4211.794769,4181.538359,4195.897333,4196.922974
98,0,4198.461436,4206.153743,4228.717845,4180.512718,4205.128102,4219.487076,4206.153743,4204.102461,4204.615282,4232.307589,4232.307589,4192.30759,4217.435794,4198.974256
99,0,4199.999897,4204.102461,4229.743486,4184.615282,4205.128102,4214.871692,4206.153743,4198.461436,4199.999897,4201.025538,4237.435794,4196.410154,4227.692204,4203.589641
100,0,4190.256308,4201.538359,4220.512717,4183.076821,4195.897333,4199.999897,4202.051179,4199.999897,4199.487077,4197.948615,4218.974256,4193.846051,4217.948615,4197.435795
101,0,4190.256308,4199.999897,4221.538358,4183.076821,4202.051179,4205.128102,4201.538359,4207.692205,4207.179384,4218.974256,4219.999897,4195.384513,4215.384512,4191.281949
102,0,4203.07682,4201.538359,4228.717845,4183.589641,4216.922974,4214.871692,4208.205025,4212.307589,4213.33323,4219.487076,4243.076819,4202.051179,4229.230666,4203.589641
103,0,4209.230666,4202.564,4228.717845,4184.102462,4212.82041,4217.435794,4217.435794,4214.871692,4212.82041,4211.794769,4250.769127,4207.179384,4239.487076,4216.410153
104,0,4204.615282,4202.051179,4233.33323,4181.025539,4212.82041,4215.384512,4216.922974,4217.435794,4213.846051,4222.051179,4237.948614,4205.128102,4232.820409,4214.358871
105,0,4199.487077,4200.512718,4235.897332,4175.384513,4217.435794,4210.256307,4203.589641,4211.794769,4218.461435,4235.384512,4229.230666,4199.487077,4219.487076,4211.281948
106,0,4197.948615,4200.512718,4224.102461,4181.025539,4208.717846,4210.256307,4199.999897,4200.512718,4215.384512,4229.743486,4231.794768,4197.948615,4218.974256,4212.82041
107,0,4202.564,4205.128102,4219.999897,4193.846051,4212.82041,4217.948615,4210.769128,4207.692205,4215.897333,4219.487076,4235.897332,4204.102461,4232.820409,4215.384512
108,0,4201.538359,4204.615282,4227.179384,4185.640923,4223.07682,4217.435794,4209.743487,4221.025538,4222.563999,4222.051179,4236.922973,4206.153743,4235.897332,4211.794769
109,0,4190.256308,4197.948615,4227.692204,4169.230667,4212.82041,4211.281948,4198.974256,4212.307589,4217.435794,4225.640922,4232.307589,4201.025538,4221.538358,4199.999897
110,0,4190.769128,4199.487077,4224.102461,4178.461436,4210.769128,4216.922974,4208.205025,4208.717846,4211.794769,4217.948615,4232.307589,4201.025538,4225.640922,4201.025538
111,0,4201.025538,4203.589641,4229.230666,4188.205026,4221.538358,4221.538358,4217.948615,4214.358871,4211.794769,4214.358871,4234.871691,4203.589641,4233.33323,4207.692205
112,0,4197.435795,4199.487077,4242.051178,4167.692206,4217.948615,4215.384512,4208.205025,4207.179384,4207.692205,4223.07682,4232.820409,4200.512718,4221.025538,4195.897333
113,0,4185.640923,4197.435795,4251.281947,4154.358873,4210.769128,4213.846051,4208.717846,4205.128102,4211.281948,4228.205025,4230.256307,4201.025538,4211.281948,4191.794769
114,0,4186.153744,4201.025538,4254.35887,4161.025539,4216.410153,4218.974256,4216.922974,4209.230666,4215.897333,4215.384512,4223.58964,4202.051179,4207.179384,4196.922974
115,0,4187.179385,4198.461436,4246.666563,4159.487078,4212.82041,4212.307589,4205.128102,4198.974256,4203.589641,4200.512718,4208.717846,4189.230667,4199.487077,4186.153744
116,0,4184.615282,4197.435795,4236.410153,4159.999898,4205.128102,4203.07682,4199.999897,4194.358872,4199.999897,4194.358872,4213.846051,4182.564,4207.692205,4183.589641
117,0,4191.794769,4201.538359,4234.358871,4168.205026,4205.128102,4206.153743,4209.743487,4204.615282,4208.717846,4195.384513,4230.769127,4193.846051,4221.538358,4202.051179
118,0,4200.512718,4201.538359,4235.897332,4171.281949,4203.589641,4210.769128,4207.692205,4203.07682,4205.128102,4209.230666,4221.025538,4198.461436,4213.33323,4201.538359
119,0,4199.999897,4200.512718,4232.820409,4177.948616,4206.666564,4211.794769,4206.666564,4201.025538,4203.589641,4231.794768,4213.846051,4198.461436,4209.743487,4187.179385
120,0,4197.435795,4204.102461,4230.769127,4189.230667,4212.307589,4213.846051,4214.358871,4207.179384,4211.281948,4240.512717,4233.84605,4203.589641,4218.461435,4191.794769
121,0,4200.512718,4202.564,4229.743486,4189.743487,4212.82041,4214.358871,4211.794769,4203.07682,4207.692205,4219.999897,4239.999896,4201.538359,4217.948615,4202.051179
122,0,4199.999897,4198.974256,4228.205025,4178.461436,4212.82041,4213.846051,4208.717846,4204.102461,4205.128102,4198.461436,4228.205025,4194.358872,4218.461435,4207.179384
123,0,4200.512718,4206.153743,4238.974255,4171.79477,4209.230666,4216.922974,4216.410153,4215.384512,4216.410153,4209.743487,4230.256307,4203.07682,4231.794768,4211.794769
124,0,4212.307589,4217.948615,4250.256306,4178.974257,4200.512718,4217.948615,4219.999897,4219.999897,4219.999897,4219.487076,4235.897332,4218.461435,4236.922973,4215.897333
125,0,4218.461435,4216.410153,4247.692204,4189.230667,4206.153743,4218.974256,4217.948615,4217.435794,4218.461435,4202.051179,4232.307589,4216.922974,4224.615281,4218.974256
126,0,4215.384512,4205.128102,4245.640922,4184.102462,4216.922974,4214.358871,4213.846051,4214.871692,4216.410153,4196.922974,4234.871691,4206.666564,4215.384512,4220.512717
127,0,4213.33323,4203.589641,4251.794768,4171.281949,4205.640923,4204.102461,4208.717846,4206.153743,4206.666564,4216.410153,4230.256307,4209.743487,4217.435794,4219.487076
128,0,4207.179384,4206.666564,4252.820409,4170.769129,4193.846051,4203.589641,4211.794769,4200.512718,4202.564,4221.025538,4218.974256,4217.435794,4217.435794,4211.794769
0,0,4199.999897,4203.07682,4248.205024,4173.333231,4197.435795,4212.307589,4213.846051,4208.717846,4212.82041,4214.358871,4223.58964,4215.384512,4217.435794,4204.102461
1,0,4202.564,4200.512718,4244.10246,4171.79477,4202.051179,4214.871692,4210.256307,4212.82041,4218.461435,4211.281948,4234.358871,4210.769128,4224.102461,4203.589641
2,0,4198.461436,4200.512718,4242.563999,4166.666565,4203.07682,4208.717846,4207.179384,4201.025538,4211.281948,4199.487077,4236.922973,4205.128102,4227.692204,4205.640923
3,0,4183.589641,4199.999897,4246.666563,4168.205026,4203.589641,4209.743487,4211.281948,4204.102461,4213.33323,4197.948615,4232.820409,4199.487077,4222.563999,4203.07682
4,0,4181.025539,4196.922974,4251.281947,4166.666565,4203.07682,4217.435794,4217.948615,4216.410153,4216.922974,4205.640923,4222.563999,4200.512718,4209.230666,4198.974256
5,0,4184.615282,4189.743487,4251.794768,4154.358873,4203.589641,4215.384512,4214.358871,4208.717846,4206.153743,4200.512718,4213.33323,4199.487077,4199.487077,4195.897333
6,0,4185.128103,4185.640923,4245.128101,4154.358873,4202.051179,4211.281948,4211.281948,4204.102461,4205.128102,4203.07682,4224.615281,4197.435795,4207.692205,4196.410154
7,0,4192.82041,4187.692205,4235.384512,4167.179385,4196.922974,4214.358871,4213.846051,4213.846051,4216.922974,4214.358871,4239.999896,4199.999897,4220.512717,4199.999897
8,0,4200.512718,4187.692205,4235.384512,4168.205026,4199.487077,4214.358871,4212.307589,4211.794769,4216.922974,4214.358871,4231.794768,4201.538359,4219.487076,4203.07682
9,0,4187.692205,4185.640923,4244.10246,4152.820411,4205.640923,4201.538359,4201.538359,4196.922974,4201.025538,4201.538359,4214.358871,4194.871692,4209.230666,4196.410154
10,0,4174.358872,4184.615282,4246.153742,4150.769129,4200.512718,4195.384513,4196.410154,4191.281949,4192.30759,4185.128103,4211.794769,4188.205026,4204.102461,4185.128103
11,0,4187.692205,4191.281949,4242.563999,4170.256308,4194.358872,4206.153743,4205.128102,4198.974256,4204.615282,4185.128103,4225.128102,4196.410154,4199.487077,4190.769128
12,0,4205.128102,4201.025538,4245.128101,4176.410154,4206.666564,4217.948615,4216.410153,4209.743487,4219.487076,4208.717846,4235.897332,4214.358871,4200.512718,4202.051179
13,0,4196.410154,4195.897333,4252.820409,4156.922975,4207.179384,4212.82041,4217.435794,4210.256307,4217.948615,4226.153743,4234.871691,4216.410153,4209.743487,4197.948615
14,0,4180.512718,4184.102462,4256.410152,4149.743488,4184.615282,4199.999897,4206.666564,4201.538359,4209.743487,4213.846051,4224.615281,4203.07682,4217.435794,4192.82041
15,0,4188.205026,4185.640923,4244.615281,4169.743488,4185.640923,4199.487077,4199.487077,4201.538359,4210.769128,4200.512718,4218.461435,4199.999897,4217.435794,4200.512718
16,0,4201.025538,4189.230667,4227.179384,4178.461436,4200.512718,4204.615282,4202.051179,4205.128102,4214.358871,4201.025538,4226.666563,4203.07682,4215.384512,4204.615282
17,0,4197.435795,4185.128103,4225.128102,4168.717847,4193.846051,4202.564,4202.564,4203.589641,4214.871692,4203.589641,4232.820409,4204.102461,4217.435794,4202.051179
18,0,4194.871692,4187.179385,4234.871691,4167.692206,4196.922974,4199.999897,4202.564,4207.179384,4214.871692,4209.743487,4229.743486,4210.769128,4217.948615,4207.179384
19,0,4199.999897,4196.410154,4233.84605,4179.487077,4217.948615,4208.717846,4209.743487,4216.922974,4217.948615,4213.33323,4237.948614,4218.461435,4218.974256,4214.358871
20,0,4204.102461,4202.051179,4225.128102,4188.717846,4226.666563,4218.974256,4218.461435,4218.974256,4221.025538,4215.384512,4249.230665,4214.871692,4222.051179,4215.897333
21,0,4204.102461,4201.025538,4233.33323,4183.076821,4219.487076,4214.358871,4215.384512,4213.846051,4217.948615,4214.358871,4237.948614,4208.717846,4218.974256,4211.794769
22,0,4197.435795,4196.922974,4247.179383,4165.640924,4211.281948,4208.205025,4213.33323,4213.846051,4214.358871,4207.692205,4225.640922,4207.692205,4213.846051,4210.256307
23,0,4194.871692,4198.974256,4245.128101,4163.076821,4206.666564,4213.846051,4214.358871,4218.461435,4217.948615,4205.640923,4233.33323,4208.205025,4218.974256,4213.846051
24,0,4199.999897,4201.538359,4241.025537,4175.897334,4207.179384,4214.871692,4207.179384,4213.33323,4218.461435,4212.82041,4236.922973,4203.589641,4221.025538,4207.692205
25,0,4204.615282,4201.025538,4247.692204,4181.538359,4203.07682,4209.230666,4205.128102,4209.230666,4214.871692,4216.410153,4229.743486,4198.974256,4213.846051,4195.384513
26,0,4212.307589,4209.230666,4245.128101,4191.794769,4199.487077,4214.358871,4214.871692,4217.435794,4218.461435,4210.769128,4231.281948,4210.256307,4221.025538,4205.128102
27,0,4219.999897,4215.384512,4232.820409,4201.025538,4209.230666,4215.384512,4216.410153,4219.487076,4218.461435,4205.128102,4236.922973,4216.410153,4230.769127,4219.999897
28,0,4215.897333,4206.666564,4233.33323,4190.769128,4217.435794,4208.717846,4209.743487,4212.307589,4210.769128,4198.974256,4231.281948,4203.589641,4218.461435,4210.769128
29,0,4212.307589,4206.153743,4237.948614,4184.615282,4216.922974,4212.82041,4211.281948,4214.358871,4213.846051,4210.769128,4226.153743,4203.07682,4208.205025,4205.128102
30,0,4216.410153,4215.384512,4229.230666,4198.461436,4216.410153,4218.461435,4217.435794,4222.051179,4224.615281,4234.871691,4233.33323,4218.461435,4221.025538,4216.922974
31,0,4211.281948,4207.692205,4221.025538,4203.589641,4211.794769,4215.384512,4215.384512,4219.999897,4224.615281,4228.205025,4236.410153,4215.897333,4224.102461,4208.717846
32,0,4198.461436,4198.974256,4226.153743,4194.358872,4202.564,4213.846051,4210.256307,4214.358871,4215.897333,4208.717846,4226.153743,4201.025538,4207.179384,4193.333231
33,0,4197.948615,4205.640923,4237.435794,4191.281949,4202.051179,4216.922974,4212.82041,4214.358871,4214.358871,4215.384512,4225.640922,4201.538359,4205.128102,4205.640923
34,0,4209.230666,4207.179384,4241.538358,4189.230667,4212.307589,4214.358871,4211.794769,4215.384512,4217.948615,4218.974256,4233.84605,4204.102461,4216.410153,4216.410153
35,0,4214.358871,4205.128102,4236.410153,4186.153744,4214.358871,4207.179384,4203.589641,4214.871692,4214.358871,4201.025538,4227.179384,4201.025538,4219.999897,4204.615282
36,0,4205.640923,4205.640923,4234.358871,4186.153744,4204.615282,4204.102461,4203.589641,4212.82041,4203.589641,4191.794769,4218.461435,4202.051179,4209.230666,4194.358872
37,0,4198.461436,4201.538359,4246.666563,4181.025539,4202.051179,4203.07682,4206.153743,4211.281948,4201.025538,4202.051179,4227.179384,4203.589641,4204.615282,4196.922974
38,0,4202.564,4198.461436,4263.589639,4170.256308,4205.640923,4201.538359,4202.051179,4213.846051,4205.128102,4206.666564,4230.769127,4200.512718,4208.717846,4199.487077
39,0,4207.179384,4200.512718,4264.10246,4165.640924,4203.07682,4201.538359,4200.512718,4211.794769,4203.589641,4198.974256,4218.974256,4197.948615,4205.128102,4196.410154
40,0,4211.281948,4202.051179,4261.538357,4170.256308,4201.025538,4202.051179,4203.589641,4205.128102,4199.487077,4203.07682,4215.384512,4198.461436,4202.564,4194.871692
41,0,4212.307589,4201.538359,4266.153742,4168.717847,4201.025538,4202.051179,4203.07682,4203.07682,4201.538359,4218.461435,4219.999897,4198.461436,4205.128102,4190.256308
42,0,4203.589641,4202.051179,4258.461434,4165.640924,4199.487077,4201.025538,4202.564,4207.692205,4203.589641,4217.435794,4218.461435,4198.461436,4206.666564,4186.666564
43,0,4198.461436,4201.025538,4246.666563,4164.615283,4205.128102,4202.051179,4202.051179,4211.281948,4203.07682,4206.666564,4216.410153,4198.461436,4206.666564,4191.281949
44,0,4202.564,4202.564,4245.640922,4166.666565,4213.846051,4210.256307,4202.564,4212.82041,4208.717846,4210.256307,4223.07682,4197.948615,4213.846051,4197.435795
45,0,4205.640923,4209.743487,4248.205024,4171.79477,4203.589641,4213.33323,4208.717846,4217.435794,4216.922974,4217.435794,4233.84605,4200.512718,4219.487076,4197.948615
46,0,4207.692205,4213.33323,4246.666563,4173.846052,4191.794769,4205.128102,4212.307589,4219.487076,4215.897333,4215.897333,4236.410153,4202.564,4215.384512,4199.999897
47,0,4214.358871,4213.33323,4247.179383,4178.974257,4215.384512,4206.153743,4210.769128,4217.435794,4213.33323,4212.82041,4233.84605,4202.564,4216.922974,4206.153743
48,0,4221.025538,4214.358871,4251.281947,4186.153744,4241.538358,4217.435794,4213.33323,4217.435794,4218.461435,4215.384512,4234.871691,4206.153743,4226.153743,4205.128102
49,0,4219.999897,4216.410153,4242.051178,4189.230667,4227.179384,4216.410153,4215.384512,4218.974256,4218.974256,4227.179384,4236.922973,4207.692205,4232.307589,4199.487077
50,0,4216.410153,4215.384512,4229.230666,4192.82041,4212.307589,4209.743487,4212.82041,4214.871692,4211.794769,4228.205025,4232.307589,4202.051179,4228.717845,4194.871692
51,0,4217.435794,4213.846051,4237.435794,4199.999897,4215.897333,4212.307589,4212.82041,4216.922974,4214.871692,4219.999897,4231.794768,4200.512718,4227.692204,4199.487077
52,0,4221.538358,4216.410153,4248.717845,4201.538359,4213.846051,4216.922974,4216.922974,4225.128102,4223.07682,4230.769127,4235.384512,4205.128102,4232.307589,4203.07682
53,0,4213.846051,4214.358871,4246.666563,4186.666564,4218.974256,4216.922974,4214.871692,4222.051179,4216.922974,4236.922973,4230.256307,4203.589641,4218.461435,4187.692205
54,0,4202.564,4206.666564,4254.35887,4169.230667,4221.538358,4209.743487,4208.205025,4215.384512,4213.33323,4223.07682,4227.692204,4199.487077,4212.307589,4177.948616
55,0,4201.538359,4203.589641,4262.563998,4166.153744,4205.640923,4201.025538,4200.512718,4213.33323,4216.922974,4216.410153,4229.230666,4198.461436,4224.615281,4188.205026
56,0,4203.07682,4205.128102,4248.205024,4174.871693,4206.666564,4202.564,4201.538359,4211.794769,4211.281948,4214.358871,4217.435794,4197.948615,4210.769128,4184.615282
57,0,4207.179384,4203.07682,4240.512717,4177.948616,4217.948615,4204.615282,4210.256307,4212.82041,4205.128102,4209.230666,4212.82041,4199.487077,4195.897333,4173.846052
58,0,4209.230666,4203.07682,4252.820409,4171.281949,4212.82041,4203.589641,4208.717846,4216.410153,4206.153743,4212.307589,4234.358871,4199.999897,4218.461435,4181.025539
59,0,4203.07682,4203.07682,4252.820409,4173.333231,4210.256307,4207.692205,4201.025538,4213.846051,4204.615282,4216.922974,4248.717845,4199.487077,4236.922973,4189.743487
60,0,4206.153743,4201.025538,4244.10246,4183.076821,4216.410153,4207.692205,4201.538359,4211.281948,4204.102461,4221.025538,4245.640922,4205.640923,4231.281948,4194.871692
61,0,4221.538358,4210.769128,4239.487076,4188.205026,4218.974256,4204.615282,4205.640923,4217.435794,4214.871692,4233.33323,4242.563999,4215.384512,4232.307589,4203.07682
62,0,4221.538358,4213.846051,4234.871691,4184.102462,4214.871692,4202.564,4203.589641,4218.974256,4222.051179,4239.487076,4238.461435,4214.358871,4238.974255,4202.051179
63,0,4213.846051,4203.589641,4231.794768,4186.666564,4198.974256,4202.564,4199.999897,4216.410153,4215.384512,4231.794768,4232.307589,4205.640923,4235.897332,4195.897333
64,0,4215.897333,4205.640923,4228.205025,4192.82041,4202.051179,4206.153743,4202.564,4216.922974,4208.205025,4218.974256,4230.769127,4202.051179,4225.640922,4193.333231
65,0,4207.179384,4210.769128,4227.179384,4183.589641,4227.692204,4206.153743,4203.589641,4210.769128,4204.102461,4198.461436,4224.615281,4199.487077,4213.33323,4174.871693
66,0,4195.384513,4203.589641,4242.563999,4169.230667,4227.692204,4201.025538,4201.538359,4205.640923,4203.589641,4207.179384,4224.615281,4198.974256,4216.922974,4158.974257
67,0,4207.692205,4199.999897,4257.435793,4161.53836,4207.179384,4200.512718,4199.999897,4207.179384,4202.051179,4241.538358,4229.230666,4199.999897,4232.820409,4177.948616
68,0,4216.410153,4204.615282,4252.307588,4164.102462,4203.589641,4204.102461,4200.512718,4206.153743,4200.512718,4238.974255,4214.358871,4193.846051,4235.384512,4200.512718
69,0,4203.589641,4204.102461,4242.051178,4168.717847,4203.589641,4201.025538,4198.461436,4203.07682,4201.538359,4218.461435,4206.153743,4187.692205,4223.07682,4194.358872
70,0,4197.435795,4196.410154,4237.435794,4166.153744,4196.922974,4199.999897,4197.948615,4209.230666,4203.589641,4219.487076,4224.615281,4185.640923,4213.33323,4178.974257
71,0,4205.640923,4192.82041,4233.84605,4163.589642,4197.948615,4202.051179,4202.051179,4215.384512,4204.102461,4221.538358,4236.410153,4188.717846,4218.461435,4179.487077
72,0,4206.153743,4197.435795,4231.794768,4167.692206,4202.564,4201.025538,4201.025538,4210.769128,4201.025538,4207.692205,4231.794768,4195.384513,4223.58964,4187.692205
73,0,4198.974256,4199.999897,4232.307589,4169.230667,4199.999897,4200.512718,4197.435795,4203.589641,4201.025538,4196.410154,4225.640922,4195.897333,4216.410153,4186.666564
74,0,4203.07682,4194.358872,4242.051178,4162.05118,4195.384513,4199.999897,4197.948615,4201.025538,4201.538359,4206.666564,4224.615281,4192.82041,4216.410153,4181.025539
75,0,4214.871692,4196.410154,4257.948614,4155.897334,4197.948615,4201.025538,4201.025538,4206.153743,4201.025538,4225.128102,4230.256307,4198.461436,4229.743486,4190.256308
76,0,4218.461435,4207.692205,4255.384511,4159.999898,4204.102461,4202.564,4202.051179,4211.794769,4204.102461,4225.640922,4235.384512,4205.640923,4233.84605,4205.128102
77,0,4215.897333,4205.128102,4238.974255,4168.717847,4203.589641,4197.948615,4199.999897,4205.640923,4203.589641,4211.794769,4231.281948,4201.025538,4226.153743,4200.512718
78,0,4217.948615,4195.384513,4239.999896,4168.717847,4201.025538,4192.82041,4196.922974,4196.922974,4196.410154,4207.179384,4232.820409,4201.538359,4229.230666,4193.846051
79,0,4219.487076,4203.07682,4252.307588,4167.179385,4201.025538,4196.922974,4197.435795,4202.051179,4198.974256,4206.153743,4236.410153,4211.281948,4237.948614,4207.692205
80,0,4220.512717,4215.384512,4254.871691,4175.897334,4203.07682,4202.051179,4201.025538,4212.307589,4211.794769,4207.179384,4234.358871,4210.256307,4237.435794,4216.922974
81,0,4231.794768,4215.897333,4251.794768,4182.564,4205.128102,4198.461436,4203.589641,4207.179384,4207.692205,4212.82041,4235.384512,4206.666564,4236.410153,4208.717846
82,0,4233.84605,4213.33323,4248.205024,4180.512718,4201.025538,4194.871692,4199.487077,4198.974256,4195.897333,4211.281948,4225.128102,4210.769128,4227.179384,4203.589641
83,0,4230.769127,4219.487076,4246.153742,4186.666564,4200.512718,4200.512718,4200.512718,4209.230666,4206.666564,4229.230666,4218.461435,4215.384512,4219.487076,4212.307589
84,0,4240.512717,4225.640922,4247.692204,4191.794769,4212.307589,4205.640923,4210.769128,4220.512717,4222.563999,4260.512716,4237.435794,4215.897333,4236.410153,4225.640922
85,0,4247.692204,4227.179384,4240.512717,4198.974256,4221.538358,4205.640923,4215.384512,4217.948615,4218.974256,4256.922973,4252.307588,4216.410153,4255.897332,4224.615281
86,0,4244.615281,4231.281948,4222.563999,4221.025538,4224.102461,4207.692205,4214.871692,4215.384512,4212.82041,4233.33323,4247.179383,4217.435794,4251.794768,4213.846051
87,0,4244.10246,4229.743486,4211.281948,4237.948614,4223.07682,4208.205025,4214.358871,4216.410153,4213.846051,4217.948615,4245.128101,4215.384512,4244.10246,4215.897333
88,0,4249.230665,4227.179384,4216.922974,4230.769127,4215.384512,4202.564,4213.33323,4214.358871,4215.897333,4216.410153,4250.769127,4215.897333,4250.769127,4231.794768
89,0,4251.281947,4230.256307,4226.153743,4221.538358,4218.461435,4207.179384,4214.871692,4224.615281,4228.205025,4237.435794,4251.281947,4218.974256,4254.871691,4235.897332
90,0,4243.58964,4224.615281,4226.153743,4219.999897,4232.307589,4215.384512,4218.974256,4233.84605,4233.84605,4253.333229,4246.153742,4221.025538,4244.10246,4223.07682
91,0,4231.281948,4205.640923,4227.179384,4204.615282,4224.615281,4208.205025,4212.307589,4221.025538,4217.948615,4233.33323,4234.871691,4212.307589,4233.33323,4208.717846
92,0,4229.230666,4199.487077,4232.307589,4193.333231,4199.487077,4197.948615,4202.051179,4210.256307,4209.230666,4214.358871,4226.153743,4202.564,4230.256307,4199.487077
93,0,4235.384512,4212.307589,4226.153743,4208.717846,4195.897333,4198.974256,4201.025538,4215.384512,4211.281948,4216.410153,4227.692204,4203.07682,4223.07682,4196.410154
94,0,4231.794768,4216.410153,4216.410153,4214.358871,4210.256307,4200.512718,4203.07682,4215.897333,4207.179384,4209.743487,4227.692204,4198.974256,4218.974256,4196.922974
95,0,4226.666563,4213.33323,4218.974256,4205.128102,4217.435794,4201.538359,4207.179384,4214.358871,4208.717846,4207.692205,4229.230666,4195.897333,4232.307589,4201.025538
96,0,4228.205025,4214.358871,4221.025538,4213.846051,4214.358871,4206.153743,4214.358871,4218.461435,4215.897333,4212.82041,4239.999896,4205.128102,4238.974255,4206.153743
97,0,4229.230666,4217.435794,4215.384512,4233.84605,4216.410153,4208.717846,4216.410153,4221.025538,4215.897333,4215.384512,4248.205024,4211.794769,4228.717845,4209.743487
98,0,4233.84605,4223.58964,4212.307589,4235.384512,4215.384512,4205.640923,4214.871692,4224.102461,4218.461435,4228.717845,4248.717845,4206.666564,4235.897332,4217.435794
99,0,4235.897332,4216.410153,4206.153743,4222.563999,4204.102461,4202.564,4215.384512,4223.58964,4216.922974,4227.692204,4243.58964,4206.153743,4246.666563,4218.974256
100,0,4226.666563,4203.589641,4202.051179,4223.07682,4203.07682,4201.025538,4216.922974,4217.948615,4206.666564,4203.589641,4236.410153,4211.794769,4235.384512,4211.281948
101,0,4231.281948,4214.871692,4207.692205,4235.384512,4214.871692,4207.692205,4216.410153,4217.948615,4209.230666,4203.07682,4232.307589,4214.871692,4227.179384,4211.794769
102,0,4247.179383,4231.281948,4213.846051,4240.512717,4222.563999,4215.384512,4215.897333,4219.487076,4215.384512,4217.435794,4231.794768,4214.871692,4233.33323,4215.384512
103,0,4242.563999,4229.230666,4215.897333,4233.33323,4217.435794,4209.743487,4217.435794,4216.410153,4212.307589,4216.410153,4233.33323,4216.410153,4233.84605,4207.179384
104,0,4229.743486,4225.128102,4212.82041,4230.769127,4204.615282,4197.948615,4214.358871,4214.871692,4210.769128,4211.281948,4234.358871,4215.384512,4225.640922,4198.974256
105,0,4225.640922,4223.07682,4210.769128,4236.922973,4203.589641,4198.974256,4207.692205,4215.897333,4213.33323,4206.153743,4235.384512,4212.82041,4230.256307,4202.564
106,0,4217.948615,4215.384512,4211.281948,4232.820409,4214.358871,4204.615282,4208.205025,4215.897333,4213.846051,4208.205025,4231.281948,4212.307589,4234.358871,4205.128102
107,0,4219.999897,4213.846051,4219.999897,4219.487076,4210.256307,4203.589641,4213.33323,4218.974256,4214.871692,4218.461435,4227.179384,4215.897333,4222.563999,4201.025538
108,0,4230.769127,4215.897333,4226.153743,4213.33323,4195.384513,4202.051179,4215.384512,4221.025538,4216.922974,4209.230666,4229.743486,4214.358871,4215.897333,4201.025538
109,0,4228.205025,4213.33323,4221.538358,4221.025538,4194.358872,4201.025538,4214.358871,4216.922974,4216.410153,4197.948615,4239.999896,4210.256307,4228.717845,4209.230666
110,0,4229.230666,4214.871692,4221.538358,4229.230666,4199.999897,4202.564,4214.358871,4218.974256,4215.897333,4210.256307,4250.769127,4214.358871,4245.128101,4218.461435
111,0,4237.948614,4219.487076,4231.281948,4229.230666,4199.487077,4205.640923,4216.410153,4225.128102,4214.358871,4208.205025,4248.205024,4221.025538,4242.563999,4217.435794
112,0,4230.769127,4218.974256,4230.769127,4226.666563,4197.435795,4204.102461,4218.461435,4222.563999,4213.846051,4196.922974,4238.461435,4219.487076,4232.820409,4211.281948
113,0,4228.205025,4214.871692,4225.640922,4227.179384,4210.769128,4204.615282,4218.461435,4226.153743,4217.948615,4214.358871,4234.871691,4220.512717,4230.256307,4215.384512
114,0,4236.922973,4212.82041,4239.487076,4218.974256,4219.487076,4207.179384,4215.384512,4231.794768,4218.461435,4219.487076,4234.871691,4223.07682,4228.717845,4221.538358
115,0,4226.666563,4212.82041,4247.692204,4201.025538,4196.410154,4201.025538,4214.358871,4223.07682,4210.769128,4197.948615,4231.281948,4216.410153,4229.743486,4212.82041
116,0,4209.743487,4212.307589,4235.897332,4203.589641,4187.692205,4199.999897,4216.410153,4223.07682,4211.794769,4206.153743,4228.717845,4218.974256,4233.84605,4208.205025
117,0,4215.897333,4205.640923,4231.794768,4216.922974,4210.256307,4209.230666,4219.999897,4233.33323,4220.512717,4226.666563,4232.820409,4228.205025,4234.871691,4214.358871
118,0,4228.205025,4199.999897,4240.512717,4208.717846,4213.33323,4207.179384,4217.948615,4224.615281,4213.33323,4207.692205,4233.33323,4214.358871,4230.256307,4209.743487
119,0,4227.179384,4206.666564,4246.153742,4192.82041,4196.410154,4199.999897,4214.358871,4212.307589,4204.615282,4191.281949,4232.307589,4199.999897,4228.205025,4197.948615
120,0,4228.205025,4218.461435,4248.205024,4203.07682,4198.461436,4204.102461,4216.922974,4219.999897,4213.846051,4210.256307,4243.076819,4212.82041,4232.820409,4202.051179
121,0,4234.358871,4219.487076,4248.717845,4213.846051,4204.615282,4206.153743,4217.435794,4222.051179,4213.33323,4218.461435,4249.230665,4222.051179,4236.410153,4212.82041
122,0,4226.666563,4216.410153,4241.538358,4205.128102,4199.487077,4200.512718,4211.281948,4212.307589,4203.07682,4212.307589,4236.922973,4208.717846,4229.230666,4210.769128
123,0,4214.358871,4213.846051,4233.33323,4205.640923,4196.410154,4198.461436,4210.769128,4213.33323,4206.666564,4217.948615,4222.051179,4200.512718,4215.384512,4196.410154
124,0,4212.307589,4208.205025,4222.563999,4214.358871,4197.435795,4202.564,4212.307589,4215.384512,4209.743487,4216.410153,4221.538358,4202.564,4213.33323,4185.128103
125,0,4210.769128,4204.102461,4219.999897,4209.230666,4196.922974,4201.538359,4207.179384,4206.153743,4199.999897,4201.025538,4220.512717,4199.999897,4219.487076,4187.179385
126,0,4206.666564,4201.025538,4235.897332,4195.384513,4195.384513,4199.487077,4206.666564,4199.999897,4195.897333,4188.717846,4211.794769,4195.384513,4214.358871,4187.179385
127,0,4212.82041,4202.564,4253.84605,4197.435795,4198.461436,4202.564,4212.307589,4211.281948,4202.564,4185.128103,4214.871692,4201.025538,4207.179384,4183.589641
128,0,4217.948615,4212.307589,4253.84605,4208.717846,4202.051179,4199.487077,4207.179384,4214.871692,4205.128102,4185.128103,4229.743486,4207.692205,4214.358871,4191.281949
0,0,4220.512717,4215.897333,4240.512717,4213.33323,4192.82041,4191.794769,4196.410154,4203.07682,4202.564,4192.30759,4233.84605,4202.051179,4221.538358,4197.948615
1,0,4234.358871,4215.897333,4234.871691,4218.974256,4193.333231,4196.410154,4206.153743,4208.205025,4204.102461,4202.051179,4232.307589,4199.487077,4225.128102,4203.589641
2,0,4236.410153,4221.025538,4233.84605,4219.487076,4212.307589,4205.640923,4215.897333,4217.948615,4206.153743,4202.051179,4230.256307,4205.128102,4223.07682,4203.07682
3,0,4218.974256,4222.051179,4230.769127,4215.897333,4219.487076,4204.615282,4208.717846,4209.230666,4201.538359,4196.410154,4223.07682,4205.640923,4208.205025,4188.205026
4,0,4213.33323,4215.384512,4229.230666,4215.897333,4204.615282,4197.948615,4198.461436,4195.897333,4193.846051,4197.435795,4218.974256,4196.922974,4199.487077,4182.564
5,0,4220.512717,4215.384512,4232.307589,4218.461435,4192.82041,4197.435795,4199.999897,4200.512718,4198.974256,4199.487077,4228.205025,4195.384513,4214.871692,4197.435795
6,0,4221.025538,4219.487076,4234.358871,4219.999897,4196.922974,4203.07682,4213.33323,4212.82041,4210.769128,4191.281949,4234.871691,4200.512718,4230.769127,4205.640923
7,0,4215.384512,4216.922974,4224.615281,4219.999897,4203.07682,4201.025538,4213.846051,4210.256307,4203.589641,4188.205026,4228.717845,4197.435795,4220.512717,4194.358872
8,0,4222.563999,4216.410153,4227.692204,4216.410153,4202.564,4193.846051,4202.051179,4204.615282,4193.846051,4208.205025,4227.692204,4201.025538,4216.410153,4196.922974
9,0,4232.820409,4219.487076,4246.153742,4209.743487,4200.512718,4199.487077,4204.102461,4210.256307,4203.589641,4221.538358,4235.384512,4215.897333,4229.230666,4207.179384
10,0,4223.58964,4218.461435,4250.256306,4207.179384,4201.025538,4207.692205,4217.948615,4217.435794,4215.897333,4205.128102,4230.256307,4214.871692,4222.051179,4195.897333
11,0,4211.794769,4214.358871,4241.538358,4198.974256,4199.999897,4201.538359,4213.846051,4214.871692,4216.922974,4196.410154,4221.538358,4201.025538,4208.205025,4186.666564
12,0,4218.974256,4213.846051,4239.487076,4188.717846,4197.948615,4197.948615,4201.025538,4211.794769,4211.794769,4215.384512,4229.743486,4201.025538,4223.58964,4204.615282
13,0,4222.563999,4217.435794,4239.487076,4194.358872,4198.974256,4202.564,4202.564,4212.307589,4207.179384,4225.128102,4234.871691,4208.205025,4240.512717,4221.025538
14,0,4214.871692,4217.435794,4232.307589,4208.205025,4206.666564,4201.538359,4207.692205,4212.307589,4207.179384,4212.307589,4229.230666,4207.692205,4228.717845,4214.871692
15,0,4223.07682,4217.435794,4230.256307,4211.281948,4216.922974,4201.538359,4213.846051,4217.435794,4217.948615,4213.33323,4241.538358,4214.871692,4230.769127,4215.897333
16,0,4228.717845,4216.410153,4229.743486,4209.230666,4208.717846,4201.538359,4215.897333,4219.999897,4222.563999,4223.07682,4251.794768,4215.897333,4251.281947,4221.025538
17,0,4213.846051,4210.769128,4230.256307,4205.128102,4194.358872,4198.974256,4208.205025,4214.358871,4212.307589,4211.794769,4236.410153,4202.564,4246.153742,4214.871692
18,0,4214.871692,4212.307589,4244.615281,4201.538359,4205.128102,4205.640923,4208.205025,4216.410153,4210.769128,4202.051179,4225.640922,4205.128102,4232.307589,4216.922974
19,0,4230.256307,4219.999897,4251.281947,4205.640923,4215.897333,4210.256307,4218.461435,4225.640922,4223.07682,4213.846051,4232.307589,4219.999897,4237.948614,4221.025538
20,0,4228.205025,4222.563999,4238.461435,4214.871692,4201.025538,4203.07682,4214.871692,4223.07682,4224.102461,4219.999897,4238.461435,4216.410153,4245.128101,4216.410153
21,0,4221.538358,4217.435794,4226.666563,4216.922974,4197.435795,4198.461436,4204.102461,4212.82041,4213.846051,4211.794769,4234.358871,4198.974256,4234.358871,4211.794769
22,0,4230.256307,4218.974256,4231.281948,4212.82041,4221.025538,4202.051179,4210.256307,4213.33323,4216.410153,4207.692205,4229.230666,4198.461436,4229.743486,4215.897333
23,0,4235.897332,4228.205025,4235.384512,4217.948615,4220.512717,4206.153743,4219.487076,4216.922974,4221.538358,4208.717846,4232.820409,4211.281948,4241.025537,4222.563999
24,0,4232.307589,4232.307589,4230.769127,4227.179384,4203.07682,4213.33323,4217.435794,4217.948615,4221.538358,4212.307589,4236.410153,4216.410153,4241.538358,4224.102461
25,0,4233.33323,4232.820409,4229.230666,4223.58964,4218.461435,4214.871692,4216.922974,4220.512717,4229.743486,4218.461435,4233.84605,4210.769128,4230.769127,4218.974256
26,0,4229.230666,4229.230666,4234.871691,4214.871692,4235.897332,4205.128102,4217.948615,4219.999897,4232.820409,4213.846051,4231.794768,4206.153743,4229.743486,4212.307589
27,0,4218.974256,4222.563999,4237.435794,4216.410153,4225.640922,4203.07682,4216.410153,4215.897333,4219.999897,4202.051179,4232.820409,4207.692205,4235.897332,4214.871692
28,0,4219.999897,4223.07682,4232.307589,4221.538358,4214.358871,4205.640923,4214.871692,4212.82041,4213.33323,4201.538359,4231.281948,4205.128102,4233.84605,4218.461435
29,0,4227.179384,4226.666563,4227.692204,4219.487076,4217.435794,4204.615282,4215.897333,4213.846051,4223.07682,4212.307589,4229.743486,4201.538359,4228.717845,4215.384512
30,0,4230.256307,4222.563999,4232.820409,4218.461435,4223.58964,4210.769128,4217.948615,4219.487076,4232.820409,4223.07682,4231.794768,4202.564,4235.897332,4218.974256
31,0,4222.051179,4215.897333,4232.820409,4220.512717,4223.07682,4215.384512,4218.974256,4220.512717,4225.640922,4218.461435,4230.256307,4202.564,4233.33323,4216.922974
32,0,4213.33323,4217.435794,4221.538358,4224.615281,4214.871692,4211.281948,4217.948615,4212.82041,4211.281948,4199.999897,4227.179384,4201.538359,4217.435794,4201.538359
33,0,4215.897333,4218.974256,4214.871692,4233.33323,4209.743487,4213.846051,4218.974256,4214.871692,4218.974256,4201.538359,4231.281948,4201.538359,4217.435794,4202.564
34,0,4220.512717,4218.461435,4218.974256,4238.461435,4216.410153,4216.922974,4222.051179,4225.128102,4233.33323,4226.153743,4235.384512,4202.564,4233.33323,4219.487076
35,0,4216.922974,4219.999897,4219.999897,4229.743486,4216.922974,4207.179384,4218.461435,4223.07682,4225.128102,4227.179384,4236.410153,4202.564,4234.871691,4221.025538
36,0,4216.410153,4219.487076,4217.435794,4218.461435,4214.358871,4202.051179,4213.33323,4214.358871,4213.33323,4205.640923,4232.820409,4201.538359,4229.743486,4213.846051
37,0,4221.025538,4218.461435,4221.538358,4216.410153,4213.33323,4204.615282,4211.794769,4212.82041,4215.897333,4201.538359,4219.487076,4204.615282,4228.717845,4217.435794
38,0,4220.512717,4218.461435,4223.07682,4216.410153,4211.281948,4205.640923,4214.358871,4215.384512,4218.974256,4203.589641,4216.410153,4211.794769,4222.051179,4219.999897
39,0,4218.974256,4218.974256,4216.922974,4219.487076,4218.461435,4206.666564,4217.435794,4216.410153,4217.948615,4205.128102,4234.358871,4210.769128,4217.948615,4214.871692
40,0,4213.846051,4214.871692,4213.846051,4215.384512,4221.025538,4203.07682,4212.82041,4215.384512,4218.461435,4212.82041,4236.922973,4201.025538,4216.410153,4206.153743
41,0,4208.717846,4210.256307,4222.051179,4199.487077,4208.205025,4198.974256,4207.179384,4213.33323,4219.999897,4208.205025,4223.58964,4195.897333,4211.794769,4199.999897
42,0,4213.33323,4211.794769,4234.358871,4199.487077,4199.999897,4202.564,4211.281948,4212.82041,4218.974256,4199.999897,4226.666563,4198.461436,4217.948615,4207.179384
43,0,4219.999897,4215.897333,4236.922973,4217.435794,4205.128102,4203.589641,4217.435794,4214.358871,4214.358871,4210.769128,4235.384512,4199.999897,4230.769127,4215.384512
44,0,4217.948615,4218.461435,4232.307589,4216.922974,4206.666564,4199.999897,4215.897333,4213.846051,4217.435794,4227.179384,4233.84605,4206.153743,4234.358871,4219.487076
45,0,4214.871692,4215.897333,4229.743486,4204.102461,4207.692205,4204.615282,4214.871692,4216.922974,4227.692204,4230.769127,4232.820409,4213.846051,4230.256307,4222.051179
46,0,4215.897333,4214.871692,4230.769127,4211.281948,4217.435794,4214.358871,4216.922974,4220.512717,4225.640922,4227.692204,4233.84605,4210.256307,4227.179384,4216.922974
47,0,4217.435794,4221.538358,4225.128102,4222.563999,4217.948615,4213.33323,4214.358871,4217.435794,4217.948615,4216.410153,4228.205025,4200.512718,4222.051179,4207.179384
48,0,4213.846051,4222.051179,4218.974256,4211.794769,4208.717846,4204.615282,4213.846051,4213.33323,4218.461435,4207.179384,4217.948615,4193.846051,4208.717846,4198.461436
49,0,4213.846051,4216.410153,4216.922974,4206.666564,4218.461435,4203.07682,4214.358871,4213.846051,4218.974256,4213.846051,4218.974256,4195.384513,4205.640923,4198.974256
50,0,4215.384512,4216.410153,4217.435794,4217.948615,4231.794768,4205.640923,4214.358871,4217.435794,4219.999897,4222.051179,4229.743486,4198.974256,4212.307589,4202.051179
51,0,4207.692205,4216.922974,4228.205025,4207.692205,4220.512717,4202.564,4216.410153,4218.974256,4222.051179,4214.358871,4225.640922,4199.487077,4209.230666,4199.487077
52,0,4206.666564,4213.33323,4239.999896,4183.589641,4206.153743,4200.512718,4213.33323,4213.846051,4216.410153,4199.999897,4214.871692,4196.410154,4204.102461,4196.410154
53,0,4212.82041,4210.256307,4236.410153,4188.717846,4202.564,4201.538359,4202.051179,4208.205025,4211.794769,4203.07682,4223.07682,4196.410154,4213.846051,4198.974256
54,0,4211.794769,4210.769128,4228.717845,4207.692205,4202.564,4199.999897,4200.512718,4210.769128,4214.871692,4216.922974,4232.820409,4199.487077,4219.999897,4202.564
55,0,4209.743487,4213.33323,4231.281948,4210.769128,4207.692205,4198.974256,4210.769128,4216.922974,4216.410153,4221.538358,4229.743486,4199.999897,4212.307589,4206.666564
56,0,4219.487076,4217.948615,4231.794768,4212.82041,4214.358871,4202.051179,4216.410153,4216.922974,4216.922974,4216.410153,4227.692204,4203.07682,4210.769128,4212.307589
57,0,4225.128102,4217.948615,4228.717845,4219.487076,4210.256307,4204.615282,4214.358871,4214.358871,4217.948615,4214.358871,4228.717845,4206.666564,4217.948615,4214.871692
58,0,4219.487076,4216.922974,4230.769127,4215.897333,4210.256307,4203.07682,4214.871692,4216.922974,4216.922974,4219.487076,4227.179384,4205.640923,4219.999897,4215.384512
59,0,4214.871692,4216.410153,4231.281948,4208.205025,4217.948615,4202.051179,4215.897333,4218.974256,4215.384512,4212.307589,4226.153743,4199.487077,4213.846051,4213.33323
60,0,4215.384512,4213.33323,4228.717845,4209.230666,4215.384512,4204.102461,4215.384512,4216.922974,4214.871692,4205.640923,4227.179384,4197.435795,4210.769128,4211.281948
61,0,4217.948615,4215.897333,4230.256307,4220.512717,4211.281948,4205.128102,4216.922974,4214.871692,4215.897333,4221.025538,4229.743486,4202.051179,4217.948615,4212.82041
62,0,4214.871692,4216.410153,4231.281948,4216.410153,4213.846051,4204.615282,4219.999897,4216.410153,4217.435794,4232.307589,4230.256307,4202.051179,4218.974256,4210.256307
63,0,4212.82041,4210.256307,4230.256307,4199.487077,4211.794769,4204.102461,4217.948615,4216.922974,4212.82041,4209.230666,4226.153743,4201.025538,4214.871692,4202.564
64,0,4216.922974,4211.794769,4235.384512,4203.589641,4207.179384,4206.153743,4217.435794,4216.410153,4213.33323,4193.333231,4229.230666,4204.615282,4220.512717,4207.179384
65,0,4223.07682,4218.461435,4232.820409,4220.512717,4210.256307,4213.33323,4223.58964,4218.974256,4220.512717,4213.33323,4238.461435,4206.153743,4228.205025,4218.974256
66,0,4227.179384,4219.487076,4222.563999,4223.07682,4220.512717,4216.410153,4225.128102,4219.487076,4218.461435,4229.230666,4233.33323,4203.589641,4224.615281,4219.487076
67,0,4213.846051,4217.435794,4226.153743,4211.281948,4223.58964,4205.128102,4217.435794,4211.281948,4209.743487,4215.384512,4216.922974,4200.512718,4208.205025,4207.179384
68,0,4198.974256,4215.384512,4233.33323,4200.512718,4216.410153,4199.487077,4213.846051,4207.692205,4212.307589,4209.743487,4216.922974,4198.461436,4198.461436,4196.922974
69,0,4206.666564,4210.256307,4228.717845,4200.512718,4211.794769,4207.179384,4217.948615,4214.871692,4219.999897,4228.717845,4232.820409,4197.948615,4209.230666,4206.666564
70,0,4213.846051,4205.640923,4223.58964,4210.256307,4218.974256,4206.666564,4218.974256,4217.948615,4217.435794,4229.230666,4238.461435,4196.922974,4221.025538,4215.384512
71,0,4207.179384,4203.589641,4219.487076,4214.358871,4218.974256,4201.538359,4216.410153,4214.871692,4214.358871,4212.307589,4231.794768,4193.333231,4218.461435,4208.205025
72,0,4204.615282,4197.948615,4214.358871,4204.615282,4199.487077,4202.051179,4216.922974,4216.410153,4218.461435,4212.307589,4227.692204,4189.230667,4213.33323,4204.102461
73,0,4215.384512,4198.461436,4223.07682,4199.487077,4201.025538,4203.589641,4218.974256,4219.487076,4217.948615,4217.948615,4230.769127,4194.871692,4217.948615,4214.871692
74,0,4218.974256,4205.640923,4235.897332,4200.512718,4222.563999,4202.564,4218.974256,4219.487076,4217.435794,4216.410153,4231.281948,4199.999897,4219.487076,4218.461435
75,0,4208.717846,4205.128102,4234.871691,4195.897333,4217.948615,4203.589641,4216.410153,4219.487076,4223.07682,4214.871692,4223.58964,4190.769128,4215.897333,4205.128102
76,0,4208.205025,4201.538359,4233.33323,4189.743487,4202.051179,4201.025538,4213.846051,4216.922974,4224.102461,4217.948615,4221.538358,4186.666564,4214.358871,4201.538359
77,0,4216.410153,4203.07682,4234.871691,4187.692205,4201.025538,4197.948615,4213.846051,4213.846051,4216.410153,4212.307589,4226.153743,4195.384513,4213.846051,4211.794769
78,0,4213.33323,4207.179384,4233.84605,4191.281949,4205.128102,4206.153743,4216.922974,4214.871692,4216.922974,4203.07682,4229.743486,4200.512718,4213.33323,4213.33323
79,0,4205.640923,4210.769128,4228.205025,4199.999897,4211.281948,4219.487076,4220.512717,4216.410153,4221.025538,4194.871692,4228.205025,4197.435795,4213.846051,4204.102461
80,0,4212.82041,4215.897333,4218.974256,4207.692205,4221.025538,4216.410153,4219.999897,4215.384512,4216.922974,4197.435795,4222.051179,4196.410154,4215.897333,4203.589641
81,0,4219.487076,4215.897333,4213.33323,4203.589641,4212.307589,4201.538359,4215.384512,4212.307589,4213.846051,4207.179384,4212.82041,4191.281949,4213.33323,4210.256307
82,0,4218.461435,4213.846051,4218.461435,4199.487077,4197.948615,4198.461436,4212.82041,4209.743487,4218.974256,4216.410153,4211.794769,4188.205026,4211.281948,4212.82041
83,0,4213.33323,4215.897333,4231.794768,4204.102461,4203.07682,4205.128102,4217.435794,4214.358871,4221.538358,4219.999897,4226.666563,4193.846051,4217.435794,4215.897333
84,0,4203.07682,4208.717846,4238.461435,4200.512718,4204.102461,4204.615282,4219.487076,4213.846051,4215.897333,4208.717846,4232.820409,4191.281949,4215.897333,4212.82041
85,0,4205.128102,4202.564,4227.179384,4192.30759,4196.410154,4199.999897,4210.256307,4203.07682,4210.256307,4195.384513,4223.07682,4182.564,4209.743487,4199.999897
86,0,4214.358871,4211.281948,4222.051179,4196.410154,4204.102461,4201.538359,4209.230666,4199.999897,4213.33323,4196.410154,4215.897333,4184.102462,4214.871692,4194.358872
87,0,4209.230666,4221.538358,4230.769127,4202.564,4217.948615,4204.615282,4215.897333,4205.640923,4216.410153,4199.999897,4217.948615,4188.205026,4214.358871,4199.487077
88,0,4199.487077,4217.948615,4227.179384,4195.897333,4213.33323,4201.025538,4207.179384,4202.564,4213.33323,4199.487077,4218.461435,4184.615282,4199.999897,4197.435795
89,0,4201.025538,4211.794769,4218.461435,4184.615282,4201.025538,4198.461436,4198.974256,4196.922974,4210.769128,4202.564,4212.307589,4182.05118,4198.461436,4196.922974
90,0,4205.128102,4213.846051,4227.179384,4185.640923,4199.487077,4202.051179,4207.692205,4199.999897,4212.307589,4196.922974,4207.179384,4183.589641,4206.153743,4204.615282
91,0,4205.640923,4217.948615,4234.871691,4194.871692,4201.025538,4201.538359,4206.666564,4200.512718,4212.82041,4188.717846,4211.794769,4181.538359,4200.512718,4205.128102
92,0,4209.743487,4219.487076,4227.179384,4204.102461,4208.717846,4198.974256,4199.999897,4201.538359,4216.410153,4203.589641,4227.692204,4184.615282,4206.666564,4206.666564
93,0,4218.461435,4219.487076,4218.974256,4206.153743,4216.922974,4203.589641,4210.769128,4208.717846,4221.025538,4213.33323,4239.487076,4191.794769,4232.820409,4218.461435
94,0,4215.384512,4217.948615,4214.358871,4201.538359,4212.82041,4203.589641,4208.717846,4204.102461,4217.948615,4199.487077,4227.692204,4186.666564,4226.153743,4216.410153
95,0,4204.102461,4215.384512,4213.846051,4197.435795,4205.640923,4198.461436,4196.922974,4199.487077,4219.487076,4204.102461,4214.871692,4182.05118,4200.512718,4203.589641
96,0,4203.07682,4214.358871,4223.07682,4197.948615,4201.538359,4200.512718,4206.153743,4206.666564,4226.153743,4224.615281,4226.153743,4191.794769,4208.205025,4205.128102
97,0,4206.153743,4216.922974,4229.230666,4199.487077,4201.025538,4203.07682,4214.358871,4209.230666,4224.102461,4216.922974,4235.384512,4192.82041,4225.640922,4208.717846
98,0,4210.256307,4217.948615,4230.769127,4199.487077,4208.717846,4201.025538,4210.769128,4205.640923,4217.435794,4201.025538,4228.717845,4186.666564,4224.102461,4204.615282
99,0,4217.435794,4217.948615,4234.871691,4197.435795,4213.846051,4202.564,4215.384512,4210.769128,4216.410153,4199.999897,4227.179384,4190.769128,4225.128102,4209.230666
100,0,4212.82041,4215.897333,4232.820409,4199.487077,4203.07682,4204.102461,4219.999897,4213.33323,4219.487076,4208.205025,4231.281948,4192.30759,4225.640922,4212.82041
101,0,4201.538359,4213.846051,4215.384512,4210.769128,4202.051179,4202.051179,4210.256307,4203.07682,4218.461435,4210.769128,4232.307589,4182.564,4210.256307,4207.692205
102,0,4202.051179,4217.435794,4208.205025,4218.974256,4219.487076,4204.615282,4211.794769,4201.025538,4214.871692,4202.051179,4220.512717,4181.025539,4192.30759,4213.33323
103,0,4206.153743,4215.384512,4225.128102,4208.717846,4218.461435,4206.153743,4217.948615,4208.717846,4214.871692,4210.256307,4192.30759,4185.640923,4188.717846,4219.999897
104,0,4200.512718,4205.640923,4233.33323,4192.82041,4201.538359,4201.538359,4209.230666,4206.153743,4217.435794,4221.538358,4196.410154,4185.640923,4201.025538,4207.692205
105,0,4196.410154,4201.538359,4227.692204,4185.128103,4203.07682,4199.487077,4201.538359,4199.487077,4217.435794,4208.205025,4243.58964,4186.666564,4219.999897,4196.922974
106,0,4200.512718,4203.07682,4230.256307,4185.128103,4204.615282,4199.487077,4203.589641,4200.512718,4216.410153,4204.615282,4255.384511,4186.153744,4227.692204,4206.153743
107,0,4202.564,4206.666564,4231.794768,4191.794769,4194.871692,4196.410154,4201.025538,4203.07682,4216.922974,4222.563999,4230.769127,4183.076821,4222.563999,4214.358871
108,0,4202.564,4212.82041,4221.538358,4203.07682,4201.538359,4196.410154,4201.538359,4198.974256,4214.358871,4212.82041,4222.563999,4181.538359,4216.922974,4210.769128
109,0,4212.82041,4215.897333,4211.794769,4212.307589,4216.410153,4203.07682,4213.33323,4199.487077,4213.33323,4195.384513,4226.153743,4184.102462,4219.999897,4211.281948
110,0,4216.922974,4215.897333,4210.769128,4219.487076,4208.717846,4205.128102,4214.358871,4205.640923,4215.384512,4207.179384,4217.948615,4187.692205,4219.487076,4216.922974
111,0,4204.615282,4215.384512,4212.82041,4219.999897,4197.435795,4198.974256,4204.615282,4203.589641,4213.846051,4210.256307,4216.410153,4185.128103,4209.743487,4214.358871
112,0,4203.07682,4214.358871,4216.922974,4217.435794,4208.717846,4203.07682,4208.717846,4198.974256,4212.82041,4199.487077,4226.666563,4184.615282,4213.846051,4208.717846
113,0,4217.948615,4221.025538,4219.487076,4224.615281,4217.435794,4217.435794,4220.512717,4208.717846,4217.948615,4201.025538,4228.717845,4197.948615,4223.07682,4215.897333
114,0,4223.07682,4230.769127,4218.974256,4234.358871,4214.871692,4216.410153,4223.07682,4217.948615,4220.512717,4201.025538,4224.615281,4203.07682,4217.435794,4222.563999
115,0,4216.922974,4229.230666,4217.435794,4235.897332,4216.922974,4204.102461,4218.974256,4207.692205,4218.461435,4198.974256,4228.717845,4191.281949,4215.897333,4213.33323
116,0,4209.230666,4220.512717,4215.897333,4224.615281,4212.82041,4202.051179,4214.358871,4197.948615,4216.922974,4210.256307,4229.743486,4183.589641,4214.871692,4192.82041
117,0,4198.461436,4212.82041,4212.307589,4217.435794,4204.102461,4204.615282,4212.82041,4205.128102,4217.948615,4220.512717,4222.563999,4185.128103,4208.717846,4186.666564
118,0,4200.512718,4215.384512,4213.846051,4224.615281,4211.794769,4204.102461,4216.922974,4215.897333,4223.58964,4209.743487,4227.692204,4192.82041,4214.871692,4211.281948
119,0,4211.281948,4216.922974,4222.563999,4224.102461,4218.461435,4203.589641,4219.999897,4214.358871,4227.179384,4208.717846,4235.897332,4198.461436,4223.07682,4229.743486
120,0,4206.666564,4206.153743,4215.897333,4211.794769,4204.615282,4199.999897,4208.717846,4204.615282,4220.512717,4218.974256,4227.179384,4190.769128,4216.922974,4214.358871
121,0,4196.922974,4202.051179,4198.461436,4216.410153,4201.025538,4201.025538,4201.538359,4199.999897,4214.358871,4209.743487,4226.153743,4184.615282,4222.051179,4204.615282
122,0,4200.512718,4211.794769,4196.922974,4230.256307,4215.897333,4203.589641,4207.692205,4203.07682,4214.871692,4202.564,4232.307589,4187.179385,4235.384512,4218.974256
123,0,4203.589641,4215.897333,4205.640923,4220.512717,4218.461435,4198.974256,4207.692205,4199.999897,4215.384512,4208.717846,4231.794768,4186.666564,4228.205025,4221.025538
124,0,4202.051179,4213.846051,4205.128102,4213.33323,4212.82041,4202.564,4206.153743,4202.564,4221.538358,4212.82041,4234.358871,4191.794769,4223.58964,4214.358871
125,0,4203.589641,4212.307589,4200.512718,4221.025538,4212.82041,4212.307589,4215.897333,4211.794769,4229.743486,4223.07682,4238.461435,4203.07682,4234.871691,4216.410153
126,0,4200.512718,4207.179384,4200.512718,4216.922974,4207.692205,4209.230666,4218.974256,4208.717846,4227.179384,4233.33323,4232.820409,4194.871692,4230.256307,4213.33323
127,0,4196.410154,4205.640923,4198.974256,4212.82041,4196.922974,4199.999897,4209.230666,4201.025538,4220.512717,4221.025538,4228.205025,4184.102462,4217.435794,4211.281948
128,0,4200.512718,4210.256307,4195.897333,4223.58964,4200.512718,4201.025538,4208.717846,4203.07682,4216.410153,4207.692205,4232.820409,4190.256308,4223.58964,4219.487076
0,0,4203.07682,4213.846051,4201.538359,4225.128102,4216.410153,4209.230666,4215.897333,4210.769128,4214.871692,4203.07682,4235.897332,4194.358872,4234.358871,4222.563999
1,0,4199.999897,4211.794769,4210.256307,4208.717846,4226.153743,4211.281948,4216.410153,4212.307589,4220.512717,4198.974256,4233.84605,4191.794769,4232.820409,4216.410153
2,0,4201.025538,4209.230666,4206.153743,4207.692205,4215.897333,4203.589641,4215.897333,4212.82041,4230.256307,4226.666563,4234.358871,4198.461436,4229.743486,4219.487076
3,0,4204.102461,4208.205025,4197.948615,4216.410153,4199.487077,4201.538359,4210.256307,4211.794769,4228.717845,4250.769127,4234.871691,4202.051179,4228.205025,4226.666563
4,0,4202.051179,4206.153743,4196.410154,4214.871692,4203.589641,4206.153743,4202.051179,4206.666564,4215.897333,4225.640922,4231.281948,4189.743487,4227.179384,4221.025538
5,0,4201.025538,4212.307589,4190.769128,4222.051179,4217.948615,4205.640923,4203.589641,4206.666564,4215.384512,4212.307589,4228.205025,4187.179385,4229.743486,4210.256307
6,0,4205.128102,4216.922974,4189.743487,4232.307589,4216.410153,4207.179384,4213.846051,4214.871692,4229.743486,4233.33323,4232.307589,4201.538359,4233.84605,4214.871692
7,0,4205.128102,4207.692205,4197.435795,4221.538358,4212.307589,4210.256307,4215.897333,4216.922974,4228.717845,4229.743486,4235.384512,4201.538359,4235.897332,4222.563999
8,0,4198.974256,4199.487077,4201.025538,4209.230666,4221.025538,4206.666564,4212.82041,4209.743487,4215.384512,4207.692205,4233.33323,4185.128103,4231.281948,4218.461435
9,0,4195.384513,4203.07682,4200.512718,4214.871692,4216.922974,4204.615282,4215.384512,4211.794769,4216.410153,4215.384512,4233.33323,4183.589641,4228.717845,4217.948615
10,0,4196.922974,4201.025538,4201.538359,4217.948615,4202.564,4206.666564,4215.897333,4217.435794,4222.563999,4227.179384,4232.307589,4193.846051,4227.692204,4222.563999
11,0,4203.07682,4198.974256,4198.974256,4216.922974,4212.307589,4206.153743,4215.384512,4215.384512,4218.974256,4211.794769,4232.307589,4197.948615,4221.538358,4221.538358
12,0,4202.564,4204.102461,4199.999897,4217.948615,4221.025538,4204.615282,4216.410153,4213.846051,4214.358871,4192.30759,4229.743486,4198.461436,4212.82041,4218.461435
13,0,4188.717846,4202.051179,4204.102461,4217.435794,4212.307589,4204.102461,4215.384512,4214.358871,4214.358871,4196.410154,4221.025538,4198.974256,4211.281948,4214.358871
14,0,4187.179385,4202.051179,4202.051179,4224.102461,4214.358871,4202.564,4213.33323,4214.358871,4216.922974,4206.666564,4218.974256,4196.410154,4215.384512,4213.846051
15,0,4201.025538,4206.666564,4196.922974,4228.717845,4223.58964,4203.589641,4213.33323,4209.743487,4217.948615,4204.102461,4229.230666,4189.743487,4219.487076,4216.922974
16,0,4199.487077,4205.128102,4195.384513,4221.538358,4216.410153,4203.589641,4216.410153,4213.33323,4216.410153,4201.538359,4232.307589,4184.615282,4219.487076,4213.846051
17,0,4189.230667,4198.461436,4198.461436,4213.846051,4210.256307,4199.999897,4211.281948,4215.384512,4216.410153,4202.051179,4224.615281,4184.615282,4212.82041,4211.281948
18,0,4202.564,4200.512718,4206.153743,4215.384512,4212.82041,4199.487077,4205.128102,4206.666564,4216.922974,4207.692205,4227.692204,4190.256308,4218.461435,4225.640922
19,0,4221.025538,4212.82041,4212.307589,4218.461435,4215.897333,4203.07682,4211.281948,4205.128102,4217.435794,4220.512717,4236.922973,4198.974256,4231.794768,4237.948614
20,0,4217.948615,4214.871692,4215.384512,4215.384512,4224.102461,4204.615282,4217.948615,4214.871692,4218.974256,4221.538358,4233.84605,4203.589641,4228.717845,4229.743486
21,0,4207.692205,4206.153743,4214.871692,4212.307589,4223.58964,4203.07682,4214.358871,4217.948615,4219.999897,4209.743487,4227.692204,4200.512718,4216.410153,4219.999897
22,0,4199.999897,4200.512718,4208.717846,4212.307589,4215.897333,4204.102461,4212.82041,4207.692205,4217.948615,4213.846051,4229.230666,4190.256308,4210.769128,4218.974256
23,0,4199.487077,4204.102461,4203.07682,4215.897333,4221.538358,4204.615282,4216.410153,4201.538359,4213.846051,4227.179384,4231.794768,4181.538359,4214.358871,4226.666563
24,0,4208.205025,4213.33323,4203.07682,4216.410153,4228.205025,4203.589641,4218.461435,4207.692205,4215.384512,4221.538358,4231.281948,4189.743487,4224.615281,4235.897332
25,0,4211.281948,4214.358871,4206.153743,4214.871692,4219.487076,4203.589641,4213.846051,4212.82041,4218.461435,4216.410153,4232.307589,4199.999897,4235.897332,4235.384512
26,0,4203.07682,4204.102461,4200.512718,4212.307589,4210.769128,4204.615282,4204.615282,4209.230666,4215.897333,4212.307589,4234.871691,4191.281949,4231.281948,4226.153743
27,0,4194.871692,4197.948615,4189.230667,4208.205025,4210.769128,4204.102461,4205.640923,4210.769128,4220.512717,4204.615282,4233.33323,4183.076821,4218.974256,4217.948615
28,0,4191.281949,4199.487077,4183.589641,4208.205025,4220.512717,4199.999897,4207.692205,4214.358871,4228.717845,4202.051179,4228.717845,4184.102462,4214.358871,4212.307589
29,0,4193.333231,4202.051179,4183.076821,4212.82041,4239.999896,4201.538359,4201.538359,4208.205025,4221.025538,4196.922974,4225.128102,4182.05118,4212.82041,4212.307589
30,0,4209.743487,4210.256307,4187.179385,4220.512717,4249.743486,4208.205025,4207.692205,4209.230666,4213.846051,4205.640923,4227.179384,4191.794769,4216.922974,4226.666563
31,0,4214.871692,4209.743487,4194.871692,4218.461435,4238.974255,4208.205025,4217.435794,4218.461435,4222.563999,4231.794768,4227.179384,4201.025538,4221.025538,4229.230666
32,0,4202.051179,4198.974256,4201.025538,4202.564,4226.153743,4201.025538,4206.153743,4212.307589,4233.84605,4231.281948,4227.179384,4189.230667,4216.410153,4214.358871
33,0,4206.666564,4204.615282,4203.589641,4196.922974,4235.897332,4199.999897,4199.999897,4206.153743,4241.538358,4208.205025,4232.307589,4186.153744,4219.999897,4216.922974
34,0,4219.487076,4217.948615,4205.640923,4206.153743,4250.256306,4204.102461,4209.230666,4212.82041,4247.692204,4213.33323,4236.410153,4200.512718,4228.717845,4234.871691
35,0,4215.897333,4213.33323,4204.102461,4214.871692,4243.076819,4202.564,4208.205025,4215.384512,4248.717845,4219.999897,4233.84605,4202.564,4222.051179,4234.358871
36,0,4205.640923,4202.564,4207.179384,4213.33323,4232.820409,4201.538359,4206.666564,4212.307589,4246.153742,4204.615282,4231.794768,4198.974256,4213.33323,4223.58964
37,0,4203.589641,4201.538359,4213.33323,4205.128102,4236.922973,4204.615282,4214.871692,4215.897333,4244.615281,4208.717846,4233.33323,4202.051179,4215.897333,4228.717845
38,0,4209.743487,4204.102461,4206.666564,4202.051179,4234.871691,4205.640923,4216.922974,4217.948615,4245.640922,4223.07682,4234.871691,4201.538359,4213.846051,4232.307589
39,0,4213.846051,4204.102461,4199.999897,4204.615282,4225.128102,4203.589641,4213.33323,4214.358871,4247.692204,4219.999897,4234.871691,4198.461436,4207.179384,4222.051179
40,0,4205.128102,4199.999897,4204.615282,4202.051179,4227.692204,4202.051179,4214.871692,4214.871692,4246.153742,4213.846051,4232.307589,4197.435795,4210.769128,4210.769128
41,0,4193.846051,4196.922974,4203.07682,4201.538359,4233.33323,4202.564,4216.410153,4213.846051,4242.051178,4212.307589,4227.692204,4194.871692,4215.384512,4210.769128
42,0,4199.999897,4199.999897,4195.897333,4214.358871,4233.33323,4204.102461,4214.358871,4214.871692,4248.205024,4217.435794,4233.33323,4197.435795,4217.948615,4225.128102
43,0,4213.33323,4205.128102,4198.461436,4219.999897,4233.84605,4204.102461,4215.897333,4224.615281,4258.974255,4224.102461,4242.563999,4201.538359,4224.615281,4234.358871
44,0,4212.82041,4203.589641,4198.461436,4214.358871,4235.384512,4202.051179,4216.410153,4221.538358,4251.281947,4221.025538,4234.871691,4198.974256,4223.58964,4225.128102
45,0,4208.205025,4201.025538,4192.82041,4214.871692,4237.435794,4203.07682,4213.846051,4209.230666,4237.948614,4210.769128,4226.153743,4196.410154,4213.33323,4213.33323
46,0,4212.82041,4210.256307,4194.358872,4220.512717,4232.307589,4209.743487,4214.358871,4212.307589,4244.615281,4214.871692,4238.974255,4201.025538,4214.358871,4219.487076
47,0,4222.051179,4215.897333,4199.487077,4223.07682,4229.743486,4214.871692,4218.461435,4220.512717,4253.333229,4227.179384,4251.281947,4207.179384,4221.538358,4232.820409
48,0,4217.435794,4206.666564,4207.692205,4214.358871,4237.435794,4212.307589,4218.974256,4217.435794,4247.692204,4224.615281,4246.153742,4204.615282,4222.563999,4230.256307
49,0,4201.025538,4197.948615,4219.999897,4198.461436,4239.999896,4204.615282,4214.871692,4213.33323,4245.128101,4216.922974,4236.922973,4199.487077,4214.871692,4220.512717
50,0,4195.897333,4200.512718,4216.922974,4194.358872,4232.820409,4201.025538,4212.307589,4212.82041,4247.179383,4213.846051,4229.230666,4196.922974,4199.999897,4217.435794
51,0,4205.640923,4202.051179,4202.051179,4201.538359,4232.820409,4202.564,4214.358871,4211.281948,4244.10246,4206.666564,4229.743486,4195.897333,4197.435795,4217.948615
52,0,4214.871692,4201.538359,4203.07682,4208.717846,4237.948614,4206.153743,4216.410153,4217.435794,4245.640922,4207.692205,4241.538358,4200.512718,4215.897333,4224.102461
53,0,4207.692205,4203.589641,4204.102461,4217.435794,4234.358871,4203.07682,4215.384512,4220.512717,4249.230665,4218.974256,4249.230665,4205.640923,4225.128102,4226.666563
54,0,4198.974256,4201.025538,4187.692205,4228.205025,4229.743486,4202.564,4215.384512,4216.410153,4246.666563,4217.948615,4246.153742,4203.07682,4212.82041,4218.974256
55,0,4208.717846,4201.538359,4185.128103,4233.84605,4233.33323,4212.82041,4218.461435,4222.051179,4246.153742,4209.230666,4243.58964,4207.179384,4214.871692,4222.051179
56,0,4217.435794,4208.205025,4201.025538,4230.256307,4235.897332,4215.384512,4217.948615,4229.230666,4251.281947,4206.153743,4230.769127,4216.922974,4221.025538,4232.307589
57,0,4197.435795,4201.025538,4206.153743,4214.871692,4231.794768,4204.102461,4216.410153,4222.051179,4250.769127,4192.82041,4216.410153,4211.794769,4199.487077,4220.512717
58,0,4180.512718,4190.256308,4200.512718,4199.487077,4226.153743,4197.435795,4211.794769,4205.640923,4234.871691,4186.153744,4223.58964,4196.410154,4187.692205,4200.512718
59,0,4193.846051,4195.384513,4194.871692,4199.999897,4222.051179,4199.487077,4203.07682,4196.410154,4217.435794,4199.999897,4234.871691,4186.153744,4201.025538,4200.512718
60,0,4203.07682,4204.102461,4193.846051,4207.179384,4215.384512,4198.461436,4196.922974,4198.461436,4218.974256,4198.974256,4227.692204,4186.153744,4205.128102,4207.692205
61,0,4199.487077,4206.666564,4198.461436,4213.33323,4208.717846,4197.948615,4197.948615,4200.512718,4232.307589,4189.230667,4223.07682,4193.333231,4196.410154,4211.794769
62,0,4208.205025,4212.307589,4202.051179,4224.615281,4212.307589,4201.538359,4209.743487,4203.07682,4234.358871,4197.948615,4232.307589,4201.538359,4202.051179,4218.461435
63,0,4217.435794,4217.948615,4203.589641,4229.230666,4227.179384,4202.564,4214.871692,4210.769128,4231.281948,4210.256307,4230.769127,4203.07682,4205.128102,4219.487076
64,0,4212.82041,4217.435794,4201.025538,4224.615281,4240.512717,4201.538359,4204.615282,4212.307589,4235.384512,4199.487077,4224.102461,4199.487077,4197.435795,4215.897333
65,0,4212.82041,4216.410153,4189.230667,4228.205025,4230.256307,4201.538359,4201.538359,4206.153743,4235.384512,4183.076821,4229.230666,4198.974256,4199.487077,4214.871692
66,0,4213.846051,4216.922974,4186.153744,4234.871691,4216.922974,4204.615282,4212.82041,4208.717846,4232.307589,4189.743487,4229.743486,4205.640923,4199.999897,4217.948615
67,0,4218.974256,4225.640922,4201.538359,4236.410153,4227.692204,4206.153743,4215.897333,4216.922974,4237.948614,4203.589641,4228.717845,4214.358871,4203.589641,4225.640922
68,0,4226.666563,4230.256307,4205.640923,4235.384512,4237.435794,4204.615282,4210.256307,4217.435794,4245.128101,4199.487077,4236.922973,4216.410153,4218.461435,4231.794768
69,0,4224.102461,4218.974256,4198.461436,4232.820409,4235.384512,4203.07682,4214.871692,4217.948615,4248.205024,4202.051179,4244.10246,4214.871692,4223.07682,4234.871691
70,0,4221.538358,4218.461435,4207.179384,4229.230666,4238.974255,4202.564,4218.461435,4218.974256,4246.153742,4214.871692,4246.153742,4215.384512,4215.897333,4235.384512
71,0,4229.743486,4232.820409,4219.487076,4230.769127,4243.58964,4203.07682,4214.871692,4216.410153,4244.615281,4209.743487,4247.692204,4215.897333,4217.948615,4232.820409
72,0,4235.897332,4234.358871,4217.948615,4234.358871,4233.33323,4205.640923,4214.871692,4220.512717,4250.256306,4202.051179,4243.076819,4218.974256,4224.615281,4236.922973
73,0,4228.205025,4218.974256,4212.82041,4233.33323,4221.025538,4204.615282,4216.922974,4221.538358,4248.717845,4194.871692,4237.948614,4218.461435,4215.384512,4235.384512
74,0,4216.922974,4213.846051,4213.846051,4227.692204,4215.897333,4199.487077,4212.82041,4213.846051,4240.512717,4188.717846,4239.999896,4212.82041,4204.615282,4216.410153
75,0,4220.512717,4227.692204,4217.948615,4229.230666,4221.025538,4207.692205,4214.871692,4217.948615,4243.076819,4208.717846,4245.128101,4214.871692,4214.358871,4214.871692
76,0,4232.307589,4232.820409,4216.922974,4238.461435,4238.974255,4218.974256,4226.153743,4231.794768,4251.794768,4225.640922,4247.179383,4221.025538,4231.794768,4239.999896
77,0,4230.256307,4222.051179,4217.948615,4230.769127,4240.512717,4209.743487,4223.58964,4228.205025,4249.230665,4204.102461,4239.999896,4214.358871,4227.692204,4243.58964
78,0,4222.563999,4214.871692,4222.051179,4213.846051,4223.58964,4197.948615,4212.307589,4214.358871,4242.051178,4180.512718,4230.769127,4206.666564,4211.281948,4227.692204
79,0,4229.230666,4217.948615,4220.512717,4222.563999,4212.307589,4205.128102,4213.846051,4213.846051,4235.384512,4185.640923,4236.410153,4214.871692,4214.871692,4229.230666
80,0,4232.820409,4223.58964,4214.871692,4232.820409,4215.897333,4207.692205,4215.897333,4216.922974,4231.794768,4189.743487,4236.410153,4216.410153,4218.974256,4233.33323
81,0,4226.666563,4224.102461,4214.871692,4219.487076,4225.640922,4199.487077,4211.794769,4213.33323,4233.33323,4185.640923,4215.897333,4205.128102,4201.025538,4228.205025
82,0,4227.692204,4221.025538,4214.358871,4222.051179,4234.871691,4204.102461,4212.307589,4212.307589,4232.307589,4191.281949,4213.33323,4206.666564,4193.846051,4231.281948
83,0,4234.358871,4218.974256,4214.871692,4235.384512,4238.461435,4210.769128,4214.871692,4215.897333,4234.358871,4201.025538,4241.025537,4215.897333,4210.256307,4235.384512
84,0,4236.922973,4218.974256,4225.640922,4222.563999,4226.153743,4205.640923,4217.435794,4219.487076,4245.640922,4202.051179,4252.820409,4217.948615,4224.102461,4234.871691
85,0,4230.256307,4218.974256,4233.84605,4209.743487,4217.948615,4200.512718,4213.846051,4218.974256,4248.717845,4198.974256,4236.410153,4215.384512,4217.435794,4233.33323
86,0,4219.487076,4218.461435,4222.563999,4214.358871,4217.435794,4199.999897,4203.589641,4214.871692,4234.871691,4201.025538,4226.153743,4208.717846,4204.615282,4223.58964
87,0,4216.410153,4216.410153,4210.769128,4210.769128,4213.33323,4200.512718,4206.666564,4214.871692,4229.230666,4204.102461,4231.794768,4204.615282,4205.640923,4213.33323
88,0,4219.999897,4215.384512,4217.948615,4206.666564,4224.615281,4207.692205,4217.948615,4218.461435,4239.999896,4213.33323,4230.769127,4210.256307,4212.82041,4220.512717
89,0,4224.102461,4217.948615,4234.871691,4208.717846,4251.794768,4218.974256,4218.461435,4219.487076,4248.717845,4216.922974,4230.769127,4214.871692,4216.410153,4236.410153
90,0,4228.205025,4218.974256,4235.384512,4202.051179,4253.84605,4216.410153,4216.922974,4218.974256,4244.10246,4204.102461,4234.358871,4213.33323,4217.948615,4237.948614
91,0,4228.205025,4223.07682,4221.538358,4206.153743,4227.692204,4205.128102,4214.871692,4217.948615,4233.84605,4199.999897,4219.487076,4213.33323,4209.230666,4231.281948
92,0,4224.615281,4226.666563,4213.846051,4220.512717,4218.974256,4201.025538,4206.666564,4214.358871,4230.769127,4206.666564,4212.307589,4214.871692,4196.410154,4230.769127
93,0,4226.666563,4219.999897,4212.82041,4219.487076,4231.281948,4202.564,4203.07682,4211.281948,4234.358871,4196.410154,4233.33323,4213.846051,4203.589641,4233.33323
94,0,4230.769127,4215.897333,4214.871692,4210.769128,4232.820409,4200.512718,4204.102461,4211.794769,4233.33323,4185.640923,4241.025537,4212.82041,4217.435794,4233.84605
95,0,4228.717845,4218.461435,4225.128102,4213.846051,4219.487076,4199.999897,4206.153743,4212.307589,4228.205025,4193.333231,4227.692204,4214.871692,4213.846051,4230.769127
96,0,4227.179384,4217.948615,4229.230666,4219.487076,4216.410153,4203.589641,4214.871692,4214.358871,4229.743486,4202.051179,4228.205025,4215.897333,4213.33323,4232.820409
97,0,4233.84605,4216.922974,4220.512717,4218.974256,4230.256307,4205.640923,4221.025538,4218.461435,4235.897332,4203.589641,4237.948614,4218.461435,4221.025538,4243.076819
98,0,4233.33323,4218.461435,4215.384512,4216.410153,4227.692204,4203.589641,4216.922974,4218.461435,4235.897332,4203.07682,4231.794768,4217.948615,4216.410153,4238.974255
99,0,4221.025538,4214.358871,4217.948615,4210.769128,4212.82041,4201.025538,4212.307589,4210.769128,4230.256307,4196.410154,4221.025538,4207.179384,4204.615282,4219.487076
100,0,4211.281948,4211.794769,4214.358871,4205.128102,4214.871692,4199.999897,4209.743487,4209.743487,4230.769127,4203.07682,4217.948615,4198.461436,4197.948615,4211.794769
101,0,4211.794769,4214.358871,4211.281948,4200.512718,4224.102461,4201.538359,4203.589641,4211.794769,4234.871691,4221.025538,4217.435794,4202.051179,4193.846051,4215.384512
