title:JTA                                                                             , recorded:03.07.20 14.06.15, sampling:128, subject:JTA                                                                             , labels:COUNTER INTERPOLATED AF3 F7 F3 FC5 T7 P7 O1 O2 P8 T8 FC6 F4 F8 AF4,, units:emotiv,,,,,,,,,
32,0,4182.564,4154.358873,4227.692204,4149.230668,4211.281948,4202.051179,4198.974256,4196.922974,4200.512718,4184.615282,4193.846051,4174.871693,4191.281949,4141.53836
33,0,4184.102462,4158.461437,4230.256307,4156.410155,4210.256307,4201.025538,4204.102461,4200.512718,4207.692205,4208.205025,4201.538359,4186.666564,4201.025538,4159.487078
34,0,4186.666564,4170.256308,4241.538358,4174.358872,4220.512717,4208.717846,4208.205025,4210.256307,4218.461435,4220.512717,4207.692205,4188.205026,4206.153743,4193.846051
35,0,4187.179385,4169.743488,4239.487076,4185.640923,4232.820409,4217.435794,4209.743487,4216.410153,4224.102461,4210.769128,4212.82041,4185.128103,4208.205025,4196.922974
36,0,4194.358872,4169.230667,4221.025538,4187.179385,4229.230666,4212.82041,4211.794769,4217.948615,4221.538358,4203.07682,4217.948615,4183.076821,4219.487076,4182.05118
37,0,4203.589641,4177.948616,4214.358871,4185.640923,4222.563999,4210.769128,4217.435794,4217.435794,4218.974256,4224.615281,4218.974256,4184.615282,4222.051179,4182.05118
38,0,4203.07682,4171.79477,4218.974256,4183.589641,4218.974256,4214.358871,4214.871692,4212.82041,4218.974256,4241.538358,4215.384512,4185.128103,4211.794769,4178.461436
39,0,4195.384513,4166.153744,4215.897333,4193.333231,4217.948615,4211.281948,4202.051179,4207.179384,4214.871692,4223.58964,4200.512718,4183.589641,4197.948615,4169.230667
40,0,4188.205026,4181.025539,4216.922974,4201.538359,4223.07682,4212.82041,4202.564,4210.256307,4213.33323,4206.153743,4201.538359,4184.615282,4195.384513,4178.461436
41,0,4185.128103,4188.205026,4220.512717,4198.461436,4218.974256,4217.948615,4215.897333,4215.897333,4216.922974,4216.410153,4213.33323,4185.640923,4207.179384,4186.153744
42,0,4194.358872,4183.589641,4217.435794,4205.640923,4220.512717,4214.871692,4216.922974,4215.897333,4224.102461,4228.205025,4213.33323,4186.153744,4218.974256,4183.589641
43,0,4215.384512,4193.333231,4223.58964,4219.487076,4251.794768,4216.410153,4213.33323,4221.538358,4229.230666,4224.102461,4212.82041,4197.948615,4219.487076,4189.230667
44,0,4221.538358,4202.051179,4237.435794,4222.563999,4266.153742,4228.717845,4225.128102,4230.256307,4231.281948,4214.358871,4215.897333,4210.769128,4214.871692,4188.205026
45,0,4210.256307,4190.769128,4234.871691,4219.487076,4243.076819,4236.410153,4234.871691,4234.871691,4234.871691,4218.974256,4226.153743,4204.102461,4221.025538,4184.615282
46,0,4196.922974,4174.871693,4216.922974,4210.256307,4229.743486,4222.563999,4224.102461,4229.230666,4232.307589,4230.769127,4226.666563,4186.153744,4218.974256,4187.692205
47,0,4189.230667,4183.076821,4210.256307,4200.512718,4230.769127,4210.256307,4211.281948,4216.922974,4221.538358,4232.820409,4202.564,4179.999898,4198.974256,4179.487077
48,0,4187.179385,4197.948615,4219.999897,4210.769128,4232.307589,4223.07682,4222.563999,4215.897333,4221.025538,4230.769127,4198.461436,4184.615282,4194.358872,4165.128103
49,0,4184.615282,4191.794769,4225.128102,4216.922974,4234.871691,4229.743486,4233.33323,4221.025538,4227.692204,4225.640922,4213.33323,4183.589641,4205.640923,4164.615283
50,0,4190.256308,4188.205026,4229.230666,4205.128102,4229.743486,4217.435794,4222.563999,4218.461435,4224.615281,4216.410153,4207.692205,4187.692205,4203.589641,4179.999898
51,0,4206.153743,4199.487077,4231.281948,4201.025538,4229.743486,4214.871692,4214.871692,4216.410153,4218.974256,4212.82041,4206.153743,4195.384513,4201.538359,4192.82041
52,0,4218.974256,4202.564,4222.051179,4206.666564,4242.051178,4221.538358,4218.974256,4217.435794,4218.461435,4218.461435,4224.102461,4191.281949,4217.435794,4198.974256
53,0,4220.512717,4196.410154,4218.974256,4203.07682,4235.897332,4215.897333,4219.487076,4214.358871,4215.897333,4216.922974,4217.435794,4184.615282,4221.025538,4200.512718
54,0,4216.922974,4201.025538,4232.307589,4197.435795,4214.871692,4212.82041,4215.384512,4213.846051,4220.512717,4211.794769,4202.051179,4186.153744,4201.538359,4197.435795
55,0,4209.230666,4198.461436,4235.384512,4198.461436,4218.461435,4219.487076,4217.948615,4219.487076,4232.307589,4222.563999,4205.640923,4188.717846,4193.333231,4193.333231
56,0,4199.999897,4185.128103,4226.153743,4197.435795,4236.410153,4221.025538,4223.07682,4224.615281,4231.794768,4228.205025,4203.589641,4192.30759,4195.384513,4183.589641
57,0,4200.512718,4192.82041,4229.743486,4201.025538,4232.307589,4219.487076,4228.717845,4231.281948,4229.743486,4218.461435,4198.461436,4201.025538,4202.051179,4183.076821
58,0,4197.435795,4200.512718,4229.743486,4207.179384,4211.281948,4219.487076,4235.384512,4235.384512,4236.922973,4217.948615,4198.461436,4203.589641,4201.538359,4190.256308
59,0,4189.230667,4187.692205,4212.307589,4211.281948,4206.666564,4217.948615,4229.230666,4232.820409,4231.281948,4223.58964,4197.948615,4199.999897,4184.102462,4184.102462
60,0,4194.871692,4185.640923,4205.640923,4223.07682,4225.640922,4217.435794,4218.461435,4231.281948,4215.384512,4210.256307,4207.179384,4198.974256,4184.102462,4172.820411
61,0,4211.281948,4202.051179,4214.358871,4236.922973,4240.512717,4218.974256,4223.07682,4233.33323,4222.051179,4206.153743,4221.538358,4198.974256,4207.179384,4183.076821
62,0,4218.974256,4206.153743,4218.461435,4234.871691,4239.999896,4221.025538,4233.33323,4234.871691,4236.410153,4219.999897,4218.461435,4199.999897,4213.33323,4204.102461
63,0,4212.82041,4199.487077,4214.358871,4227.179384,4237.435794,4221.025538,4232.307589,4235.384512,4231.281948,4219.487076,4208.717846,4200.512718,4197.948615,4203.07682
64,0,4205.640923,4194.358872,4216.410153,4219.487076,4233.84605,4219.487076,4229.743486,4237.435794,4229.230666,4220.512717,4208.205025,4205.640923,4197.948615,4191.794769
65,0,4196.410154,4188.205026,4215.384512,4205.640923,4220.512717,4218.974256,4231.281948,4233.84605,4233.84605,4227.179384,4209.230666,4200.512718,4203.07682,4182.05118
66,0,4189.230667,4192.30759,4203.07682,4205.640923,4208.717846,4217.948615,4226.666563,4226.153743,4224.102461,4215.384512,4206.153743,4186.153744,4201.538359,4182.564
67,0,4196.410154,4204.102461,4206.153743,4229.743486,4216.410153,4218.974256,4230.256307,4229.743486,4219.999897,4211.794769,4195.384513,4190.256308,4204.615282,4194.871692
68,0,4208.717846,4207.692205,4213.846051,4239.999896,4227.692204,4219.999897,4233.33323,4234.871691,4229.230666,4231.281948,4187.179385,4204.102461,4197.435795,4194.358872
69,0,4200.512718,4198.974256,4207.179384,4222.563999,4219.487076,4215.897333,4220.512717,4230.769127,4231.281948,4235.384512,4197.435795,4195.897333,4186.153744,4182.564
70,0,4183.076821,4188.205026,4204.102461,4210.769128,4212.82041,4213.846051,4220.512717,4231.281948,4232.307589,4230.769127,4205.128102,4184.102462,4178.974257,4182.564
71,0,4188.717846,4190.769128,4206.666564,4217.948615,4219.999897,4216.922974,4229.230666,4232.820409,4230.769127,4228.205025,4196.922974,4192.82041,4181.025539,4187.179385
72,0,4201.025538,4199.487077,4204.102461,4222.051179,4220.512717,4218.974256,4227.179384,4226.666563,4222.563999,4208.717846,4198.974256,4199.999897,4196.410154,4181.025539
73,0,4199.487077,4201.538359,4210.769128,4218.461435,4218.461435,4219.999897,4226.666563,4231.281948,4228.205025,4202.051179,4214.358871,4198.974256,4205.128102,4180.512718
74,0,4201.538359,4198.461436,4217.948615,4216.410153,4219.487076,4217.948615,4227.692204,4231.794768,4236.922973,4215.384512,4219.487076,4200.512718,4204.615282,4190.256308
75,0,4215.897333,4201.538359,4212.82041,4219.487076,4211.281948,4212.307589,4218.461435,4218.974256,4227.179384,4217.948615,4219.999897,4203.589641,4209.743487,4201.538359
76,0,4225.128102,4210.256307,4225.640922,4215.384512,4211.794769,4215.384512,4217.435794,4222.563999,4225.128102,4213.33323,4218.461435,4208.205025,4224.615281,4217.948615
77,0,4215.897333,4206.153743,4238.461435,4199.487077,4217.435794,4218.974256,4221.025538,4227.692204,4230.769127,4205.640923,4210.769128,4207.692205,4215.897333,4211.794769
78,0,4196.922974,4188.205026,4224.615281,4192.30759,4202.564,4211.794769,4213.846051,4213.846051,4221.538358,4198.461436,4201.025538,4196.410154,4191.281949,4179.487077
79,0,4186.153744,4179.999898,4216.410153,4198.461436,4199.487077,4212.82041,4212.82041,4210.256307,4212.82041,4201.025538,4190.256308,4188.205026,4184.615282,4170.256308
80,0,4192.82041,4184.615282,4221.538358,4202.564,4219.999897,4221.538358,4218.974256,4221.538358,4217.435794,4199.487077,4187.179385,4188.205026,4193.846051,4187.179385
81,0,4201.025538,4185.128103,4218.974256,4202.564,4224.102461,4215.384512,4218.461435,4218.974256,4215.897333,4205.128102,4197.948615,4187.692205,4195.384513,4182.05118
82,0,4196.410154,4185.128103,4218.974256,4197.948615,4216.410153,4209.230666,4217.948615,4214.358871,4213.846051,4233.33323,4202.564,4184.615282,4181.025539,4180.512718
83,0,4196.922974,4192.82041,4231.281948,4187.692205,4214.358871,4217.948615,4216.922974,4219.487076,4224.615281,4240.512717,4199.999897,4185.128103,4181.538359,4207.692205
84,0,4208.717846,4199.999897,4230.769127,4191.794769,4205.128102,4219.999897,4217.948615,4222.051179,4234.358871,4219.999897,4211.281948,4189.230667,4203.589641,4215.384512
85,0,4212.307589,4203.589641,4219.999897,4211.281948,4202.564,4215.897333,4218.974256,4218.974256,4228.717845,4213.33323,4221.538358,4190.256308,4222.563999,4202.051179
86,0,4205.128102,4203.589641,4217.948615,4204.615282,4212.82041,4216.922974,4212.82041,4214.871692,4218.461435,4215.384512,4207.692205,4186.666564,4217.435794,4197.948615
87,0,4194.871692,4197.948615,4217.948615,4183.076821,4215.897333,4214.871692,4206.153743,4212.82041,4214.871692,4211.281948,4192.30759,4186.153744,4197.948615,4189.743487
88,0,4196.922974,4199.487077,4217.435794,4196.410154,4223.58964,4219.487076,4214.358871,4216.922974,4219.999897,4213.846051,4199.487077,4195.384513,4206.153743,4190.256308
89,0,4212.82041,4210.769128,4223.07682,4221.025538,4238.461435,4231.281948,4228.205025,4227.692204,4229.230666,4218.461435,4211.794769,4205.128102,4218.974256,4214.358871
90,0,4218.461435,4217.435794,4228.205025,4219.487076,4233.84605,4228.717845,4227.692204,4232.820409,4233.84605,4217.948615,4208.205025,4204.615282,4203.589641,4217.948615
91,0,4212.82041,4216.410153,4222.051179,4216.410153,4218.461435,4219.487076,4220.512717,4231.794768,4229.743486,4213.846051,4209.230666,4202.564,4198.974256,4201.025538
92,0,4217.435794,4208.205025,4214.358871,4216.410153,4219.999897,4217.948615,4218.461435,4232.307589,4220.512717,4203.589641,4216.922974,4204.102461,4222.051179,4204.102461
93,0,4221.538358,4198.461436,4222.051179,4201.025538,4215.384512,4216.922974,4216.922974,4225.128102,4214.358871,4206.666564,4198.461436,4201.025538,4212.82041,4207.179384
94,0,4210.256307,4207.179384,4236.410153,4200.512718,4201.538359,4215.897333,4213.33323,4216.922974,4217.435794,4231.281948,4186.153744,4198.461436,4185.128103,4201.025538
95,0,4199.487077,4213.846051,4230.256307,4210.256307,4205.640923,4216.922974,4212.307589,4217.435794,4222.051179,4244.615281,4209.743487,4200.512718,4193.846051,4202.051179
96,0,4202.564,4202.051179,4212.307589,4203.07682,4216.410153,4214.358871,4213.846051,4218.461435,4219.487076,4230.256307,4220.512717,4198.461436,4208.717846,4202.051179
97,0,4211.794769,4202.051179,4216.922974,4205.640923,4210.769128,4221.025538,4215.897333,4222.563999,4222.563999,4215.897333,4209.230666,4199.487077,4211.794769,4200.512718
98,0,4206.153743,4208.717846,4219.487076,4218.974256,4210.769128,4231.794768,4218.974256,4231.281948,4231.281948,4215.897333,4212.82041,4203.589641,4218.974256,4203.07682
99,0,4190.256308,4207.692205,4202.051179,4218.461435,4226.666563,4224.102461,4221.025538,4228.717845,4229.743486,4216.922974,4215.897333,4199.487077,4216.922974,4201.538359
100,0,4193.846051,4209.743487,4206.153743,4216.922974,4227.179384,4214.358871,4219.487076,4227.692204,4229.743486,4224.102461,4211.281948,4199.487077,4211.794769,4196.922974
101,0,4195.384513,4207.692205,4218.461435,4213.33323,4213.846051,4216.922974,4215.384512,4232.307589,4229.230666,4226.666563,4209.743487,4199.999897,4216.410153,4189.230667
102,0,4172.30759,4195.897333,4206.153743,4205.128102,4209.230666,4217.948615,4213.33323,4226.153743,4220.512717,4215.897333,4196.922974,4192.30759,4209.230666,4179.487077
103,0,4166.153744,4198.461436,4202.051179,4209.230666,4213.33323,4216.410153,4214.871692,4225.128102,4223.07682,4222.051179,4190.256308,4192.30759,4186.666564,4177.948616
104,0,4186.153744,4205.128102,4217.948615,4207.692205,4224.615281,4219.999897,4216.410153,4232.307589,4233.33323,4234.358871,4199.999897,4197.948615,4182.564,4175.384513
105,0,4188.717846,4201.025538,4212.82041,4197.948615,4221.538358,4221.538358,4215.897333,4225.128102,4227.179384,4222.563999,4206.153743,4192.30759,4201.538359,4170.769129
106,0,4181.538359,4196.922974,4197.435795,4201.538359,4212.307589,4217.948615,4216.410153,4215.384512,4219.487076,4216.410153,4207.692205,4186.153744,4216.922974,4180.512718
107,0,4185.128103,4197.435795,4206.666564,4197.948615,4221.538358,4218.461435,4218.461435,4218.461435,4221.025538,4237.435794,4213.846051,4186.153744,4213.33323,4191.281949
108,0,4188.717846,4201.538359,4220.512717,4185.640923,4228.717845,4219.999897,4218.461435,4220.512717,4219.999897,4236.922973,4204.102461,4186.153744,4209.230666,4179.999898
109,0,4179.999898,4201.025538,4218.461435,4184.615282,4210.769128,4215.384512,4213.846051,4213.846051,4212.82041,4201.538359,4178.974257,4186.666564,4193.846051,4164.615283
110,0,4172.820411,4195.897333,4213.846051,4185.128103,4196.922974,4209.743487,4210.256307,4208.717846,4208.205025,4181.538359,4182.564,4186.666564,4172.30759,4169.230667
111,0,4174.871693,4195.384513,4214.358871,4188.205026,4202.051179,4214.358871,4214.358871,4213.846051,4212.307589,4200.512718,4208.717846,4182.564,4186.153744,4183.076821
112,0,4183.076821,4201.025538,4217.435794,4199.999897,4208.205025,4218.974256,4216.922974,4219.999897,4218.461435,4229.743486,4215.384512,4182.564,4216.410153,4193.333231
113,0,4194.871692,4208.717846,4218.461435,4203.07682,4218.461435,4215.897333,4216.410153,4218.461435,4218.974256,4231.794768,4207.692205,4191.281949,4218.461435,4197.948615
114,0,4199.999897,4224.102461,4219.487076,4207.179384,4219.487076,4218.461435,4225.640922,4222.051179,4224.102461,4225.128102,4210.769128,4200.512718,4213.33323,4204.102461
115,0,4204.615282,4232.307589,4224.102461,4218.974256,4209.230666,4231.281948,4235.384512,4234.358871,4234.871691,4232.307589,4218.461435,4203.07682,4219.487076,4210.769128
116,0,4209.743487,4221.538358,4230.256307,4219.487076,4218.974256,4233.84605,4232.307589,4235.384512,4234.871691,4235.384512,4217.435794,4201.538359,4221.538358,4208.717846
117,0,4206.666564,4213.846051,4230.256307,4213.33323,4238.974255,4227.179384,4228.717845,4232.820409,4233.84605,4233.84605,4215.384512,4203.07682,4220.512717,4206.153743
118,0,4200.512718,4219.487076,4221.538358,4212.82041,4239.487076,4231.794768,4233.33323,4230.769127,4232.307589,4230.256307,4214.871692,4204.102461,4219.487076,4207.179384
119,0,4199.999897,4222.563999,4214.358871,4213.846051,4227.179384,4232.820409,4229.743486,4220.512717,4222.051179,4225.128102,4214.358871,4200.512718,4216.410153,4197.948615
120,0,4201.538359,4219.487076,4218.974256,4213.33323,4220.512717,4221.538358,4220.512717,4217.435794,4222.051179,4227.692204,4215.897333,4201.538359,4212.82041,4191.281949
121,0,4200.512718,4213.846051,4216.922974,4213.846051,4216.410153,4215.384512,4221.538358,4225.640922,4230.769127,4237.948614,4211.794769,4203.07682,4209.743487,4201.025538
122,0,4197.948615,4215.384512,4205.128102,4222.051179,4213.846051,4217.435794,4225.128102,4222.563999,4229.743486,4232.820409,4208.205025,4199.487077,4212.307589,4206.153743
123,0,4196.922974,4222.051179,4208.205025,4234.358871,4215.384512,4221.538358,4225.640922,4214.871692,4225.640922,4216.922974,4213.33323,4196.922974,4218.461435,4200.512718
124,0,4208.205025,4219.487076,4217.435794,4234.871691,4217.948615,4226.666563,4227.179384,4222.563999,4226.666563,4215.897333,4218.974256,4202.564,4222.563999,4201.538359
125,0,4217.435794,4222.051179,4215.897333,4231.281948,4218.461435,4230.769127,4232.820409,4234.358871,4230.769127,4232.820409,4218.974256,4209.230666,4227.692204,4210.256307
126,0,4206.153743,4228.717845,4210.256307,4234.871691,4217.948615,4229.230666,4231.281948,4234.871691,4235.897332,4247.692204,4219.487076,4206.666564,4222.563999,4214.871692
127,0,4197.948615,4222.051179,4205.128102,4232.820409,4226.666563,4229.230666,4224.615281,4229.230666,4233.33323,4243.076819,4220.512717,4201.025538,4208.717846,4207.692205
128,0,4202.564,4219.999897,4205.128102,4228.717845,4234.871691,4227.692204,4223.58964,4226.153743,4227.692204,4232.307589,4218.461435,4200.512718,4213.846051,4194.871692
0,0,4204.102461,4223.58964,4210.769128,4231.281948,4231.281948,4226.153743,4231.794768,4229.743486,4231.281948,4229.230666,4217.435794,4203.589641,4226.153743,4194.871692
1,0,4202.564,4214.871692,4206.666564,4230.769127,4220.512717,4230.769127,4232.307589,4228.205025,4231.794768,4231.281948,4216.410153,4204.102461,4216.410153,4203.589641
2,0,4198.461436,4209.230666,4198.974256,4228.717845,4212.82041,4225.128102,4217.948615,4217.435794,4226.666563,4234.871691,4213.846051,4195.384513,4208.717846,4205.128102
3,0,4199.999897,4216.410153,4204.615282,4226.153743,4221.025538,4216.410153,4217.435794,4216.922974,4228.717845,4230.256307,4216.410153,4192.82041,4226.666563,4208.205025
4,0,4214.358871,4221.538358,4219.487076,4231.281948,4228.205025,4227.692204,4233.33323,4231.281948,4235.897332,4229.743486,4223.07682,4208.205025,4239.487076,4223.58964
5,0,4222.051179,4231.794768,4227.692204,4244.10246,4218.974256,4237.435794,4237.435794,4238.974255,4235.384512,4247.179383,4229.743486,4220.512717,4234.871691,4236.410153
6,0,4210.769128,4234.871691,4222.563999,4236.922973,4216.922974,4223.07682,4229.230666,4230.769127,4229.743486,4243.58964,4227.179384,4214.871692,4227.179384,4221.538358
7,0,4207.179384,4226.666563,4221.025538,4216.922974,4232.820409,4218.974256,4229.743486,4228.205025,4230.256307,4225.128102,4230.256307,4212.307589,4219.999897,4204.615282
8,0,4219.999897,4230.256307,4233.84605,4221.538358,4237.435794,4235.897332,4235.897332,4240.512717,4239.487076,4246.666563,4230.769127,4219.487076,4221.025538,4219.999897
9,0,4224.615281,4235.897332,4233.33323,4238.974255,4230.256307,4237.948614,4235.384512,4244.615281,4240.512717,4268.717844,4218.974256,4218.461435,4226.666563,4233.84605
10,0,4214.358871,4232.820409,4218.461435,4238.974255,4227.692204,4230.769127,4234.358871,4234.871691,4233.84605,4251.794768,4222.051179,4212.307589,4226.666563,4219.999897
11,0,4209.743487,4226.666563,4216.922974,4228.717845,4228.205025,4232.820409,4234.871691,4233.33323,4233.84605,4238.974255,4233.33323,4210.256307,4221.538358,4212.307589
12,0,4216.922974,4222.563999,4221.025538,4228.205025,4225.640922,4228.205025,4231.281948,4230.769127,4233.33323,4239.999896,4218.461435,4206.153743,4215.384512,4218.974256
13,0,4208.717846,4215.897333,4216.922974,4231.794768,4223.58964,4224.102461,4228.205025,4220.512717,4229.743486,4229.743486,4208.205025,4200.512718,4214.358871,4214.871692
14,0,4196.922974,4212.82041,4216.410153,4217.948615,4219.487076,4231.794768,4229.230666,4222.051179,4230.256307,4226.666563,4226.666563,4202.051179,4218.974256,4210.769128
15,0,4212.307589,4222.563999,4219.487076,4202.564,4214.871692,4228.717845,4224.102461,4226.153743,4226.153743,4231.281948,4229.230666,4202.564,4217.435794,4217.435794
16,0,4221.025538,4231.794768,4222.563999,4211.794769,4218.461435,4218.974256,4214.871692,4216.922974,4214.871692,4226.666563,4208.205025,4192.82041,4211.281948,4211.281948
17,0,4204.615282,4231.794768,4228.205025,4225.640922,4227.692204,4225.640922,4217.435794,4213.846051,4222.051179,4226.153743,4207.179384,4190.769128,4214.358871,4197.948615
18,0,4197.948615,4225.640922,4229.230666,4220.512717,4229.743486,4232.820409,4226.153743,4222.051179,4234.358871,4240.512717,4219.487076,4200.512718,4217.435794,4200.512718
19,0,4198.461436,4219.999897,4219.999897,4213.33323,4222.563999,4222.051179,4221.538358,4220.512717,4224.102461,4243.076819,4208.717846,4197.948615,4208.205025,4197.435795
20,0,4189.743487,4221.025538,4218.461435,4213.33323,4224.102461,4218.974256,4218.461435,4212.82041,4213.33323,4226.153743,4193.846051,4189.743487,4196.410154,4186.666564
21,0,4197.948615,4228.717845,4228.717845,4220.512717,4233.84605,4233.33323,4230.256307,4222.051179,4227.692204,4238.461435,4213.33323,4198.461436,4200.512718,4197.948615
22,0,4206.153743,4228.717845,4226.666563,4214.358871,4228.717845,4233.33323,4233.33323,4231.794768,4238.461435,4257.435793,4221.538358,4205.640923,4203.07682,4203.07682
23,0,4185.128103,4215.384512,4216.410153,4196.410154,4218.974256,4218.461435,4217.948615,4220.512717,4222.051179,4224.615281,4192.30759,4197.948615,4190.769128,4183.589641
24,0,4178.974257,4211.794769,4215.897333,4204.615282,4217.948615,4219.487076,4212.82041,4209.230666,4213.846051,4203.07682,4193.333231,4194.871692,4196.922974,4190.256308
25,0,4199.999897,4222.563999,4216.410153,4227.179384,4210.769128,4230.769127,4224.615281,4214.871692,4223.58964,4227.692204,4230.769127,4200.512718,4219.487076,4218.974256
26,0,4209.230666,4234.358871,4213.846051,4229.743486,4212.82041,4232.820409,4231.281948,4225.640922,4232.307589,4229.230666,4236.922973,4204.615282,4223.58964,4225.640922
27,0,4205.640923,4231.794768,4219.487076,4231.281948,4238.974255,4231.794768,4233.84605,4230.256307,4232.820409,4219.487076,4218.461435,4205.128102,4215.384512,4214.358871
28,0,4202.051179,4219.487076,4221.025538,4233.84605,4245.640922,4225.128102,4231.281948,4223.58964,4224.615281,4239.487076,4212.82041,4201.025538,4213.33323,4201.538359
29,0,4195.897333,4216.410153,4214.358871,4212.307589,4228.717845,4218.974256,4221.025538,4212.82041,4216.410153,4254.871691,4205.128102,4195.897333,4202.051179,4192.82041
30,0,4195.897333,4223.58964,4215.897333,4199.999897,4229.743486,4229.743486,4215.897333,4217.435794,4218.974256,4248.205024,4192.82041,4198.974256,4185.128103,4196.922974
31,0,4196.410154,4226.666563,4219.487076,4213.33323,4230.256307,4232.820409,4219.487076,4221.538358,4222.051179,4232.307589,4201.025538,4199.999897,4190.769128,4204.102461
32,0,4186.153744,4220.512717,4222.563999,4211.281948,4207.179384,4216.922974,4216.922974,4214.358871,4216.922974,4223.58964,4216.922974,4187.692205,4204.102461,4195.897333
33,0,4185.128103,4217.948615,4229.230666,4197.948615,4210.256307,4222.051179,4213.846051,4213.33323,4217.948615,4231.281948,4214.871692,4182.05118,4204.102461,4190.769128
34,0,4188.717846,4219.487076,4224.615281,4197.948615,4231.794768,4231.794768,4217.948615,4211.281948,4217.948615,4226.666563,4201.025538,4186.153744,4201.025538,4189.743487
35,0,4185.128103,4217.948615,4212.307589,4206.153743,4217.435794,4216.410153,4216.410153,4206.666564,4211.281948,4209.743487,4195.384513,4187.179385,4198.974256,4184.102462
36,0,4190.769128,4223.58964,4212.307589,4218.974256,4203.589641,4215.897333,4213.33323,4214.871692,4216.410153,4213.846051,4200.512718,4191.281949,4192.30759,4190.256308
37,0,4202.564,4235.384512,4217.948615,4231.281948,4230.256307,4236.922973,4224.615281,4222.051179,4225.128102,4221.538358,4209.230666,4201.025538,4196.922974,4203.589641
38,0,4198.974256,4230.769127,4217.435794,4226.666563,4253.333229,4234.358871,4231.281948,4217.948615,4222.563999,4213.33323,4208.717846,4202.051179,4208.717846,4205.128102
39,0,4185.640923,4214.358871,4215.384512,4213.33323,4226.153743,4216.410153,4218.974256,4215.897333,4214.358871,4200.512718,4196.922974,4197.435795,4197.435795,4190.256308
40,0,4181.538359,4210.769128,4218.461435,4215.384512,4196.922974,4217.435794,4212.82041,4219.999897,4216.410153,4198.461436,4201.538359,4202.051179,4194.358872,4183.589641
41,0,4191.281949,4218.461435,4221.538358,4219.487076,4212.307589,4222.051179,4216.410153,4218.461435,4221.025538,4217.435794,4214.358871,4205.640923,4213.846051,4192.30759
42,0,4198.461436,4223.07682,4216.922974,4214.871692,4221.025538,4214.871692,4212.307589,4212.82041,4215.384512,4233.84605,4208.205025,4197.948615,4210.256307,4202.051179
43,0,4202.051179,4232.307589,4214.358871,4221.025538,4202.564,4215.897333,4210.769128,4212.82041,4213.33323,4239.487076,4198.461436,4194.871692,4195.384513,4214.358871
44,0,4215.384512,4243.076819,4225.128102,4234.871691,4211.794769,4229.743486,4218.461435,4221.025538,4226.153743,4248.205024,4207.692205,4209.743487,4206.666564,4229.230666
45,0,4218.461435,4241.025537,4229.743486,4235.384512,4241.025537,4230.256307,4219.999897,4228.205025,4232.820409,4237.948614,4222.051179,4221.025538,4221.538358,4228.205025
46,0,4203.07682,4232.820409,4218.461435,4228.205025,4227.692204,4217.435794,4214.871692,4222.563999,4222.563999,4217.948615,4226.153743,4211.794769,4215.384512,4213.846051
47,0,4197.948615,4229.230666,4214.358871,4223.07682,4205.640923,4214.358871,4215.384512,4215.384512,4216.922974,4225.128102,4224.615281,4205.640923,4215.897333,4214.871692
48,0,4203.07682,4227.692204,4221.025538,4218.461435,4216.922974,4217.948615,4216.410153,4216.922974,4221.538358,4230.769127,4216.922974,4216.410153,4224.615281,4223.07682
49,0,4198.974256,4228.717845,4222.051179,4217.435794,4218.974256,4216.410153,4214.871692,4218.461435,4219.487076,4208.717846,4204.615282,4217.435794,4212.82041,4215.384512
50,0,4198.461436,4231.281948,4214.358871,4216.922974,4210.769128,4215.897333,4214.358871,4216.410153,4215.897333,4198.974256,4202.564,4204.615282,4196.922974,4202.564
51,0,4205.640923,4227.692204,4217.948615,4207.692205,4211.794769,4218.461435,4215.384512,4214.358871,4216.922974,4203.589641,4213.846051,4203.07682,4199.487077,4201.025538
52,0,4199.999897,4219.487076,4226.153743,4199.487077,4215.897333,4217.948615,4216.410153,4214.358871,4216.410153,4213.33323,4218.461435,4206.666564,4206.153743,4205.640923
53,0,4189.230667,4223.58964,4223.07682,4204.615282,4223.07682,4216.922974,4214.871692,4214.358871,4215.897333,4239.487076,4213.846051,4202.051179,4201.538359,4208.717846
54,0,4198.974256,4233.33323,4220.512717,4215.897333,4225.128102,4216.922974,4213.846051,4215.897333,4218.461435,4254.35887,4211.281948,4206.153743,4197.948615,4212.82041
55,0,4211.794769,4229.743486,4225.128102,4220.512717,4219.487076,4218.461435,4217.435794,4217.948615,4220.512717,4238.974255,4205.128102,4219.487076,4203.07682,4219.999897
56,0,4207.692205,4219.487076,4221.538358,4215.897333,4209.743487,4218.974256,4215.384512,4217.948615,4219.487076,4220.512717,4201.538359,4214.871692,4203.07682,4215.384512
57,0,4201.538359,4217.435794,4214.871692,4209.230666,4199.999897,4214.871692,4205.640923,4214.358871,4216.922974,4217.435794,4210.769128,4198.461436,4203.07682,4202.051179
58,0,4196.410154,4219.487076,4216.922974,4206.666564,4203.589641,4211.794769,4205.128102,4212.82041,4212.82041,4209.743487,4217.435794,4196.922974,4211.281948,4201.538359
59,0,4194.871692,4224.615281,4215.897333,4213.33323,4219.487076,4215.384512,4213.33323,4216.410153,4217.435794,4212.307589,4213.846051,4204.615282,4219.487076,4212.307589
60,0,4209.230666,4231.794768,4215.897333,4225.128102,4219.999897,4219.999897,4216.410153,4219.999897,4228.205025,4227.692204,4211.794769,4205.640923,4216.922974,4217.435794
61,0,4219.999897,4234.871691,4224.102461,4228.717845,4217.435794,4219.999897,4214.358871,4217.435794,4225.128102,4222.563999,4212.307589,4202.051179,4205.128102,4216.922974
62,0,4215.897333,4235.897332,4224.615281,4224.102461,4221.538358,4219.999897,4217.948615,4218.974256,4216.922974,4221.538358,4208.205025,4204.102461,4198.974256,4214.871692
63,0,4202.051179,4230.256307,4213.846051,4214.358871,4207.179384,4216.922974,4213.846051,4215.897333,4216.922974,4231.794768,4199.999897,4205.128102,4198.974256,4206.153743
64,0,4185.640923,4215.897333,4207.692205,4204.615282,4197.435795,4211.281948,4201.538359,4204.102461,4214.871692,4232.307589,4198.974256,4197.435795,4196.410154,4198.974256
65,0,4186.666564,4218.461435,4214.358871,4206.666564,4216.922974,4214.871692,4206.153743,4204.615282,4212.82041,4239.487076,4214.358871,4195.384513,4204.615282,4208.717846
66,0,4206.153743,4235.897332,4218.974256,4226.666563,4222.051179,4222.563999,4218.974256,4217.435794,4218.461435,4241.025537,4223.58964,4203.07682,4219.487076,4222.563999
67,0,4205.128102,4232.820409,4214.358871,4233.33323,4201.538359,4217.948615,4217.948615,4216.922974,4218.461435,4211.794769,4209.743487,4204.615282,4213.846051,4214.358871
68,0,4192.82041,4217.948615,4212.307589,4219.487076,4207.692205,4215.897333,4214.358871,4211.794769,4214.871692,4201.025538,4202.564,4198.974256,4195.384513,4199.999897
69,0,4207.179384,4223.58964,4216.410153,4222.051179,4230.256307,4224.102461,4220.512717,4224.102461,4224.102461,4222.563999,4216.922974,4207.179384,4199.999897,4207.692205
70,0,4218.461435,4237.435794,4219.999897,4231.794768,4227.692204,4225.640922,4219.999897,4231.794768,4229.230666,4221.538358,4220.512717,4214.871692,4214.871692,4220.512717
71,0,4204.615282,4229.743486,4221.025538,4223.07682,4209.230666,4217.948615,4213.33323,4217.948615,4221.538358,4215.897333,4208.205025,4206.153743,4215.897333,4218.974256
72,0,4192.82041,4214.358871,4216.922974,4212.82041,4198.974256,4213.846051,4211.794769,4204.102461,4207.692205,4213.846051,4203.07682,4197.435795,4206.666564,4213.33323
73,0,4201.025538,4218.461435,4214.871692,4215.897333,4211.281948,4216.410153,4214.358871,4208.717846,4206.666564,4191.281949,4196.922974,4203.07682,4191.281949,4212.82041
74,0,4202.051179,4222.563999,4218.461435,4211.794769,4220.512717,4216.410153,4214.358871,4213.846051,4215.384512,4186.666564,4188.717846,4205.640923,4181.025539,4206.153743
75,0,4188.205026,4207.179384,4211.281948,4209.230666,4201.025538,4211.281948,4211.281948,4205.128102,4214.358871,4212.82041,4199.999897,4198.974256,4192.30759,4198.461436
76,0,4192.30759,4208.205025,4201.538359,4225.640922,4195.384513,4214.358871,4213.33323,4209.230666,4213.846051,4217.435794,4218.461435,4199.999897,4208.717846,4210.769128
77,0,4205.128102,4231.794768,4205.640923,4234.871691,4222.563999,4219.999897,4217.948615,4220.512717,4219.487076,4212.307589,4217.948615,4205.128102,4207.692205,4226.153743
78,0,4205.640923,4233.33323,4213.33323,4228.205025,4226.666563,4217.435794,4217.435794,4218.461435,4220.512717,4235.897332,4209.743487,4201.538359,4201.025538,4221.538358
79,0,4209.230666,4221.025538,4213.846051,4225.640922,4209.230666,4214.871692,4214.871692,4215.384512,4221.538358,4257.948614,4207.179384,4201.025538,4206.153743,4213.33323
80,0,4219.487076,4229.230666,4215.384512,4234.871691,4216.410153,4218.461435,4215.897333,4221.025538,4228.205025,4244.615281,4199.487077,4209.230666,4205.128102,4215.897333
81,0,4209.230666,4233.84605,4215.897333,4232.307589,4224.102461,4216.922974,4216.410153,4220.512717,4222.051179,4218.461435,4194.358872,4207.179384,4197.948615,4209.230666
82,0,4192.30759,4221.538358,4212.307589,4217.948615,4212.307589,4214.871692,4214.871692,4214.871692,4213.33323,4211.794769,4207.179384,4192.82041,4198.461436,4201.025538
83,0,4198.461436,4215.897333,4213.33323,4217.435794,4208.205025,4218.461435,4214.871692,4216.410153,4219.999897,4215.384512,4216.922974,4189.743487,4204.615282,4210.256307
84,0,4205.128102,4221.025538,4213.846051,4228.205025,4217.435794,4218.461435,4215.897333,4218.461435,4221.538358,4215.897333,4203.07682,4196.410154,4203.07682,4213.33323
85,0,4202.051179,4225.640922,4212.82041,4231.281948,4215.384512,4217.435794,4216.922974,4218.461435,4215.384512,4214.871692,4192.82041,4199.999897,4198.461436,4206.666564
86,0,4205.640923,4229.743486,4216.410153,4230.256307,4205.640923,4218.974256,4217.435794,4219.999897,4217.948615,4218.974256,4208.205025,4199.999897,4206.666564,4210.256307
87,0,4213.846051,4233.33323,4217.948615,4231.281948,4213.33323,4217.948615,4217.948615,4224.615281,4221.538358,4224.615281,4220.512717,4202.564,4218.461435,4217.948615
88,0,4217.435794,4231.794768,4214.358871,4230.769127,4218.461435,4216.410153,4218.461435,4226.666563,4218.974256,4221.025538,4210.256307,4207.692205,4210.256307,4217.948615
89,0,4212.307589,4222.563999,4214.871692,4229.743486,4201.025538,4216.922974,4217.435794,4223.07682,4216.922974,4225.128102,4202.051179,4208.205025,4196.922974,4216.922974
90,0,4204.615282,4215.384512,4214.871692,4229.743486,4206.153743,4217.435794,4213.846051,4216.922974,4215.897333,4236.922973,4207.692205,4203.589641,4206.153743,4215.897333
91,0,4204.615282,4221.538358,4205.128102,4228.205025,4231.794768,4213.846051,4210.256307,4212.82041,4213.33323,4231.281948,4214.871692,4197.948615,4217.435794,4211.281948
92,0,4215.897333,4233.33323,4205.640923,4235.384512,4224.102461,4211.794769,4213.33323,4216.922974,4214.358871,4217.948615,4213.846051,4200.512718,4212.82041,4219.487076
93,0,4225.640922,4238.461435,4218.461435,4246.153742,4212.307589,4217.435794,4218.974256,4225.128102,4219.487076,4223.58964,4203.589641,4205.640923,4205.640923,4234.871691
94,0,4217.948615,4231.794768,4219.487076,4236.922973,4231.794768,4220.512717,4218.974256,4223.07682,4222.051179,4230.769127,4199.999897,4203.589641,4203.07682,4231.794768
95,0,4206.666564,4219.999897,4212.307589,4222.051179,4237.435794,4215.897333,4217.435794,4217.435794,4222.051179,4224.102461,4209.230666,4202.564,4209.230666,4221.025538
96,0,4203.589641,4217.435794,4214.871692,4214.358871,4226.153743,4214.871692,4213.33323,4214.871692,4211.794769,4213.33323,4209.230666,4198.974256,4211.794769,4215.384512
97,0,4204.615282,4219.487076,4218.974256,4204.615282,4225.128102,4212.82041,4205.640923,4209.743487,4204.615282,4206.153743,4199.487077,4188.717846,4199.999897,4203.07682
98,0,4196.922974,4218.461435,4214.871692,4201.538359,4217.948615,4207.179384,4206.666564,4204.102461,4208.205025,4204.102461,4191.794769,4187.179385,4195.384513,4193.846051
99,0,4193.846051,4219.487076,4214.871692,4211.794769,4216.410153,4211.281948,4213.33323,4202.051179,4205.128102,4194.871692,4189.743487,4198.974256,4198.461436,4205.640923
100,0,4210.769128,4229.743486,4223.58964,4217.948615,4242.563999,4220.512717,4215.384512,4206.153743,4202.564,4204.102461,4201.025538,4204.102461,4197.435795,4223.07682
101,0,4223.58964,4231.281948,4225.640922,4215.897333,4254.35887,4218.974256,4216.410153,4214.871692,4215.897333,4243.58964,4209.743487,4202.564,4206.666564,4227.692204
102,0,4215.897333,4222.563999,4216.410153,4214.871692,4236.410153,4214.358871,4217.948615,4218.461435,4222.051179,4249.743486,4195.384513,4204.615282,4217.435794,4226.666563
103,0,4210.256307,4222.563999,4215.384512,4218.461435,4225.128102,4216.410153,4216.922974,4215.897333,4216.410153,4215.897333,4198.461436,4208.205025,4215.384512,4231.794768
104,0,4226.666563,4231.794768,4223.58964,4225.128102,4233.33323,4218.974256,4217.435794,4216.922974,4219.487076,4209.743487,4228.205025,4215.384512,4221.025538,4240.512717
105,0,4235.384512,4236.922973,4220.512717,4223.58964,4245.128101,4219.487076,4219.999897,4222.051179,4221.538358,4227.179384,4229.230666,4217.435794,4231.794768,4242.563999
106,0,4219.487076,4229.743486,4212.307589,4215.384512,4241.538358,4217.948615,4217.948615,4216.922974,4213.846051,4213.846051,4205.128102,4206.153743,4223.58964,4232.820409
107,0,4208.717846,4221.538358,4212.307589,4216.922974,4228.717845,4214.871692,4212.307589,4205.640923,4212.307589,4203.589641,4193.333231,4197.948615,4203.07682,4219.487076
108,0,4212.307589,4224.615281,4212.82041,4218.461435,4225.640922,4213.846051,4210.769128,4205.128102,4216.410153,4218.974256,4198.974256,4198.461436,4197.948615,4215.384512
109,0,4211.794769,4231.794768,4211.281948,4215.384512,4221.025538,4214.871692,4214.358871,4213.33323,4213.33323,4209.743487,4210.256307,4197.435795,4209.230666,4217.948615
110,0,4206.153743,4231.794768,4214.358871,4217.948615,4213.33323,4217.435794,4217.435794,4211.281948,4208.205025,4179.487077,4214.358871,4198.461436,4208.717846,4218.974256
111,0,4200.512718,4226.153743,4218.461435,4216.922974,4221.538358,4212.307589,4212.82041,4199.999897,4206.153743,4195.384513,4199.487077,4199.487077,4197.948615,4213.846051
112,0,4205.128102,4228.205025,4219.487076,4212.82041,4237.948614,4208.717846,4209.230666,4201.538359,4205.640923,4236.922973,4195.384513,4200.512718,4206.666564,4212.82041
113,0,4218.461435,4233.33323,4218.461435,4219.999897,4244.615281,4214.871692,4214.358871,4209.230666,4207.692205,4234.871691,4209.743487,4207.179384,4221.538358,4223.58964
114,0,4217.435794,4231.794768,4214.871692,4227.692204,4238.974255,4216.922974,4216.922974,4211.281948,4212.82041,4219.999897,4211.281948,4209.230666,4217.948615,4227.179384
115,0,4208.205025,4229.230666,4212.307589,4229.743486,4236.410153,4217.435794,4215.897333,4214.358871,4216.922974,4233.33323,4207.179384,4206.153743,4215.897333,4221.538358
116,0,4213.846051,4230.256307,4215.384512,4230.256307,4232.307589,4223.58964,4217.948615,4218.461435,4219.487076,4235.384512,4214.358871,4207.692205,4219.487076,4219.487076
117,0,4219.487076,4228.205025,4217.948615,4222.051179,4226.153743,4223.58964,4220.512717,4219.999897,4220.512717,4213.846051,4214.871692,4206.153743,4214.871692,4218.461435
118,0,4215.384512,4220.512717,4213.846051,4213.846051,4226.153743,4217.435794,4216.922974,4217.948615,4218.461435,4204.615282,4209.230666,4198.461436,4216.410153,4216.410153
119,0,4217.435794,4219.999897,4217.435794,4213.33323,4221.025538,4213.846051,4212.82041,4215.897333,4214.358871,4212.307589,4211.281948,4199.487077,4215.897333,4221.025538
120,0,4213.33323,4221.538358,4226.153743,4204.102461,4216.410153,4208.717846,4212.82041,4210.769128,4212.307589,4217.948615,4203.589641,4202.051179,4205.640923,4216.410153
121,0,4201.538359,4218.974256,4222.051179,4202.564,4238.461435,4209.230666,4213.846051,4208.205025,4212.82041,4223.58964,4195.897333,4195.384513,4206.153743,4205.128102
122,0,4208.205025,4225.640922,4214.871692,4224.615281,4260.512716,4218.974256,4215.897333,4214.871692,4215.384512,4231.794768,4206.153743,4196.410154,4215.384512,4219.999897
123,0,4217.948615,4233.84605,4215.897333,4229.230666,4241.025537,4218.461435,4217.435794,4216.410153,4214.871692,4225.640922,4206.666564,4202.564,4212.307589,4229.743486
124,0,4214.358871,4234.358871,4217.948615,4213.33323,4224.102461,4213.846051,4217.948615,4213.33323,4215.384512,4213.33323,4204.102461,4203.589641,4212.82041,4218.461435
125,0,4213.33323,4233.33323,4212.82041,4221.538358,4232.820409,4218.461435,4217.948615,4216.922974,4219.487076,4224.102461,4216.410153,4201.538359,4229.743486,4223.07682
126,0,4221.025538,4233.84605,4207.179384,4239.999896,4235.897332,4219.999897,4216.922974,4217.948615,4221.025538,4239.487076,4223.58964,4203.07682,4237.948614,4232.307589
127,0,4222.563999,4234.358871,4211.794769,4230.769127,4231.281948,4217.435794,4214.358871,4206.666564,4215.897333,4225.640922,4213.846051,4206.153743,4230.256307,4219.999897
128,0,4212.307589,4230.256307,4210.256307,4216.410153,4218.974256,4217.435794,4211.281948,4201.025538,4212.82041,4208.717846,4204.102461,4200.512718,4218.974256,4210.769128
0,0,4205.128102,4221.538358,4197.948615,4222.563999,4212.82041,4217.948615,4211.794769,4208.717846,4214.871692,4216.922974,4206.666564,4192.30759,4208.205025,4221.538358
1,0,4201.025538,4214.871692,4210.769128,4204.102461,4215.897333,4209.230666,4208.205025,4205.128102,4209.230666,4217.948615,4202.564,4188.205026,4201.538359,4218.974256
2,0,4189.230667,4206.153743,4251.794768,4138.461437,4207.179384,4194.871692,4193.846051,4186.666564,4196.922974,4204.615282,4187.179385,4183.589641,4198.461436,4195.897333
3,0,4184.615282,4195.897333,4275.897331,4104.615284,4202.051179,4192.30759,4186.153744,4179.999898,4195.897333,4204.102461,4185.128103,4182.564,4197.948615,4187.692205
4,0,4194.358872,4198.974256,4275.897331,4121.538361,4218.974256,4197.435795,4191.281949,4187.179385,4200.512718,4199.999897,4195.897333,4181.538359,4197.948615,4202.564
5,0,4191.281949,4203.07682,4274.87169,4113.846053,4224.615281,4192.82041,4189.743487,4185.128103,4191.794769,4183.589641,4193.846051,4172.820411,4195.897333,4202.564
6,0,4176.922975,4199.487077,4277.435793,4087.692208,4203.07682,4183.076821,4181.025539,4172.820411,4181.538359,4182.05118,4177.948616,4167.179385,4196.410154,4183.589641
7,0,4176.410154,4197.435795,4277.948613,4090.25631,4192.30759,4184.615282,4181.538359,4167.179385,4181.025539,4182.564,4167.179385,4170.256308,4190.769128,4180.512718
8,0,4175.384513,4191.794769,4269.743485,4098.461438,4201.025538,4187.692205,4183.589641,4166.153744,4181.025539,4166.666565,4173.333231,4168.717847,4171.281949,4181.538359
9,0,4171.79477,4186.153744,4262.051178,4095.897336,4198.461436,4184.615282,4180.512718,4167.692206,4180.512718,4165.640924,4192.30759,4166.153744,4170.769129,4173.333231
10,0,4180.512718,4195.384513,4270.256306,4102.564002,4185.128103,4183.589641,4181.538359,4174.871693,4184.615282,4194.871692,4198.974256,4169.743488,4196.410154,4179.999898
11,0,4187.692205,4202.564,4276.410152,4107.179387,4187.179385,4184.615282,4183.076821,4181.025539,4187.692205,4213.846051,4184.615282,4171.79477,4204.615282,4197.435795
12,0,4185.128103,4198.461436,4266.666562,4111.281951,4202.564,4185.128103,4183.076821,4181.025539,4189.743487,4206.153743,4182.564,4171.79477,4196.410154,4202.051179
13,0,4189.743487,4204.615282,4251.794768,4139.999899,4205.128102,4193.846051,4190.769128,4185.640923,4197.435795,4195.384513,4198.974256,4178.461436,4204.615282,4202.051179
14,0,4203.07682,4217.435794,4242.563999,4174.871693,4197.948615,4207.692205,4202.564,4199.487077,4209.743487,4202.564,4200.512718,4195.897333,4211.281948,4208.205025
15,0,4209.743487,4224.615281,4233.33323,4194.358872,4207.179384,4214.871692,4210.769128,4210.769128,4217.435794,4219.999897,4197.435795,4210.769128,4208.205025,4217.435794
16,0,4215.384512,4230.256307,4220.512717,4213.33323,4229.743486,4215.384512,4214.871692,4216.410153,4215.897333,4217.948615,4211.281948,4207.179384,4211.794769,4228.205025
17,0,4220.512717,4231.794768,4214.358871,4231.794768,4239.999896,4219.487076,4221.025538,4218.974256,4215.384512,4203.589641,4220.512717,4201.025538,4217.948615,4231.794768
18,0,4218.974256,4231.794768,4216.922974,4242.051178,4233.84605,4223.58964,4221.538358,4215.897333,4217.948615,4204.615282,4215.384512,4208.205025,4225.640922,4232.307589
19,0,4222.563999,4239.999896,4216.410153,4256.410152,4232.307589,4224.102461,4218.461435,4214.358871,4217.435794,4215.897333,4216.922974,4217.435794,4235.897332,4234.871691
20,0,4234.871691,4248.717845,4211.281948,4271.281947,4239.999896,4228.205025,4226.153743,4224.102461,4219.487076,4226.666563,4225.128102,4223.07682,4239.999896,4238.461435
21,0,4230.256307,4236.410153,4203.589641,4266.153742,4237.435794,4224.615281,4228.717845,4227.692204,4219.999897,4229.230666,4219.487076,4220.512717,4231.794768,4234.358871
22,0,4219.487076,4229.230666,4197.948615,4261.025537,4231.281948,4219.999897,4221.538358,4219.999897,4216.410153,4228.205025,4214.358871,4214.871692,4228.717845,4231.794768
23,0,4227.692204,4243.076819,4208.205025,4262.051178,4229.743486,4228.205025,4221.538358,4217.435794,4217.435794,4234.358871,4226.153743,4219.487076,4238.974255,4242.563999
24,0,4231.794768,4243.076819,4214.358871,4252.307588,4221.025538,4229.743486,4222.051179,4217.435794,4213.846051,4225.640922,4222.051179,4226.666563,4231.281948,4247.692204
25,0,4217.435794,4229.743486,4205.640923,4241.538358,4214.358871,4218.461435,4216.922974,4215.384512,4205.128102,4196.410154,4202.051179,4227.692204,4210.256307,4236.922973
26,0,4210.256307,4229.743486,4208.205025,4246.666563,4211.794769,4216.922974,4219.999897,4218.461435,4212.82041,4200.512718,4211.281948,4229.743486,4216.922974,4230.256307
27,0,4223.58964,4237.948614,4216.922974,4253.333229,4206.666564,4221.025538,4223.58964,4219.487076,4222.563999,4232.820409,4237.948614,4230.769127,4242.051178,4240.512717
28,0,4240.512717,4239.999896,4213.846051,4248.205024,4217.948615,4216.410153,4218.974256,4219.999897,4217.435794,4229.230666,4241.025537,4230.256307,4247.179383,4248.717845
29,0,4242.563999,4245.128101,4214.358871,4246.153742,4244.10246,4217.435794,4221.025538,4226.666563,4216.922974,4213.846051,4233.84605,4230.256307,4245.640922,4250.769127
30,0,4233.33323,4248.205024,4217.948615,4252.307588,4242.563999,4220.512717,4221.538358,4225.128102,4221.538358,4215.897333,4234.871691,4223.58964,4247.692204,4251.281947
31,0,4226.153743,4239.487076,4213.846051,4250.769127,4218.974256,4216.410153,4215.384512,4213.846051,4213.33323,4203.07682,4223.58964,4212.307589,4235.897332,4241.025537
32,0,4223.07682,4231.281948,4213.33323,4237.948614,4211.794769,4213.33323,4214.871692,4213.846051,4209.743487,4201.025538,4204.102461,4212.82041,4215.897333,4234.358871
33,0,4216.922974,4230.256307,4218.461435,4231.794768,4215.384512,4212.82041,4215.897333,4216.922974,4216.922974,4224.102461,4203.07682,4217.948615,4202.051179,4233.33323
34,0,4215.384512,4233.84605,4218.461435,4237.948614,4217.435794,4214.871692,4215.384512,4215.384512,4213.33323,4223.58964,4200.512718,4212.82041,4199.999897,4221.538358
35,0,4215.897333,4228.717845,4211.281948,4231.794768,4214.871692,4215.384512,4214.871692,4215.384512,4207.179384,4201.538359,4188.205026,4205.128102,4199.999897,4210.256307
36,0,4208.717846,4219.487076,4206.153743,4219.999897,4211.281948,4209.230666,4214.871692,4211.794769,4208.205025,4192.82041,4202.051179,4205.128102,4203.07682,4213.846051
37,0,4198.974256,4217.435794,4212.82041,4224.615281,4208.205025,4199.999897,4212.307589,4203.589641,4207.692205,4193.333231,4233.33323,4202.051179,4219.487076,4216.410153
38,0,4196.922974,4216.410153,4216.410153,4231.794768,4190.256308,4197.948615,4211.281948,4206.153743,4207.692205,4198.974256,4232.307589,4197.948615,4234.358871,4218.461435
39,0,4204.102461,4215.897333,4214.358871,4230.769127,4191.281949,4211.281948,4216.410153,4216.922974,4214.871692,4212.307589,4215.384512,4208.717846,4233.33323,4228.205025
40,0,4205.640923,4216.410153,4224.102461,4224.102461,4224.102461,4218.461435,4219.487076,4219.487076,4219.999897,4218.974256,4218.461435,4219.999897,4229.230666,4228.717845
41,0,4200.512718,4214.358871,4233.33323,4208.205025,4227.692204,4205.640923,4213.33323,4215.384512,4211.281948,4213.846051,4210.769128,4211.281948,4220.512717,4211.794769
42,0,4199.999897,4211.794769,4223.58964,4197.435795,4205.128102,4200.512718,4211.281948,4212.82041,4206.153743,4204.615282,4194.358872,4204.615282,4203.07682,4203.07682
43,0,4207.179384,4213.33323,4215.897333,4213.846051,4215.384512,4215.384512,4218.461435,4214.871692,4212.307589,4191.794769,4207.179384,4214.358871,4207.692205,4219.999897
44,0,4207.179384,4214.871692,4216.922974,4231.281948,4223.07682,4217.435794,4219.487076,4216.922974,4214.358871,4192.30759,4229.230666,4215.897333,4229.743486,4241.025537
45,0,4202.564,4216.922974,4217.948615,4222.563999,4202.051179,4206.153743,4213.33323,4215.384512,4210.256307,4211.794769,4231.281948,4203.589641,4236.410153,4231.281948
46,0,4207.692205,4219.999897,4218.974256,4215.384512,4204.615282,4212.307589,4214.358871,4216.410153,4214.358871,4218.461435,4222.563999,4205.640923,4234.358871,4213.846051
47,0,4212.307589,4218.974256,4217.948615,4218.461435,4213.846051,4215.384512,4217.435794,4218.461435,4219.487076,4199.487077,4218.461435,4216.922974,4231.281948,4222.051179
48,0,4217.948615,4222.563999,4221.538358,4221.025538,4201.538359,4203.589641,4214.358871,4215.384512,4213.33323,4197.435795,4215.897333,4215.897333,4227.179384,4239.487076
49,0,4233.84605,4232.820409,4230.769127,4227.179384,4202.051179,4205.128102,4214.358871,4213.846051,4211.281948,4215.384512,4219.999897,4213.33323,4234.871691,4244.615281
50,0,4235.897332,4230.769127,4229.230666,4230.769127,4210.256307,4215.384512,4217.435794,4216.410153,4214.871692,4204.102461,4219.999897,4216.410153,4235.897332,4240.512717
51,0,4220.512717,4223.07682,4222.563999,4228.205025,4200.512718,4213.846051,4216.410153,4216.922974,4214.358871,4188.205026,4205.128102,4216.410153,4212.82041,4233.33323
52,0,4222.563999,4227.692204,4229.230666,4229.743486,4202.564,4213.33323,4215.897333,4217.435794,4215.384512,4214.358871,4209.230666,4217.948615,4217.435794,4231.794768
53,0,4233.84605,4233.84605,4232.307589,4238.461435,4219.487076,4218.461435,4218.974256,4218.461435,4215.897333,4231.794768,4231.794768,4221.025538,4249.230665,4236.410153
54,0,4228.717845,4231.281948,4222.563999,4244.615281,4220.512717,4215.897333,4217.948615,4215.897333,4213.33323,4210.256307,4227.179384,4217.948615,4247.179383,4235.384512
55,0,4224.102461,4233.33323,4218.461435,4245.640922,4216.922974,4212.82041,4217.948615,4215.897333,4213.33323,4196.922974,4215.897333,4217.948615,4232.307589,4234.358871
56,0,4225.128102,4234.871691,4218.974256,4236.922973,4218.461435,4214.871692,4216.922974,4216.922974,4216.410153,4199.999897,4226.153743,4219.487076,4233.84605,4232.820409
57,0,4226.666563,4233.33323,4216.922974,4230.256307,4214.358871,4217.435794,4215.897333,4218.974256,4216.922974,4203.589641,4231.281948,4216.922974,4235.897332,4231.281948
58,0,4230.769127,4235.897332,4217.435794,4239.487076,4213.846051,4221.025538,4224.615281,4222.563999,4215.384512,4211.281948,4229.230666,4216.922974,4237.435794,4239.999896
59,0,4231.794768,4237.948614,4217.948615,4249.743486,4220.512717,4219.999897,4233.84605,4226.666563,4224.615281,4221.538358,4228.717845,4218.974256,4239.999896,4246.666563
60,0,4231.281948,4238.461435,4215.897333,4246.666563,4220.512717,4218.461435,4231.794768,4229.743486,4233.33323,4226.666563,4220.512717,4217.948615,4233.33323,4246.666563
61,0,4231.794768,4242.051178,4221.538358,4239.999896,4215.384512,4222.563999,4226.666563,4230.256307,4226.153743,4224.615281,4216.922974,4218.974256,4231.281948,4245.640922
62,0,4231.281948,4245.640922,4231.794768,4252.307588,4219.487076,4228.717845,4229.743486,4231.281948,4223.58964,4221.025538,4232.307589,4229.743486,4241.025537,4242.563999
63,0,4237.948614,4248.205024,4234.358871,4266.153742,4224.615281,4232.307589,4234.871691,4231.794768,4230.769127,4217.948615,4246.153742,4242.051178,4248.717845,4245.640922
64,0,4248.205024,4250.769127,4231.281948,4257.948614,4221.538358,4232.820409,4235.384512,4232.307589,4231.794768,4213.846051,4249.743486,4241.025537,4257.435793,4259.999896
65,0,4251.794768,4251.281947,4229.230666,4245.640922,4226.153743,4233.33323,4233.84605,4231.794768,4224.102461,4213.33323,4248.205024,4233.33323,4260.512716,4268.205024
66,0,4249.230665,4249.743486,4231.794768,4247.692204,4237.435794,4233.33323,4234.358871,4229.743486,4223.58964,4230.769127,4239.487076,4232.307589,4251.794768,4259.999896
67,0,4248.205024,4249.230665,4232.820409,4255.384511,4234.358871,4231.794768,4236.410153,4230.769127,4229.743486,4250.256306,4229.230666,4233.33323,4245.128101,4258.461434
68,0,4247.692204,4248.717845,4229.230666,4260.512716,4228.205025,4230.256307,4235.384512,4233.33323,4233.84605,4248.717845,4228.717845,4231.281948,4245.640922,4261.538357
69,0,4249.230665,4250.256306,4229.743486,4264.61528,4228.717845,4232.307589,4234.871691,4233.84605,4234.358871,4243.58964,4237.948614,4232.820409,4248.205024,4256.410152
70,0,4249.230665,4249.743486,4231.794768,4265.128101,4223.07682,4233.84605,4235.897332,4231.794768,4231.794768,4235.384512,4249.230665,4234.871691,4247.692204,4252.307588
71,0,4248.205024,4252.307588,4224.615281,4266.666562,4222.563999,4232.307589,4235.897332,4230.769127,4231.281948,4219.487076,4247.692204,4233.33323,4248.205024,4261.025537
72,0,4248.205024,4255.384511,4221.025538,4263.589639,4234.871691,4232.307589,4232.820409,4229.743486,4227.692204,4222.051179,4236.410153,4231.281948,4246.153742,4266.666562
73,0,4245.640922,4253.84605,4224.615281,4257.948614,4233.84605,4231.281948,4230.769127,4227.692204,4225.640922,4230.769127,4228.717845,4230.256307,4242.051178,4254.35887
74,0,4245.640922,4254.35887,4228.205025,4256.922973,4225.128102,4231.281948,4233.84605,4231.794768,4232.820409,4223.07682,4229.743486,4230.769127,4245.128101,4250.256306
75,0,4249.230665,4253.84605,4229.743486,4250.769127,4223.07682,4232.820409,4235.384512,4232.307589,4232.820409,4222.563999,4236.410153,4232.307589,4253.333229,4262.563998
76,0,4245.640922,4245.640922,4226.666563,4241.538358,4213.33323,4227.179384,4230.769127,4223.07682,4219.487076,4226.666563,4233.33323,4231.794768,4243.58964,4259.487075
77,0,4239.999896,4242.563999,4225.640922,4244.10246,4202.564,4218.974256,4228.205025,4213.33323,4211.794769,4209.743487,4221.025538,4229.743486,4218.461435,4245.128101
78,0,4247.692204,4251.281947,4234.358871,4257.948614,4222.051179,4223.58964,4230.256307,4216.410153,4222.563999,4210.769128,4229.743486,4234.358871,4222.051179,4253.333229
79,0,4250.769127,4249.743486,4238.974255,4258.974255,4253.333229,4233.33323,4233.33323,4227.179384,4232.307589,4243.076819,4250.769127,4237.435794,4246.666563,4269.230665
80,0,4246.666563,4247.179383,4233.33323,4253.84605,4250.256306,4232.307589,4234.871691,4232.307589,4231.281948,4251.794768,4245.640922,4233.33323,4251.281947,4263.589639
81,0,4257.435793,4260.512716,4237.435794,4265.128101,4228.717845,4228.717845,4234.358871,4231.794768,4229.230666,4243.076819,4228.717845,4238.461435,4243.076819,4261.025537
82,0,4269.743485,4267.179383,4246.153742,4274.35887,4228.205025,4231.281948,4233.33323,4229.230666,4228.717845,4246.153742,4232.820409,4246.153742,4240.512717,4267.692203
83,0,4267.692203,4261.025537,4243.58964,4266.666562,4230.769127,4231.794768,4233.33323,4232.307589,4229.743486,4241.025537,4242.051178,4240.512717,4240.512717,4267.692203
84,0,4264.61528,4259.487075,4243.076819,4258.974255,4223.58964,4228.717845,4232.820409,4230.256307,4229.230666,4227.692204,4245.128101,4232.307589,4244.615281,4266.153742
85,0,4263.589639,4262.051178,4247.179383,4258.974255,4226.153743,4227.179384,4230.256307,4223.07682,4227.179384,4228.205025,4247.179383,4234.358871,4253.333229,4266.666562
86,0,4261.538357,4259.487075,4242.563999,4258.461434,4227.179384,4227.692204,4228.717845,4222.563999,4225.640922,4232.307589,4236.410153,4235.897332,4244.10246,4264.61528
87,0,4264.10246,4260.512716,4235.897332,4262.051178,4225.640922,4230.769127,4229.743486,4228.717845,4228.205025,4227.692204,4224.615281,4234.871691,4228.717845,4260.512716
88,0,4258.974255,4257.948614,4234.358871,4261.025537,4227.179384,4231.281948,4230.769127,4232.820409,4232.820409,4234.871691,4235.897332,4235.897332,4237.948614,4259.999896
89,0,4246.153742,4249.743486,4233.84605,4251.281947,4229.230666,4228.205025,4229.230666,4228.717845,4232.307589,4250.256306,4248.717845,4235.384512,4254.35887,4261.025537
90,0,4246.153742,4252.307588,4234.358871,4247.179383,4237.948614,4229.230666,4228.717845,4223.58964,4229.743486,4243.58964,4244.615281,4233.33323,4250.256306,4261.025537
91,0,4251.794768,4262.051178,4233.33323,4254.35887,4240.512717,4232.820409,4232.820409,4228.205025,4228.205025,4226.153743,4241.025537,4234.871691,4244.615281,4263.076819
92,0,4250.769127,4261.538357,4232.307589,4261.538357,4229.743486,4232.820409,4234.871691,4231.281948,4227.692204,4234.871691,4242.051178,4237.948614,4250.769127,4266.153742
93,0,4247.179383,4251.281947,4232.820409,4255.897332,4228.205025,4230.256307,4230.256307,4222.563999,4228.717845,4250.256306,4234.358871,4233.33323,4241.025537,4265.128101
94,0,4247.692204,4251.281947,4230.256307,4247.179383,4237.948614,4230.256307,4227.179384,4220.512717,4233.33323,4253.333229,4227.179384,4228.717845,4230.769127,4258.461434
95,0,4251.794768,4256.410152,4229.230666,4250.769127,4235.384512,4232.820409,4231.281948,4228.717845,4232.820409,4248.717845,4228.717845,4232.307589,4241.025537,4253.84605
96,0,4251.281947,4249.230665,4233.33323,4252.307588,4227.692204,4232.820409,4234.358871,4230.769127,4227.692204,4231.794768,4232.820409,4235.384512,4242.563999,4251.281947
97,0,4246.666563,4244.615281,4232.307589,4246.666563,4228.205025,4232.307589,4233.84605,4229.743486,4227.179384,4222.051179,4232.820409,4232.820409,4235.897332,4247.692204
98,0,4253.84605,4258.974255,4228.717845,4256.922973,4228.717845,4232.820409,4234.358871,4232.307589,4230.769127,4232.820409,4237.948614,4232.820409,4244.10246,4251.794768
99,0,4263.589639,4268.205024,4234.358871,4267.692203,4228.717845,4230.256307,4233.33323,4232.820409,4232.307589,4233.33323,4242.563999,4235.384512,4256.922973,4264.61528
100,0,4252.307588,4261.538357,4237.948614,4254.35887,4232.307589,4230.256307,4230.769127,4229.743486,4230.769127,4234.871691,4230.769127,4231.794768,4248.717845,4271.794767
101,0,4245.640922,4257.948614,4235.897332,4245.640922,4228.205025,4233.33323,4230.769127,4229.743486,4231.281948,4255.897332,4228.717845,4229.230666,4238.974255,4265.640921
102,0,4258.974255,4255.897332,4235.897332,4256.410152,4222.051179,4232.820409,4231.794768,4233.33323,4232.820409,4259.487075,4252.307588,4234.871691,4248.205024,4260.512716
103,0,4260.512716,4249.743486,4233.33323,4263.589639,4231.794768,4234.358871,4234.358871,4234.871691,4233.84605,4248.717845,4257.948614,4232.307589,4258.974255,4263.589639
104,0,4246.153742,4247.692204,4230.769127,4253.84605,4236.922973,4231.281948,4231.794768,4229.230666,4231.794768,4248.717845,4231.794768,4216.922974,4247.692204,4258.974255
105,0,4240.512717,4250.256306,4230.256307,4245.640922,4222.051179,4223.07682,4219.487076,4226.666563,4225.128102,4240.512717,4222.563999,4212.307589,4232.307589,4250.256306
106,0,4235.897332,4246.666563,4221.538358,4244.10246,4218.974256,4225.128102,4214.358871,4225.640922,4224.615281,4232.307589,4234.358871,4216.922974,4234.871691,4247.692204
107,0,4231.794768,4243.076819,4217.435794,4244.10246,4235.384512,4233.84605,4225.128102,4223.07682,4228.717845,4249.230665,4233.33323,4217.435794,4236.922973,4247.692204
108,0,4240.512717,4246.666563,4222.563999,4243.58964,4236.922973,4231.281948,4231.281948,4218.461435,4225.128102,4256.410152,4225.128102,4221.538358,4228.717845,4248.717845
109,0,4247.692204,4246.153742,4222.051179,4238.461435,4229.743486,4225.640922,4227.179384,4219.487076,4216.410153,4234.871691,4232.820409,4226.666563,4235.384512,4253.333229
110,0,4245.640922,4245.640922,4222.051179,4238.461435,4225.128102,4229.230666,4230.256307,4226.666563,4217.435794,4225.640922,4236.922973,4225.128102,4249.743486,4261.025537
111,0,4245.640922,4246.153742,4226.153743,4245.128101,4223.58964,4228.717845,4229.743486,4223.58964,4221.538358,4232.307589,4216.922974,4221.538358,4237.948614,4260.512716
112,0,4238.974255,4238.461435,4225.640922,4245.128101,4225.640922,4226.153743,4217.948615,4213.33323,4217.435794,4236.410153,4212.307589,4216.922974,4223.58964,4249.230665
113,0,4230.256307,4234.871691,4226.666563,4241.538358,4218.974256,4229.230666,4217.948615,4217.948615,4216.410153,4244.10246,4241.538358,4217.948615,4239.999896,4245.640922
114,0,4238.461435,4248.205024,4232.820409,4246.666563,4224.615281,4231.794768,4231.794768,4231.794768,4224.615281,4261.025537,4254.35887,4225.640922,4253.84605,4256.922973
115,0,4251.281947,4255.897332,4233.33323,4254.35887,4246.666563,4233.33323,4236.410153,4235.384512,4232.307589,4262.563998,4246.666563,4231.281948,4247.179383,4264.10246
116,0,4252.820409,4249.230665,4233.84605,4253.333229,4244.615281,4233.84605,4232.820409,4235.384512,4235.384512,4245.640922,4246.153742,4233.33323,4252.307588,4265.640921
117,0,4245.128101,4248.717845,4236.922973,4245.640922,4226.153743,4230.256307,4231.794768,4232.820409,4227.692204,4232.307589,4240.512717,4229.230666,4257.435793,4264.10246
118,0,4242.563999,4250.256306,4233.84605,4239.999896,4229.743486,4226.666563,4230.256307,4227.179384,4219.487076,4229.230666,4229.743486,4218.974256,4246.153742,4254.35887
119,0,4247.179383,4248.717845,4231.794768,4243.076819,4232.307589,4227.179384,4225.128102,4228.717845,4223.07682,4232.307589,4234.871691,4217.435794,4243.076819,4248.717845
120,0,4243.076819,4247.179383,4230.769127,4243.076819,4215.384512,4223.07682,4218.974256,4225.640922,4226.666563,4234.358871,4236.922973,4215.897333,4242.563999,4248.205024
121,0,4230.256307,4237.948614,4230.769127,4233.84605,4210.769128,4217.435794,4216.410153,4215.897333,4218.974256,4233.84605,4228.205025,4209.230666,4234.871691,4242.563999
122,0,4226.666563,4230.256307,4233.84605,4226.153743,4215.897333,4216.410153,4216.922974,4214.871692,4214.358871,4229.230666,4228.717845,4210.256307,4235.897332,4240.512717
123,0,4231.794768,4236.922973,4234.871691,4225.128102,4214.871692,4217.435794,4216.410153,4218.461435,4217.948615,4216.922974,4230.256307,4215.897333,4238.974255,4243.58964
124,0,4231.794768,4245.640922,4231.794768,4230.256307,4220.512717,4217.435794,4217.435794,4215.384512,4214.871692,4204.615282,4220.512717,4214.358871,4232.307589,4237.435794
125,0,4229.743486,4241.538358,4229.230666,4238.974255,4217.435794,4216.922974,4216.922974,4211.281948,4211.794769,4214.871692,4216.922974,4213.33323,4228.205025,4227.692204
126,0,4231.281948,4237.948614,4230.256307,4245.128101,4206.153743,4222.051179,4216.410153,4216.410153,4217.435794,4234.358871,4224.102461,4215.897333,4231.794768,4232.820409
127,0,4232.307589,4241.538358,4229.230666,4246.153742,4214.871692,4231.281948,4225.128102,4221.538358,4221.025538,4235.384512,4225.128102,4216.410153,4236.922973,4245.640922
128,0,4232.820409,4244.615281,4227.692204,4242.563999,4234.358871,4233.33323,4232.307589,4221.538358,4224.615281,4228.205025,4222.051179,4217.948615,4238.974255,4249.230665
0,0,4237.435794,4247.692204,4232.820409,4239.999896,4236.410153,4228.717845,4229.743486,4225.640922,4228.205025,4226.666563,4225.640922,4225.128102,4231.794768,4247.179383
1,0,4244.615281,4248.717845,4237.948614,4243.58964,4229.230666,4230.256307,4228.205025,4228.205025,4223.07682,4217.435794,4227.692204,4233.84605,4227.692204,4248.717845
2,0,4247.692204,4243.58964,4235.384512,4245.640922,4225.640922,4234.871691,4232.307589,4224.615281,4217.948615,4210.769128,4228.205025,4236.410153,4237.948614,4251.794768
3,0,4247.692204,4244.10246,4234.358871,4245.128101,4220.512717,4230.256307,4231.281948,4224.615281,4218.461435,4226.153743,4231.794768,4231.281948,4249.230665,4256.922973
4,0,4242.051178,4246.666563,4234.871691,4238.461435,4213.33323,4218.461435,4222.051179,4223.58964,4217.435794,4231.281948,4226.666563,4221.538358,4249.743486,4250.769127
5,0,4234.358871,4244.615281,4227.692204,4233.84605,4211.794769,4217.435794,4216.410153,4216.410153,4219.999897,4214.358871,4223.07682,4217.948615,4239.999896,4238.974255
6,0,4236.410153,4246.666563,4232.820409,4234.358871,4217.948615,4225.128102,4216.922974,4215.897333,4224.102461,4211.794769,4228.205025,4218.974256,4231.794768,4242.563999
7,0,4232.820409,4247.179383,4255.384511,4216.922974,4217.948615,4222.051179,4217.435794,4211.794769,4212.307589,4219.999897,4221.538358,4208.717846,4229.743486,4239.999896
8,0,4218.974256,4231.794768,4261.538357,4184.102462,4209.230666,4214.358871,4212.307589,4201.538359,4197.435795,4213.846051,4207.179384,4195.897333,4223.07682,4219.487076
9,0,4211.794769,4223.07682,4251.281947,4173.846052,4211.281948,4215.384512,4211.794769,4208.717846,4205.128102,4211.281948,4209.230666,4198.461436,4215.384512,4220.512717
10,0,4209.230666,4225.640922,4247.692204,4180.512718,4216.410153,4217.435794,4211.794769,4215.897333,4217.435794,4219.487076,4216.410153,4203.589641,4218.974256,4232.820409
11,0,4209.743487,4222.051179,4247.692204,4186.666564,4212.82041,4215.384512,4205.640923,4205.640923,4212.307589,4213.846051,4213.846051,4202.564,4230.256307,4224.615281
12,0,4218.974256,4216.922974,4248.717845,4183.589641,4205.128102,4208.717846,4199.999897,4197.948615,4199.999897,4195.897333,4206.666564,4201.025538,4228.717845,4217.435794
13,0,4213.846051,4214.871692,4248.205024,4168.205026,4192.30759,4198.974256,4195.897333,4190.256308,4196.922974,4186.153744,4196.410154,4189.743487,4211.794769,4214.358871
14,0,4201.025538,4215.384512,4236.410153,4171.79477,4190.256308,4203.589641,4195.384513,4184.615282,4198.974256,4187.692205,4196.410154,4183.589641,4205.640923,4208.205025
15,0,4208.205025,4218.461435,4231.794768,4200.512718,4202.051179,4217.948615,4202.051179,4192.30759,4198.974256,4188.205026,4208.717846,4195.897333,4216.922974,4214.358871
16,0,4216.922974,4221.538358,4238.974255,4206.666564,4205.128102,4219.487076,4205.640923,4199.999897,4204.615282,4202.051179,4213.846051,4203.589641,4217.948615,4220.512717
17,0,4212.307589,4221.538358,4233.33323,4191.794769,4203.589641,4213.846051,4202.564,4197.435795,4212.82041,4224.102461,4209.230666,4201.025538,4210.256307,4216.410153
18,0,4212.307589,4220.512717,4226.153743,4197.435795,4214.871692,4215.897333,4207.179384,4199.487077,4214.871692,4217.435794,4207.179384,4201.538359,4219.487076,4219.999897
19,0,4218.461435,4219.999897,4231.794768,4216.410153,4218.974256,4218.461435,4215.384512,4203.07682,4215.384512,4209.230666,4213.33323,4205.640923,4232.307589,4230.769127
20,0,4215.897333,4215.384512,4223.07682,4219.999897,4205.128102,4216.922974,4210.256307,4201.025538,4214.358871,4220.512717,4218.974256,4204.102461,4227.179384,4230.256307
21,0,4213.846051,4216.410153,4210.769128,4215.384512,4201.025538,4214.871692,4207.179384,4199.487077,4210.256307,4216.410153,4217.948615,4201.025538,4226.666563,4228.717845
22,0,4223.07682,4223.58964,4223.07682,4216.410153,4216.410153,4216.410153,4216.410153,4201.025538,4212.307589,4198.974256,4213.846051,4205.640923,4232.820409,4235.897332
23,0,4227.692204,4226.153743,4231.281948,4221.025538,4229.230666,4222.051179,4222.051179,4207.179384,4215.897333,4207.179384,4216.922974,4213.33323,4226.666563,4233.84605
24,0,4219.487076,4224.102461,4218.461435,4226.153743,4223.58964,4222.051179,4215.897333,4212.82041,4214.871692,4223.07682,4215.897333,4208.717846,4214.871692,4221.538358
25,0,4212.82041,4228.205025,4212.82041,4227.179384,4214.358871,4215.384512,4209.743487,4212.307589,4217.948615,4218.974256,4205.128102,4201.025538,4215.897333,4221.538358
26,0,4212.307589,4229.230666,4217.948615,4218.974256,4211.794769,4211.794769,4207.179384,4205.640923,4213.846051,4204.615282,4203.589641,4202.051179,4226.666563,4229.230666
27,0,4213.846051,4223.58964,4215.384512,4217.948615,4209.230666,4213.846051,4207.692205,4196.410154,4199.999897,4194.871692,4213.846051,4207.692205,4230.769127,4230.769127
28,0,4226.153743,4227.179384,4216.922974,4232.307589,4212.82041,4215.897333,4212.82041,4197.435795,4207.692205,4208.717846,4221.538358,4214.871692,4234.358871,4236.410153
29,0,4235.384512,4231.794768,4225.640922,4230.769127,4217.435794,4216.922974,4215.897333,4204.615282,4220.512717,4220.512717,4217.948615,4217.435794,4235.384512,4241.025537
30,0,4225.128102,4229.230666,4222.563999,4216.410153,4211.281948,4217.948615,4215.384512,4199.487077,4207.692205,4210.769128,4209.230666,4206.666564,4221.538358,4229.230666
31,0,4213.33323,4228.205025,4212.307589,4218.974256,4211.281948,4217.435794,4216.922974,4193.846051,4202.051179,4215.897333,4207.179384,4199.487077,4211.794769,4222.051179
32,0,4214.358871,4227.692204,4211.281948,4230.769127,4228.717845,4221.025538,4218.974256,4201.538359,4219.487076,4235.897332,4213.33323,4207.692205,4227.179384,4229.743486
33,0,4221.025538,4231.281948,4214.871692,4232.307589,4239.487076,4225.128102,4218.461435,4206.153743,4226.153743,4229.743486,4219.487076,4214.358871,4240.512717,4232.820409
34,0,4227.692204,4241.025537,4213.846051,4232.307589,4228.717845,4226.153743,4216.922974,4201.025538,4216.410153,4213.846051,4220.512717,4212.82041,4232.307589,4232.820409
35,0,4228.717845,4240.512717,4214.871692,4235.384512,4217.948615,4225.640922,4217.948615,4199.487077,4213.33323,4217.948615,4221.025538,4210.256307,4231.281948,4234.358871
36,0,4222.051179,4230.256307,4216.922974,4231.794768,4218.461435,4223.58964,4218.461435,4201.025538,4214.871692,4206.666564,4218.461435,4209.230666,4233.84605,4233.33323
37,0,4216.922974,4228.205025,4207.179384,4228.205025,4217.948615,4219.487076,4217.948615,4201.538359,4215.897333,4193.333231,4215.897333,4209.743487,4224.102461,4234.358871
38,0,4215.384512,4231.794768,4197.948615,4231.794768,4214.871692,4216.922974,4215.897333,4201.025538,4215.384512,4221.025538,4215.897333,4207.179384,4217.948615,4230.769127
39,0,4214.358871,4233.33323,4206.153743,4235.384512,4215.897333,4219.487076,4215.897333,4199.487077,4214.871692,4247.692204,4216.922974,4203.07682,4219.487076,4225.128102
40,0,4218.974256,4231.794768,4218.974256,4229.743486,4219.487076,4221.538358,4218.974256,4200.512718,4219.487076,4236.922973,4216.410153,4204.102461,4224.102461,4228.717845
41,0,4223.07682,4223.07682,4211.794769,4217.948615,4219.487076,4218.974256,4216.410153,4202.564,4215.897333,4219.487076,4213.846051,4206.666564,4235.897332,4227.692204
42,0,4214.358871,4214.871692,4199.487077,4215.897333,4215.897333,4215.897333,4212.82041,4195.897333,4205.128102,4208.717846,4210.769128,4202.051179,4232.307589,4211.281948
43,0,4208.717846,4224.102461,4207.179384,4224.615281,4216.410153,4217.948615,4216.410153,4190.769128,4206.153743,4203.07682,4211.281948,4197.948615,4215.384512,4209.743487
44,0,4213.846051,4230.256307,4216.410153,4227.692204,4212.82041,4219.999897,4216.922974,4197.948615,4218.974256,4212.82041,4213.846051,4197.948615,4221.025538,4227.692204
45,0,4216.410153,4221.538358,4207.692205,4225.640922,4203.07682,4215.897333,4212.82041,4202.051179,4219.487076,4221.538358,4215.897333,4198.461436,4235.384512,4231.794768
46,0,4220.512717,4226.666563,4206.153743,4233.33323,4211.281948,4216.410153,4216.410153,4201.025538,4213.846051,4216.922974,4219.487076,4203.589641,4234.871691,4230.769127
47,0,4223.07682,4236.410153,4214.358871,4241.025537,4231.281948,4219.487076,4219.999897,4200.512718,4216.922974,4213.846051,4218.461435,4205.640923,4228.205025,4230.769127
48,0,4213.33323,4223.07682,4212.82041,4231.794768,4222.051179,4214.358871,4214.871692,4192.30759,4214.871692,4214.871692,4215.384512,4198.974256,4224.102461,4219.487076
49,0,4206.153743,4218.974256,4212.82041,4217.435794,4206.153743,4216.922974,4214.871692,4190.769128,4210.769128,4218.974256,4214.871692,4196.410154,4217.435794,4212.82041
50,0,4211.281948,4232.820409,4217.435794,4216.410153,4218.974256,4226.666563,4219.999897,4201.538359,4214.358871,4217.435794,4215.384512,4202.564,4211.794769,4217.435794
51,0,4212.82041,4234.358871,4216.922974,4225.128102,4226.153743,4227.692204,4218.461435,4204.102461,4219.487076,4213.846051,4215.384512,4206.153743,4218.974256,4217.435794
52,0,4212.307589,4229.230666,4216.410153,4231.794768,4215.897333,4223.07682,4216.922974,4198.974256,4221.025538,4225.128102,4214.358871,4202.564,4232.307589,4215.384512
53,0,4217.435794,4231.281948,4216.410153,4234.358871,4212.82041,4221.025538,4219.487076,4201.538359,4220.512717,4235.897332,4217.435794,4200.512718,4234.871691,4219.487076
54,0,4218.461435,4232.307589,4213.33323,4228.717845,4212.82041,4218.974256,4218.974256,4204.615282,4220.512717,4226.153743,4223.07682,4202.564,4229.230666,4218.461435
55,0,4215.897333,4227.179384,4213.846051,4216.410153,4212.307589,4215.384512,4215.384512,4200.512718,4217.948615,4211.281948,4213.846051,4201.025538,4225.640922,4212.82041
56,0,4213.33323,4219.487076,4216.410153,4212.82041,4222.563999,4217.948615,4215.384512,4199.487077,4214.871692,4207.692205,4196.410154,4199.999897,4216.922974,4209.743487
57,0,4214.358871,4218.461435,4215.384512,4222.563999,4242.051178,4225.128102,4223.07682,4202.051179,4217.948615,4210.256307,4204.615282,4206.153743,4216.410153,4214.871692
58,0,4224.615281,4238.974255,4215.897333,4230.769127,4260.512716,4232.307589,4229.743486,4203.589641,4229.230666,4218.974256,4225.128102,4214.871692,4229.743486,4228.205025
59,0,4230.256307,4253.84605,4220.512717,4230.769127,4263.589639,4234.358871,4226.153743,4205.640923,4231.281948,4223.58964,4230.769127,4213.846051,4233.33323,4236.922973
60,0,4222.563999,4239.999896,4221.025538,4228.717845,4244.615281,4228.717845,4218.974256,4209.230666,4220.512717,4223.07682,4229.743486,4206.666564,4232.307589,4236.410153
61,0,4212.82041,4226.666563,4214.358871,4224.615281,4229.743486,4221.025538,4215.897333,4205.640923,4213.846051,4213.846051,4226.666563,4199.487077,4232.307589,4226.153743
62,0,4211.794769,4229.230666,4210.769128,4218.461435,4231.281948,4215.897333,4215.384512,4198.974256,4215.384512,4205.128102,4222.051179,4196.410154,4231.794768,4216.922974
63,0,4212.307589,4228.717845,4214.871692,4214.871692,4233.33323,4217.435794,4216.410153,4201.538359,4217.948615,4216.922974,4227.692204,4204.102461,4239.487076,4223.58964
64,0,4214.358871,4227.179384,4216.922974,4217.948615,4236.410153,4219.487076,4218.461435,4205.640923,4217.948615,4234.358871,4233.84605,4211.281948,4245.640922,4234.871691
65,0,4215.897333,4227.692204,4216.410153,4217.948615,4232.307589,4218.974256,4216.922974,4203.07682,4216.410153,4234.358871,4224.102461,4206.666564,4236.410153,4230.769127
66,0,4212.307589,4221.025538,4212.82041,4209.743487,4223.07682,4214.358871,4212.82041,4195.897333,4213.33323,4221.538358,4211.281948,4197.435795,4225.128102,4217.948615
67,0,4215.897333,4221.538358,4213.846051,4208.717846,4235.384512,4213.846051,4212.82041,4194.871692,4213.33323,4208.717846,4212.82041,4195.384513,4227.692204,4219.999897
68,0,4222.563999,4234.358871,4222.563999,4214.871692,4255.897332,4226.666563,4217.435794,4203.589641,4215.897333,4207.179384,4217.435794,4203.589641,4225.640922,4229.230666
69,0,4225.128102,4238.974255,4225.640922,4216.410153,4251.281947,4232.307589,4218.974256,4208.205025,4216.410153,4213.846051,4217.948615,4215.384512,4224.615281,4233.33323
70,0,4228.205025,4236.410153,4221.538358,4216.922974,4233.84605,4222.563999,4218.974256,4202.564,4212.307589,4210.256307,4220.512717,4217.948615,4238.974255,4231.794768
71,0,4225.640922,4233.84605,4219.999897,4215.384512,4234.871691,4216.410153,4218.974256,4198.974256,4204.615282,4193.333231,4215.897333,4206.153743,4241.025537,4223.07682
72,0,4214.358871,4229.230666,4217.435794,4210.769128,4235.897332,4217.435794,4215.384512,4196.922974,4203.07682,4197.435795,4206.153743,4198.974256,4216.922974,4212.82041
73,0,4211.281948,4228.717845,4214.358871,4210.769128,4226.666563,4217.435794,4213.33323,4197.435795,4209.743487,4214.358871,4211.794769,4203.07682,4212.307589,4212.82041
74,0,4222.051179,4234.358871,4218.461435,4220.512717,4231.281948,4219.487076,4219.999897,4206.666564,4217.435794,4207.692205,4223.58964,4204.102461,4233.33323,4218.974256
75,0,4219.999897,4236.922973,4222.051179,4223.07682,4234.358871,4218.461435,4221.538358,4208.717846,4219.487076,4195.897333,4218.461435,4199.999897,4226.153743,4215.897333
76,0,4205.128102,4229.230666,4216.922974,4211.794769,4215.384512,4213.33323,4215.384512,4198.974256,4215.384512,4210.256307,4209.743487,4192.82041,4210.256307,4212.307589
77,0,4199.999897,4217.948615,4212.82041,4205.640923,4215.897333,4219.999897,4220.512717,4205.128102,4216.922974,4233.33323,4215.384512,4196.922974,4224.615281,4214.358871
78,0,4203.589641,4221.025538,4214.871692,4208.205025,4246.153742,4224.615281,4229.230666,4219.999897,4227.179384,4241.025537,4220.512717,4208.205025,4237.435794,4213.33323
79,0,4210.769128,4232.820409,4217.948615,4211.281948,4256.410152,4221.025538,4227.179384,4218.461435,4227.692204,4233.33323,4217.948615,4209.230666,4228.717845,4215.384512
80,0,4215.384512,4233.33323,4216.922974,4212.82041,4242.563999,4222.563999,4223.58964,4211.281948,4214.871692,4221.538358,4216.922974,4207.179384,4228.205025,4220.512717
81,0,4216.410153,4231.281948,4217.948615,4217.948615,4234.358871,4224.102461,4226.666563,4216.922974,4212.82041,4217.435794,4224.615281,4215.897333,4235.384512,4221.025538
82,0,4214.358871,4233.33323,4219.487076,4217.435794,4230.256307,4218.974256,4226.666563,4216.922974,4218.974256,4210.256307,4226.666563,4217.435794,4221.538358,4217.435794
83,0,4212.82041,4227.179384,4217.435794,4214.358871,4228.205025,4219.487076,4222.051179,4205.128102,4215.897333,4195.384513,4217.948615,4205.640923,4210.769128,4216.922974
84,0,4214.871692,4223.58964,4211.794769,4221.025538,4233.84605,4222.051179,4219.487076,4205.640923,4213.33323,4201.025538,4212.82041,4199.999897,4216.922974,4217.948615
85,0,4211.794769,4228.205025,4211.794769,4219.487076,4233.84605,4218.461435,4217.435794,4213.846051,4215.897333,4216.922974,4212.82041,4201.538359,4218.974256,4212.307589
86,0,4216.410153,4236.410153,4223.07682,4215.897333,4226.666563,4223.58964,4221.538358,4214.871692,4219.999897,4212.82041,4219.999897,4208.205025,4218.461435,4213.846051
87,0,4231.281948,4246.666563,4233.33323,4223.58964,4226.666563,4233.33323,4232.820409,4222.051179,4229.230666,4218.461435,4231.794768,4216.922974,4228.717845,4227.179384
88,0,4236.410153,4252.307588,4233.33323,4224.102461,4242.051178,4233.33323,4232.307589,4229.743486,4237.435794,4234.358871,4235.384512,4217.435794,4242.051178,4235.384512
89,0,4230.256307,4246.153742,4229.230666,4216.922974,4253.333229,4228.717845,4221.025538,4219.487076,4230.256307,4222.563999,4228.205025,4215.897333,4245.128101,4229.230666
90,0,4223.58964,4236.410153,4224.102461,4217.435794,4240.512717,4222.563999,4216.410153,4212.307589,4216.410153,4210.769128,4221.025538,4213.846051,4233.84605,4220.512717
91,0,4217.435794,4234.358871,4216.922974,4222.051179,4227.179384,4217.948615,4219.999897,4214.358871,4215.384512,4227.692204,4214.871692,4204.102461,4214.871692,4218.461435
92,0,4215.384512,4232.307589,4214.358871,4217.948615,4229.743486,4216.410153,4216.922974,4206.666564,4218.461435,4238.974255,4213.33323,4196.922974,4217.948615,4216.922974
93,0,4218.461435,4231.281948,4216.922974,4215.384512,4236.410153,4217.435794,4214.871692,4205.128102,4216.922974,4226.666563,4216.922974,4201.538359,4233.33323,4218.461435
94,0,4219.999897,4234.871691,4216.922974,4217.948615,4232.307589,4223.58964,4224.615281,4217.435794,4216.410153,4220.512717,4217.948615,4204.615282,4232.820409,4224.102461
95,0,4218.461435,4236.410153,4214.358871,4219.487076,4223.58964,4227.692204,4228.205025,4214.871692,4216.410153,4216.922974,4215.897333,4201.538359,4228.717845,4221.025538
96,0,4217.435794,4232.820409,4211.281948,4219.487076,4219.999897,4218.974256,4216.410153,4204.102461,4211.281948,4205.128102,4215.384512,4200.512718,4231.281948,4211.794769
97,0,4216.410153,4233.84605,4212.82041,4215.897333,4227.692204,4213.33323,4212.307589,4212.82041,4215.384512,4208.205025,4217.435794,4199.999897,4235.897332,4213.846051
98,0,4217.435794,4236.922973,4218.974256,4216.410153,4243.58964,4225.128102,4226.666563,4226.666563,4225.128102,4222.563999,4216.410153,4204.102461,4232.307589,4221.025538
99,0,4218.461435,4232.307589,4218.974256,4220.512717,4246.666563,4229.743486,4229.230666,4222.051179,4221.538358,4215.384512,4216.410153,4209.743487,4222.563999,4216.410153
100,0,4209.743487,4228.205025,4214.358871,4218.461435,4232.820409,4219.999897,4215.897333,4209.743487,4210.769128,4198.461436,4220.512717,4205.128102,4219.487076,4212.82041
101,0,4201.538359,4230.769127,4214.358871,4215.384512,4225.128102,4215.897333,4213.33323,4204.615282,4206.153743,4197.948615,4217.948615,4197.435795,4223.58964,4214.871692
102,0,4201.538359,4229.743486,4212.307589,4215.897333,4227.179384,4215.384512,4214.871692,4198.974256,4203.589641,4198.461436,4206.666564,4193.846051,4216.410153,4208.717846
103,0,4208.717846,4229.743486,4213.846051,4221.025538,4227.692204,4218.974256,4214.871692,4203.589641,4206.666564,4198.974256,4209.743487,4197.948615,4212.82041,4207.179384
104,0,4233.33323,4253.333229,4234.871691,4245.640922,4246.666563,4245.128101,4241.025537,4237.948614,4234.358871,4226.153743,4236.922973,4223.58964,4239.999896,4239.487076
105,0,4273.333229,4290.256305,4263.076819,4278.974254,4279.999895,4277.948613,4281.025536,4275.384511,4264.61528,4257.948614,4264.10246,4259.487075,4275.384511,4279.999895
106,0,4298.974254,4306.153741,4274.35887,4290.769126,4283.589639,4280.512716,4290.769126,4282.563998,4268.205024,4266.666562,4271.281947,4271.794767,4288.205023,4288.717844
107,0,4297.435792,4299.487074,4268.717844,4283.076818,4272.307588,4267.692203,4283.076818,4275.897331,4259.999896,4273.846049,4265.128101,4263.076819,4277.948613,4278.974254
108,0,4292.820408,4296.922972,4266.153742,4281.025536,4283.076818,4270.769126,4284.61528,4279.999895,4264.10246,4281.025536,4266.153742,4264.10246,4274.35887,4287.692203
109,0,4290.769126,4299.999895,4266.666562,4281.025536,4284.61528,4272.820408,4283.589639,4281.538357,4268.205024,4270.769126,4270.256306,4270.256306,4287.179382,4297.948613
110,0,4284.61528,4295.897331,4263.589639,4279.999895,4265.640921,4264.10246,4274.87169,4270.256306,4261.025537,4262.563998,4267.179383,4267.692203,4287.179382,4292.307587
111,0,4277.948613,4289.743485,4259.487075,4277.948613,4271.794767,4263.076819,4272.820408,4264.61528,4256.922973,4261.025537,4262.051178,4263.589639,4278.461434,4285.1281
112,0,4272.307588,4289.230664,4256.922973,4275.384511,4284.102459,4264.10246,4277.435793,4266.666562,4258.974255,4252.307588,4256.922973,4262.563998,4275.384511,4285.640921
113,0,4276.922972,4290.769126,4252.307588,4279.487075,4268.205024,4262.563998,4276.922972,4266.153742,4261.025537,4248.717845,4251.281947,4263.076819,4270.769126,4280.512716
114,0,4284.102459,4287.179382,4248.205024,4279.999895,4255.384511,4260.512716,4269.743485,4262.051178,4254.871691,4245.128101,4246.666563,4258.461434,4261.538357,4269.230665
115,0,4273.846049,4279.999895,4247.692204,4270.769126,4261.538357,4253.333229,4263.589639,4254.871691,4246.666563,4231.794768,4248.205024,4250.256306,4261.025537,4264.10246
116,0,4259.487075,4276.410152,4247.692204,4256.922973,4256.922973,4246.666563,4259.999896,4248.717845,4245.128101,4237.435794,4250.256306,4247.179383,4266.666562,4265.128101
117,0,4264.61528,4277.948613,4249.230665,4251.281947,4245.640922,4248.717845,4255.897332,4248.205024,4245.128101,4253.84605,4245.128101,4247.179383,4261.025537,4271.794767
118,0,4272.820408,4281.025536,4249.743486,4258.974255,4250.256306,4249.743486,4252.307588,4249.743486,4237.948614,4247.179383,4237.948614,4247.179383,4251.281947,4277.435793
119,0,4269.230665,4280.512716,4248.717845,4262.563998,4245.640922,4243.076819,4251.794768,4248.717845,4231.794768,4234.871691,4243.58964,4247.692204,4254.35887,4274.35887
120,0,4259.999896,4271.281947,4244.615281,4253.333229,4227.179384,4234.358871,4245.640922,4242.051178,4234.871691,4227.692204,4248.205024,4243.58964,4258.974255,4259.999896
121,0,4247.692204,4260.512716,4236.410153,4241.538358,4230.256307,4228.717845,4232.820409,4230.769127,4229.230666,4217.435794,4233.84605,4231.281948,4249.743486,4245.128101
122,0,4246.153742,4260.512716,4232.820409,4242.563999,4250.256306,4229.230666,4228.205025,4226.153743,4220.512717,4219.999897,4223.58964,4226.666563,4246.153742,4245.128101
123,0,4256.922973,4267.179383,4234.358871,4250.769127,4250.256306,4231.794768,4233.33323,4230.256307,4225.640922,4230.769127,4229.230666,4233.84605,4245.128101,4249.230665
124,0,4258.461434,4264.61528,4231.281948,4255.897332,4236.410153,4231.281948,4232.307589,4231.281948,4233.33323,4230.256307,4233.84605,4237.948614,4236.410153,4246.666563
125,0,4245.128101,4249.743486,4226.153743,4246.666563,4228.205025,4226.153743,4220.512717,4229.743486,4230.769127,4225.128102,4233.33323,4230.769127,4241.025537,4245.128101
126,0,4234.358871,4242.563999,4222.563999,4233.33323,4221.538358,4218.974256,4215.384512,4228.205025,4225.640922,4222.051179,4229.230666,4225.128102,4246.666563,4248.205024
127,0,4236.410153,4242.563999,4217.948615,4233.84605,4210.256307,4214.871692,4219.487076,4221.025538,4218.974256,4209.230666,4222.563999,4228.205025,4233.84605,4243.076819
128,0,4234.358871,4236.922973,4217.435794,4231.794768,4203.589641,4213.846051,4218.461435,4214.871692,4210.256307,4197.435795,4217.948615,4228.205025,4226.153743,4227.179384
0,0,4217.948615,4229.230666,4222.051179,4218.461435,4203.07682,4212.82041,4211.794769,4213.846051,4210.256307,4207.179384,4214.871692,4218.461435,4224.615281,4215.384512
1,0,4216.922974,4231.794768,4228.717845,4213.33323,4210.256307,4216.922974,4215.384512,4216.922974,4219.999897,4218.461435,4213.33323,4212.307589,4214.358871,4217.435794
2,0,4233.33323,4235.897332,4228.717845,4219.999897,4225.128102,4218.974256,4218.974256,4216.922974,4217.435794,4207.692205,4215.897333,4213.33323,4208.205025,4218.461435
3,0,4231.281948,4233.33323,4222.563999,4220.512717,4235.897332,4217.435794,4208.717846,4211.281948,4202.564,4188.205026,4218.974256,4213.846051,4216.922974,4211.794769
4,0,4216.922974,4231.281948,4224.615281,4213.33323,4222.051179,4213.846051,4206.153743,4211.281948,4202.564,4189.743487,4219.487076,4215.384512,4226.666563,4215.384512
5,0,4215.384512,4230.769127,4224.615281,4210.256307,4200.512718,4205.640923,4212.82041,4214.871692,4215.384512,4199.487077,4217.435794,4215.897333,4222.563999,4215.897333
6,0,4217.435794,4231.281948,4217.435794,4217.948615,4205.640923,4206.666564,4214.871692,4214.358871,4216.922974,4206.666564,4213.846051,4213.846051,4214.358871,4204.615282
7,0,4216.410153,4232.307589,4221.538358,4225.128102,4219.487076,4214.871692,4214.358871,4216.410153,4214.358871,4216.410153,4211.794769,4215.897333,4224.102461,4209.230666
8,0,4218.974256,4233.33323,4229.230666,4220.512717,4211.794769,4212.82041,4214.871692,4217.435794,4216.922974,4213.33323,4213.846051,4218.461435,4231.794768,4216.410153
9,0,4219.487076,4231.794768,4221.538358,4214.358871,4199.999897,4205.128102,4213.846051,4212.82041,4215.897333,4199.487077,4218.974256,4214.871692,4220.512717,4207.179384
10,0,4214.358871,4227.179384,4216.922974,4214.358871,4203.07682,4207.692205,4213.846051,4214.871692,4214.871692,4198.974256,4222.563999,4210.256307,4216.922974,4204.615282
11,0,4212.307589,4227.692204,4220.512717,4215.384512,4202.564,4207.692205,4209.230666,4215.897333,4210.256307,4202.051179,4216.922974,4205.128102,4220.512717,4208.205025
12,0,4214.871692,4232.307589,4213.33323,4216.410153,4196.410154,4199.487077,4196.410154,4203.589641,4198.974256,4191.794769,4204.102461,4197.948615,4207.179384,4195.384513
13,0,4216.922974,4232.820409,4212.307589,4218.461435,4213.33323,4204.102461,4198.461436,4198.974256,4200.512718,4195.384513,4199.999897,4198.461436,4196.922974,4185.128103
14,0,4217.948615,4230.256307,4223.58964,4216.922974,4229.230666,4215.897333,4207.692205,4204.615282,4205.128102,4208.717846,4208.717846,4203.589641,4209.230666,4193.846051
15,0,4217.435794,4231.281948,4224.102461,4211.794769,4216.922974,4216.410153,4204.615282,4203.07682,4201.025538,4200.512718,4216.922974,4202.051179,4217.435794,4201.025538
16,0,4214.871692,4233.84605,4219.487076,4212.307589,4207.692205,4214.871692,4206.153743,4207.692205,4206.666564,4190.256308,4215.897333,4203.589641,4214.358871,4202.564
17,0,4216.922974,4230.769127,4223.58964,4216.922974,4219.487076,4218.974256,4216.922974,4217.948615,4215.897333,4195.897333,4218.974256,4211.794769,4218.974256,4203.589641
18,0,4215.384512,4231.281948,4223.07682,4216.410153,4215.897333,4216.410153,4213.846051,4214.871692,4209.230666,4203.589641,4218.974256,4211.794769,4222.563999,4202.564
19,0,4204.615282,4227.179384,4216.410153,4205.640923,4205.128102,4212.82041,4206.153743,4209.743487,4202.051179,4206.153743,4204.615282,4204.615282,4215.384512,4197.435795
20,0,4207.179384,4217.948615,4218.461435,4199.999897,4208.205025,4212.82041,4212.307589,4211.794769,4202.564,4190.769128,4200.512718,4204.102461,4210.769128,4196.922974
21,0,4216.410153,4222.051179,4221.025538,4209.743487,4204.615282,4211.281948,4216.922974,4213.33323,4203.589641,4180.512718,4216.410153,4206.666564,4217.435794,4201.025538
22,0,4207.692205,4228.205025,4214.871692,4216.922974,4206.153743,4210.256307,4212.307589,4211.794769,4207.179384,4202.051179,4218.974256,4203.07682,4216.922974,4195.384513
23,0,4196.410154,4222.051179,4213.846051,4214.358871,4214.358871,4212.307589,4213.33323,4208.205025,4207.692205,4216.410153,4204.102461,4201.025538,4205.128102,4183.589641
24,0,4196.410154,4215.384512,4216.922974,4214.358871,4201.538359,4212.307589,4214.358871,4207.179384,4202.564,4199.487077,4205.128102,4201.025538,4201.538359,4183.076821
25,0,4201.538359,4219.487076,4214.871692,4221.538358,4199.999897,4214.871692,4215.384512,4213.33323,4201.025538,4194.871692,4214.358871,4201.025538,4210.769128,4195.384513
26,0,4208.205025,4226.666563,4212.307589,4221.538358,4228.205025,4218.461435,4217.948615,4216.922974,4203.589641,4210.769128,4213.846051,4206.666564,4215.897333,4203.589641
27,0,4214.871692,4230.256307,4215.897333,4214.358871,4236.410153,4214.358871,4217.948615,4216.410153,4208.717846,4210.769128,4210.769128,4214.871692,4209.743487,4201.538359
28,0,4213.33323,4233.33323,4219.487076,4218.461435,4218.461435,4215.384512,4217.435794,4223.58964,4217.435794,4211.281948,4214.358871,4216.410153,4204.102461,4204.102461
29,0,4216.922974,4235.897332,4218.461435,4234.871691,4217.948615,4223.58964,4219.999897,4233.33323,4221.025538,4227.692204,4226.666563,4218.461435,4215.897333,4217.948615
30,0,4228.205025,4239.999896,4218.974256,4238.461435,4221.025538,4224.102461,4221.025538,4231.281948,4217.435794,4228.717845,4232.307589,4223.58964,4235.897332,4222.563999
31,0,4224.102461,4236.922973,4218.461435,4223.58964,4214.358871,4217.948615,4218.461435,4221.538358,4214.871692,4205.128102,4222.051179,4218.974256,4232.820409,4208.205025
32,0,4212.307589,4228.717845,4215.897333,4214.358871,4214.871692,4217.948615,4216.922974,4217.948615,4214.358871,4191.794769,4209.230666,4206.153743,4213.33323,4198.461436
33,0,4211.281948,4228.717845,4217.948615,4215.384512,4215.897333,4219.999897,4216.922974,4217.435794,4214.871692,4209.230666,4207.179384,4199.999897,4211.794769,4199.999897
34,0,4212.82041,4230.256307,4221.025538,4218.974256,4217.435794,4216.410153,4215.897333,4216.410153,4214.358871,4219.999897,4210.256307,4202.051179,4214.871692,4202.051179
35,0,4212.307589,4221.538358,4218.974256,4217.435794,4212.307589,4216.410153,4215.384512,4216.922974,4213.33323,4214.358871,4212.307589,4203.07682,4205.128102,4203.07682
36,0,4211.794769,4212.82041,4222.051179,4203.589641,4197.435795,4214.358871,4213.846051,4214.871692,4211.794769,4210.769128,4210.256307,4200.512718,4198.461436,4198.974256
37,0,4210.769128,4222.563999,4230.256307,4199.487077,4200.512718,4208.205025,4212.82041,4213.33323,4211.794769,4206.153743,4205.640923,4198.461436,4207.179384,4192.82041
38,0,4211.794769,4232.820409,4226.666563,4214.871692,4221.025538,4213.33323,4215.384512,4216.410153,4216.410153,4203.07682,4210.769128,4202.051179,4217.435794,4204.102461
39,0,4218.974256,4230.256307,4222.563999,4219.999897,4225.128102,4221.025538,4218.461435,4219.999897,4218.461435,4204.615282,4216.922974,4208.205025,4218.461435,4216.922974
40,0,4221.538358,4229.743486,4228.717845,4211.794769,4216.922974,4216.410153,4217.435794,4219.487076,4215.384512,4198.974256,4215.384512,4213.846051,4216.922974,4208.205025
41,0,4221.025538,4233.33323,4225.640922,4223.07682,4220.512717,4214.358871,4216.410153,4220.512717,4214.358871,4201.025538,4216.410153,4216.410153,4216.922974,4201.538359
42,0,4217.435794,4230.256307,4216.410153,4234.871691,4217.435794,4215.897333,4216.410153,4218.974256,4213.33323,4214.871692,4218.974256,4213.33323,4215.897333,4213.846051
43,0,4215.897333,4229.743486,4218.974256,4223.07682,4207.692205,4213.33323,4215.897333,4216.410153,4213.33323,4216.922974,4214.871692,4207.179384,4214.358871,4217.435794
44,0,4220.512717,4231.794768,4222.563999,4213.33323,4212.82041,4213.33323,4214.871692,4216.922974,4212.82041,4216.410153,4210.769128,4203.07682,4212.307589,4205.128102
45,0,4217.435794,4223.58964,4215.384512,4218.461435,4217.435794,4208.717846,4211.281948,4215.384512,4205.128102,4213.846051,4211.794769,4201.025538,4205.640923,4198.974256
46,0,4206.666564,4215.897333,4211.281948,4219.487076,4202.564,4200.512718,4210.256307,4214.871692,4201.538359,4200.512718,4208.717846,4198.974256,4203.07682,4201.538359
47,0,4208.717846,4224.102461,4213.846051,4215.384512,4194.358872,4204.615282,4212.307589,4214.358871,4203.589641,4196.922974,4201.538359,4197.435795,4202.564,4204.615282
48,0,4218.461435,4232.820409,4214.871692,4222.563999,4212.307589,4214.358871,4209.743487,4212.82041,4202.564,4203.589641,4205.640923,4200.512718,4202.051179,4209.743487
49,0,4218.461435,4231.281948,4215.897333,4231.281948,4225.640922,4217.435794,4210.256307,4214.358871,4207.179384,4202.564,4214.358871,4203.07682,4206.153743,4213.846051
50,0,4213.33323,4227.692204,4215.384512,4224.615281,4219.487076,4212.307589,4210.769128,4214.871692,4212.82041,4199.999897,4209.743487,4199.999897,4206.666564,4212.82041
51,0,4215.897333,4223.07682,4212.82041,4212.82041,4214.358871,4207.179384,4204.615282,4208.717846,4206.666564,4203.07682,4205.128102,4196.410154,4202.564,4211.281948
52,0,4217.435794,4223.58964,4211.281948,4215.897333,4219.999897,4213.33323,4206.666564,4211.281948,4205.640923,4203.07682,4214.358871,4199.487077,4208.717846,4214.871692
53,0,4209.743487,4226.666563,4211.281948,4218.461435,4221.538358,4220.512717,4216.922974,4217.948615,4215.897333,4196.922974,4219.999897,4201.538359,4215.384512,4215.897333
54,0,4204.615282,4219.487076,4212.82041,4204.615282,4210.256307,4211.281948,4215.384512,4215.384512,4216.410153,4202.051179,4213.846051,4198.974256,4214.871692,4212.307589
55,0,4212.82041,4215.897333,4216.410153,4204.102461,4208.205025,4208.717846,4214.358871,4219.487076,4214.358871,4229.230666,4212.307589,4207.179384,4212.82041,4217.435794
56,0,4220.512717,4223.07682,4217.948615,4215.384512,4216.922974,4213.846051,4216.922974,4229.743486,4218.461435,4236.922973,4216.410153,4215.897333,4203.07682,4218.461435
57,0,4210.769128,4221.025538,4212.307589,4213.846051,4205.640923,4206.153743,4208.717846,4222.051179,4213.846051,4213.33323,4214.358871,4204.102461,4193.333231,4204.102461
58,0,4204.102461,4213.846051,4210.256307,4211.794769,4194.871692,4204.102461,4204.615282,4211.281948,4210.256307,4210.256307,4215.897333,4195.384513,4208.717846,4203.589641
59,0,4214.871692,4218.974256,4221.538358,4221.538358,4222.051179,4219.487076,4217.435794,4223.07682,4218.461435,4225.640922,4227.179384,4210.256307,4233.84605,4228.717845
60,0,4223.58964,4223.58964,4232.820409,4219.999897,4238.461435,4227.692204,4224.102461,4235.897332,4222.051179,4219.487076,4234.871691,4222.051179,4235.897332,4242.051178
61,0,4221.025538,4216.410153,4231.794768,4205.128102,4219.999897,4221.538358,4219.487076,4228.717845,4218.974256,4214.358871,4228.717845,4213.846051,4221.025538,4230.769127
62,0,4212.307589,4211.794769,4229.743486,4199.487077,4207.692205,4215.384512,4215.384512,4219.999897,4217.435794,4219.999897,4218.974256,4204.615282,4215.897333,4220.512717
63,0,4204.102461,4212.307589,4227.179384,4199.999897,4206.666564,4211.794769,4214.871692,4218.461435,4214.871692,4210.256307,4214.871692,4203.07682,4215.897333,4217.435794
64,0,4201.538359,4207.692205,4219.999897,4199.487077,4206.666564,4214.358871,4215.897333,4216.922974,4212.307589,4195.897333,4214.871692,4204.615282,4205.640923,4214.358871
65,0,4202.051179,4200.512718,4217.948615,4198.461436,4206.666564,4215.897333,4216.410153,4216.410153,4213.33323,4198.974256,4214.358871,4203.589641,4204.615282,4213.846051
66,0,4199.999897,4204.615282,4220.512717,4198.461436,4198.461436,4207.179384,4213.846051,4218.461435,4214.871692,4209.230666,4208.717846,4201.025538,4215.384512,4214.871692
67,0,4204.102461,4214.358871,4217.948615,4199.999897,4199.999897,4205.128102,4212.307589,4217.948615,4213.846051,4216.922974,4203.589641,4199.999897,4208.205025,4217.435794
68,0,4214.358871,4217.948615,4215.384512,4203.07682,4219.487076,4214.358871,4214.358871,4219.999897,4213.846051,4225.128102,4209.743487,4201.538359,4199.487077,4224.615281
69,0,4216.410153,4214.871692,4217.948615,4208.205025,4218.461435,4216.922974,4215.897333,4228.205025,4215.897333,4230.769127,4221.538358,4202.051179,4212.82041,4231.281948
70,0,4215.897333,4219.487076,4221.538358,4214.358871,4206.153743,4213.846051,4215.897333,4232.820409,4219.999897,4233.84605,4230.769127,4205.640923,4222.563999,4232.820409
71,0,4217.435794,4227.179384,4219.487076,4210.769128,4215.897333,4217.948615,4216.922974,4228.205025,4221.538358,4236.922973,4230.769127,4209.230666,4217.435794,4228.717845
72,0,4215.897333,4219.487076,4215.897333,4203.589641,4223.07682,4213.33323,4216.410153,4219.487076,4215.897333,4231.281948,4222.563999,4207.179384,4217.948615,4221.025538
73,0,4207.179384,4208.205025,4215.897333,4210.256307,4212.307589,4201.025538,4211.794769,4216.410153,4212.307589,4219.999897,4213.33323,4202.051179,4216.922974,4215.384512
74,0,4198.974256,4211.794769,4215.384512,4218.461435,4208.717846,4206.666564,4211.794769,4222.051179,4213.846051,4211.794769,4209.230666,4201.538359,4206.153743,4215.384512
75,0,4202.564,4216.922974,4214.358871,4215.384512,4217.948615,4217.948615,4216.922974,4226.666563,4213.846051,4217.435794,4212.82041,4202.051179,4203.589641,4213.846051
76,0,4215.384512,4215.384512,4213.33323,4214.871692,4214.871692,4216.922974,4218.461435,4228.717845,4214.871692,4228.205025,4218.974256,4200.512718,4212.82041,4211.281948
77,0,4217.435794,4216.410153,4211.281948,4217.948615,4203.07682,4216.410153,4217.435794,4230.769127,4218.461435,4217.435794,4221.025538,4200.512718,4212.82041,4217.435794
78,0,4207.179384,4213.33323,4224.615281,4198.461436,4196.922974,4216.410153,4217.435794,4224.615281,4215.897333,4200.512718,4213.33323,4200.512718,4204.102461,4221.025538
79,0,4201.538359,4206.153743,4244.615281,4169.743488,4193.333231,4206.153743,4209.230666,4216.410153,4207.692205,4203.07682,4203.589641,4195.384513,4199.999897,4211.794769
80,0,4196.922974,4210.769128,4234.358871,4174.358872,4199.487077,4204.615282,4199.999897,4213.33323,4203.07682,4208.205025,4201.025538,4191.794769,4199.487077,4204.615282
81,0,4194.871692,4217.948615,4212.82041,4204.615282,4217.435794,4216.410153,4206.666564,4216.410153,4208.205025,4204.102461,4210.256307,4196.922974,4201.538359,4212.82041
82,0,4208.717846,4217.435794,4214.871692,4219.999897,4215.897333,4218.461435,4216.922974,4225.128102,4216.410153,4213.33323,4224.615281,4207.179384,4212.307589,4226.666563
83,0,4219.487076,4219.487076,4223.07682,4219.487076,4199.487077,4214.871692,4215.897333,4232.820409,4219.487076,4234.871691,4228.717845,4213.33323,4226.153743,4232.307589
84,0,4216.410153,4228.717845,4223.58964,4227.692204,4210.769128,4217.435794,4216.410153,4232.820409,4224.102461,4242.563999,4222.051179,4217.435794,4222.563999,4234.358871
85,0,4224.615281,4233.84605,4228.717845,4235.897332,4233.84605,4220.512717,4221.025538,4233.84605,4228.717845,4235.384512,4215.384512,4218.461435,4205.640923,4235.384512
86,0,4234.871691,4227.692204,4230.769127,4230.769127,4224.102461,4218.461435,4219.487076,4234.871691,4221.025538,4220.512717,4217.948615,4214.871692,4204.102461,4231.281948
87,0,4224.102461,4222.563999,4223.07682,4229.230666,4207.692205,4215.897333,4220.512717,4228.717845,4213.846051,4209.743487,4223.07682,4210.769128,4212.307589,4226.153743
88,0,4221.538358,4229.230666,4224.102461,4242.563999,4221.538358,4223.07682,4230.256307,4235.897332,4226.153743,4228.205025,4231.794768,4216.410153,4221.538358,4234.358871
89,0,4234.358871,4234.871691,4231.281948,4246.666563,4232.820409,4234.871691,4236.410153,4252.820409,4235.384512,4246.153742,4238.974255,4223.58964,4231.281948,4251.281947
90,0,4234.871691,4233.84605,4232.820409,4233.84605,4221.025538,4229.743486,4229.230666,4244.615281,4223.58964,4229.743486,4227.179384,4218.974256,4228.205025,4249.743486
91,0,4226.666563,4230.256307,4229.743486,4225.128102,4213.846051,4216.410153,4218.974256,4227.179384,4214.358871,4205.128102,4214.358871,4213.846051,4215.384512,4233.84605
92,0,4222.563999,4223.58964,4229.743486,4227.179384,4214.871692,4215.897333,4217.435794,4226.153743,4217.948615,4201.025538,4218.461435,4216.922974,4213.33323,4233.84605
93,0,4218.461435,4216.922974,4232.307589,4227.179384,4209.230666,4218.974256,4217.435794,4226.153743,4218.461435,4200.512718,4219.999897,4212.82041,4212.307589,4233.33323
94,0,4214.358871,4217.435794,4228.717845,4221.025538,4199.999897,4214.358871,4214.358871,4213.846051,4210.256307,4197.948615,4212.82041,4207.692205,4203.07682,4214.358871
95,0,4217.435794,4218.974256,4219.487076,4217.948615,4196.410154,4213.846051,4215.384512,4214.358871,4209.743487,4209.743487,4217.948615,4211.281948,4208.717846,4210.769128
96,0,4218.461435,4218.974256,4214.358871,4222.051179,4206.666564,4217.948615,4218.974256,4225.640922,4216.410153,4227.692204,4221.025538,4210.256307,4213.846051,4230.256307
97,0,4211.281948,4218.974256,4213.33323,4222.563999,4220.512717,4215.384512,4216.922974,4222.563999,4216.922974,4221.025538,4199.487077,4199.487077,4199.999897,4231.794768
98,0,4208.717846,4217.435794,4211.794769,4218.974256,4218.974256,4213.33323,4216.922974,4217.948615,4213.33323,4199.487077,4195.897333,4197.948615,4194.871692,4217.948615
99,0,4215.384512,4221.538358,4214.871692,4226.153743,4212.307589,4218.461435,4220.512717,4225.128102,4214.871692,4213.33323,4223.07682,4208.717846,4209.230666,4221.538358
100,0,4220.512717,4227.692204,4217.948615,4236.410153,4215.384512,4221.538358,4219.487076,4231.281948,4218.974256,4235.384512,4236.410153,4215.384512,4218.974256,4234.871691
101,0,4218.974256,4227.179384,4215.384512,4233.33323,4217.948615,4217.948615,4216.922974,4228.205025,4219.487076,4222.563999,4230.769127,4213.846051,4217.435794,4237.948614
102,0,4217.948615,4229.743486,4216.410153,4230.256307,4215.384512,4216.922974,4218.461435,4226.666563,4220.512717,4218.461435,4226.666563,4213.846051,4220.512717,4235.897332
103,0,4216.922974,4229.230666,4213.846051,4234.358871,4205.128102,4216.922974,4217.435794,4225.640922,4217.948615,4229.230666,4218.461435,4215.897333,4213.846051,4232.307589
104,0,4213.846051,4220.512717,4207.692205,4235.384512,4194.871692,4214.871692,4213.846051,4223.58964,4214.871692,4217.435794,4211.794769,4213.33323,4202.051179,4227.692204
105,0,4216.410153,4219.999897,4213.33323,4235.384512,4209.230666,4216.922974,4216.410153,4230.769127,4225.128102,4210.769128,4223.07682,4213.846051,4213.33323,4230.256307
106,0,4224.615281,4229.230666,4223.07682,4234.871691,4225.640922,4219.487076,4221.025538,4234.871691,4231.281948,4220.512717,4232.307589,4217.948615,4227.179384,4235.384512
107,0,4230.256307,4232.820409,4219.999897,4233.84605,4212.307589,4219.999897,4221.025538,4231.281948,4221.025538,4214.358871,4231.281948,4217.948615,4222.051179,4234.871691
108,0,4223.58964,4230.256307,4216.410153,4233.84605,4199.999897,4216.922974,4217.435794,4225.640922,4215.897333,4211.794769,4225.640922,4215.384512,4216.922974,4232.820409
109,0,4211.794769,4221.025538,4217.948615,4229.230666,4215.897333,4213.846051,4216.410153,4219.999897,4216.410153,4217.948615,4215.897333,4210.769128,4216.922974,4229.743486
110,0,4217.435794,4213.846051,4217.948615,4226.153743,4228.205025,4216.922974,4219.487076,4223.58964,4215.897333,4215.384512,4219.487076,4210.769128,4214.871692,4231.281948
111,0,4227.692204,4223.58964,4222.051179,4232.307589,4214.358871,4219.999897,4221.025538,4234.358871,4224.615281,4224.615281,4231.794768,4217.435794,4217.948615,4232.820409
112,0,4226.666563,4233.33323,4228.205025,4236.410153,4205.640923,4215.897333,4217.948615,4233.84605,4231.281948,4231.794768,4225.128102,4219.487076,4221.538358,4233.33323
113,0,4228.205025,4231.794768,4228.205025,4234.358871,4215.384512,4212.307589,4215.897333,4222.563999,4220.512717,4217.948615,4216.922974,4214.871692,4217.435794,4238.974255
114,0,4228.717845,4226.153743,4222.563999,4230.256307,4216.922974,4214.358871,4217.948615,4216.410153,4214.358871,4209.743487,4225.640922,4214.871692,4215.897333,4235.897332
115,0,4214.871692,4224.102461,4218.974256,4229.230666,4209.743487,4217.435794,4219.999897,4222.563999,4223.07682,4218.974256,4233.84605,4218.974256,4223.07682,4227.179384
116,0,4207.692205,4227.179384,4217.948615,4238.974255,4210.769128,4221.025538,4220.512717,4230.769127,4229.230666,4223.07682,4237.435794,4219.487076,4234.358871,4236.922973
117,0,4224.615281,4231.794768,4219.999897,4244.615281,4216.922974,4223.07682,4221.025538,4231.281948,4226.666563,4230.256307,4230.256307,4216.410153,4237.948614,4249.743486
118,0,4235.897332,4233.33323,4224.102461,4236.410153,4213.846051,4219.487076,4224.102461,4229.230666,4227.179384,4243.076819,4216.922974,4216.410153,4222.051179,4242.051178
119,0,4225.640922,4230.256307,4219.999897,4230.769127,4210.769128,4216.922974,4226.666563,4229.230666,4228.205025,4222.563999,4222.563999,4216.922974,4211.281948,4231.794768
120,0,4226.666563,4231.794768,4219.999897,4233.84605,4227.692204,4226.153743,4229.230666,4234.871691,4229.230666,4210.769128,4237.948614,4216.410153,4225.128102,4238.974255
121,0,4242.051178,4242.563999,4230.769127,4237.435794,4234.358871,4234.358871,4230.769127,4242.563999,4232.307589,4251.281947,4235.897332,4224.102461,4236.922973,4249.230665
122,0,4236.922973,4244.615281,4233.33323,4231.794768,4214.871692,4226.666563,4227.692204,4238.974255,4231.281948,4270.256306,4228.717845,4227.692204,4231.281948,4246.666563
123,0,4225.128102,4234.871691,4231.281948,4225.128102,4215.384512,4222.563999,4227.692204,4232.307589,4229.743486,4249.230665,4239.487076,4227.692204,4237.948614,4245.128101
124,0,4238.974255,4237.948614,4230.256307,4238.974255,4231.794768,4228.205025,4234.358871,4235.384512,4232.820409,4254.35887,4248.717845,4232.820409,4253.333229,4258.974255
125,0,4249.743486,4245.128101,4218.974256,4249.230665,4223.07682,4224.102461,4232.307589,4234.871691,4232.307589,4258.461434,4237.948614,4227.179384,4240.512717,4258.461434
126,0,4243.58964,4243.076819,4216.410153,4235.897332,4211.281948,4220.512717,4225.640922,4230.769127,4228.717845,4232.307589,4229.230666,4214.871692,4227.179384,4240.512717
127,0,4243.076819,4247.179383,4230.769127,4235.897332,4225.128102,4232.307589,4230.256307,4234.871691,4233.84605,4236.410153,4243.58964,4223.58964,4243.076819,4250.769127
128,0,4242.051178,4252.820409,4234.358871,4247.692204,4243.076819,4235.897332,4235.897332,4236.922973,4235.897332,4251.794768,4248.205024,4235.897332,4247.179383,4266.666562
0,0,4234.871691,4244.615281,4228.205025,4237.435794,4252.820409,4228.717845,4233.33323,4232.820409,4231.794768,4237.948614,4236.410153,4229.743486,4236.922973,4254.871691
1,0,4234.871691,4239.999896,4229.230666,4226.153743,4250.256306,4229.230666,4231.281948,4235.384512,4231.281948,4238.461435,4232.307589,4227.692204,4239.999896,4250.256306
2,0,4232.820409,4247.692204,4233.33323,4233.84605,4240.512717,4233.33323,4231.794768,4236.410153,4232.820409,4255.384511,4224.102461,4233.84605,4235.384512,4256.410152
3,0,4232.307589,4249.743486,4235.897332,4237.948614,4246.153742,4234.358871,4230.769127,4233.84605,4233.33323,4257.435793,4221.538358,4233.33323,4223.07682,4248.205024
4,0,4233.33323,4239.487076,4233.84605,4222.563999,4240.512717,4226.666563,4221.025538,4230.256307,4228.205025,4247.692204,4235.897332,4225.640922,4230.256307,4242.563999
5,0,4218.974256,4226.666563,4228.205025,4202.051179,4216.922974,4212.82041,4212.307589,4225.128102,4223.07682,4232.307589,4235.384512,4212.307589,4234.871691,4245.128101
6,0,4219.487076,4228.205025,4232.307589,4201.025538,4223.58964,4219.487076,4219.999897,4228.205025,4227.692204,4225.640922,4231.281948,4210.769128,4227.692204,4242.051178
7,0,4248.205024,4241.538358,4238.461435,4218.461435,4245.128101,4231.281948,4232.820409,4234.358871,4233.33323,4237.948614,4245.640922,4229.743486,4233.84605,4245.128101
8,0,4250.769127,4247.692204,4232.820409,4224.102461,4241.538358,4222.563999,4229.743486,4232.307589,4230.256307,4237.435794,4241.538358,4230.769127,4238.461435,4252.307588
9,0,4234.871691,4242.051178,4229.230666,4219.487076,4231.281948,4215.897333,4223.07682,4228.205025,4229.230666,4230.256307,4220.512717,4215.897333,4226.666563,4250.769127
10,0,4238.461435,4235.897332,4235.384512,4217.435794,4236.922973,4224.102461,4229.743486,4230.769127,4231.794768,4250.769127,4221.538358,4219.999897,4222.051179,4248.717845
11,0,4234.871691,4231.794768,4233.84605,4209.743487,4235.897332,4223.07682,4229.230666,4232.820409,4231.794768,4267.179383,4228.205025,4228.205025,4228.205025,4241.025537
12,0,4220.512717,4233.84605,4226.666563,4208.205025,4232.307589,4220.512717,4217.435794,4224.102461,4226.153743,4247.692204,4227.692204,4219.487076,4229.230666,4234.358871
13,0,4228.205025,4238.974255,4230.256307,4214.871692,4237.435794,4230.769127,4221.538358,4219.999897,4221.538358,4236.410153,4226.153743,4214.871692,4222.563999,4237.948614
14,0,4236.410153,4236.410153,4233.33323,4210.256307,4229.230666,4229.230666,4229.743486,4225.640922,4224.102461,4245.128101,4221.538358,4218.461435,4213.846051,4238.974255
15,0,4233.33323,4236.922973,4229.743486,4208.717846,4219.487076,4219.487076,4223.58964,4228.205025,4229.230666,4244.10246,4223.07682,4215.897333,4212.82041,4236.922973
16,0,4241.025537,4246.153742,4229.743486,4226.153743,4235.897332,4225.640922,4218.974256,4229.230666,4229.743486,4242.563999,4232.307589,4217.435794,4222.051179,4245.640922
17,0,4247.179383,4249.743486,4230.256307,4238.461435,4250.769127,4233.33323,4222.051179,4232.307589,4228.205025,4256.410152,4233.84605,4222.051179,4228.205025,4248.717845
18,0,4245.128101,4247.179383,4228.717845,4232.820409,4239.999896,4230.256307,4222.563999,4226.666563,4227.692204,4264.61528,4227.179384,4221.025538,4222.563999,4240.512717
19,0,4248.717845,4248.205024,4233.33323,4228.205025,4232.307589,4223.58964,4218.974256,4217.435794,4229.230666,4263.589639,4218.974256,4218.461435,4212.307589,4241.025537
20,0,4241.025537,4245.640922,4234.358871,4225.640922,4235.897332,4218.974256,4216.410153,4216.922974,4229.743486,4258.974255,4209.743487,4219.487076,4208.717846,4243.076819
21,0,4229.743486,4243.076819,4227.692204,4229.230666,4234.358871,4223.07682,4222.051179,4217.948615,4227.179384,4248.205024,4217.948615,4222.563999,4220.512717,4242.051178
22,0,4239.487076,4247.179383,4223.07682,4230.769127,4241.538358,4234.358871,4229.230666,4219.999897,4230.769127,4246.153742,4238.461435,4223.07682,4232.820409,4246.666563
23,0,4247.692204,4244.615281,4221.538358,4221.025538,4244.10246,4236.410153,4222.563999,4221.538358,4232.307589,4253.333229,4236.922973,4220.512717,4227.179384,4245.128101
24,0,4235.384512,4234.358871,4217.435794,4222.563999,4219.487076,4224.615281,4214.358871,4213.846051,4220.512717,4248.205024,4214.871692,4215.897333,4214.358871,4237.948614
25,0,4228.205025,4234.871691,4215.384512,4232.820409,4216.922974,4224.102461,4220.512717,4217.948615,4224.615281,4246.666563,4214.871692,4215.897333,4211.794769,4235.897332
26,0,4234.871691,4247.692204,4216.410153,4222.051179,4241.025537,4232.307589,4226.153743,4232.307589,4241.538358,4261.538357,4238.974255,4219.487076,4217.948615,4234.871691
27,0,4233.33323,4247.692204,4215.897333,4208.205025,4241.538358,4228.205025,4222.051179,4225.640922,4235.384512,4259.487075,4245.128101,4218.974256,4223.07682,4230.256307
28,0,4229.230666,4231.794768,4222.563999,4216.410153,4234.358871,4222.051179,4217.948615,4212.82041,4223.58964,4246.153742,4228.205025,4216.922974,4231.794768,4237.435794
29,0,4230.256307,4227.179384,4230.256307,4223.58964,4240.512717,4226.666563,4217.435794,4217.435794,4229.743486,4246.153742,4219.487076,4217.948615,4232.820409,4244.10246
30,0,4228.717845,4232.820409,4224.615281,4221.025538,4236.410153,4232.820409,4218.461435,4221.538358,4231.794768,4237.948614,4227.179384,4218.461435,4219.487076,4238.974255
31,0,4230.769127,4233.33323,4215.384512,4223.07682,4225.640922,4231.281948,4220.512717,4217.435794,4229.743486,4233.84605,4235.384512,4217.435794,4217.948615,4234.871691
32,0,4232.307589,4231.794768,4216.922974,4221.025538,4228.205025,4229.230666,4222.563999,4220.512717,4232.820409,4255.897332,4235.384512,4220.512717,4230.769127,4237.948614
33,0,4225.640922,4227.179384,4226.666563,4203.589641,4230.256307,4226.153743,4222.051179,4218.461435,4226.666563,4264.10246,4226.666563,4219.487076,4227.692204,4235.384512
34,0,4211.281948,4217.435794,4233.33323,4175.897334,4223.07682,4218.461435,4215.384512,4203.07682,4212.82041,4242.051178,4215.384512,4208.717846,4211.281948,4218.461435
35,0,4207.179384,4215.384512,4236.410153,4168.205026,4214.358871,4212.82041,4210.256307,4202.051179,4211.794769,4232.307589,4212.307589,4205.640923,4210.256307,4211.281948
36,0,4214.358871,4221.538358,4232.307589,4187.179385,4213.846051,4215.384512,4213.33323,4215.897333,4220.512717,4234.358871,4216.410153,4215.384512,4216.410153,4223.58964
37,0,4216.922974,4218.461435,4220.512717,4201.025538,4216.922974,4217.435794,4214.358871,4219.999897,4219.487076,4226.153743,4215.897333,4217.948615,4211.281948,4230.256307
38,0,4216.410153,4214.358871,4211.281948,4206.153743,4216.410153,4215.897333,4209.743487,4212.82041,4215.897333,4231.794768,4212.307589,4215.384512,4210.256307,4228.205025
39,0,4225.128102,4224.615281,4215.897333,4217.948615,4227.179384,4221.025538,4212.82041,4215.897333,4224.615281,4256.922973,4221.538358,4223.07682,4223.07682,4236.410153
40,0,4236.922973,4234.358871,4227.179384,4223.58964,4238.461435,4226.666563,4219.487076,4222.563999,4233.33323,4262.051178,4234.358871,4230.256307,4230.256307,4249.743486
41,0,4237.948614,4234.871691,4224.615281,4218.974256,4235.384512,4228.205025,4217.435794,4220.512717,4230.256307,4249.230665,4233.84605,4226.666563,4229.230666,4249.230665
42,0,4227.179384,4228.205025,4216.922974,4211.281948,4232.307589,4229.230666,4214.358871,4212.82041,4222.051179,4246.666563,4221.538358,4218.461435,4225.128102,4238.974255
43,0,4217.435794,4222.051179,4219.999897,4205.640923,4233.84605,4221.538358,4214.871692,4206.666564,4216.410153,4247.179383,4217.435794,4212.82041,4221.025538,4230.256307
44,0,4218.461435,4220.512717,4217.435794,4209.743487,4229.743486,4213.846051,4214.358871,4208.717846,4212.307589,4225.640922,4221.538358,4214.358871,4218.974256,4227.692204
45,0,4221.025538,4215.897333,4204.615282,4206.153743,4225.640922,4223.58964,4215.897333,4211.794769,4215.897333,4212.307589,4217.948615,4212.82041,4215.897333,4229.230666
46,0,4215.384512,4215.384512,4204.102461,4199.999897,4228.205025,4234.871691,4216.922974,4213.846051,4223.07682,4228.717845,4210.256307,4208.205025,4209.743487,4224.615281
47,0,4214.358871,4224.102461,4213.33323,4215.897333,4228.205025,4234.871691,4218.461435,4218.974256,4226.666563,4241.538358,4213.33323,4214.358871,4215.384512,4217.948615
48,0,4216.410153,4224.615281,4213.33323,4220.512717,4217.948615,4232.307589,4217.948615,4215.897333,4221.025538,4237.948614,4216.922974,4214.871692,4221.025538,4219.999897
49,0,4215.897333,4216.922974,4210.256307,4203.07682,4216.410153,4228.717845,4213.846051,4204.615282,4212.307589,4240.512717,4218.461435,4201.538359,4215.384512,4226.666563
50,0,4224.102461,4226.153743,4210.256307,4215.384512,4239.999896,4231.794768,4216.410153,4211.281948,4224.615281,4254.35887,4230.256307,4205.128102,4225.128102,4236.922973
51,0,4226.153743,4235.384512,4206.153743,4237.435794,4252.307588,4234.871691,4220.512717,4218.974256,4232.820409,4248.717845,4230.256307,4211.794769,4226.153743,4237.948614
52,0,4211.794769,4227.179384,4198.461436,4229.230666,4234.871691,4229.230666,4219.487076,4207.179384,4213.846051,4228.717845,4210.769128,4202.051179,4202.051179,4222.563999
53,0,4212.307589,4224.615281,4197.435795,4225.640922,4226.666563,4228.205025,4217.435794,4206.153743,4210.769128,4224.102461,4210.769128,4205.128102,4207.692205,4217.948615
54,0,4227.179384,4230.256307,4207.692205,4233.84605,4233.33323,4233.84605,4217.948615,4219.487076,4232.307589,4231.281948,4229.743486,4218.461435,4233.84605,4232.307589
55,0,4229.230666,4234.358871,4216.922974,4234.358871,4234.358871,4235.384512,4218.461435,4219.487076,4231.281948,4231.794768,4234.871691,4219.487076,4237.948614,4240.512717
56,0,4223.58964,4235.897332,4214.871692,4230.256307,4231.794768,4231.794768,4215.897333,4212.82041,4215.897333,4232.820409,4227.179384,4214.871692,4228.205025,4233.33323
57,0,4226.153743,4235.384512,4210.256307,4228.717845,4229.230666,4229.230666,4212.307589,4215.384512,4226.153743,4246.666563,4217.948615,4210.256307,4219.999897,4229.743486
58,0,4232.820409,4233.33323,4214.358871,4228.717845,4230.256307,4231.281948,4213.846051,4216.922974,4235.897332,4254.871691,4216.922974,4209.230666,4220.512717,4229.230666
59,0,4231.281948,4231.281948,4221.025538,4226.666563,4229.743486,4235.384512,4218.974256,4218.461435,4232.820409,4247.692204,4225.128102,4213.846051,4230.256307,4229.743486
60,0,4223.07682,4231.281948,4216.410153,4218.974256,4224.102461,4233.84605,4219.999897,4222.051179,4229.743486,4239.999896,4225.640922,4209.230666,4226.666563,4229.743486
61,0,4217.435794,4231.281948,4204.615282,4214.358871,4230.256307,4233.33323,4216.922974,4217.948615,4222.563999,4230.769127,4215.384512,4200.512718,4212.307589,4222.051179
62,0,4212.307589,4230.769127,4197.948615,4218.974256,4236.922973,4234.358871,4215.384512,4209.230666,4211.794769,4214.871692,4209.230666,4197.948615,4204.615282,4211.281948
63,0,4209.230666,4231.281948,4201.025538,4220.512717,4227.692204,4232.307589,4218.461435,4212.307589,4215.384512,4216.410153,4211.281948,4198.461436,4200.512718,4210.256307
64,0,4214.358871,4231.281948,4209.743487,4214.871692,4234.871691,4232.820409,4221.538358,4220.512717,4228.205025,4234.358871,4209.743487,4205.640923,4203.07682,4222.563999
65,0,4219.999897,4233.84605,4215.384512,4214.871692,4250.256306,4235.384512,4218.461435,4217.435794,4226.666563,4236.410153,4209.743487,4213.846051,4212.82041,4233.33323
66,0,4214.871692,4241.025537,4212.82041,4216.410153,4234.871691,4230.256307,4213.846051,4211.794769,4217.435794,4222.051179,4214.358871,4205.640923,4216.922974,4229.230666
67,0,4212.82041,4243.58964,4214.358871,4208.205025,4221.025538,4226.153743,4214.871692,4213.33323,4216.922974,4214.871692,4218.461435,4199.487077,4214.871692,4214.871692
68,0,4217.948615,4236.410153,4225.640922,4199.999897,4231.794768,4230.256307,4217.948615,4217.948615,4222.051179,4218.461435,4220.512717,4210.769128,4216.410153,4214.871692
69,0,4216.922974,4229.230666,4233.33323,4198.461436,4224.615281,4229.230666,4216.410153,4217.435794,4219.487076,4217.435794,4217.435794,4215.897333,4220.512717,4227.179384
70,0,4215.897333,4228.205025,4231.281948,4196.410154,4209.230666,4228.205025,4215.897333,4213.846051,4213.846051,4212.307589,4214.358871,4211.794769,4213.33323,4224.102461
71,0,4217.435794,4229.743486,4225.128102,4197.435795,4222.051179,4229.230666,4217.435794,4214.358871,4215.897333,4219.999897,4214.358871,4213.846051,4204.615282,4212.82041
72,0,4213.33323,4229.230666,4217.435794,4201.025538,4229.743486,4222.563999,4215.897333,4216.410153,4219.999897,4238.461435,4214.871692,4214.358871,4212.307589,4213.846051
73,0,4215.384512,4226.666563,4214.871692,4201.025538,4216.922974,4218.461435,4212.82041,4214.358871,4215.897333,4228.205025,4210.256307,4209.230666,4216.922974,4219.487076
74,0,4223.58964,4228.205025,4218.461435,4207.692205,4211.281948,4227.692204,4215.897333,4214.871692,4213.33323,4196.922974,4209.230666,4213.846051,4213.846051,4225.128102
75,0,4222.563999,4232.820409,4219.999897,4219.487076,4211.281948,4232.820409,4219.999897,4218.461435,4224.615281,4208.205025,4221.025538,4221.538358,4223.07682,4232.820409
76,0,4218.461435,4234.358871,4216.922974,4222.051179,4215.384512,4226.666563,4217.435794,4216.922974,4228.717845,4239.999896,4234.358871,4216.922974,4233.33323,4236.410153
77,0,4230.769127,4241.025537,4215.897333,4219.999897,4233.33323,4232.307589,4216.922974,4220.512717,4224.102461,4232.307589,4238.974255,4218.461435,4232.307589,4242.051178
78,0,4244.10246,4246.666563,4215.897333,4218.461435,4246.153742,4242.563999,4219.999897,4229.743486,4225.128102,4220.512717,4231.794768,4231.281948,4226.666563,4244.615281
79,0,4238.461435,4243.076819,4213.846051,4222.051179,4229.230666,4237.435794,4219.999897,4228.717845,4224.102461,4230.769127,4225.128102,4233.84605,4219.999897,4241.025537
80,0,4231.794768,4241.538358,4213.33323,4232.820409,4210.256307,4229.743486,4218.974256,4224.615281,4220.512717,4224.102461,4228.205025,4227.692204,4218.974256,4244.10246
81,0,4241.538358,4247.179383,4216.410153,4228.717845,4221.538358,4233.33323,4220.512717,4227.692204,4222.563999,4214.871692,4234.871691,4228.205025,4234.358871,4250.256306
82,0,4247.179383,4249.230665,4223.07682,4216.922974,4234.871691,4237.435794,4222.051179,4229.230666,4226.153743,4227.179384,4239.487076,4234.358871,4246.666563,4250.256306
83,0,4232.820409,4242.051178,4228.717845,4214.871692,4222.051179,4231.281948,4219.487076,4225.128102,4225.640922,4218.461435,4234.358871,4233.33323,4233.84605,4246.666563
