title:JTA                                                                             , recorded:03.07.20 14.02.46, sampling:128, subject:JTA                                                                             , labels:COUNTER INTERPOLATED AF3 F7 F3 FC5 T7 P7 O1 O2 P8 T8 FC6 F4 F8 AF4,, units:emotiv,,,,,,,,,
13,0,4125.640925,4141.53836,4151.79477,4156.922975,4151.28195,4166.153744,4139.487078,4139.999899,4183.589641,4164.102462,4198.974256,4134.871694,4157.435796,4150.256309
14,0,4119.999899,4130.76913,4148.717847,4148.205027,4170.256308,4175.897334,4145.640924,4144.102463,4185.128103,4172.30759,4192.30759,4137.435796,4151.28195,4146.666565
15,0,4115.384515,4125.128104,4136.410155,4153.333232,4177.948616,4176.410154,4145.128104,4141.53836,4185.128103,4172.30759,4187.692205,4148.205027,4149.743488,4142.051181
16,0,4122.564002,4125.640925,4149.743488,4139.487078,4154.871693,4168.717847,4137.948617,4136.922976,4184.102462,4169.743488,4199.999897,4145.640924,4167.692206,4155.384514
17,0,4113.846053,4115.384515,4180.512718,4119.487079,4149.230668,4165.128103,4138.974258,4136.410155,4182.564,4164.615283,4202.564,4132.820412,4176.922975,4165.640924
18,0,4097.948618,4107.692207,4183.589641,4115.384515,4167.692206,4167.692206,4144.615283,4138.461437,4182.564,4174.358872,4185.128103,4134.871694,4164.102462,4144.102463
19,0,4093.846054,4109.230669,4171.281949,4113.333233,4171.79477,4169.230667,4144.102463,4142.051181,4184.102462,4186.666564,4173.846052,4146.153745,4146.666565,4110.25631
20,0,4092.307592,4105.128105,4174.871693,4120.51272,4147.179386,4166.666565,4137.435796,4141.53836,4183.076821,4177.948616,4183.076821,4141.02554,4155.384514,4122.051181
21,0,4094.871695,4105.640925,4176.922975,4139.487078,4133.846053,4164.615283,4138.974258,4138.461437,4183.076821,4172.30759,4203.07682,4127.692207,4175.384513,4169.230667
22,0,4102.564002,4118.974258,4168.717847,4136.922976,4157.435796,4168.717847,4151.28195,4141.02554,4184.615282,4174.871693,4205.640923,4129.230668,4167.692206,4173.846052
23,0,4105.128105,4120.51272,4163.589642,4126.153745,4177.435795,4170.769129,4150.256309,4142.564001,4180.512718,4170.256308,4191.794769,4136.410155,4150.256309,4145.128104
24,0,4109.743489,4117.435797,4154.871693,4147.179386,4174.358872,4172.30759,4144.102463,4140.512719,4177.948616,4175.897334,4192.82041,4136.410155,4158.974257,4139.487078
25,0,4112.820412,4120.51272,4158.461437,4144.102463,4171.79477,4172.820411,4149.743488,4139.487078,4182.05118,4187.692205,4194.358872,4135.897335,4170.256308,4144.102463
26,0,4111.794771,4122.051181,4177.435795,4117.435797,4177.948616,4174.358872,4154.871693,4143.589642,4183.589641,4185.128103,4181.538359,4140.512719,4159.487078,4148.205027
27,0,4106.666566,4122.051181,4182.05118,4124.615284,4171.281949,4178.461436,4153.846052,4150.256309,4183.589641,4179.999898,4181.538359,4138.974258,4151.28195,4155.384514
28,0,4095.897336,4119.999899,4169.743488,4133.333232,4152.820411,4177.948616,4155.384514,4154.871693,4186.666564,4176.922975,4199.999897,4136.410155,4163.076821,4154.358873
29,0,4095.384515,4110.25631,4156.922975,4125.640925,4150.256309,4170.769129,4156.410155,4153.846052,4184.615282,4165.128103,4201.538359,4137.948617,4175.384513,4150.769129
30,0,4105.640925,4105.128105,4145.128104,4134.871694,4156.410155,4167.179385,4152.820411,4156.922975,4185.128103,4168.205026,4189.230667,4138.461437,4167.179385,4155.384514
31,0,4113.333233,4107.692207,4137.948617,4140.512719,4154.871693,4169.743488,4151.28195,4156.922975,4190.769128,4190.769128,4187.692205,4136.922976,4155.384514,4159.487078
32,0,4109.743489,4106.153746,4138.461437,4125.640925,4156.410155,4167.692206,4145.128104,4145.128104,4182.05118,4188.205026,4188.205026,4130.256309,4154.358873,4150.256309
33,0,4106.153746,4114.358874,4144.102463,4121.538361,4170.256308,4165.640924,4141.02554,4139.999899,4171.79477,4170.769129,4188.717846,4124.102463,4154.358873,4142.051181
34,0,4107.179387,4122.564002,4160.512719,4126.153745,4174.358872,4167.179385,4144.102463,4144.615283,4174.358872,4179.999898,4185.128103,4128.717848,4152.820411,4145.640924
35,0,4103.589643,4111.281951,4165.640924,4128.205027,4165.128103,4167.692206,4142.564001,4142.051181,4175.384513,4193.333231,4173.333231,4136.410155,4145.640924,4135.897335
36,0,4106.153746,4109.743489,4164.102462,4119.999899,4167.179385,4169.743488,4139.999899,4139.487078,4171.79477,4179.487077,4175.897334,4137.435796,4144.102463,4124.102463
37,0,4108.717848,4119.487079,4184.102462,4098.974259,4174.871693,4171.79477,4142.051181,4144.102463,4171.79477,4166.153744,4187.692205,4137.948617,4161.53836,4141.02554
38,0,4093.846054,4112.307592,4191.794769,4107.692207,4167.179385,4165.128103,4138.974258,4141.02554,4172.820411,4166.153744,4185.128103,4135.897335,4167.692206,4156.410155
39,0,4094.871695,4104.102464,4183.589641,4126.153745,4156.410155,4160.512719,4136.410155,4138.461437,4175.384513,4171.281949,4191.281949,4131.794771,4163.076821,4160.512719
40,0,4121.538361,4115.384515,4195.384513,4108.205028,4159.487078,4169.743488,4141.53836,4148.205027,4182.564,4183.076821,4202.051179,4131.28195,4166.153744,4176.410154
41,0,4123.589643,4124.102463,4203.07682,4094.358874,4152.820411,4169.743488,4141.02554,4150.769129,4185.128103,4189.230667,4180.512718,4129.230668,4155.897334,4164.615283
42,0,4104.615284,4123.589643,4188.205026,4108.205028,4135.384514,4157.435796,4133.846053,4138.974258,4179.999898,4185.640923,4168.205026,4123.589643,4144.102463,4129.743489
43,0,4108.205028,4122.564002,4184.102462,4107.692207,4149.743488,4161.53836,4135.384514,4134.871694,4174.871693,4174.358872,4189.743487,4117.948617,4150.256309,4141.53836
44,0,4112.820412,4119.999899,4210.769128,4086.666567,4173.846052,4172.820411,4137.948617,4137.948617,4169.743488,4163.076821,4186.666564,4117.435797,4146.153745,4161.53836
45,0,4102.051182,4121.02554,4230.256307,4071.281952,4168.717847,4169.743488,4133.333232,4136.410155,4167.692206,4171.281949,4167.179385,4128.205027,4139.487078,4144.102463
46,0,4109.230669,4121.02554,4215.384512,4078.974259,4165.640924,4166.666565,4141.53836,4144.102463,4175.384513,4186.666564,4180.512718,4139.487078,4156.410155,4142.564001
47,0,4122.051181,4119.999899,4182.05118,4109.230669,4175.384513,4173.846052,4154.871693,4154.871693,4182.564,4186.666564,4198.461436,4138.461437,4161.53836,4158.974257
48,0,4123.589643,4121.02554,4163.589642,4127.179386,4169.230667,4176.922975,4148.205027,4152.820411,4176.410154,4182.564,4191.281949,4134.871694,4149.230668,4154.358873
49,0,4119.487079,4126.153745,4174.871693,4123.589643,4160.512719,4172.820411,4138.974258,4151.28195,4167.692206,4177.948616,4184.615282,4138.461437,4154.358873,4149.743488
50,0,4112.820412,4126.666566,4174.871693,4134.358873,4161.53836,4168.205026,4146.666565,4154.871693,4174.871693,4176.922975,4186.153744,4143.076822,4158.974257,4154.871693
51,0,4122.051181,4123.589643,4146.153745,4158.461437,4156.922975,4167.179385,4154.871693,4154.871693,4185.128103,4192.30759,4190.256308,4145.640924,4153.846052,4156.922975
52,0,4142.051181,4130.76913,4133.333232,4162.05118,4165.128103,4175.897334,4152.820411,4159.487078,4184.615282,4204.615282,4199.487077,4142.564001,4158.461437,4173.846052
53,0,4136.410155,4138.461437,4155.384514,4148.205027,4187.692205,4183.076821,4151.79477,4168.717847,4185.640923,4193.333231,4204.102461,4135.897335,4170.256308,4187.692205
54,0,4107.179387,4130.76913,4165.640924,4138.974258,4185.640923,4177.435795,4152.820411,4162.564001,4184.102462,4169.230667,4183.589641,4134.871694,4157.948616,4165.640924
55,0,4097.948618,4122.564002,4144.615283,4135.897335,4166.153744,4169.743488,4149.743488,4150.256309,4175.897334,4152.307591,4160.512719,4137.435796,4122.564002,4131.28195
56,0,4115.897335,4124.615284,4136.410155,4139.487078,4165.640924,4170.256308,4145.640924,4151.28195,4170.769129,4155.897334,4170.256308,4139.487078,4119.487079,4131.28195
57,0,4119.999899,4121.02554,4151.79477,4147.692206,4164.102462,4171.281949,4144.102463,4156.410155,4170.769129,4166.666565,4187.692205,4137.948617,4147.692206,4161.025539
58,0,4107.179387,4122.564002,4159.487078,4151.79477,4150.256309,4169.743488,4146.153745,4153.333232,4174.358872,4169.230667,4189.230667,4133.846053,4157.948616,4172.820411
59,0,4110.25631,4133.333232,4149.230668,4155.384514,4162.564001,4174.358872,4151.79477,4154.358873,4182.564,4176.410154,4193.333231,4137.948617,4150.769129,4155.384514
60,0,4124.615284,4136.410155,4137.948617,4166.153744,4182.05118,4179.999898,4153.333232,4162.05118,4186.153744,4180.512718,4202.564,4142.051181,4152.307591,4149.230668
61,0,4135.384514,4144.102463,4139.999899,4176.922975,4173.333231,4185.640923,4155.384514,4167.692206,4184.102462,4171.79477,4201.025538,4138.974258,4161.025539,4169.743488
62,0,4134.358873,4153.333232,4142.051181,4170.256308,4163.589642,4185.128103,4158.461437,4168.205026,4187.179385,4171.281949,4194.871692,4145.640924,4159.487078,4172.820411
63,0,4115.897335,4143.076822,4137.948617,4159.999898,4170.256308,4172.820411,4151.28195,4161.53836,4185.640923,4163.589642,4185.128103,4153.333232,4144.102463,4150.256309
64,0,4106.153746,4132.820412,4134.871694,4160.512719,4173.846052,4167.179385,4143.589642,4155.897334,4176.922975,4155.384514,4175.897334,4141.53836,4133.846053,4148.205027
65,0,4124.102463,4139.999899,4134.358873,4151.79477,4171.79477,4171.79477,4149.230668,4153.333232,4171.79477,4169.230667,4167.692206,4130.256309,4137.435796,4156.922975
66,0,4127.692207,4137.948617,4142.564001,4143.076822,4169.743488,4170.769129,4152.820411,4152.820411,4173.333231,4167.692206,4165.640924,4135.897335,4139.487078,4151.28195
67,0,4110.25631,4135.384514,4164.102462,4150.256309,4165.640924,4170.769129,4153.333232,4158.461437,4177.948616,4155.897334,4187.179385,4144.102463,4141.53836,4154.358873
68,0,4118.461438,4146.153745,4181.025539,4148.717847,4169.743488,4182.564,4162.05118,4169.230667,4183.076821,4174.358872,4212.82041,4154.358873,4153.846052,4169.743488
69,0,4133.333232,4137.948617,4173.846052,4133.846053,4167.692206,4184.615282,4166.153744,4174.871693,4186.153744,4184.102462,4209.230666,4155.897334,4162.05118,4174.358872
70,0,4119.999899,4122.564002,4157.948616,4138.974258,4155.897334,4170.769129,4152.820411,4165.640924,4179.999898,4151.28195,4190.769128,4134.871694,4154.358873,4169.743488
71,0,4107.692207,4129.230668,4147.179386,4155.384514,4150.769129,4163.076821,4144.615283,4152.820411,4171.281949,4140.512719,4181.538359,4125.128104,4144.102463,4163.076821
72,0,4123.076822,4138.461437,4136.922976,4158.974257,4151.28195,4168.205026,4149.230668,4156.410155,4175.897334,4176.922975,4185.128103,4137.435796,4143.076822,4155.897334
73,0,4129.230668,4134.358873,4136.410155,4162.05118,4163.589642,4174.871693,4154.358873,4168.205026,4184.615282,4194.358872,4191.794769,4140.512719,4152.307591,4157.948616
74,0,4110.25631,4133.333232,4160.512719,4148.205027,4181.025539,4175.384513,4153.333232,4167.692206,4182.564,4176.410154,4188.205026,4142.564001,4148.205027,4150.769129
75,0,4105.128105,4136.410155,4180.512718,4123.589643,4180.512718,4172.820411,4155.897334,4163.076821,4182.564,4170.256308,4182.564,4155.897334,4140.512719,4147.179386
76,0,4122.051181,4136.922976,4154.871693,4141.53836,4166.153744,4170.256308,4158.461437,4169.230667,4187.692205,4178.974257,4188.205026,4151.28195,4150.256309,4163.589642
77,0,4133.333232,4142.051181,4128.205027,4184.102462,4165.128103,4169.230667,4154.358873,4170.769129,4185.128103,4172.30759,4186.666564,4138.974258,4153.333232,4154.358873
78,0,4128.717848,4147.179386,4156.922975,4182.05118,4174.871693,4173.333231,4158.461437,4167.692206,4183.076821,4171.281949,4182.564,4151.28195,4142.051181,4145.128104
79,0,4108.717848,4133.333232,4169.743488,4150.769129,4172.30759,4175.897334,4165.640924,4171.281949,4187.692205,4187.179385,4191.281949,4156.410155,4135.384514,4162.564001
80,0,4099.9999,4114.871694,4131.28195,4145.128104,4162.564001,4172.820411,4159.999898,4171.79477,4188.717846,4189.230667,4199.487077,4138.974258,4141.53836,4163.076821
81,0,4128.205027,4131.28195,4124.615284,4162.05118,4156.410155,4170.256308,4153.846052,4168.717847,4184.102462,4167.179385,4200.512718,4133.846053,4150.769129,4150.256309
82,0,4149.743488,4159.487078,4162.05118,4172.30759,4154.358873,4168.717847,4156.922975,4169.743488,4182.05118,4148.205027,4199.487077,4144.102463,4145.640924,4148.717847
83,0,4126.666566,4152.820411,4174.358872,4161.025539,4158.974257,4167.692206,4158.461437,4167.179385,4181.538359,4159.487078,4189.230667,4138.974258,4130.76913,4144.102463
84,0,4105.128105,4135.897335,4148.717847,4149.743488,4172.820411,4169.230667,4153.333232,4157.948616,4176.410154,4174.358872,4173.846052,4122.564002,4126.153745,4141.53836
85,0,4103.589643,4137.435796,4121.02554,4156.922975,4173.333231,4166.153744,4150.769129,4151.79477,4169.743488,4151.79477,4168.717847,4115.384515,4127.179386,4140.512719
86,0,4099.9999,4138.974258,4128.717848,4155.384514,4159.487078,4156.922975,4151.28195,4151.28195,4169.230667,4134.871694,4164.615283,4118.461438,4115.897335,4117.948617
87,0,4098.974259,4135.384514,4153.333232,4149.230668,4165.640924,4158.461437,4153.333232,4152.307591,4172.820411,4163.076821,4155.384514,4124.102463,4105.640925,4118.461438
88,0,4108.717848,4139.487078,4139.999899,4158.974257,4170.256308,4166.666565,4152.307591,4153.333232,4171.281949,4179.999898,4164.615283,4123.076822,4110.25631,4137.948617
89,0,4109.743489,4138.974258,4119.999899,4146.666565,4152.820411,4163.589642,4145.640924,4153.333232,4169.230667,4156.410155,4186.153744,4118.974258,4121.538361,4128.717848
90,0,4095.384515,4132.307591,4139.999899,4127.179386,4155.897334,4159.999898,4147.179386,4153.333232,4175.384513,4146.666565,4190.256308,4130.76913,4130.76913,4119.487079
91,0,4086.153746,4126.666566,4145.640924,4152.307591,4169.743488,4167.179385,4152.820411,4155.897334,4181.025539,4165.128103,4178.461436,4141.02554,4127.692207,4126.666566
92,0,4095.897336,4125.128104,4125.128104,4175.897334,4153.846052,4168.205026,4152.307591,4155.897334,4175.897334,4170.769129,4182.564,4126.153745,4124.615284,4137.435796
93,0,4114.358874,4129.230668,4128.205027,4161.025539,4144.102463,4161.025539,4150.256309,4154.871693,4171.281949,4156.922975,4189.743487,4117.948617,4126.666566,4135.384514
94,0,4111.281951,4128.717848,4138.461437,4139.999899,4157.948616,4160.512719,4150.769129,4153.846052,4172.820411,4151.79477,4163.589642,4124.615284,4114.358874,4121.538361
95,0,4088.205028,4123.589643,4138.461437,4143.589642,4158.461437,4166.153744,4151.28195,4151.79477,4171.281949,4155.384514,4151.79477,4119.999899,4110.25631,4120.51272
96,0,4089.74349,4130.76913,4152.820411,4157.948616,4157.948616,4169.230667,4154.358873,4154.871693,4169.743488,4154.358873,4178.461436,4120.51272,4126.666566,4126.666566
97,0,4110.25631,4142.564001,4157.435796,4150.769129,4167.179385,4166.666565,4154.358873,4154.871693,4169.743488,4148.717847,4180.512718,4127.692207,4121.02554,4114.871694
98,0,4112.820412,4140.512719,4152.307591,4128.205027,4158.974257,4157.948616,4143.589642,4147.692206,4167.179385,4138.974258,4157.948616,4113.333233,4099.487079,4109.743489
99,0,4102.564002,4133.333232,4166.153744,4127.692207,4147.179386,4153.333232,4141.53836,4147.179386,4168.717847,4135.897335,4168.717847,4098.974259,4111.794771,4132.820412
100,0,4112.307592,4133.846053,4171.281949,4145.128104,4152.820411,4160.512719,4152.307591,4154.358873,4172.30759,4145.128104,4186.666564,4111.794771,4125.128104,4144.615283
101,0,4126.153745,4137.948617,4160.512719,4140.512719,4158.461437,4168.205026,4156.410155,4156.922975,4172.30759,4155.384514,4173.333231,4125.640925,4114.358874,4134.358873
102,0,4116.410156,4139.999899,4167.179385,4126.666566,4153.846052,4167.179385,4153.333232,4156.922975,4172.30759,4166.666565,4164.102462,4124.102463,4114.358874,4123.076822
103,0,4109.230669,4140.512719,4173.333231,4130.76913,4147.179386,4158.974257,4152.307591,4156.922975,4171.79477,4170.256308,4172.820411,4121.538361,4127.692207,4127.179386
104,0,4109.743489,4133.333232,4161.53836,4142.051181,4146.666565,4155.897334,4152.307591,4156.922975,4170.256308,4156.922975,4173.333231,4124.102463,4125.128104,4131.794771
105,0,4096.922977,4122.051181,4148.205027,4146.153745,4152.820411,4162.564001,4151.28195,4155.384514,4170.256308,4150.256309,4164.615283,4124.102463,4113.846053,4116.410156
106,0,4096.410156,4123.589643,4137.435796,4148.717847,4159.487078,4164.102462,4151.28195,4155.384514,4171.281949,4166.666565,4169.230667,4124.615284,4117.948617,4107.692207
107,0,4109.230669,4137.948617,4135.897335,4157.948616,4162.05118,4159.487078,4153.333232,4157.435796,4171.79477,4171.79477,4187.179385,4133.846053,4136.922976,4132.307591
108,0,4110.76913,4138.461437,4142.564001,4148.717847,4159.999898,4156.922975,4155.897334,4158.974257,4171.79477,4151.28195,4189.230667,4136.922976,4152.307591,4157.948616
109,0,4112.820412,4124.615284,4141.02554,4126.153745,4152.820411,4153.846052,4149.743488,4152.820411,4169.743488,4144.102463,4168.205026,4132.820412,4134.358873,4141.02554
110,0,4119.999899,4123.589643,4138.974258,4125.640925,4145.128104,4150.256309,4139.999899,4147.692206,4167.692206,4164.615283,4165.128103,4133.333232,4113.846053,4121.02554
111,0,4113.846053,4124.615284,4144.102463,4133.333232,4146.666565,4150.769129,4138.974258,4150.769129,4170.256308,4175.384513,4185.640923,4126.666566,4129.230668,4145.128104
112,0,4100.51272,4113.846053,4141.53836,4141.02554,4155.384514,4151.79477,4143.589642,4153.846052,4170.769129,4158.461437,4178.974257,4113.846053,4143.076822,4166.153744
113,0,4102.051182,4116.922976,4134.871694,4163.589642,4160.512719,4152.820411,4145.640924,4151.79477,4166.666565,4151.79477,4156.410155,4123.589643,4125.640925,4136.922976
114,0,4105.128105,4131.28195,4137.435796,4172.30759,4149.230668,4154.871693,4142.564001,4149.230668,4165.128103,4155.384514,4166.666565,4136.410155,4112.820412,4110.25631
115,0,4104.615284,4132.307591,4141.53836,4152.820411,4145.128104,4154.358873,4143.589642,4151.28195,4167.692206,4154.358873,4189.743487,4123.589643,4128.717848,4129.230668
116,0,4111.281951,4123.589643,4133.846053,4146.666565,4164.102462,4155.384514,4150.256309,4155.897334,4171.79477,4158.461437,4188.205026,4117.435797,4137.948617,4144.615283
117,0,4121.538361,4122.564002,4117.948617,4162.05118,4173.333231,4155.897334,4152.820411,4155.897334,4171.79477,4158.974257,4176.410154,4124.102463,4127.179386,4137.435796
118,0,4118.461438,4126.666566,4115.384515,4162.564001,4159.487078,4153.333232,4151.28195,4153.333232,4166.666565,4156.410155,4170.769129,4121.538361,4117.948617,4134.358873
119,0,4106.666566,4126.153745,4129.743489,4147.179386,4149.743488,4151.28195,4154.358873,4152.307591,4164.615283,4157.948616,4168.717847,4116.922976,4129.230668,4136.922976
120,0,4104.615284,4123.589643,4137.435796,4136.922976,4150.769129,4150.769129,4149.743488,4151.79477,4168.205026,4157.435796,4168.205026,4116.922976,4135.384514,4136.922976
121,0,4105.640925,4124.102463,4137.435796,4141.53836,4143.589642,4150.769129,4143.589642,4152.307591,4169.743488,4148.205027,4169.743488,4118.461438,4123.589643,4135.897335
122,0,4113.333233,4129.230668,4131.28195,4154.358873,4142.051181,4152.307591,4152.307591,4155.384514,4168.717847,4153.333232,4181.025539,4122.051181,4125.640925,4136.410155
123,0,4122.564002,4125.640925,4131.794771,4154.871693,4141.02554,4150.769129,4152.820411,4154.358873,4166.666565,4170.256308,4184.102462,4122.564002,4133.846053,4133.333232
124,0,4121.538361,4117.435797,4150.769129,4147.692206,4139.487078,4148.205027,4143.589642,4151.28195,4165.128103,4169.230667,4173.333231,4124.102463,4128.205027,4135.897335
125,0,4123.589643,4128.717848,4170.256308,4148.717847,4163.589642,4154.358873,4148.205027,4155.897334,4169.230667,4166.153744,4183.589641,4136.922976,4135.897335,4153.333232
126,0,4124.102463,4138.974258,4174.871693,4139.487078,4173.333231,4155.384514,4149.230668,4155.897334,4171.79477,4173.846052,4188.717846,4143.076822,4149.230668,4155.897334
127,0,4123.589643,4134.358873,4171.281949,4128.205027,4153.333232,4149.743488,4144.102463,4156.410155,4168.717847,4176.922975,4174.358872,4145.128104,4137.948617,4141.02554
128,0,4144.615283,4142.564001,4156.922975,4157.435796,4159.487078,4161.53836,4152.820411,4168.205026,4169.230667,4173.333231,4185.640923,4151.79477,4139.999899,4158.461437
0,0,4157.948616,4155.897334,4146.153745,4191.794769,4172.30759,4169.230667,4160.512719,4171.281949,4172.820411,4169.230667,4201.538359,4145.640924,4152.820411,4189.743487
1,0,4136.410155,4145.640924,4168.205026,4164.615283,4156.922975,4155.897334,4152.820411,4160.512719,4171.281949,4163.589642,4182.564,4133.846053,4142.564001,4180.512718
2,0,4127.179386,4132.820412,4185.640923,4129.230668,4155.897334,4155.897334,4151.79477,4162.05118,4171.281949,4173.333231,4177.435795,4136.410155,4141.53836,4160.512719
3,0,4144.615283,4137.435796,4171.79477,4138.461437,4163.589642,4167.179385,4156.922975,4173.846052,4176.922975,4197.435795,4203.07682,4147.692206,4157.948616,4167.692206
4,0,4155.384514,4142.051181,4170.256308,4144.102463,4149.743488,4163.076821,4154.871693,4171.79477,4176.922975,4192.82041,4211.281948,4157.435796,4159.487078,4168.717847
5,0,4141.53836,4142.051181,4177.435795,4142.051181,4153.333232,4158.461437,4154.358873,4166.666565,4171.281949,4170.256308,4193.846051,4157.435796,4149.743488,4158.461437
6,0,4121.538361,4142.564001,4168.717847,4158.461437,4169.743488,4161.53836,4155.384514,4168.717847,4171.281949,4169.743488,4181.538359,4141.53836,4153.846052,4164.102462
7,0,4125.640925,4138.974258,4174.871693,4149.743488,4159.487078,4156.410155,4152.307591,4167.692206,4172.30759,4172.30759,4183.589641,4131.28195,4150.256309,4173.333231
8,0,4143.589642,4136.922976,4194.871692,4126.666566,4148.205027,4152.820411,4150.769129,4161.025539,4169.743488,4165.640924,4182.05118,4138.974258,4145.640924,4175.897334
9,0,4142.051181,4137.948617,4179.487077,4136.410155,4153.333232,4155.384514,4151.79477,4154.871693,4167.692206,4172.820411,4172.30759,4134.871694,4150.769129,4170.256308
10,0,4129.230668,4135.384514,4158.974257,4134.358873,4155.384514,4151.28195,4147.179386,4152.307591,4167.692206,4188.205026,4178.974257,4118.974258,4146.153745,4157.435796
11,0,4125.640925,4133.846053,4171.281949,4121.02554,4156.922975,4151.28195,4145.128104,4155.384514,4169.743488,4186.666564,4195.384513,4122.051181,4137.435796,4149.743488
12,0,4126.153745,4138.974258,4170.256308,4141.53836,4148.205027,4157.435796,4151.79477,4158.974257,4171.79477,4173.846052,4192.30759,4137.948617,4138.974258,4158.461437
13,0,4125.640925,4131.28195,4147.692206,4140.512719,4138.461437,4156.922975,4153.333232,4155.897334,4170.769129,4168.205026,4181.538359,4139.487078,4143.076822,4156.922975
14,0,4121.538361,4124.102463,4152.820411,4118.974258,4157.435796,4154.358873,4151.28195,4154.358873,4170.256308,4170.256308,4183.076821,4136.410155,4134.358873,4136.410155
15,0,4123.589643,4145.128104,4164.102462,4152.820411,4171.79477,4157.435796,4152.307591,4160.512719,4172.820411,4172.820411,4186.666564,4143.076822,4121.538361,4139.999899
16,0,4138.461437,4164.102462,4149.230668,4195.384513,4157.435796,4159.487078,4152.820411,4162.05118,4172.820411,4172.30759,4188.205026,4142.051181,4121.02554,4167.692206
17,0,4146.153745,4156.410155,4154.358873,4168.717847,4152.820411,4155.384514,4151.79477,4155.384514,4168.717847,4169.743488,4190.769128,4128.205027,4125.128104,4178.461436
18,0,4136.410155,4143.589642,4181.538359,4120.51272,4161.53836,4152.307591,4148.205027,4152.307591,4165.640924,4169.230667,4180.512718,4119.999899,4115.897335,4159.999898
19,0,4127.179386,4139.999899,4166.153744,4123.076822,4154.358873,4152.307591,4142.564001,4152.307591,4166.153744,4165.128103,4167.692206,4123.589643,4105.128105,4139.999899
20,0,4124.615284,4139.999899,4131.28195,4148.205027,4146.153745,4153.333232,4139.999899,4152.820411,4167.692206,4159.487078,4169.230667,4125.128104,4105.640925,4136.922976
21,0,4124.102463,4141.53836,4143.076822,4148.717847,4154.358873,4155.384514,4141.53836,4152.820411,4167.179385,4152.307591,4169.743488,4120.51272,4094.358874,4139.999899
22,0,4128.717848,4138.974258,4155.897334,4140.512719,4156.410155,4155.897334,4142.051181,4153.333232,4167.179385,4149.230668,4171.281949,4119.487079,4083.076823,4139.999899
23,0,4128.717848,4138.974258,4132.820412,4156.410155,4145.640924,4154.871693,4142.564001,4155.897334,4169.230667,4159.487078,4176.410154,4122.051181,4088.717849,4138.974258
24,0,4122.051181,4145.640924,4134.358873,4161.53836,4143.589642,4155.384514,4143.076822,4155.897334,4167.179385,4178.974257,4170.769129,4120.51272,4090.25631,4140.512719
25,0,4117.435797,4144.102463,4157.948616,4145.640924,4148.205027,4152.820411,4138.974258,4150.256309,4157.435796,4174.358872,4169.743488,4116.410156,4094.358874,4142.051181
26,0,4127.179386,4138.974258,4161.025539,4148.205027,4144.102463,4151.28195,4141.02554,4148.717847,4155.384514,4154.871693,4174.358872,4119.487079,4106.153746,4138.461437
27,0,4138.974258,4138.974258,4162.564001,4149.743488,4147.179386,4154.358873,4144.615283,4155.384514,4163.076821,4163.076821,4159.999898,4132.307591,4095.384515,4123.076822
28,0,4123.076822,4136.410155,4168.717847,4131.794771,4164.102462,4155.897334,4142.051181,4151.79477,4160.512719,4160.512719,4154.358873,4129.230668,4073.846054,4116.922976
29,0,4095.384515,4131.28195,4154.871693,4135.897335,4162.564001,4153.846052,4136.922976,4137.435796,4151.79477,4123.589643,4171.79477,4106.666566,4074.871695,4137.435796
30,0,4097.948618,4135.384514,4145.128104,4151.28195,4148.205027,4151.28195,4135.384514,4135.384514,4153.333232,4119.487079,4172.820411,4100.51272,4079.48708,4145.128104
31,0,4112.820412,4135.384514,4161.025539,4125.128104,4138.974258,4144.615283,4129.743489,4143.076822,4154.871693,4137.435796,4165.128103,4109.230669,4073.846054,4123.076822
32,0,4098.461438,4118.974258,4159.999898,4104.102464,4127.179386,4141.53836,4123.076822,4138.461437,4151.28195,4127.692207,4163.589642,4102.564002,4075.384516,4107.179387
33,0,4094.358874,4121.538361,4132.820412,4142.051181,4131.28195,4149.743488,4130.256309,4133.846053,4152.307591,4120.51272,4158.461437,4108.717848,4080.512721,4102.051182
34,0,4119.999899,4143.076822,4122.564002,4172.820411,4143.076822,4157.948616,4140.512719,4146.153745,4157.435796,4134.871694,4164.102462,4135.897335,4077.435798,4107.179387
35,0,4119.999899,4140.512719,4131.794771,4160.512719,4134.358873,4155.897334,4137.948617,4148.205027,4156.922975,4134.871694,4176.922975,4129.743489,4078.461439,4137.948617
36,0,4107.692207,4128.205027,4137.435796,4145.640924,4137.435796,4147.179386,4133.333232,4136.410155,4154.871693,4124.102463,4177.948616,4099.9999,4087.692208,4162.05118
37,0,4116.922976,4131.28195,4143.589642,4135.897335,4154.871693,4143.076822,4135.897335,4134.871694,4152.820411,4121.538361,4164.615283,4099.9999,4086.153746,4145.640924
38,0,4115.897335,4131.794771,4145.128104,4132.307591,4146.153745,4144.102463,4134.871694,4141.53836,4153.846052,4120.51272,4160.512719,4121.02554,4077.435798,4123.589643
39,0,4104.615284,4126.153745,4133.846053,4142.564001,4129.743489,4140.512719,4125.128104,4139.487078,4156.410155,4128.205027,4165.640924,4123.589643,4078.974259,4120.51272
40,0,4102.051182,4123.076822,4143.589642,4123.076822,4132.307591,4134.871694,4119.487079,4131.794771,4153.846052,4146.666565,4147.692206,4110.25631,4070.256311,4113.846053
41,0,4092.820413,4118.974258,4163.589642,4094.871695,4128.205027,4136.410155,4119.487079,4131.794771,4153.846052,4152.307591,4135.897335,4104.615284,4056.922978,4105.128105
42,0,4091.281951,4121.538361,4145.128104,4115.897335,4119.999899,4137.435796,4119.487079,4134.358873,4153.333232,4128.205027,4164.615283,4108.717848,4074.871695,4107.179387
43,0,4108.717848,4125.128104,4119.487079,4145.640924,4121.02554,4135.384514,4118.974258,4129.743489,4145.640924,4098.974259,4180.512718,4109.230669,4092.307592,4113.333233
44,0,4114.358874,4122.564002,4117.948617,4149.230668,4123.589643,4136.922976,4121.02554,4128.205027,4145.128104,4108.205028,4166.153744,4105.128105,4082.564003,4117.435797
45,0,4108.205028,4125.640925,4121.02554,4148.205027,4127.692207,4140.512719,4121.538361,4136.410155,4154.358873,4130.76913,4170.256308,4110.25631,4080.512721,4123.589643
46,0,4107.692207,4130.256309,4127.692207,4147.692206,4118.461438,4138.461437,4121.538361,4133.846053,4148.205027,4123.076822,4169.743488,4111.281951,4092.307592,4132.307591
47,0,4106.153746,4127.179386,4138.974258,4145.640924,4115.384515,4136.922976,4121.538361,4123.589643,4139.487078,4112.820412,4158.461437,4104.102464,4092.307592,4132.820412
48,0,4105.128105,4125.128104,4138.461437,4149.230668,4138.461437,4139.487078,4121.538361,4131.28195,4149.743488,4130.76913,4168.205026,4111.281951,4092.820413,4126.153745
49,0,4110.76913,4127.692207,4132.307591,4143.589642,4142.564001,4141.53836,4121.538361,4141.02554,4156.410155,4137.948617,4165.128103,4127.179386,4090.25631,4123.589643
50,0,4122.051181,4124.615284,4145.640924,4125.640925,4122.564002,4139.999899,4121.538361,4137.435796,4152.820411,4115.897335,4155.384514,4122.564002,4075.897336,4132.820412
51,0,4126.153745,4122.051181,4159.999898,4125.128104,4127.179386,4138.974258,4121.538361,4136.410155,4152.820411,4114.871694,4166.153744,4109.230669,4081.025541,4150.256309
52,0,4107.692207,4124.102463,4147.692206,4128.205027,4143.589642,4139.487078,4121.538361,4132.307591,4147.692206,4129.743489,4161.025539,4113.846053,4094.871695,4127.692207
53,0,4089.74349,4124.102463,4130.256309,4128.717848,4134.358873,4139.487078,4121.538361,4129.230668,4143.589642,4118.461438,4150.769129,4125.128104,4088.205028,4083.076823
54,0,4102.051182,4122.564002,4139.487078,4140.512719,4121.538361,4137.948617,4121.538361,4135.384514,4150.256309,4108.205028,4173.846052,4119.487079,4087.692208,4105.640925
55,0,4122.564002,4125.640925,4161.025539,4138.461437,4125.640925,4137.435796,4121.02554,4136.922976,4150.256309,4128.205027,4186.666564,4105.640925,4103.076823,4162.564001
56,0,4124.615284,4125.640925,4158.974257,4126.666566,4125.128104,4136.410155,4121.538361,4134.358873,4148.205027,4143.589642,4171.79477,4110.25631,4109.230669,4161.53836
57,0,4117.948617,4115.897335,4149.743488,4124.102463,4107.692207,4129.743489,4122.051181,4134.358873,4149.230668,4134.358873,4168.205026,4124.102463,4106.666566,4141.02554
58,0,4119.999899,4109.230669,4158.461437,4116.410156,4104.615284,4126.666566,4120.51272,4133.846053,4147.179386,4128.205027,4169.230667,4130.76913,4103.589643,4151.28195
59,0,4118.461438,4112.307592,4153.846052,4111.794771,4132.820412,4136.922976,4121.538361,4135.897335,4148.205027,4132.307591,4173.333231,4130.76913,4109.743489,4158.461437
60,0,4112.820412,4107.179387,4137.435796,4119.487079,4149.230668,4142.564001,4126.666566,4143.589642,4156.410155,4137.948617,4193.846051,4137.948617,4135.897335,4158.974257
61,0,4109.743489,4098.974259,4155.897334,4104.102464,4134.871694,4136.410155,4127.179386,4146.153745,4157.948616,4149.743488,4189.230667,4151.79477,4150.256309,4155.384514
62,0,4105.128105,4100.51272,4173.333231,4092.820413,4118.461438,4134.358873,4121.02554,4140.512719,4149.743488,4147.692206,4152.820411,4149.230668,4128.717848,4143.589642
63,0,4109.743489,4101.538361,4146.153745,4119.487079,4122.564002,4140.512719,4119.999899,4138.461437,4148.205027,4125.640925,4156.922975,4127.692207,4113.846053,4152.307591
64,0,4106.153746,4093.846054,4136.922976,4123.076822,4126.153745,4136.922976,4124.102463,4138.461437,4150.769129,4119.487079,4192.30759,4115.384515,4125.640925,4156.410155
65,0,4081.538362,4091.794772,4158.461437,4099.487079,4107.692207,4123.589643,4116.410156,4133.846053,4145.128104,4128.717848,4190.256308,4126.666566,4129.743489,4135.897335
66,0,4084.102464,4099.487079,4156.410155,4109.230669,4103.589643,4122.564002,4108.717848,4125.640925,4139.999899,4126.153745,4168.717847,4123.589643,4121.538361,4141.02554
67,0,4113.333233,4105.128105,4151.79477,4122.564002,4125.128104,4135.384514,4112.820412,4126.153745,4146.666565,4116.410156,4171.281949,4103.589643,4117.435797,4171.281949
68,0,4116.410156,4103.589643,4149.743488,4108.205028,4132.820412,4138.461437,4117.435797,4133.846053,4154.871693,4121.02554,4178.974257,4105.640925,4123.589643,4161.53836
69,0,4103.589643,4095.897336,4132.820412,4092.820413,4125.640925,4134.871694,4117.435797,4138.461437,4154.358873,4137.435796,4166.666565,4121.02554,4124.615284,4133.333232
70,0,4100.51272,4088.717849,4149.230668,4093.846054,4124.102463,4136.922976,4121.02554,4138.974258,4153.333232,4138.461437,4156.410155,4124.102463,4114.358874,4134.358873
71,0,4090.25631,4090.769131,4185.128103,4089.74349,4119.999899,4138.974258,4123.076822,4136.922976,4151.28195,4127.179386,4165.640924,4118.974258,4110.76913,4141.53836
72,0,4092.820413,4094.358874,4174.871693,4082.564003,4121.02554,4139.999899,4122.564002,4137.948617,4152.820411,4132.820412,4175.384513,4121.02554,4128.717848,4146.666565
73,0,4108.205028,4099.487079,4151.28195,4101.025541,4126.666566,4141.02554,4126.666566,4141.02554,4154.871693,4142.051181,4169.230667,4122.564002,4143.589642,4154.358873
74,0,4098.461438,4099.487079,4151.28195,4115.897335,4119.999899,4134.358873,4125.128104,4137.948617,4149.743488,4135.897335,4166.153744,4119.487079,4127.692207,4141.53836
75,0,4089.230669,4093.846054,4137.435796,4100.51272,4119.999899,4132.820412,4121.02554,4132.307591,4147.179386,4133.333232,4178.974257,4119.999899,4117.948617,4126.666566
76,0,4105.128105,4091.794772,4118.461438,4103.076823,4115.897335,4135.897335,4122.051181,4129.743489,4151.28195,4134.871694,4180.512718,4121.538361,4132.307591,4138.461437
77,0,4107.692207,4092.307592,4121.538361,4127.179386,4099.9999,4127.692207,4115.897335,4123.076822,4149.743488,4117.435797,4166.153744,4115.384515,4127.692207,4145.640924
78,0,4092.307592,4090.25631,4129.230668,4119.999899,4116.410156,4123.589643,4109.743489,4123.589643,4147.692206,4110.76913,4163.076821,4111.281951,4111.794771,4140.512719
79,0,4092.307592,4089.74349,4127.179386,4108.205028,4142.051181,4134.358873,4116.922976,4135.897335,4153.333232,4123.589643,4173.333231,4118.974258,4121.02554,4144.615283
80,0,4086.666567,4091.281951,4124.102463,4118.461438,4128.717848,4139.999899,4120.51272,4134.871694,4153.333232,4123.589643,4167.179385,4122.051181,4117.948617,4123.076822
81,0,4074.358875,4086.153746,4115.897335,4117.948617,4114.871694,4134.871694,4118.461438,4128.717848,4147.179386,4119.487079,4151.79477,4109.743489,4096.410156,4096.922977
82,0,4091.281951,4080.512721,4105.128105,4110.25631,4121.02554,4129.230668,4117.435797,4130.76913,4144.102463,4129.743489,4158.974257,4103.076823,4107.692207,4120.51272
83,0,4103.589643,4077.435798,4113.333233,4112.820412,4113.333233,4126.153745,4113.333233,4129.743489,4141.53836,4130.256309,4171.79477,4105.128105,4131.794771,4150.769129
84,0,4094.871695,4078.461439,4120.51272,4118.461438,4103.589643,4128.205027,4113.846053,4128.717848,4138.461437,4119.999899,4171.281949,4105.128105,4130.76913,4144.615283
85,0,4100.51272,4087.692208,4111.281951,4121.538361,4108.205028,4132.307591,4121.02554,4131.794771,4139.487078,4120.51272,4168.717847,4109.743489,4130.76913,4136.410155
86,0,4107.179387,4095.384515,4116.922976,4118.461438,4125.128104,4136.410155,4122.051181,4131.794771,4145.128104,4123.589643,4167.692206,4119.999899,4137.948617,4138.974258
87,0,4106.666566,4092.307592,4141.53836,4112.307592,4141.53836,4142.564001,4122.564002,4136.922976,4152.820411,4129.743489,4174.358872,4125.640925,4131.794771,4142.564001
88,0,4112.307592,4085.640926,4147.692206,4104.615284,4131.28195,4141.53836,4126.153745,4144.102463,4154.358873,4135.384514,4171.79477,4127.692207,4125.640925,4137.948617
89,0,4097.948618,4081.025541,4131.794771,4102.564002,4122.564002,4135.897335,4123.076822,4136.410155,4149.230668,4134.871694,4146.666565,4131.28195,4115.897335,4119.999899
90,0,4083.589644,4087.179387,4130.256309,4114.871694,4131.794771,4134.871694,4120.51272,4134.358873,4151.79477,4144.102463,4146.666565,4126.153745,4107.692207,4120.51272
91,0,4109.230669,4097.948618,4146.666565,4120.51272,4126.666566,4137.435796,4122.051181,4138.461437,4152.307591,4148.205027,4184.102462,4110.76913,4126.153745,4152.307591
92,0,4121.02554,4091.281951,4157.435796,4093.333233,4118.974258,4137.948617,4119.999899,4129.230668,4141.02554,4125.640925,4191.281949,4102.564002,4142.051181,4167.692206
93,0,4093.333233,4072.820413,4164.102462,4068.717849,4113.333233,4130.76913,4114.358874,4123.076822,4136.410155,4116.922976,4162.564001,4099.9999,4128.717848,4144.102463
94,0,4078.461439,4070.256311,4178.974257,4067.692208,4090.25631,4126.666566,4109.743489,4124.615284,4141.02554,4133.333232,4150.256309,4099.9999,4110.76913,4115.384515
95,0,4085.640926,4084.615285,4176.410154,4070.769131,4096.922977,4133.846053,4108.717848,4123.076822,4138.974258,4138.461437,4161.025539,4105.128105,4111.281951,4111.281951
96,0,4091.281951,4088.717849,4139.487078,4081.025541,4136.922976,4139.487078,4113.846053,4123.589643,4137.435796,4135.384514,4168.205026,4106.666566,4119.487079,4130.256309
97,0,4093.846054,4084.102464,4112.820412,4099.487079,4141.53836,4136.410155,4118.461438,4128.717848,4142.564001,4132.820412,4166.666565,4105.640925,4125.640925,4135.897335
98,0,4087.692208,4088.205028,4119.487079,4111.794771,4119.487079,4136.922976,4115.384515,4126.153745,4142.564001,4128.717848,4155.897334,4108.205028,4125.128104,4121.02554
99,0,4080.512721,4092.820413,4126.153745,4107.692207,4106.666566,4135.897335,4107.692207,4120.51272,4137.948617,4128.205027,4138.461437,4100.51272,4114.871694,4120.51272
100,0,4082.051182,4083.076823,4119.999899,4078.461439,4103.589643,4127.692207,4104.615284,4117.948617,4138.461437,4123.076822,4135.897335,4089.230669,4104.102464,4122.564002
101,0,4091.281951,4071.794772,4121.02554,4068.717849,4113.846053,4131.28195,4114.358874,4119.999899,4141.02554,4116.410156,4163.076821,4102.051182,4105.640925,4115.897335
102,0,4092.820413,4074.871695,4130.76913,4098.461438,4112.307592,4141.02554,4122.564002,4128.205027,4140.512719,4118.974258,4183.076821,4112.820412,4121.538361,4124.102463
103,0,4082.051182,4083.076823,4124.615284,4118.461438,4095.384515,4138.461437,4118.461438,4131.794771,4143.589642,4129.230668,4168.205026,4106.153746,4129.230668,4136.410155
104,0,4082.564003,4077.435798,4112.820412,4105.640925,4109.743489,4135.897335,4117.435797,4133.333232,4149.743488,4134.871694,4154.871693,4104.615284,4120.51272,4126.666566
105,0,4093.333233,4063.589644,4119.487079,4103.589643,4136.922976,4140.512719,4118.974258,4132.307591,4145.640924,4135.384514,4166.666565,4107.692207,4125.128104,4119.487079
106,0,4096.922977,4075.897336,4126.153745,4123.589643,4127.179386,4134.871694,4111.281951,4127.692207,4138.974258,4135.897335,4174.358872,4110.76913,4141.02554,4125.640925
107,0,4094.358874,4096.922977,4126.666566,4115.897335,4105.128105,4125.128104,4107.179387,4124.615284,4141.02554,4141.53836,4162.05118,4118.461438,4127.692207,4121.02554
108,0,4086.153746,4084.102464,4142.564001,4090.25631,4106.666566,4127.692207,4111.794771,4124.615284,4143.589642,4141.02554,4148.205027,4112.307592,4096.922977,4121.02554
109,0,4082.051182,4070.256311,4155.897334,4089.230669,4110.76913,4128.205027,4110.25631,4124.102463,4139.487078,4126.153745,4153.846052,4096.410156,4101.538361,4135.384514
110,0,4096.410156,4085.128105,4135.897335,4108.717848,4105.128105,4123.589643,4105.128105,4122.051181,4138.974258,4126.666566,4169.743488,4098.461438,4135.384514,4145.128104
111,0,4111.794771,4097.435797,4111.794771,4120.51272,4103.076823,4130.256309,4107.692207,4123.589643,4140.512719,4141.02554,4172.820411,4107.692207,4143.076822,4146.153745
112,0,4106.153746,4090.769131,4109.743489,4118.974258,4106.153746,4139.487078,4111.794771,4123.589643,4138.461437,4133.846053,4156.922975,4112.820412,4118.974258,4132.820412
113,0,4102.564002,4087.692208,4102.564002,4129.743489,4110.25631,4135.384514,4113.333233,4123.589643,4137.948617,4121.02554,4147.692206,4121.538361,4107.179387,4116.410156
114,0,4104.102464,4091.281951,4083.076823,4143.076822,4104.615284,4125.640925,4109.230669,4122.051181,4138.461437,4118.974258,4157.435796,4117.435797,4118.461438,4130.76913
115,0,4088.205028,4088.205028,4091.281951,4128.205027,4094.871695,4122.051181,4103.076823,4115.384515,4137.948617,4111.794771,4160.512719,4100.51272,4124.615284,4142.564001
116,0,4077.948618,4080.512721,4121.02554,4103.076823,4098.974259,4124.102463,4103.589643,4108.717848,4137.948617,4111.281951,4148.717847,4098.974259,4113.333233,4111.794771
117,0,4097.435797,4084.102464,4114.358874,4111.794771,4117.948617,4127.179386,4108.717848,4111.794771,4138.974258,4131.28195,4144.102463,4109.743489,4109.743489,4094.871695
118,0,4113.846053,4090.769131,4082.051182,4133.846053,4125.640925,4127.179386,4110.25631,4120.51272,4138.974258,4138.461437,4153.846052,4109.230669,4114.358874,4127.692207
119,0,4098.974259,4086.153746,4088.717849,4127.179386,4115.384515,4126.153745,4107.179387,4116.922976,4138.461437,4123.076822,4155.897334,4102.564002,4104.615284,4144.102463
120,0,4092.307592,4085.640926,4115.897335,4117.435797,4106.666566,4127.179386,4109.230669,4113.846053,4137.435796,4109.230669,4153.846052,4107.692207,4106.153746,4124.102463
121,0,4104.615284,4089.74349,4112.307592,4124.615284,4104.102464,4127.692207,4113.846053,4118.974258,4136.922976,4112.820412,4155.384514,4114.871694,4125.128104,4118.461438
122,0,4098.461438,4082.564003,4096.922977,4127.692207,4102.564002,4121.538361,4107.692207,4113.846053,4136.922976,4123.589643,4153.333232,4101.538361,4119.999899,4126.153745
123,0,4092.307592,4079.9999,4111.281951,4114.871694,4105.640925,4119.487079,4104.102464,4109.230669,4139.487078,4124.615284,4155.384514,4091.794772,4107.179387,4123.076822
124,0,4104.615284,4088.717849,4136.410155,4107.179387,4106.666566,4130.76913,4112.307592,4119.487079,4143.076822,4133.846053,4165.640924,4103.589643,4122.564002,4127.692207
125,0,4108.205028,4093.333233,4143.589642,4107.692207,4099.9999,4136.922976,4114.871694,4119.999899,4141.53836,4153.846052,4163.076821,4111.281951,4128.205027,4137.435796
126,0,4096.410156,4087.692208,4143.589642,4093.846054,4099.487079,4126.666566,4106.666566,4107.179387,4135.897335,4145.128104,4145.640924,4107.179387,4106.153746,4121.538361
127,0,4093.846054,4080.512721,4137.435796,4086.666567,4109.230669,4125.128104,4105.640925,4105.128105,4135.897335,4113.333233,4138.461437,4105.128105,4102.564002,4102.051182
128,0,4091.794772,4081.025541,4135.897335,4096.922977,4111.794771,4132.820412,4109.743489,4108.205028,4134.358873,4104.615284,4140.512719,4098.974259,4102.564002,4105.128105
0,0,4078.461439,4084.102464,4152.307591,4097.948618,4106.153746,4127.179386,4106.666566,4105.640925,4127.179386,4110.25631,4135.897335,4092.820413,4083.589644,4102.564002
1,0,4076.410157,4078.461439,4155.384514,4088.717849,4104.102464,4121.538361,4103.589643,4104.615284,4128.205027,4098.461438,4139.999899,4100.51272,4086.153746,4097.435797
2,0,4091.794772,4073.333234,4125.640925,4094.358874,4107.692207,4127.692207,4106.666566,4109.230669,4136.922976,4087.692208,4158.974257,4107.179387,4119.999899,4115.384515
3,0,4098.461438,4082.051182,4101.538361,4112.820412,4101.025541,4130.256309,4111.281951,4119.487079,4141.02554,4110.76913,4156.922975,4108.205028,4133.333232,4131.28195
4,0,4091.281951,4092.307592,4100.51272,4134.871694,4093.846054,4126.666566,4111.794771,4124.102463,4139.999899,4136.410155,4134.871694,4111.281951,4108.717848,4124.615284
5,0,4089.230669,4092.820413,4089.74349,4144.615283,4097.435797,4123.589643,4108.717848,4115.897335,4137.948617,4119.487079,4138.974258,4107.692207,4093.846054,4116.410156
6,0,4095.384515,4091.794772,4074.358875,4132.307591,4095.897336,4125.640925,4108.205028,4110.76913,4137.435796,4099.487079,4161.53836,4103.589643,4108.205028,4113.846053
7,0,4091.281951,4091.281951,4077.435798,4119.487079,4092.307592,4127.179386,4107.692207,4113.333233,4137.948617,4102.051182,4155.384514,4107.179387,4113.846053,4109.230669
8,0,4078.461439,4089.74349,4092.307592,4128.717848,4104.102464,4123.589643,4106.153746,4108.717848,4137.435796,4096.410156,4136.410155,4109.743489,4097.948618,4105.128105
9,0,4074.358875,4089.74349,4104.102464,4139.487078,4113.333233,4122.564002,4106.153746,4104.102464,4136.922976,4094.358874,4139.487078,4105.128105,4096.410156,4107.179387
10,0,4087.692208,4091.281951,4109.743489,4128.717848,4106.153746,4126.153745,4109.230669,4111.281951,4136.922976,4106.153746,4145.640924,4109.230669,4110.76913,4111.281951
11,0,4096.410156,4091.281951,4105.640925,4122.564002,4101.538361,4127.179386,4108.717848,4116.410156,4136.410155,4115.897335,4143.589642,4121.02554,4112.820412,4113.333233
12,0,4089.230669,4091.281951,4081.538362,4144.615283,4107.179387,4127.179386,4109.743489,4114.871694,4136.410155,4124.102463,4148.717847,4119.999899,4106.153746,4111.794771
13,0,4094.871695,4090.769131,4060.512721,4156.922975,4110.25631,4128.205027,4114.358874,4115.897335,4138.461437,4126.153745,4156.410155,4115.384515,4108.205028,4111.281951
14,0,4108.717848,4090.769131,4073.846054,4148.205027,4099.9999,4127.692207,4112.307592,4114.358874,4138.974258,4111.281951,4155.384514,4117.948617,4111.281951,4118.974258
15,0,4103.589643,4095.384515,4102.564002,4145.128104,4088.205028,4124.102463,4106.153746,4106.153746,4131.28195,4096.922977,4148.717847,4114.358874,4110.76913,4123.076822
16,0,4090.25631,4093.846054,4106.153746,4136.922976,4093.846054,4120.51272,4103.076823,4103.076823,4125.640925,4089.74349,4140.512719,4104.102464,4108.205028,4114.871694
17,0,4086.153746,4082.564003,4095.897336,4121.538361,4097.948618,4119.999899,4101.025541,4107.692207,4132.307591,4096.410156,4134.358873,4109.743489,4100.51272,4101.025541
18,0,4078.461439,4076.922977,4095.384515,4119.999899,4094.871695,4121.538361,4096.410156,4108.717848,4132.307591,4112.820412,4136.410155,4111.281951,4098.461438,4092.820413
19,0,4068.205029,4077.948618,4094.358874,4122.051181,4090.769131,4118.974258,4095.897336,4103.589643,4125.640925,4103.076823,4139.487078,4093.846054,4103.076823,4097.948618
20,0,4070.256311,4082.564003,4086.666567,4122.564002,4085.640926,4119.487079,4102.564002,4104.615284,4131.794771,4089.74349,4145.640924,4092.307592,4111.281951,4110.25631
21,0,4078.974259,4088.205028,4084.615285,4127.692207,4091.281951,4121.538361,4106.666566,4108.717848,4137.435796,4106.666566,4149.230668,4105.640925,4114.871694,4114.871694
22,0,4089.230669,4090.769131,4089.230669,4124.615284,4106.666566,4121.02554,4104.615284,4106.666566,4129.743489,4109.743489,4142.051181,4109.743489,4112.307592,4109.230669
23,0,4094.871695,4094.871695,4092.820413,4121.538361,4112.307592,4121.538361,4103.589643,4103.589643,4124.615284,4089.74349,4135.384514,4109.230669,4101.025541,4102.564002
24,0,4091.794772,4096.922977,4099.9999,4131.794771,4104.615284,4123.076822,4105.640925,4104.102464,4130.256309,4099.487079,4138.974258,4108.717848,4094.358874,4099.487079
25,0,4092.307592,4090.769131,4099.487079,4139.999899,4093.333233,4123.076822,4107.692207,4105.640925,4136.410155,4126.666566,4146.666565,4106.153746,4108.717848,4104.102464
26,0,4097.435797,4094.358874,4088.205028,4142.051181,4091.281951,4124.102463,4109.743489,4111.281951,4138.461437,4123.589643,4152.820411,4108.717848,4123.589643,4116.922976
27,0,4094.358874,4101.538361,4085.640926,4141.53836,4105.128105,4125.128104,4108.205028,4115.384515,4139.487078,4112.307592,4154.358873,4111.281951,4124.615284,4130.256309
28,0,4078.974259,4087.692208,4096.410156,4123.589643,4109.743489,4119.999899,4105.128105,4111.281951,4137.948617,4107.179387,4143.589642,4106.153746,4117.435797,4118.461438
29,0,4076.410157,4081.025541,4110.25631,4105.640925,4095.897336,4115.384515,4106.153746,4105.128105,4129.743489,4089.74349,4129.743489,4108.717848,4103.076823,4090.25631
30,0,4088.205028,4092.820413,4132.307591,4103.076823,4094.358874,4114.871694,4103.589643,4100.51272,4123.076822,4083.076823,4130.76913,4107.179387,4087.179387,4087.692208
31,0,4085.128105,4094.358874,4163.589642,4094.358874,4097.948618,4114.871694,4095.384515,4093.846054,4123.076822,4101.538361,4137.948617,4088.717849,4089.74349,4098.974259
32,0,4079.48708,4094.358874,4184.615282,4072.307593,4090.25631,4111.281951,4090.769131,4086.666567,4118.974258,4105.640925,4133.333232,4081.025541,4091.281951,4091.794772
33,0,4091.281951,4107.692207,4195.897333,4059.48708,4094.358874,4109.230669,4092.820413,4085.640926,4115.897335,4092.307592,4121.02554,4090.769131,4080.512721,4086.666567
34,0,4088.717849,4112.307592,4200.512718,4061.538362,4106.666566,4114.358874,4094.871695,4091.281951,4120.51272,4089.74349,4119.999899,4092.307592,4084.102464,4096.922977
35,0,4070.769131,4105.128105,4191.281949,4065.128106,4101.538361,4121.02554,4095.384515,4092.820413,4123.076822,4089.74349,4129.230668,4085.128105,4094.358874,4093.333233
36,0,4084.102464,4108.717848,4186.153744,4064.615285,4094.358874,4121.02554,4096.922977,4093.846054,4124.615284,4084.102464,4137.435796,4091.281951,4095.384515,4088.717849
37,0,4099.487079,4111.794771,4198.974256,4051.281952,4088.717849,4114.871694,4096.922977,4093.333233,4121.02554,4075.384516,4131.794771,4091.281951,4092.307592,4093.846054
38,0,4071.794772,4098.461438,4204.615282,4033.333235,4077.435798,4107.692207,4092.820413,4086.666567,4111.794771,4068.717849,4107.692207,4079.9999,4071.794772,4066.153747
39,0,4048.205029,4092.307592,4193.846051,4043.076824,4087.179387,4104.615284,4091.281951,4085.128105,4114.358874,4083.076823,4095.897336,4083.076823,4051.281952,4036.410158
40,0,4065.640926,4104.615284,4185.128103,4070.256311,4110.76913,4109.230669,4095.897336,4091.794772,4124.615284,4093.333233,4116.410156,4090.769131,4070.256311,4071.281952
41,0,4082.564003,4113.333233,4174.358872,4083.076823,4111.794771,4119.487079,4102.051182,4094.358874,4122.564002,4084.615285,4137.435796,4082.564003,4098.461438,4115.384515
42,0,4083.076823,4108.205028,4154.358873,4084.615285,4099.487079,4120.51272,4107.179387,4099.9999,4119.999899,4090.769131,4133.846053,4078.461439,4095.384515,4102.051182
43,0,4088.205028,4106.666566,4148.717847,4087.179387,4090.769131,4112.820412,4108.717848,4104.615284,4125.128104,4104.102464,4123.076822,4088.205028,4079.9999,4083.589644
44,0,4094.871695,4113.846053,4161.025539,4084.615285,4090.25631,4116.410156,4106.153746,4100.51272,4124.615284,4092.820413,4123.589643,4090.769131,4078.461439,4090.25631
45,0,4096.922977,4121.02554,4174.871693,4072.820413,4110.25631,4126.153745,4108.205028,4101.025541,4121.02554,4088.205028,4125.128104,4089.74349,4084.615285,4082.051182
46,0,4094.358874,4121.538361,4173.846052,4068.717849,4125.128104,4125.128104,4111.281951,4102.564002,4120.51272,4106.153746,4121.02554,4093.333233,4086.666567,4073.846054
47,0,4085.128105,4109.230669,4146.153745,4091.794772,4104.615284,4119.487079,4106.153746,4096.922977,4121.538361,4106.153746,4126.153745,4091.281951,4088.717849,4087.692208
48,0,4078.461439,4104.102464,4131.28195,4113.333233,4085.640926,4121.02554,4104.615284,4101.025541,4122.564002,4091.281951,4138.974258,4086.153746,4096.410156,4096.410156
49,0,4085.128105,4114.871694,4156.922975,4095.897336,4096.922977,4120.51272,4108.205028,4106.153746,4122.564002,4087.692208,4132.820412,4089.230669,4096.410156,4088.717849
50,0,4097.948618,4123.589643,4162.564001,4084.102464,4107.692207,4117.435797,4107.179387,4101.025541,4119.487079,4086.153746,4116.410156,4092.820413,4089.230669,4089.74349
51,0,4101.538361,4125.640925,4138.461437,4110.76913,4103.076823,4122.564002,4109.230669,4104.615284,4125.640925,4094.358874,4126.666566,4091.281951,4091.794772,4099.487079
52,0,4094.358874,4123.589643,4150.769129,4102.564002,4101.025541,4126.666566,4114.358874,4112.820412,4135.384514,4107.179387,4145.640924,4095.384515,4096.410156,4089.230669
53,0,4089.230669,4114.358874,4182.05118,4056.410157,4106.153746,4122.564002,4112.307592,4110.25631,4129.743489,4097.435797,4135.897335,4101.025541,4093.846054,4079.9999
54,0,4086.666567,4109.230669,4171.281949,4061.538362,4109.230669,4122.051181,4108.205028,4106.666566,4122.051181,4089.74349,4124.102463,4098.461438,4091.281951,4097.948618
55,0,4080.512721,4110.25631,4150.769129,4094.871695,4101.538361,4125.128104,4109.230669,4107.179387,4123.076822,4108.717848,4132.307591,4091.281951,4088.717849,4106.666566
56,0,4086.153746,4107.692207,4154.358873,4094.871695,4092.820413,4122.564002,4109.230669,4107.179387,4124.102463,4117.948617,4139.487078,4091.794772,4088.205028,4094.871695
57,0,4105.128105,4113.333233,4150.769129,4096.410156,4098.974259,4121.538361,4113.846053,4109.230669,4128.205027,4109.230669,4138.974258,4101.025541,4100.51272,4099.487079
58,0,4112.307592,4127.692207,4128.717848,4122.564002,4107.179387,4126.666566,4122.051181,4113.846053,4133.846053,4106.666566,4139.999899,4107.692207,4110.25631,4116.410156
59,0,4106.666566,4128.205027,4116.922976,4130.256309,4092.820413,4123.589643,4114.871694,4108.717848,4126.153745,4095.897336,4136.922976,4103.076823,4098.974259,4107.179387
60,0,4104.615284,4123.076822,4122.051181,4115.897335,4083.589644,4119.487079,4108.717848,4104.102464,4121.02554,4087.179387,4135.384514,4100.51272,4092.307592,4094.871695
61,0,4109.743489,4129.230668,4124.615284,4114.871694,4108.205028,4124.615284,4117.948617,4112.820412,4128.205027,4110.76913,4135.384514,4111.281951,4102.051182,4103.589643
62,0,4103.076823,4127.179386,4111.281951,4128.205027,4123.589643,4126.666566,4119.487079,4116.922976,4127.692207,4126.153745,4121.538361,4106.666566,4092.307592,4099.9999
63,0,4087.692208,4119.999899,4092.307592,4145.128104,4104.102464,4121.538361,4111.794771,4113.333233,4126.153745,4112.820412,4119.487079,4093.333233,4079.48708,4082.051182
64,0,4093.846054,4124.102463,4099.487079,4143.076822,4089.74349,4119.487079,4110.76913,4114.358874,4131.28195,4106.153746,4137.948617,4102.564002,4095.384515,4090.769131
65,0,4111.281951,4126.666566,4121.538361,4122.051181,4100.51272,4118.974258,4108.717848,4112.307592,4127.179386,4108.205028,4143.589642,4111.794771,4112.820412,4119.487079
66,0,4111.794771,4119.487079,4127.692207,4115.897335,4108.205028,4118.974258,4110.25631,4105.128105,4121.02554,4108.717848,4144.102463,4106.153746,4115.897335,4125.640925
67,0,4112.307592,4118.461438,4124.102463,4127.692207,4104.615284,4121.538361,4121.02554,4107.179387,4123.589643,4118.974258,4150.769129,4114.871694,4123.076822,4110.25631
68,0,4118.461438,4123.076822,4110.25631,4134.871694,4106.666566,4120.51272,4121.02554,4109.230669,4124.615284,4123.589643,4144.102463,4130.76913,4125.128104,4102.051182
69,0,4110.25631,4122.051181,4089.230669,4140.512719,4107.179387,4119.999899,4114.871694,4108.205028,4125.640925,4122.564002,4142.051181,4120.51272,4119.999899,4113.333233
70,0,4109.230669,4123.589643,4082.051182,4152.307591,4106.153746,4126.666566,4121.02554,4118.974258,4135.384514,4134.358873,4155.384514,4106.666566,4126.153745,4136.410155
71,0,4120.51272,4126.666566,4075.384516,4154.871693,4112.307592,4129.743489,4125.128104,4126.666566,4139.487078,4139.487078,4146.666565,4109.230669,4120.51272,4143.076822
72,0,4114.358874,4123.076822,4069.23067,4152.307591,4111.794771,4125.640925,4121.538361,4122.564002,4136.922976,4124.102463,4131.28195,4112.307592,4104.102464,4130.256309
73,0,4101.025541,4119.999899,4081.025541,4160.512719,4108.205028,4124.102463,4119.999899,4120.51272,4134.871694,4120.51272,4145.640924,4109.743489,4117.948617,4121.538361
74,0,4110.25631,4125.640925,4084.102464,4166.666565,4109.743489,4125.640925,4122.051181,4123.076822,4130.76913,4122.564002,4158.461437,4113.333233,4143.589642,4123.589643
75,0,4122.564002,4129.743489,4070.256311,4158.974257,4106.153746,4123.076822,4123.076822,4123.076822,4131.794771,4119.487079,4154.871693,4123.589643,4142.051181,4126.666566
76,0,4117.435797,4125.640925,4067.179388,4152.820411,4108.717848,4122.564002,4124.102463,4122.051181,4137.435796,4129.743489,4153.846052,4127.692207,4134.871694,4117.948617
77,0,4115.384515,4122.564002,4082.051182,4155.384514,4124.615284,4127.179386,4124.615284,4122.564002,4136.410155,4141.02554,4149.230668,4128.717848,4136.922976,4109.230669
78,0,4121.02554,4122.564002,4103.589643,4147.692206,4124.615284,4126.666566,4124.615284,4123.589643,4135.384514,4138.974258,4146.666565,4128.205027,4136.922976,4122.564002
79,0,4123.076822,4122.051181,4105.128105,4138.974258,4105.640925,4120.51272,4123.076822,4122.051181,4136.922976,4139.999899,4154.871693,4120.51272,4137.435796,4146.153745
80,0,4116.922976,4123.589643,4091.281951,4150.256309,4104.102464,4122.051181,4123.076822,4121.538361,4136.922976,4145.640924,4148.717847,4118.461438,4131.28195,4150.256309
81,0,4113.333233,4121.538361,4099.487079,4156.922975,4111.281951,4125.640925,4125.640925,4127.179386,4137.435796,4143.589642,4137.435796,4126.153745,4119.487079,4127.692207
82,0,4112.307592,4115.384515,4114.358874,4141.02554,4106.153746,4121.02554,4123.076822,4126.153745,4133.333232,4130.76913,4145.640924,4126.153745,4119.487079,4108.717848
83,0,4115.384515,4127.692207,4107.179387,4143.076822,4110.76913,4122.051181,4122.564002,4120.51272,4128.205027,4119.999899,4156.410155,4121.02554,4136.410155,4127.692207
84,0,4124.615284,4139.487078,4098.461438,4163.076821,4124.615284,4129.743489,4131.794771,4130.256309,4135.384514,4125.128104,4156.410155,4123.076822,4149.230668,4158.974257
85,0,4126.153745,4126.666566,4090.769131,4165.128103,4124.615284,4127.179386,4136.410155,4138.461437,4142.051181,4139.999899,4154.871693,4125.128104,4144.102463,4154.358873
86,0,4123.076822,4124.102463,4090.769131,4150.769129,4124.615284,4120.51272,4129.230668,4126.666566,4137.435796,4144.102463,4157.435796,4126.666566,4138.461437,4138.974258
87,0,4122.564002,4136.410155,4107.179387,4139.487078,4125.128104,4119.487079,4122.051181,4119.487079,4134.871694,4139.999899,4153.333232,4124.615284,4141.02554,4137.435796
88,0,4123.076822,4132.307591,4110.76913,4138.461437,4110.25631,4121.538361,4121.02554,4124.615284,4134.871694,4139.999899,4141.53836,4119.487079,4141.02554,4125.640925
89,0,4121.02554,4123.589643,4108.205028,4144.615283,4105.128105,4125.640925,4123.589643,4123.076822,4135.384514,4147.179386,4139.999899,4118.974258,4137.435796,4120.51272
90,0,4122.051181,4128.205027,4121.538361,4142.564001,4124.102463,4129.230668,4125.640925,4121.02554,4138.461437,4149.230668,4154.871693,4122.051181,4138.974258,4135.384514
91,0,4124.102463,4129.743489,4122.051181,4134.358873,4128.717848,4124.615284,4123.076822,4121.538361,4138.461437,4143.589642,4152.820411,4121.538361,4137.435796,4134.871694
92,0,4125.128104,4128.717848,4108.205028,4139.487078,4116.922976,4123.076822,4122.564002,4123.076822,4136.410155,4145.128104,4136.410155,4125.128104,4132.820412,4119.999899
93,0,4123.076822,4129.230668,4105.128105,4139.487078,4119.487079,4124.102463,4125.640925,4126.666566,4139.487078,4148.717847,4141.53836,4130.256309,4134.871694,4121.538361
94,0,4119.487079,4126.153745,4103.589643,4135.897335,4125.128104,4121.02554,4122.051181,4126.666566,4140.512719,4143.076822,4154.358873,4126.153745,4137.948617,4134.871694
95,0,4127.179386,4126.666566,4095.897336,4156.410155,4121.538361,4126.666566,4125.128104,4130.76913,4136.410155,4139.487078,4162.564001,4127.179386,4146.153745,4149.743488
96,0,4138.461437,4127.692207,4094.358874,4177.948616,4121.538361,4135.384514,4133.846053,4137.435796,4135.897335,4144.615283,4167.179385,4135.897335,4158.461437,4162.05118
97,0,4141.02554,4131.794771,4093.846054,4174.358872,4123.589643,4130.76913,4132.820412,4133.846053,4139.999899,4145.128104,4160.512719,4141.02554,4159.999898,4159.487078
98,0,4140.512719,4141.02554,4089.74349,4169.743488,4118.974258,4124.102463,4127.179386,4129.743489,4139.487078,4139.999899,4153.333232,4136.922976,4153.846052,4153.846052
99,0,4136.922976,4138.461437,4089.74349,4174.871693,4111.281951,4124.102463,4126.153745,4128.717848,4135.897335,4135.384514,4155.384514,4128.205027,4149.230668,4152.307591
100,0,4133.846053,4130.76913,4090.769131,4171.79477,4111.281951,4124.615284,4127.179386,4127.692207,4137.435796,4139.999899,4156.922975,4130.256309,4152.820411,4143.076822
101,0,4137.435796,4135.384514,4080.512721,4170.256308,4113.846053,4125.128104,4126.153745,4129.743489,4141.53836,4145.640924,4149.743488,4140.512719,4153.846052,4137.435796
102,0,4136.922976,4134.871694,4074.358875,4177.435795,4122.564002,4127.179386,4124.102463,4130.76913,4136.922976,4135.897335,4145.128104,4139.487078,4142.051181,4150.769129
103,0,4125.640925,4125.640925,4093.846054,4170.769129,4129.230668,4127.179386,4125.128104,4127.179386,4130.76913,4125.640925,4151.28195,4132.820412,4133.846053,4159.487078
104,0,4120.51272,4124.102463,4105.640925,4149.743488,4113.846053,4128.205027,4128.205027,4127.692207,4135.384514,4127.179386,4153.846052,4137.435796,4141.02554,4144.102463
105,0,4124.102463,4125.128104,4088.717849,4148.717847,4104.102464,4125.640925,4124.102463,4126.666566,4138.461437,4128.205027,4143.076822,4136.922976,4138.461437,4122.564002
106,0,4126.153745,4121.02554,4091.281951,4159.999898,4120.51272,4121.538361,4118.974258,4120.51272,4131.28195,4118.974258,4141.53836,4125.640925,4130.256309,4119.999899
107,0,4124.615284,4119.487079,4118.461438,4144.615283,4129.743489,4123.589643,4124.102463,4122.051181,4128.205027,4120.51272,4154.358873,4121.02554,4138.974258,4137.948617
108,0,4125.128104,4119.999899,4115.897335,4129.743489,4119.999899,4125.640925,4125.640925,4125.640925,4133.333232,4125.128104,4156.922975,4124.102463,4142.564001,4145.128104
109,0,4125.128104,4121.02554,4099.9999,4148.205027,4120.51272,4124.102463,4123.076822,4124.615284,4135.384514,4117.948617,4149.230668,4130.76913,4139.999899,4139.487078
110,0,4123.589643,4122.564002,4109.230669,4158.974257,4125.640925,4126.666566,4126.666566,4126.666566,4135.897335,4124.102463,4145.128104,4134.358873,4145.128104,4139.999899
111,0,4124.615284,4121.02554,4107.692207,4150.769129,4116.922976,4127.692207,4128.205027,4126.666566,4132.820412,4135.384514,4137.948617,4130.256309,4134.358873,4130.256309
112,0,4126.666566,4121.02554,4083.589644,4161.53836,4110.76913,4125.640925,4125.128104,4124.615284,4125.640925,4128.205027,4134.358873,4126.666566,4122.564002,4123.589643
113,0,4126.153745,4119.999899,4075.384516,4174.358872,4106.153746,4123.076822,4123.076822,4124.102463,4125.128104,4118.974258,4145.128104,4126.666566,4135.897335,4145.640924
114,0,4121.538361,4114.358874,4083.589644,4153.846052,4107.692207,4122.051181,4122.564002,4124.615284,4127.179386,4115.897335,4153.333232,4121.538361,4144.102463,4157.435796
115,0,4119.487079,4111.281951,4085.640926,4141.02554,4124.102463,4123.076822,4121.538361,4123.076822,4126.666566,4112.307592,4146.153745,4117.435797,4135.897335,4139.999899
116,0,4117.948617,4111.281951,4083.076823,4155.384514,4119.999899,4121.538361,4119.487079,4120.51272,4130.76913,4114.358874,4135.384514,4120.51272,4135.897335,4131.28195
117,0,4117.948617,4111.794771,4091.281951,4155.897334,4105.640925,4121.538361,4121.538361,4126.153745,4141.02554,4125.640925,4139.999899,4123.589643,4139.999899,4137.435796
118,0,4128.205027,4115.897335,4114.871694,4142.564001,4119.999899,4130.256309,4130.256309,4136.410155,4138.974258,4131.794771,4152.820411,4126.153745,4142.564001,4136.410155
119,0,4131.28195,4121.02554,4132.820412,4142.564001,4133.846053,4137.435796,4135.897335,4138.461437,4132.307591,4126.666566,4154.871693,4126.666566,4150.256309,4135.897335
120,0,4131.794771,4123.076822,4111.794771,4160.512719,4122.051181,4136.922976,4134.871694,4135.897335,4134.358873,4126.153745,4152.820411,4131.794771,4147.692206,4146.153745
121,0,4138.974258,4119.487079,4091.794772,4168.205026,4118.461438,4132.820412,4136.410155,4137.948617,4136.922976,4134.871694,4152.820411,4137.948617,4137.948617,4153.333232
122,0,4138.461437,4113.333233,4129.230668,4141.02554,4118.461438,4128.205027,4136.922976,4140.512719,4137.948617,4131.794771,4151.28195,4130.256309,4137.948617,4151.28195
123,0,4142.564001,4121.02554,4156.410155,4118.461438,4110.76913,4123.589643,4127.179386,4139.487078,4136.922976,4119.999899,4151.28195,4121.02554,4141.02554,4157.435796
124,0,4167.692206,4135.384514,4122.051181,4142.564001,4113.846053,4121.538361,4118.974258,4132.820412,4127.179386,4120.51272,4153.333232,4128.717848,4141.53836,4174.871693
125,0,4189.230667,4143.076822,4103.589643,4175.897334,4118.974258,4128.717848,4127.692207,4129.743489,4125.128104,4125.640925,4154.358873,4142.051181,4146.666565,4187.179385
126,0,4196.410154,4150.769129,4119.487079,4168.205026,4126.666566,4133.846053,4137.435796,4138.974258,4134.358873,4128.717848,4152.307591,4151.28195,4146.153745,4189.743487
127,0,4204.615282,4152.307591,4114.358874,4151.79477,4135.897335,4123.076822,4128.717848,4136.410155,4130.76913,4134.871694,4136.922976,4161.53836,4131.794771,4184.615282
128,0,4203.07682,4137.435796,4101.538361,4160.512719,4116.922976,4106.666566,4110.76913,4115.384515,4119.487079,4132.307591,4122.564002,4150.769129,4119.487079,4181.025539
0,0,4197.435795,4132.307591,4110.25631,4173.333231,4090.769131,4105.640925,4106.153746,4108.205028,4119.999899,4121.538361,4135.897335,4117.435797,4119.999899,4195.897333
1,0,4201.538359,4149.230668,4127.692207,4172.30759,4093.846054,4112.820412,4116.410156,4118.974258,4123.589643,4118.974258,4145.128104,4105.640925,4121.02554,4208.205025
2,0,4196.410154,4155.384514,4137.948617,4161.025539,4115.384515,4115.897335,4122.051181,4123.076822,4122.564002,4117.948617,4128.717848,4122.564002,4116.922976,4191.281949
3,0,4189.230667,4143.589642,4131.28195,4158.461437,4127.692207,4118.974258,4121.02554,4122.564002,4124.102463,4115.897335,4128.717848,4126.666566,4118.974258,4166.666565
4,0,4186.153744,4137.435796,4108.205028,4167.692206,4125.128104,4123.076822,4121.02554,4123.589643,4123.589643,4113.333233,4140.512719,4108.717848,4119.487079,4156.410155
5,0,4176.922975,4145.640924,4093.333233,4182.05118,4123.589643,4125.128104,4122.564002,4123.589643,4122.051181,4109.743489,4136.922976,4106.666566,4108.205028,4151.28195
6,0,4169.743488,4155.897334,4098.974259,4187.692205,4125.640925,4123.076822,4128.205027,4128.205027,4122.564002,4113.846053,4139.999899,4119.487079,4110.25631,4141.02554
7,0,4165.128103,4155.897334,4103.589643,4183.076821,4116.922976,4121.02554,4134.871694,4134.871694,4125.640925,4122.564002,4131.28195,4121.02554,4112.820412,4129.743489
8,0,4157.948616,4150.256309,4101.025541,4172.30759,4125.640925,4125.640925,4137.948617,4138.974258,4129.230668,4134.358873,4112.307592,4119.487079,4093.846054,4127.179386
9,0,4143.589642,4144.102463,4116.410156,4149.743488,4145.128104,4127.692207,4135.384514,4137.435796,4127.179386,4127.692207,4131.28195,4119.999899,4092.307592,4126.153745
10,0,4130.256309,4138.974258,4141.02554,4134.871694,4132.307591,4121.538361,4133.333232,4129.743489,4119.487079,4107.179387,4145.640924,4111.281951,4109.230669,4120.51272
11,0,4131.794771,4138.974258,4145.128104,4144.102463,4120.51272,4123.076822,4136.410155,4131.794771,4122.564002,4113.846053,4113.846053,4110.25631,4103.076823,4122.564002
12,0,4139.487078,4142.051181,4133.846053,4152.307591,4141.02554,4132.820412,4139.487078,4141.02554,4135.897335,4139.999899,4111.281951,4123.076822,4089.74349,4127.179386
13,0,4137.948617,4142.051181,4118.974258,4153.333232,4143.589642,4128.717848,4136.410155,4141.02554,4138.974258,4141.53836,4151.79477,4116.922976,4101.538361,4121.538361
14,0,4137.948617,4135.384514,4106.666566,4167.179385,4125.640925,4119.999899,4133.846053,4135.897335,4129.743489,4115.897335,4166.153744,4105.640925,4125.640925,4110.76913
15,0,4136.410155,4134.871694,4116.410156,4165.128103,4127.692207,4125.640925,4138.974258,4138.974258,4124.102463,4112.820412,4145.640924,4115.384515,4129.230668,4105.128105
16,0,4126.666566,4141.53836,4130.76913,4141.02554,4118.461438,4126.153745,4137.435796,4138.974258,4126.153745,4133.333232,4118.974258,4115.897335,4101.025541,4107.692207
17,0,4129.743489,4140.512719,4124.102463,4142.564001,4102.564002,4121.538361,4131.794771,4133.846053,4127.692207,4143.076822,4122.051181,4101.538361,4091.281951,4119.487079
18,0,4134.871694,4135.897335,4126.153745,4152.307591,4128.205027,4131.28195,4135.384514,4135.384514,4124.615284,4132.307591,4150.256309,4102.564002,4123.076822,4125.640925
19,0,4129.230668,4140.512719,4133.846053,4141.02554,4157.435796,4137.435796,4138.974258,4137.948617,4122.051181,4121.538361,4143.076822,4110.25631,4138.461437,4120.51272
20,0,4134.871694,4148.717847,4129.743489,4140.512719,4146.153745,4128.717848,4134.871694,4140.512719,4130.256309,4129.743489,4122.051181,4113.846053,4126.153745,4125.128104
21,0,4135.384514,4145.640924,4122.564002,4158.974257,4132.820412,4126.153745,4134.358873,4141.02554,4134.358873,4143.076822,4134.871694,4118.974258,4116.410156,4123.076822
22,0,4124.615284,4137.948617,4116.410156,4165.640924,4144.102463,4132.307591,4136.922976,4138.461437,4127.179386,4140.512719,4143.076822,4122.051181,4113.333233,4102.564002
23,0,4132.820412,4141.02554,4114.871694,4161.025539,4138.461437,4136.410155,4136.922976,4142.564001,4129.230668,4126.153745,4138.461437,4121.538361,4116.922976,4105.128105
24,0,4142.051181,4147.179386,4123.589643,4161.53836,4118.974258,4136.410155,4136.410155,4150.769129,4136.922976,4125.640925,4150.256309,4122.051181,4124.615284,4131.28195
25,0,4138.974258,4152.820411,4129.230668,4172.820411,4127.692207,4136.410155,4138.461437,4152.307591,4135.384514,4142.564001,4153.846052,4121.02554,4132.307591,4143.589642
26,0,4146.666565,4157.948616,4110.76913,4190.769128,4143.589642,4137.948617,4141.02554,4150.769129,4133.333232,4145.128104,4142.051181,4122.564002,4134.871694,4144.102463
27,0,4135.384514,4145.128104,4107.179387,4176.922975,4138.974258,4138.461437,4144.102463,4154.358873,4138.974258,4137.435796,4135.897335,4124.615284,4125.128104,4132.820412
28,0,4113.846053,4133.846053,4145.640924,4138.974258,4137.435796,4137.948617,4146.153745,4157.435796,4143.076822,4141.53836,4141.02554,4123.589643,4118.461438,4112.820412
29,0,4128.717848,4150.256309,4167.692206,4133.333232,4137.435796,4138.974258,4140.512719,4149.230668,4135.897335,4144.102463,4151.28195,4121.02554,4129.230668,4112.307592
30,0,4141.53836,4164.615283,4132.820412,4163.589642,4119.487079,4137.435796,4134.358873,4137.948617,4129.743489,4134.871694,4148.205027,4110.76913,4128.717848,4114.358874
31,0,4120.51272,4161.025539,4093.333233,4184.102462,4127.179386,4136.922976,4138.461437,4139.999899,4135.384514,4135.384514,4134.358873,4096.410156,4112.307592,4090.25631
32,0,4107.692207,4166.153744,4107.179387,4172.30759,4160.512719,4139.999899,4143.076822,4146.153745,4141.53836,4142.564001,4132.820412,4096.410156,4107.179387,4070.256311
33,0,4107.179387,4170.256308,4138.974258,4154.358873,4156.410155,4139.999899,4139.999899,4141.53836,4138.461437,4136.410155,4136.922976,4103.589643,4111.281951,4072.307593
34,0,4100.51272,4158.974257,4138.461437,4154.358873,4135.384514,4138.974258,4141.02554,4141.02554,4136.410155,4135.384514,4137.435796,4104.615284,4112.307592,4070.256311
35,0,4095.897336,4155.897334,4121.02554,4150.256309,4141.53836,4141.02554,4144.615283,4151.28195,4139.999899,4150.769129,4134.358873,4105.640925,4108.717848,4055.384516
36,0,4091.281951,4155.384514,4129.230668,4131.28195,4142.564001,4136.922976,4139.999899,4151.79477,4140.512719,4157.435796,4122.051181,4107.692207,4103.589643,4041.538363
37,0,4095.384515,4159.487078,4143.589642,4136.922976,4133.846053,4135.897335,4141.02554,4147.692206,4139.487078,4152.820411,4122.051181,4110.25631,4101.025541,4051.281952
38,0,4108.205028,4165.128103,4128.717848,4161.025539,4149.230668,4150.256309,4154.358873,4154.358873,4141.02554,4157.948616,4138.974258,4114.358874,4108.205028,4080.512721
39,0,4101.538361,4152.307591,4114.871694,4161.53836,4164.102462,4154.871693,4157.435796,4154.358873,4141.02554,4163.076821,4142.051181,4110.76913,4119.487079,4090.769131
40,0,4091.794772,4145.640924,4119.999899,4161.53836,4145.640924,4139.487078,4142.051181,4139.487078,4137.948617,4152.820411,4132.820412,4095.897336,4122.051181,4088.717849
41,0,4106.153746,4159.999898,4113.333233,4178.974257,4128.717848,4133.846053,4138.461437,4139.487078,4137.948617,4144.102463,4135.897335,4090.769131,4119.487079,4091.281951
42,0,4114.871694,4162.05118,4125.640925,4163.589642,4142.051181,4148.717847,4151.28195,4154.871693,4142.051181,4149.230668,4141.53836,4110.25631,4115.384515,4078.461439
43,0,4102.051182,4152.307591,4185.640923,4116.922976,4155.897334,4156.410155,4157.435796,4158.461437,4142.051181,4155.897334,4139.487078,4126.153745,4111.281951,4056.410157
44,0,4097.435797,4155.897334,4222.563999,4092.820413,4156.410155,4146.153745,4151.79477,4152.307591,4138.461437,4155.897334,4134.358873,4113.846053,4108.205028,4060.512721
45,0,4107.692207,4153.333232,4218.461435,4080.512721,4151.28195,4138.461437,4149.230668,4152.307591,4136.922976,4152.820411,4124.615284,4095.897336,4103.076823,4087.692208
46,0,4107.179387,4138.974258,4222.051179,4068.717849,4142.051181,4146.153745,4152.307591,4152.307591,4137.435796,4154.358873,4123.589643,4091.794772,4099.487079,4094.358874
47,0,4093.846054,4139.999899,4193.846051,4097.948618,4144.615283,4153.846052,4154.358873,4145.640924,4138.974258,4156.410155,4138.461437,4094.358874,4113.333233,4080.512721
48,0,4084.102464,4148.717847,4119.999899,4150.256309,4155.384514,4147.692206,4150.256309,4140.512719,4138.461437,4148.205027,4143.076822,4092.307592,4123.076822,4076.922977
49,0,4095.897336,4152.307591,4105.128105,4161.025539,4147.692206,4145.640924,4146.153745,4144.615283,4137.435796,4140.512719,4129.743489,4092.307592,4115.897335,4081.538362
50,0,4121.02554,4162.05118,4151.28195,4150.256309,4142.564001,4155.897334,4158.461437,4159.999898,4146.153745,4150.256309,4145.640924,4111.281951,4128.205027,4086.666567
51,0,4122.051181,4166.153744,4155.897334,4159.487078,4157.435796,4160.512719,4167.179385,4170.769129,4155.384514,4165.640924,4157.948616,4134.358873,4141.02554,4091.794772
52,0,4109.743489,4155.897334,4129.230668,4160.512719,4161.025539,4151.79477,4156.922975,4168.205026,4152.307591,4174.358872,4116.922976,4134.871694,4112.307592,4087.692208
53,0,4120.51272,4157.948616,4124.102463,4154.358873,4157.435796,4148.205027,4155.384514,4166.153744,4149.743488,4184.615282,4114.358874,4130.256309,4100.51272,4091.281951
54,0,4141.02554,4173.333231,4128.717848,4173.846052,4166.153744,4161.53836,4168.717847,4170.769129,4155.897334,4189.230667,4178.461436,4136.922976,4139.999899,4117.435797
55,0,4144.615283,4171.281949,4128.205027,4194.871692,4169.743488,4169.230667,4172.30759,4172.30759,4155.897334,4177.435795,4197.435795,4139.999899,4168.717847,4125.128104
56,0,4138.461437,4167.692206,4125.128104,4196.410154,4168.717847,4162.05118,4167.692206,4170.769129,4152.820411,4167.179385,4166.153744,4139.487078,4158.461437,4115.897335
57,0,4131.28195,4176.922975,4118.974258,4188.717846,4166.666565,4157.435796,4170.256308,4171.281949,4155.384514,4170.769129,4153.846052,4133.333232,4134.358873,4118.461438
58,0,4125.640925,4164.102462,4122.564002,4175.384513,4155.897334,4159.487078,4169.743488,4169.743488,4154.871693,4184.615282,4146.666565,4120.51272,4124.615284,4121.02554
59,0,4133.333232,4153.846052,4138.461437,4169.230667,4155.897334,4159.487078,4166.666565,4168.717847,4151.79477,4188.205026,4139.999899,4126.153745,4142.051181,4122.051181
60,0,4142.564001,4172.30759,4138.461437,4181.538359,4170.769129,4162.564001,4168.205026,4170.769129,4153.846052,4175.384513,4154.871693,4139.487078,4161.53836,4126.153745
61,0,4141.53836,4181.025539,4134.358873,4185.128103,4164.102462,4168.717847,4170.256308,4172.30759,4156.410155,4167.692206,4166.153744,4136.410155,4157.435796,4119.999899
62,0,4133.333232,4167.692206,4148.717847,4173.333231,4149.230668,4167.692206,4170.256308,4172.30759,4155.897334,4164.102462,4161.53836,4131.28195,4143.589642,4111.281951
63,0,4121.538361,4167.179385,4165.128103,4169.743488,4161.53836,4163.589642,4169.230667,4170.256308,4152.820411,4159.487078,4149.230668,4137.435796,4138.461437,4103.589643
64,0,4123.589643,4171.281949,4176.410154,4158.461437,4166.666565,4166.153744,4169.230667,4166.666565,4152.307591,4173.333231,4145.128104,4148.205027,4139.487078,4090.25631
65,0,4143.076822,4165.128103,4186.153744,4151.28195,4150.256309,4168.205026,4170.769129,4167.179385,4154.358873,4184.615282,4163.076821,4144.615283,4154.358873,4109.743489
66,0,4160.512719,4168.717847,4174.358872,4174.871693,4163.589642,4166.666565,4169.230667,4170.769129,4155.384514,4175.897334,4160.512719,4133.846053,4163.589642,4145.640924
67,0,4156.410155,4171.281949,4138.974258,4188.205026,4188.717846,4165.640924,4167.692206,4172.820411,4155.384514,4176.410154,4129.230668,4138.974258,4140.512719,4138.461437
68,0,4145.640924,4170.769129,4123.076822,4186.666564,4177.948616,4167.179385,4170.256308,4173.846052,4161.53836,4192.30759,4149.230668,4148.205027,4131.28195,4123.076822
69,0,4145.128104,4175.384513,4135.897335,4197.948615,4162.05118,4167.179385,4169.743488,4174.358872,4166.666565,4184.102462,4193.846051,4137.435796,4165.128103,4127.692207
70,0,4153.846052,4177.435795,4139.999899,4199.487077,4173.846052,4168.717847,4173.333231,4179.487077,4162.564001,4164.615283,4176.410154,4137.948617,4180.512718,4133.333232
71,0,4157.948616,4176.410154,4136.410155,4187.692205,4169.230667,4171.79477,4181.025539,4184.615282,4157.948616,4161.025539,4147.692206,4151.28195,4153.846052,4135.897335
72,0,4149.743488,4172.30759,4146.666565,4188.717846,4154.358873,4169.230667,4177.435795,4176.410154,4156.922975,4158.974257,4168.205026,4143.076822,4150.769129,4135.384514
73,0,4148.205027,4172.820411,4155.897334,4198.461436,4166.666565,4166.153744,4169.230667,4169.743488,4156.922975,4151.79477,4176.922975,4134.358873,4176.922975,4133.333232
74,0,4156.922975,4177.948616,4148.205027,4187.179385,4168.717847,4168.205026,4170.769129,4172.820411,4154.358873,4157.435796,4153.333232,4147.692206,4170.769129,4130.76913
75,0,4146.153745,4164.615283,4152.820411,4150.256309,4150.256309,4165.640924,4170.256308,4172.30759,4151.79477,4173.333231,4148.717847,4153.846052,4154.358873,4126.153745
76,0,4137.948617,4151.79477,4169.743488,4141.53836,4161.53836,4162.564001,4166.153744,4174.871693,4158.974257,4182.564,4152.820411,4150.769129,4154.358873,4120.51272
77,0,4147.179386,4173.333231,4159.999898,4186.666564,4191.281949,4167.692206,4171.79477,4186.666564,4168.205026,4184.615282,4158.974257,4164.615283,4153.846052,4127.179386
78,0,4141.02554,4186.153744,4145.640924,4199.487077,4176.410154,4168.205026,4173.846052,4182.05118,4159.999898,4170.256308,4169.743488,4169.743488,4158.461437,4124.102463
79,0,4138.461437,4169.230667,4162.564001,4162.564001,4144.615283,4158.974257,4168.205026,4168.717847,4151.79477,4150.256309,4172.30759,4153.333232,4179.487077,4115.384515
80,0,4161.025539,4165.640924,4175.897334,4165.128103,4150.769129,4154.871693,4167.692206,4174.871693,4161.025539,4159.999898,4170.256308,4147.692206,4194.358872,4133.333232
81,0,4157.435796,4167.692206,4155.897334,4194.871692,4167.179385,4161.53836,4172.820411,4180.512718,4164.615283,4174.871693,4167.692206,4154.871693,4163.076821,4130.76913
82,0,4139.999899,4159.999898,4143.076822,4183.076821,4165.128103,4167.179385,4172.820411,4174.358872,4155.897334,4155.897334,4158.974257,4150.769129,4133.333232,4102.051182
83,0,4163.076821,4174.871693,4165.640924,4166.666565,4167.179385,4169.230667,4169.743488,4175.897334,4157.948616,4147.692206,4146.666565,4151.28195,4156.922975,4118.974258
84,0,4197.435795,4196.922974,4178.461436,4191.794769,4170.256308,4169.743488,4178.974257,4186.666564,4168.717847,4181.025539,4159.999898,4174.871693,4181.025539,4170.256308
85,0,4212.307589,4186.666564,4150.256309,4215.384512,4156.922975,4169.230667,4185.640923,4188.717846,4169.743488,4188.205026,4188.717846,4192.30759,4183.076821,4179.999898
86,0,4216.410153,4175.384513,4133.333232,4210.256307,4161.53836,4167.179385,4174.871693,4185.128103,4167.179385,4167.179385,4194.871692,4188.717846,4200.512718,4170.769129
87,0,4208.717846,4182.05118,4150.769129,4213.33323,4183.589641,4166.153744,4168.717847,4183.589641,4168.205026,4179.487077,4186.666564,4185.128103,4225.128102,4193.333231
88,0,4207.179384,4189.743487,4169.743488,4220.512717,4175.384513,4167.692206,4176.410154,4184.615282,4167.692206,4194.871692,4194.871692,4189.230667,4221.538358,4214.871692
89,0,4219.487076,4189.743487,4183.589641,4190.769128,4155.897334,4168.205026,4176.922975,4187.692205,4160.512719,4167.179385,4189.743487,4186.666564,4207.692205,4208.717846
90,0,4220.512717,4180.512718,4183.589641,4164.102462,4167.692206,4164.615283,4169.230667,4182.564,4155.384514,4150.256309,4162.05118,4179.487077,4193.846051,4184.615282
91,0,4213.846051,4174.358872,4169.743488,4186.153744,4178.461436,4165.640924,4173.846052,4180.512718,4160.512719,4171.281949,4165.640924,4184.102462,4182.564,4176.922975
92,0,4225.640922,4184.102462,4175.384513,4205.128102,4165.128103,4172.30759,4183.589641,4189.743487,4169.230667,4174.358872,4187.692205,4186.666564,4185.128103,4202.051179
93,0,4239.999896,4188.717846,4185.640923,4198.461436,4163.589642,4174.358872,4186.153744,4194.871692,4172.30759,4169.230667,4189.743487,4188.205026,4199.999897,4205.640923
94,0,4220.512717,4171.281949,4172.30759,4191.281949,4183.589641,4171.281949,4182.05118,4191.794769,4168.205026,4180.512718,4176.922975,4191.281949,4204.102461,4168.205026
95,0,4192.30759,4170.256308,4163.076821,4197.948615,4193.846051,4172.820411,4183.589641,4194.358872,4167.692206,4184.615282,4176.922975,4190.256308,4184.615282,4157.948616
96,0,4212.307589,4192.82041,4168.205026,4217.435794,4182.05118,4179.999898,4192.82041,4202.051179,4178.974257,4184.102462,4195.897333,4192.30759,4188.205026,4193.846051
97,0,4245.128101,4206.666564,4173.333231,4227.179384,4175.897334,4185.128103,4199.487077,4209.743487,4187.179385,4186.153744,4202.051179,4197.435795,4221.538358,4215.384512
98,0,4232.820409,4198.461436,4178.461436,4208.205025,4190.769128,4185.640923,4203.07682,4215.384512,4183.076821,4177.948616,4190.769128,4203.589641,4226.153743,4202.051179
99,0,4207.179384,4181.538359,4184.615282,4192.30759,4186.666564,4184.102462,4201.538359,4214.871692,4179.487077,4178.974257,4191.794769,4213.33323,4206.666564,4180.512718
100,0,4210.769128,4181.538359,4191.281949,4207.692205,4161.53836,4183.589641,4202.564,4211.794769,4183.589641,4195.897333,4209.743487,4217.948615,4209.743487,4178.974257
101,0,4234.871691,4198.461436,4181.025539,4227.179384,4175.384513,4188.205026,4211.281948,4218.461435,4185.640923,4198.461436,4214.871692,4205.128102,4221.538358,4205.128102
102,0,4245.128101,4204.102461,4166.153744,4218.974256,4212.307589,4194.358872,4218.461435,4223.58964,4184.102462,4194.358872,4195.897333,4197.948615,4217.948615,4215.897333
103,0,4227.179384,4194.871692,4190.256308,4208.205025,4205.640923,4193.333231,4217.435794,4221.538358,4186.153744,4196.410154,4185.128103,4211.794769,4209.743487,4197.948615
104,0,4212.307589,4196.922974,4210.769128,4223.58964,4179.487077,4191.281949,4217.435794,4223.07682,4187.692205,4197.435795,4206.153743,4218.974256,4217.948615,4209.743487
105,0,4216.922974,4200.512718,4190.769128,4230.256307,4185.640923,4194.871692,4216.922974,4224.102461,4186.666564,4202.051179,4221.025538,4215.897333,4237.948614,4224.102461
106,0,4218.974256,4193.333231,4182.564,4206.666564,4196.410154,4189.230667,4204.102461,4212.82041,4185.128103,4197.435795,4204.102461,4208.717846,4230.769127,4189.743487
107,0,4230.256307,4197.435795,4199.487077,4197.435795,4185.128103,4181.025539,4197.948615,4202.051179,4181.025539,4183.076821,4189.743487,4201.025538,4208.717846,4174.358872
108,0,4261.538357,4215.897333,4208.717846,4217.948615,4180.512718,4190.256308,4208.205025,4213.33323,4185.128103,4191.794769,4203.589641,4205.640923,4223.07682,4223.07682
109,0,4273.333229,4223.07682,4207.692205,4232.820409,4194.871692,4203.589641,4220.512717,4230.256307,4193.333231,4215.384512,4222.563999,4217.435794,4245.640922,4255.897332
110,0,4253.84605,4210.769128,4197.948615,4229.743486,4199.487077,4201.025538,4222.051179,4229.743486,4191.281949,4216.410153,4216.410153,4220.512717,4228.205025,4233.84605
111,0,4230.256307,4201.538359,4193.333231,4217.435794,4182.564,4187.692205,4209.743487,4218.461435,4185.640923,4203.589641,4195.897333,4208.717846,4205.128102,4201.025538
112,0,4220.512717,4197.435795,4213.33323,4191.281949,4178.461436,4181.025539,4202.564,4212.307589,4185.640923,4199.999897,4201.538359,4201.025538,4224.102461,4183.076821
113,0,4228.205025,4192.30759,4224.615281,4184.102462,4195.384513,4189.230667,4211.281948,4215.897333,4186.153744,4198.974256,4204.102461,4210.256307,4234.871691,4178.461436
114,0,4236.410153,4201.538359,4213.33323,4206.666564,4201.538359,4201.538359,4219.999897,4226.666563,4187.179385,4201.538359,4184.615282,4222.051179,4203.07682,4188.717846
115,0,4222.563999,4212.82041,4223.58964,4208.717846,4201.538359,4201.538359,4216.922974,4227.179384,4187.692205,4198.974256,4198.974256,4220.512717,4197.948615,4199.487077
116,0,4209.743487,4204.615282,4230.769127,4197.435795,4203.07682,4196.922974,4213.846051,4217.435794,4185.128103,4190.256308,4226.666563,4214.871692,4227.692204,4197.435795
117,0,4230.769127,4199.487077,4201.025538,4219.487076,4192.82041,4198.974256,4217.435794,4221.538358,4189.230667,4198.461436,4221.025538,4222.051179,4234.871691,4207.179384
118,0,4267.179383,4214.871692,4190.256308,4244.615281,4189.230667,4203.07682,4220.512717,4235.897332,4198.974256,4218.974256,4213.846051,4229.743486,4229.230666,4240.512717
119,0,4274.87169,4219.999897,4205.128102,4232.820409,4203.589641,4201.538359,4217.435794,4233.84605,4201.025538,4215.897333,4219.999897,4228.717845,4235.897332,4255.897332
120,0,4255.384511,4210.256307,4179.999898,4230.256307,4199.487077,4197.948615,4212.82041,4224.615281,4194.358872,4195.384513,4222.563999,4226.153743,4240.512717,4237.948614
121,0,4247.179383,4214.358871,4147.692206,4254.35887,4177.435795,4197.435795,4215.384512,4227.179384,4193.333231,4197.948615,4211.281948,4228.717845,4228.205025,4215.897333
122,0,4254.871691,4217.435794,4167.692206,4254.35887,4186.666564,4199.999897,4218.461435,4232.307589,4199.487077,4217.948615,4198.974256,4236.410153,4218.461435,4212.82041
123,0,4249.743486,4204.615282,4187.179385,4233.33323,4209.230666,4198.461436,4216.410153,4231.794768,4198.974256,4218.461435,4204.615282,4229.743486,4219.487076,4217.948615
124,0,4236.410153,4199.487077,4174.358872,4229.743486,4208.717846,4195.384513,4216.922974,4227.179384,4188.717846,4203.07682,4217.435794,4219.999897,4226.153743,4202.051179
125,0,4232.820409,4204.102461,4174.871693,4234.358871,4197.948615,4197.948615,4218.461435,4225.128102,4184.615282,4195.384513,4204.102461,4231.281948,4219.487076,4177.948616
126,0,4230.769127,4199.487077,4202.564,4223.58964,4193.333231,4198.461436,4217.948615,4224.615281,4192.82041,4198.461436,4193.333231,4239.487076,4206.666564,4188.205026
127,0,4234.358871,4198.974256,4225.640922,4210.769128,4186.666564,4190.256308,4216.922974,4218.974256,4192.30759,4199.487077,4214.871692,4218.974256,4215.384512,4225.128102
128,0,4255.384511,4217.435794,4215.897333,4215.897333,4183.589641,4185.640923,4216.410153,4214.871692,4182.564,4198.974256,4221.538358,4202.051179,4227.179384,4247.179383
0,0,4258.461434,4219.999897,4204.615282,4222.563999,4193.846051,4190.256308,4216.922974,4217.435794,4183.076821,4196.410154,4202.051179,4212.307589,4217.948615,4236.922973
1,0,4230.256307,4201.025538,4222.051179,4208.205025,4185.128103,4189.743487,4215.897333,4217.435794,4191.281949,4196.410154,4201.538359,4221.538358,4211.794769,4205.640923
2,0,4224.102461,4199.999897,4237.948614,4184.102462,4170.769129,4187.692205,4214.871692,4214.871692,4192.30759,4210.256307,4221.025538,4212.307589,4225.128102,4192.82041
3,0,4238.461435,4206.666564,4219.999897,4184.102462,4184.615282,4195.384513,4217.435794,4217.948615,4189.230667,4221.025538,4219.487076,4202.564,4227.692204,4209.743487
4,0,4223.58964,4199.487077,4193.846051,4214.871692,4205.128102,4202.564,4219.487076,4219.999897,4189.743487,4213.846051,4196.410154,4207.179384,4216.410153,4210.769128
5,0,4210.769128,4202.564,4175.384513,4239.999896,4205.128102,4195.384513,4216.922974,4217.435794,4192.30759,4207.179384,4189.743487,4215.897333,4212.307589,4184.615282
6,0,4234.358871,4218.974256,4165.128103,4236.922973,4202.051179,4191.794769,4215.384512,4219.487076,4196.410154,4215.384512,4203.07682,4220.512717,4210.256307,4183.589641
7,0,4254.871691,4221.538358,4175.897334,4231.281948,4206.153743,4198.461436,4217.948615,4229.230666,4201.025538,4229.743486,4219.999897,4218.461435,4218.974256,4218.974256
8,0,4249.230665,4214.358871,4184.102462,4238.974255,4200.512718,4201.538359,4217.948615,4235.897332,4202.051179,4233.84605,4225.128102,4218.461435,4233.84605,4226.153743
9,0,4236.922973,4211.281948,4177.948616,4231.281948,4193.846051,4197.948615,4214.358871,4228.717845,4197.948615,4226.153743,4209.743487,4223.07682,4231.794768,4189.743487
10,0,4232.820409,4206.666564,4187.179385,4206.666564,4189.743487,4194.871692,4212.82041,4215.384512,4189.743487,4217.948615,4195.897333,4223.07682,4219.487076,4181.538359
11,0,4232.820409,4208.205025,4194.358872,4217.948615,4183.589641,4197.948615,4215.384512,4213.846051,4186.666564,4214.358871,4203.589641,4210.769128,4214.358871,4208.205025
12,0,4230.769127,4211.794769,4179.999898,4243.076819,4188.717846,4197.948615,4214.871692,4219.487076,4190.256308,4201.025538,4215.897333,4199.487077,4212.307589,4214.358871
13,0,4236.410153,4212.82041,4190.769128,4235.897332,4206.666564,4202.564,4218.974256,4226.153743,4195.897333,4197.948615,4221.025538,4211.281948,4219.487076,4211.281948
14,0,4259.999896,4233.84605,4214.871692,4242.563999,4222.051179,4219.999897,4243.076819,4247.692204,4210.769128,4232.820409,4241.538358,4243.076819,4245.128101,4232.307589
15,0,4286.666562,4259.487075,4202.564,4289.230664,4232.307589,4236.410153,4265.128101,4274.35887,4229.230666,4264.10246,4265.640921,4267.179383,4273.846049,4254.871691
16,0,4305.64092,4270.256306,4197.948615,4306.666561,4252.307588,4244.10246,4269.743485,4283.589639,4234.871691,4263.589639,4265.128101,4274.87169,4284.102459,4264.61528
17,0,4313.846048,4277.435793,4227.179384,4286.666562,4264.61528,4246.666563,4272.820408,4282.563998,4232.820409,4263.589639,4263.076819,4276.922972,4280.512716,4280.512716
18,0,4302.563997,4276.410152,4237.435794,4276.410152,4256.410152,4242.051178,4272.820408,4282.563998,4232.820409,4275.384511,4263.076819,4277.948613,4279.487075,4284.102459
19,0,4297.948613,4266.666562,4228.717845,4281.538357,4247.692204,4234.358871,4266.666562,4277.948613,4229.230666,4276.410152,4252.307588,4278.974254,4277.948613,4266.666562
20,0,4311.794766,4268.205024,4230.256307,4285.1281,4246.153742,4234.358871,4266.153742,4276.922972,4229.230666,4270.769126,4246.666563,4278.974254,4282.563998,4265.128101
21,0,4296.922972,4263.076819,4229.743486,4271.281947,4244.10246,4234.358871,4267.692203,4275.384511,4229.743486,4264.61528,4249.743486,4273.846049,4282.051177,4268.717844
22,0,4269.743485,4251.281947,4242.051178,4253.333229,4247.179383,4228.717845,4261.538357,4266.666562,4222.051179,4257.948614,4245.128101,4274.35887,4264.61528,4253.84605
23,0,4285.640921,4260.512716,4260.512716,4259.999896,4246.153742,4225.640922,4253.84605,4259.487075,4217.435794,4254.35887,4248.717845,4274.35887,4259.999896,4254.871691
24,0,4303.076818,4269.230665,4245.640922,4263.589639,4233.33323,4220.512717,4248.205024,4252.307588,4219.487076,4250.256306,4259.487075,4254.871691,4279.487075,4272.820408
25,0,4289.230664,4258.974255,4224.102461,4248.717845,4227.179384,4215.384512,4246.666563,4247.179383,4216.410153,4253.84605,4252.820409,4243.58964,4282.051177,4268.717844
26,0,4283.589639,4258.461434,4229.743486,4253.84605,4233.33323,4220.512717,4249.230665,4254.871691,4212.82041,4268.205024,4245.128101,4256.410152,4266.153742,4256.922973
27,0,4289.743485,4262.563998,4229.743486,4264.61528,4231.794768,4227.692204,4249.230665,4261.025537,4217.435794,4274.87169,4247.179383,4261.025537,4264.10246,4255.384511
28,0,4278.461434,4251.281947,4207.179384,4250.256306,4228.205025,4228.205025,4248.717845,4256.922973,4219.999897,4268.205024,4236.410153,4254.871691,4263.589639,4250.769127
29,0,4266.666562,4243.58964,4193.333231,4251.281947,4234.358871,4225.640922,4249.743486,4259.999896,4219.999897,4261.025537,4227.692204,4256.922973,4258.461434,4238.974255
30,0,4264.61528,4249.230665,4202.051179,4273.846049,4222.051179,4221.025538,4248.717845,4264.10246,4219.487076,4259.999896,4242.051178,4259.999896,4264.10246,4231.281948
31,0,4263.076819,4253.333229,4218.461435,4266.153742,4209.230666,4215.897333,4245.640922,4256.922973,4218.461435,4258.974255,4250.769127,4258.461434,4265.640921,4236.922973
32,0,4270.769126,4252.307588,4224.102461,4245.128101,4235.897332,4221.025538,4243.58964,4257.948614,4218.974256,4260.512716,4245.128101,4258.974255,4262.051178,4259.999896
33,0,4285.1281,4250.769127,4229.743486,4249.743486,4255.897332,4227.179384,4246.666563,4263.076819,4218.974256,4265.640921,4249.743486,4264.61528,4272.307588,4267.692203
34,0,4283.076818,4246.666563,4249.743486,4238.461435,4236.410153,4218.974256,4248.205024,4253.84605,4215.384512,4266.153742,4251.794768,4262.563998,4279.999895,4254.871691
35,0,4269.230665,4242.563999,4257.948614,4205.640923,4226.666563,4212.82041,4238.974255,4243.58964,4211.794769,4255.384511,4237.948614,4251.794768,4271.794767,4245.640922
36,0,4264.10246,4245.128101,4248.205024,4217.435794,4233.84605,4217.948615,4230.769127,4246.153742,4213.846051,4250.256306,4230.769127,4246.153742,4259.487075,4242.051178
37,0,4266.666562,4249.743486,4248.717845,4252.820409,4217.948615,4218.974256,4237.435794,4248.717845,4215.897333,4255.897332,4235.384512,4248.205024,4251.281947,4239.999896
38,0,4263.589639,4246.153742,4236.410153,4253.333229,4210.769128,4215.384512,4243.58964,4246.666563,4214.358871,4251.794768,4232.307589,4249.230665,4253.84605,4235.384512
39,0,4257.435793,4236.922973,4199.487077,4247.692204,4234.358871,4218.461435,4235.384512,4245.128101,4214.358871,4244.10246,4229.230666,4247.179383,4263.589639,4229.743486
40,0,4257.948614,4230.256307,4200.512718,4254.871691,4236.922973,4218.461435,4229.743486,4241.025537,4212.307589,4245.128101,4236.922973,4246.666563,4261.538357,4229.230666
41,0,4251.794768,4232.307589,4235.897332,4238.974255,4212.307589,4208.717846,4231.794768,4232.820409,4203.07682,4234.871691,4226.153743,4243.076819,4234.871691,4220.512717
42,0,4228.205025,4230.256307,4230.256307,4223.58964,4205.640923,4202.051179,4226.153743,4228.717845,4197.948615,4220.512717,4197.948615,4233.33323,4214.358871,4199.999897
43,0,4216.410153,4221.538358,4209.743487,4232.820409,4224.102461,4205.128102,4219.487076,4234.871691,4204.102461,4232.820409,4197.948615,4231.281948,4227.692204,4197.435795
44,0,4227.179384,4216.410153,4222.563999,4206.666564,4214.358871,4199.487077,4217.948615,4228.205025,4203.07682,4236.410153,4216.410153,4230.256307,4239.487076,4207.179384
45,0,4238.461435,4212.82041,4235.897332,4169.743488,4190.256308,4192.82041,4212.82041,4211.281948,4196.410154,4217.948615,4218.974256,4221.538358,4231.794768,4211.281948
46,0,4243.58964,4216.922974,4233.33323,4200.512718,4205.128102,4204.102461,4213.33323,4219.999897,4203.07682,4219.487076,4214.358871,4218.461435,4235.897332,4225.640922
47,0,4248.205024,4231.794768,4229.743486,4241.538358,4230.769127,4210.256307,4219.999897,4235.897332,4209.230666,4227.179384,4215.897333,4222.051179,4248.717845,4233.84605
48,0,4246.153742,4232.307589,4224.102461,4226.666563,4223.07682,4200.512718,4218.461435,4225.640922,4204.102461,4216.922974,4219.487076,4222.051179,4243.58964,4221.025538
49,0,4236.922973,4219.999897,4222.563999,4208.205025,4209.230666,4198.974256,4212.307589,4212.307589,4199.999897,4213.33323,4219.999897,4216.922974,4235.384512,4210.256307
50,0,4232.820409,4224.615281,4237.435794,4214.871692,4215.897333,4204.102461,4211.794769,4216.922974,4200.512718,4219.487076,4215.384512,4217.435794,4232.820409,4209.743487
51,0,4230.769127,4230.769127,4252.307588,4207.179384,4216.922974,4199.999897,4214.358871,4219.487076,4199.487077,4216.410153,4211.794769,4224.615281,4226.153743,4207.692205
52,0,4234.358871,4218.974256,4241.538358,4196.922974,4212.307589,4196.922974,4216.410153,4216.410153,4201.025538,4227.179384,4217.435794,4226.153743,4229.743486,4206.153743
53,0,4241.025537,4216.410153,4210.769128,4207.692205,4215.384512,4199.999897,4215.897333,4216.922974,4203.589641,4245.640922,4221.025538,4225.128102,4237.435794,4202.051179
54,0,4235.384512,4218.974256,4193.333231,4225.128102,4211.794769,4200.512718,4213.33323,4218.974256,4202.564,4243.58964,4216.922974,4229.230666,4235.897332,4195.384513
55,0,4229.230666,4216.410153,4196.922974,4242.051178,4202.051179,4196.922974,4214.358871,4218.974256,4204.102461,4229.230666,4215.384512,4232.820409,4233.84605,4206.666564
56,0,4238.974255,4226.153743,4200.512718,4250.256306,4201.025538,4202.051179,4217.948615,4219.999897,4205.640923,4220.512717,4215.897333,4230.769127,4232.307589,4218.461435
57,0,4246.666563,4234.871691,4196.922974,4241.025537,4212.82041,4210.769128,4217.948615,4224.102461,4202.564,4217.948615,4222.051179,4232.820409,4235.897332,4210.256307
58,0,4234.871691,4227.692204,4197.948615,4229.230666,4223.07682,4206.666564,4214.358871,4222.563999,4199.999897,4222.051179,4216.410153,4233.33323,4232.820409,4198.461436
59,0,4229.743486,4226.666563,4212.307589,4228.717845,4217.435794,4199.999897,4214.358871,4215.384512,4202.564,4229.230666,4194.871692,4228.717845,4217.435794,4198.461436
60,0,4229.230666,4231.794768,4218.461435,4229.743486,4203.07682,4200.512718,4216.410153,4215.897333,4202.051179,4230.769127,4196.410154,4228.717845,4213.846051,4203.589641
61,0,4230.256307,4230.769127,4198.974256,4234.358871,4205.640923,4202.564,4219.487076,4226.666563,4202.051179,4231.794768,4229.743486,4232.307589,4238.974255,4213.846051
62,0,4238.461435,4230.769127,4179.999898,4247.692204,4223.07682,4206.666564,4222.563999,4235.384512,4210.256307,4233.84605,4249.230665,4239.487076,4262.051178,4229.743486
63,0,4239.999896,4229.230666,4184.615282,4252.307588,4222.563999,4205.640923,4221.538358,4230.769127,4209.230666,4227.179384,4234.358871,4239.487076,4250.256306,4230.256307
64,0,4237.948614,4224.102461,4187.179385,4249.230665,4213.846051,4200.512718,4216.922974,4223.58964,4202.564,4215.897333,4221.025538,4230.256307,4235.384512,4216.922974
65,0,4243.076819,4228.205025,4179.487077,4249.230665,4217.435794,4207.692205,4216.922974,4225.128102,4209.743487,4212.307589,4218.974256,4232.820409,4238.974255,4211.794769
66,0,4247.179383,4232.307589,4182.564,4241.538358,4220.512717,4219.487076,4218.974256,4228.717845,4217.948615,4228.205025,4217.435794,4243.58964,4236.922973,4213.33323
67,0,4242.563999,4229.743486,4189.743487,4246.153742,4216.410153,4214.358871,4217.435794,4228.205025,4214.358871,4247.692204,4225.128102,4241.538358,4232.820409,4214.871692
68,0,4234.358871,4230.256307,4180.512718,4264.61528,4213.846051,4204.615282,4216.410153,4224.102461,4212.307589,4254.871691,4233.84605,4233.84605,4248.717845,4216.922974
69,0,4227.692204,4232.307589,4164.615283,4257.948614,4214.871692,4202.564,4217.435794,4219.487076,4209.743487,4246.666563,4225.128102,4231.794768,4254.35887,4215.897333
70,0,4232.307589,4229.743486,4161.025539,4249.743486,4218.461435,4202.564,4216.922974,4218.461435,4203.589641,4234.871691,4220.512717,4230.769127,4235.384512,4213.33323
71,0,4245.128101,4228.717845,4177.948616,4257.435793,4211.794769,4199.487077,4217.435794,4218.974256,4201.025538,4229.743486,4229.230666,4229.230666,4233.84605,4223.07682
72,0,4246.666563,4231.794768,4209.743487,4249.230665,4206.153743,4200.512718,4217.435794,4216.410153,4203.07682,4230.256307,4225.640922,4227.692204,4250.769127,4231.281948
73,0,4247.179383,4233.33323,4234.358871,4225.640922,4216.922974,4211.281948,4216.922974,4217.435794,4208.717846,4229.743486,4214.871692,4231.281948,4250.256306,4224.102461
74,0,4242.051178,4229.743486,4237.948614,4204.102461,4217.948615,4210.769128,4217.948615,4216.922974,4207.179384,4225.640922,4214.358871,4234.358871,4232.820409,4213.33323
75,0,4233.33323,4228.205025,4226.666563,4200.512718,4205.640923,4199.487077,4216.410153,4213.33323,4201.538359,4232.820409,4218.461435,4226.153743,4232.307589,4214.871692
76,0,4236.410153,4230.256307,4203.07682,4224.615281,4210.769128,4206.666564,4214.358871,4213.33323,4206.153743,4243.076819,4219.487076,4221.538358,4246.153742,4215.384512
77,0,4238.461435,4228.205025,4193.846051,4237.948614,4213.33323,4216.922974,4214.871692,4215.897333,4209.230666,4237.435794,4218.461435,4232.307589,4240.512717,4206.153743
78,0,4232.820409,4230.769127,4235.897332,4210.256307,4203.589641,4207.692205,4215.897333,4215.897333,4205.128102,4228.205025,4214.871692,4232.307589,4228.205025,4206.153743
79,0,4235.897332,4236.922973,4271.794767,4198.461436,4218.974256,4199.487077,4214.871692,4215.897333,4204.615282,4226.666563,4217.435794,4218.974256,4235.384512,4217.435794
80,0,4250.256306,4232.820409,4242.051178,4222.051179,4235.897332,4205.640923,4214.871692,4215.384512,4205.640923,4224.615281,4225.640922,4221.538358,4246.153742,4226.666563
81,0,4251.281947,4234.358871,4208.717846,4235.384512,4224.102461,4212.82041,4216.922974,4214.358871,4205.640923,4225.128102,4227.692204,4234.358871,4245.640922,4229.230666
82,0,4248.205024,4246.666563,4211.794769,4239.999896,4214.871692,4213.846051,4217.948615,4217.948615,4211.794769,4238.974255,4228.205025,4234.871691,4247.692204,4229.230666
83,0,4257.435793,4253.333229,4213.33323,4251.794768,4219.999897,4215.897333,4216.922974,4221.538358,4216.410153,4252.307588,4231.281948,4231.794768,4250.769127,4228.717845
84,0,4258.461434,4248.717845,4219.999897,4240.512717,4221.025538,4214.358871,4215.384512,4218.461435,4212.307589,4245.128101,4228.717845,4231.281948,4245.640922,4226.153743
85,0,4247.179383,4238.461435,4231.794768,4215.384512,4217.435794,4206.153743,4215.384512,4213.33323,4203.589641,4228.205025,4218.461435,4227.692204,4239.487076,4218.461435
86,0,4240.512717,4232.820409,4222.563999,4217.948615,4216.410153,4204.615282,4215.384512,4213.846051,4201.025538,4227.179384,4219.487076,4227.179384,4241.538358,4213.33323
87,0,4247.179383,4233.33323,4224.102461,4223.07682,4217.435794,4208.205025,4215.897333,4218.461435,4208.717846,4235.897332,4231.794768,4232.820409,4248.717845,4222.051179
88,0,4253.333229,4235.897332,4238.974255,4213.33323,4222.051179,4207.692205,4217.435794,4218.461435,4211.794769,4231.281948,4236.922973,4233.84605,4250.769127,4229.743486
89,0,4259.999896,4239.999896,4225.128102,4230.256307,4218.974256,4207.179384,4216.922974,4217.948615,4205.128102,4234.871691,4236.922973,4233.33323,4249.230665,4235.384512
90,0,4276.922972,4247.692204,4208.205025,4256.410152,4213.846051,4207.692205,4213.846051,4216.410153,4201.025538,4246.153742,4232.820409,4237.948614,4249.230665,4244.615281
91,0,4291.794767,4255.897332,4212.82041,4248.717845,4221.538358,4205.640923,4216.922974,4215.384512,4203.07682,4246.153742,4231.281948,4242.563999,4248.717845,4255.384511
92,0,4301.538356,4256.410152,4202.564,4242.563999,4217.948615,4204.102461,4217.948615,4216.922974,4206.666564,4253.84605,4232.307589,4245.128101,4250.769127,4268.717844
93,0,4307.692202,4252.307588,4179.487077,4261.538357,4202.051179,4201.538359,4205.128102,4211.794769,4202.564,4252.307588,4219.999897,4243.58964,4246.666563,4275.897331
94,0,4320.512715,4257.948614,4183.589641,4271.794767,4209.743487,4205.128102,4205.128102,4208.205025,4197.435795,4233.84605,4221.025538,4249.743486,4252.307588,4287.179382
95,0,4344.615278,4267.179383,4208.205025,4265.640921,4230.769127,4213.846051,4219.487076,4216.410153,4201.538359,4233.84605,4243.58964,4259.999896,4271.794767,4314.871689
96,0,4354.871688,4267.179383,4217.435794,4261.025537,4212.82041,4206.153743,4213.33323,4217.948615,4202.564,4241.538358,4244.615281,4255.384511,4272.820408,4332.820407
97,0,4346.66656,4272.307588,4210.256307,4263.076819,4192.30759,4196.410154,4202.051179,4209.743487,4201.025538,4229.230666,4227.692204,4251.281947,4265.128101,4329.230663
98,0,4349.743483,4286.666562,4223.07682,4263.589639,4231.794768,4204.615282,4214.358871,4214.358871,4207.692205,4234.871691,4232.307589,4266.666562,4272.820408,4329.743484
99,0,4359.487073,4282.563998,4236.410153,4267.692203,4259.487075,4208.717846,4219.487076,4224.102461,4209.230666,4259.487075,4242.563999,4273.846049,4274.87169,4326.15374
100,0,4340.512714,4264.61528,4219.999897,4266.666562,4229.230666,4202.564,4204.615282,4213.846051,4201.538359,4253.84605,4229.743486,4253.84605,4261.025537,4304.615279
101,0,4313.846048,4259.487075,4211.281948,4243.076819,4211.794769,4202.051179,4204.615282,4199.999897,4199.487077,4242.563999,4216.410153,4241.538358,4250.256306,4293.333228
102,0,4304.615279,4262.563998,4240.512717,4219.487076,4221.025538,4203.589641,4216.410153,4207.692205,4204.102461,4251.281947,4218.461435,4249.230665,4246.153742,4283.076818
103,0,4289.743485,4254.35887,4275.384511,4210.256307,4211.281948,4202.564,4212.307589,4214.358871,4205.128102,4243.076819,4225.640922,4243.58964,4244.10246,4261.025537
104,0,4266.666562,4236.410153,4276.922972,4195.897333,4207.692205,4199.999897,4199.999897,4203.07682,4200.512718,4222.051179,4214.358871,4218.974256,4240.512717,4248.717845
105,0,4257.435793,4227.179384,4268.205024,4171.79477,4228.717845,4201.025538,4203.589641,4197.948615,4197.435795,4216.410153,4199.999897,4215.384512,4231.281948,4234.358871
106,0,4248.717845,4228.205025,4277.948613,4165.640924,4222.563999,4203.589641,4210.256307,4204.615282,4198.974256,4217.435794,4206.666564,4227.692204,4229.743486,4213.33323
107,0,4235.384512,4230.769127,4290.256305,4174.358872,4201.025538,4202.564,4205.128102,4202.564,4198.974256,4226.153743,4218.974256,4220.512717,4234.358871,4221.538358
108,0,4232.307589,4233.84605,4264.10246,4184.615282,4205.128102,4203.589641,4206.153743,4205.640923,4200.512718,4250.769127,4219.999897,4208.717846,4234.871691,4244.615281
109,0,4235.384512,4232.820409,4224.102461,4197.435795,4217.435794,4208.205025,4216.922974,4215.897333,4203.07682,4263.076819,4202.051179,4211.794769,4227.692204,4233.33323
110,0,4233.33323,4229.743486,4226.666563,4201.025538,4217.948615,4212.82041,4219.487076,4214.871692,4202.051179,4261.025537,4187.692205,4216.410153,4216.922974,4206.666564
111,0,4230.256307,4231.794768,4234.871691,4210.256307,4217.435794,4214.358871,4217.435794,4214.871692,4209.230666,4261.538357,4208.205025,4218.974256,4218.461435,4208.717846
112,0,4231.794768,4233.33323,4213.846051,4235.384512,4221.538358,4208.717846,4218.461435,4218.461435,4216.922974,4257.435793,4230.769127,4219.999897,4230.769127,4222.563999
113,0,4230.769127,4235.384512,4213.33323,4233.84605,4215.384512,4198.461436,4214.358871,4213.33323,4205.640923,4243.076819,4221.025538,4212.307589,4230.769127,4218.974256
114,0,4224.615281,4230.769127,4242.563999,4201.538359,4212.307589,4202.564,4213.33323,4210.769128,4198.461436,4239.999896,4213.33323,4211.794769,4227.179384,4210.256307
115,0,4215.897333,4215.897333,4236.410153,4195.384513,4222.563999,4214.358871,4216.410153,4217.435794,4210.256307,4243.58964,4222.051179,4217.948615,4233.84605,4208.205025
116,0,4212.307589,4217.948615,4201.538359,4221.538358,4226.666563,4212.307589,4215.897333,4217.948615,4213.846051,4247.179383,4215.384512,4215.897333,4230.769127,4206.153743
117,0,4216.410153,4233.84605,4191.281949,4227.692204,4221.538358,4199.999897,4212.307589,4213.846051,4206.666564,4248.205024,4209.743487,4211.281948,4216.410153,4198.974256
118,0,4217.948615,4234.358871,4198.461436,4218.461435,4216.922974,4198.461436,4211.794769,4214.358871,4205.128102,4241.538358,4219.487076,4213.33323,4217.948615,4199.487077
119,0,4219.487076,4231.794768,4200.512718,4228.717845,4217.948615,4213.33323,4216.410153,4217.435794,4204.615282,4232.820409,4208.205025,4218.461435,4231.794768,4210.769128
120,0,4221.538358,4239.999896,4205.128102,4233.33323,4220.512717,4216.410153,4219.487076,4217.948615,4203.589641,4232.820409,4188.205026,4219.999897,4224.615281,4214.871692
121,0,4213.33323,4233.84605,4218.974256,4207.692205,4216.410153,4201.538359,4215.897333,4215.384512,4205.128102,4244.10246,4201.538359,4213.846051,4209.230666,4196.410154
122,0,4201.538359,4218.974256,4228.205025,4197.948615,4207.179384,4203.07682,4213.846051,4216.410153,4206.666564,4258.974255,4226.153743,4206.666564,4219.487076,4182.05118
123,0,4198.974256,4216.922974,4221.025538,4214.358871,4212.82041,4214.358871,4215.384512,4217.435794,4206.666564,4258.461434,4221.538358,4203.589641,4235.384512,4193.846051
124,0,4203.07682,4217.435794,4205.128102,4218.974256,4227.179384,4211.794769,4215.384512,4214.358871,4205.128102,4239.487076,4210.256307,4203.07682,4228.205025,4199.487077
125,0,4208.205025,4223.07682,4194.358872,4219.487076,4222.563999,4211.281948,4216.410153,4214.871692,4206.153743,4227.692204,4215.384512,4208.205025,4225.640922,4193.333231
126,0,4216.410153,4231.794768,4196.410154,4224.615281,4215.384512,4221.025538,4218.461435,4220.512717,4211.281948,4241.025537,4214.358871,4215.897333,4230.769127,4198.461436
127,0,4218.461435,4230.769127,4200.512718,4217.435794,4214.871692,4215.897333,4216.922974,4218.461435,4216.922974,4248.205024,4202.564,4213.33323,4210.256307,4195.384513
128,0,4216.410153,4228.205025,4201.538359,4212.307589,4213.846051,4206.666564,4216.410153,4216.922974,4213.846051,4237.948614,4202.564,4208.205025,4199.487077,4178.461436
0,0,4217.948615,4233.33323,4214.871692,4218.461435,4221.538358,4212.307589,4218.974256,4223.07682,4206.153743,4226.153743,4214.358871,4209.743487,4221.025538,4187.179385
1,0,4215.384512,4231.281948,4225.640922,4220.512717,4230.769127,4214.871692,4217.435794,4222.563999,4203.07682,4226.153743,4217.948615,4205.640923,4229.230666,4208.717846
2,0,4210.769128,4225.128102,4204.102461,4230.256307,4228.717845,4211.794769,4216.410153,4217.435794,4204.102461,4251.281947,4212.82041,4198.461436,4221.538358,4205.128102
3,0,4213.846051,4229.743486,4186.153744,4240.512717,4229.743486,4213.33323,4218.461435,4216.922974,4207.692205,4272.307588,4213.33323,4203.07682,4229.743486,4198.461436
4,0,4218.461435,4234.358871,4194.358872,4235.897332,4230.769127,4215.384512,4216.922974,4220.512717,4209.230666,4257.435793,4216.922974,4212.307589,4235.897332,4208.205025
5,0,4213.33323,4229.230666,4188.717846,4237.435794,4221.025538,4214.358871,4215.897333,4222.563999,4212.307589,4241.025537,4217.948615,4215.897333,4230.256307,4209.743487
6,0,4203.07682,4227.179384,4186.153744,4242.051178,4218.974256,4214.358871,4218.461435,4222.563999,4215.897333,4245.128101,4218.974256,4216.410153,4231.794768,4199.487077
7,0,4205.640923,4229.230666,4204.102461,4229.230666,4221.538358,4212.82041,4218.461435,4218.461435,4210.769128,4238.974255,4217.435794,4215.384512,4233.84605,4196.922974
8,0,4213.846051,4226.666563,4212.82041,4218.461435,4216.922974,4211.794769,4214.871692,4215.897333,4202.051179,4228.205025,4216.922974,4214.871692,4233.33323,4199.487077
9,0,4215.384512,4229.230666,4212.82041,4229.230666,4225.640922,4215.384512,4217.948615,4224.102461,4206.666564,4231.281948,4217.435794,4223.58964,4233.33323,4200.512718
10,0,4214.358871,4235.897332,4225.640922,4227.179384,4237.435794,4219.487076,4223.07682,4235.897332,4217.435794,4237.948614,4221.025538,4231.281948,4231.794768,4201.025538
11,0,4213.33323,4233.33323,4238.461435,4197.435795,4215.384512,4216.410153,4220.512717,4230.256307,4214.871692,4230.256307,4217.948615,4219.999897,4230.256307,4201.025538
12,0,4214.358871,4230.769127,4235.897332,4194.871692,4195.897333,4210.256307,4214.871692,4217.435794,4209.743487,4216.922974,4206.153743,4213.33323,4228.205025,4206.153743
13,0,4221.538358,4236.922973,4217.435794,4236.410153,4220.512717,4213.33323,4216.410153,4227.692204,4213.846051,4223.07682,4210.256307,4225.640922,4235.384512,4215.384512
14,0,4220.512717,4234.358871,4192.82041,4256.922973,4244.615281,4217.948615,4219.487076,4234.871691,4218.461435,4235.384512,4230.769127,4227.692204,4244.615281,4217.948615
15,0,4209.230666,4226.666563,4200.512718,4227.692204,4228.717845,4211.794769,4215.384512,4218.974256,4212.82041,4227.179384,4231.281948,4216.410153,4239.999896,4211.281948
16,0,4209.230666,4235.897332,4228.717845,4209.743487,4210.256307,4206.153743,4213.846051,4214.358871,4203.589641,4217.435794,4217.435794,4217.948615,4236.410153,4206.666564
17,0,4221.025538,4249.743486,4233.33323,4230.256307,4221.538358,4217.435794,4225.128102,4231.281948,4207.179384,4225.640922,4224.615281,4229.743486,4247.179383,4213.33323
18,0,4226.153743,4248.205024,4226.666563,4241.538358,4223.58964,4226.153743,4234.358871,4238.461435,4218.974256,4241.025537,4237.435794,4233.33323,4253.84605,4222.051179
19,0,4224.615281,4241.025537,4227.692204,4230.256307,4210.256307,4221.538358,4231.281948,4233.84605,4218.461435,4250.256306,4234.871691,4234.871691,4250.256306,4218.461435
20,0,4229.230666,4243.076819,4229.743486,4228.717845,4222.563999,4221.538358,4230.256307,4233.84605,4211.794769,4249.743486,4229.743486,4239.999896,4249.743486,4215.897333
21,0,4227.692204,4247.692204,4214.871692,4246.153742,4240.512717,4223.58964,4233.33323,4236.922973,4216.922974,4247.692204,4231.281948,4238.461435,4249.743486,4226.666563
22,0,4221.025538,4244.615281,4200.512718,4254.871691,4229.743486,4217.948615,4231.281948,4233.84605,4219.999897,4244.615281,4231.794768,4232.820409,4251.281947,4231.794768
23,0,4217.435794,4236.922973,4236.410153,4228.205025,4219.487076,4215.384512,4225.128102,4227.179384,4213.846051,4232.307589,4221.025538,4229.743486,4247.179383,4218.974256
24,0,4216.410153,4232.820409,4283.076818,4194.871692,4224.615281,4218.974256,4225.640922,4229.230666,4213.846051,4225.128102,4215.897333,4230.769127,4241.025537,4213.33323
25,0,4221.538358,4236.922973,4267.692203,4198.974256,4220.512717,4216.922974,4227.179384,4233.33323,4217.435794,4234.871691,4230.256307,4232.820409,4245.128101,4227.179384
26,0,4229.230666,4241.025537,4234.871691,4219.487076,4211.794769,4214.871692,4226.153743,4224.615281,4216.410153,4241.538358,4235.897332,4234.358871,4251.794768,4230.256307
27,0,4234.358871,4244.615281,4249.230665,4222.051179,4216.922974,4217.948615,4227.692204,4221.025538,4214.871692,4242.051178,4226.666563,4234.871691,4254.871691,4225.128102
28,0,4230.769127,4244.615281,4264.10246,4216.922974,4214.358871,4217.435794,4228.205025,4227.692204,4215.897333,4246.153742,4229.743486,4234.358871,4253.84605,4227.179384
29,0,4223.07682,4236.410153,4256.922973,4207.692205,4205.640923,4214.871692,4225.640922,4228.717845,4214.871692,4244.10246,4231.794768,4229.743486,4249.230665,4223.07682
30,0,4223.58964,4233.84605,4258.461434,4195.384513,4216.922974,4215.897333,4227.692204,4227.179384,4213.33323,4244.10246,4217.948615,4232.820409,4245.128101,4219.487076
31,0,4230.769127,4244.10246,4255.897332,4202.564,4233.84605,4219.999897,4233.33323,4232.307589,4216.922974,4250.769127,4219.487076,4244.10246,4246.666563,4230.256307
32,0,4233.33323,4252.307588,4258.461434,4218.974256,4232.820409,4221.025538,4233.84605,4235.384512,4221.025538,4250.769127,4236.922973,4241.538358,4255.384511,4237.948614
33,0,4226.153743,4245.128101,4261.025537,4214.871692,4225.128102,4219.487076,4231.794768,4231.794768,4218.461435,4241.538358,4236.922973,4234.358871,4261.025537,4228.205025
34,0,4221.025538,4233.33323,4241.025537,4212.307589,4231.281948,4221.025538,4232.307589,4231.794768,4219.999897,4243.58964,4227.179384,4243.58964,4252.307588,4217.948615
35,0,4214.871692,4233.84605,4213.33323,4233.84605,4229.230666,4226.666563,4233.33323,4232.820409,4227.179384,4248.717845,4228.717845,4248.717845,4239.487076,4215.384512
36,0,4212.307589,4241.538358,4199.999897,4250.769127,4215.897333,4229.743486,4232.820409,4231.794768,4223.07682,4230.256307,4233.84605,4235.384512,4251.281947,4223.07682
37,0,4221.538358,4248.205024,4198.974256,4247.179383,4216.922974,4223.58964,4233.33323,4237.948614,4220.512717,4228.205025,4235.897332,4229.743486,4263.076819,4233.33323
38,0,4231.794768,4244.10246,4197.948615,4245.128101,4230.769127,4224.102461,4235.384512,4243.58964,4227.692204,4261.538357,4230.256307,4236.922973,4250.256306,4222.051179
39,0,4234.358871,4234.871691,4198.974256,4251.281947,4235.384512,4227.692204,4234.871691,4236.922973,4226.666563,4275.384511,4215.384512,4236.410153,4239.487076,4202.051179
40,0,4215.897333,4234.871691,4204.102461,4247.692204,4217.435794,4221.538358,4230.769127,4226.666563,4215.897333,4251.281947,4213.846051,4226.666563,4245.640922,4208.717846
41,0,4202.051179,4248.717845,4227.692204,4238.974255,4213.33323,4219.487076,4230.769127,4228.717845,4218.461435,4243.58964,4230.256307,4223.07682,4256.922973,4235.897332
42,0,4218.461435,4249.743486,4250.769127,4229.743486,4226.153743,4229.743486,4233.84605,4234.871691,4225.640922,4256.410152,4237.948614,4230.256307,4256.922973,4242.563999
43,0,4233.33323,4234.871691,4243.58964,4220.512717,4224.615281,4231.794768,4232.820409,4233.84605,4218.974256,4245.640922,4232.307589,4232.820409,4248.717845,4228.717845
44,0,4222.563999,4236.410153,4228.717845,4216.922974,4213.846051,4220.512717,4230.256307,4228.205025,4214.871692,4227.179384,4231.281948,4227.179384,4246.153742,4221.538358
45,0,4212.307589,4241.538358,4241.538358,4210.256307,4212.82041,4215.897333,4231.281948,4225.640922,4217.435794,4231.281948,4228.205025,4227.179384,4246.666563,4213.33323
46,0,4217.435794,4234.871691,4269.230665,4204.102461,4219.999897,4221.025538,4234.871691,4230.769127,4219.487076,4247.179383,4228.717845,4231.794768,4245.640922,4211.281948
47,0,4219.999897,4231.794768,4267.179383,4211.794769,4216.922974,4223.07682,4235.384512,4234.871691,4222.563999,4247.179383,4240.512717,4231.794768,4251.794768,4230.256307
48,0,4217.948615,4233.84605,4239.487076,4220.512717,4213.33323,4221.025538,4232.820409,4233.33323,4224.615281,4239.999896,4243.076819,4236.922973,4261.025537,4233.84605
49,0,4214.358871,4231.281948,4229.230666,4218.974256,4219.999897,4226.153743,4234.871691,4236.922973,4224.615281,4242.563999,4236.922973,4246.153742,4260.512716,4222.051179
50,0,4212.82041,4231.794768,4230.769127,4220.512717,4234.871691,4235.384512,4247.179383,4247.692204,4225.640922,4247.692204,4246.153742,4250.769127,4264.10246,4230.256307
51,0,4213.33323,4232.820409,4222.051179,4225.640922,4238.974255,4233.84605,4247.692204,4246.666563,4229.230666,4245.640922,4253.333229,4248.717845,4269.743485,4240.512717
52,0,4212.82041,4228.717845,4217.435794,4222.563999,4225.128102,4228.205025,4237.435794,4233.84605,4227.692204,4248.717845,4241.025537,4241.025537,4262.051178,4231.281948
53,0,4218.461435,4230.769127,4233.33323,4217.948615,4215.384512,4228.205025,4238.461435,4236.410153,4228.717845,4269.743485,4239.487076,4239.487076,4257.435793,4227.692204
54,0,4221.025538,4232.307589,4248.205024,4213.33323,4215.897333,4226.666563,4241.025537,4244.10246,4231.794768,4278.974254,4245.640922,4245.128101,4264.61528,4229.230666
55,0,4213.33323,4235.384512,4244.10246,4216.922974,4225.128102,4227.692204,4237.435794,4244.615281,4230.769127,4266.666562,4242.051178,4249.743486,4266.666562,4227.179384
56,0,4217.948615,4243.076819,4228.205025,4233.33323,4233.84605,4234.358871,4246.666563,4247.179383,4230.769127,4260.512716,4241.538358,4248.205024,4257.948614,4234.871691
57,0,4222.051179,4241.025537,4213.846051,4243.58964,4237.948614,4235.897332,4251.794768,4247.179383,4231.281948,4261.538357,4238.974255,4239.999896,4256.922973,4234.871691
58,0,4197.435795,4231.794768,4219.487076,4230.769127,4233.33323,4232.307589,4239.487076,4244.10246,4230.769127,4261.025537,4231.281948,4231.794768,4265.640921,4221.025538
59,0,4185.640923,4231.281948,4234.358871,4218.461435,4227.179384,4230.256307,4236.922973,4244.615281,4231.794768,4258.974255,4227.692204,4234.871691,4258.974255,4211.794769
60,0,4210.256307,4236.410153,4229.743486,4224.102461,4224.102461,4231.281948,4240.512717,4241.025537,4231.794768,4255.384511,4230.256307,4234.358871,4242.563999,4209.743487
61,0,4223.58964,4237.948614,4221.538358,4231.794768,4221.025538,4230.769127,4232.820409,4232.820409,4228.717845,4245.640922,4231.281948,4220.512717,4242.563999,4215.384512
62,0,4213.33323,4238.461435,4219.999897,4232.820409,4223.58964,4227.179384,4231.281948,4231.281948,4224.102461,4235.384512,4231.794768,4213.33323,4250.769127,4219.487076
63,0,4213.33323,4231.794768,4216.410153,4220.512717,4231.281948,4224.102461,4236.922973,4231.794768,4221.538358,4231.794768,4229.743486,4216.410153,4246.153742,4216.922974
64,0,4214.871692,4224.102461,4221.025538,4199.999897,4232.307589,4226.153743,4234.871691,4231.281948,4222.051179,4237.435794,4229.743486,4225.128102,4244.10246,4221.538358
