title:JTA                                                                             , recorded:03.07.20 14.15.49, sampling:128, subject:JTA                                                                             , labels:COUNTER INTERPOLATED AF3 F7 F3 FC5 T7 P7 O1 O2 P8 T8 FC6 F4 F8 AF4,, units:emotiv,,,,,,,,,
109,0,4196.922974,4196.410154,4195.384513,4188.205026,4213.846051,4200.512718,4196.922974,4213.846051,4201.025538,4202.051179,4201.538359,4181.538359,4216.922974,4199.487077
110,0,4205.640923,4202.564,4203.07682,4198.974256,4224.615281,4204.102461,4198.974256,4215.897333,4205.640923,4208.717846,4206.666564,4185.128103,4220.512717,4203.589641
111,0,4200.512718,4196.922974,4196.922974,4196.410154,4226.153743,4203.07682,4198.974256,4208.717846,4203.07682,4206.666564,4198.461436,4181.538359,4217.435794,4201.538359
112,0,4200.512718,4200.512718,4197.948615,4201.025538,4211.794769,4201.025538,4198.461436,4210.769128,4199.487077,4199.487077,4195.897333,4181.538359,4215.897333,4206.666564
113,0,4207.179384,4204.102461,4211.281948,4215.384512,4209.230666,4203.589641,4202.051179,4217.948615,4201.538359,4193.846051,4206.153743,4187.179385,4218.461435,4213.33323
114,0,4205.128102,4201.025538,4211.281948,4211.281948,4228.717845,4204.615282,4204.102461,4217.435794,4202.564,4195.897333,4208.717846,4190.256308,4218.461435,4206.153743
115,0,4197.435795,4198.461436,4199.487077,4196.410154,4234.871691,4201.538359,4198.461436,4214.871692,4198.974256,4195.897333,4199.999897,4184.102462,4213.846051,4198.974256
116,0,4196.410154,4197.948615,4196.410154,4194.871692,4218.974256,4198.974256,4193.846051,4213.33323,4199.487077,4199.999897,4196.922974,4177.435795,4211.281948,4199.999897
117,0,4199.487077,4201.025538,4200.512718,4201.025538,4210.256307,4201.025538,4199.999897,4214.871692,4206.666564,4208.717846,4206.666564,4182.05118,4216.410153,4201.538359
118,0,4198.974256,4199.487077,4201.538359,4197.948615,4213.846051,4199.999897,4204.102461,4219.487076,4210.769128,4207.692205,4213.33323,4188.717846,4222.051179,4204.102461
119,0,4197.948615,4189.743487,4199.487077,4187.179385,4209.230666,4193.846051,4198.461436,4212.307589,4199.487077,4202.051179,4206.153743,4184.615282,4218.461435,4203.589641
120,0,4197.948615,4187.179385,4198.974256,4184.615282,4214.871692,4193.333231,4194.871692,4202.051179,4188.205026,4197.435795,4196.410154,4181.025539,4212.82041,4198.974256
121,0,4198.461436,4196.922974,4199.999897,4189.743487,4229.230666,4197.435795,4197.948615,4207.692205,4193.846051,4189.230667,4197.948615,4185.128103,4214.871692,4201.025538
122,0,4199.999897,4200.512718,4202.564,4191.794769,4218.461435,4195.384513,4198.974256,4214.871692,4201.538359,4184.615282,4204.615282,4185.128103,4219.999897,4205.128102
123,0,4201.025538,4198.974256,4201.025538,4191.794769,4211.281948,4194.871692,4197.948615,4213.33323,4198.461436,4197.435795,4209.743487,4189.230667,4218.461435,4207.692205
124,0,4200.512718,4201.025538,4201.025538,4201.538359,4220.512717,4200.512718,4199.999897,4214.358871,4198.974256,4207.692205,4210.769128,4197.435795,4215.384512,4213.33323
125,0,4202.564,4203.589641,4204.615282,4210.769128,4213.846051,4204.102461,4200.512718,4214.358871,4202.051179,4198.461436,4206.153743,4192.82041,4220.512717,4216.410153
126,0,4200.512718,4203.07682,4202.051179,4207.179384,4217.948615,4202.564,4201.025538,4210.256307,4199.999897,4190.256308,4197.435795,4182.564,4214.871692,4206.666564
127,0,4195.897333,4199.999897,4196.922974,4199.999897,4232.307589,4201.538359,4201.025538,4210.769128,4195.384513,4194.871692,4191.794769,4182.564,4198.974256,4195.897333
128,0,4203.589641,4198.461436,4205.128102,4201.025538,4213.846051,4201.538359,4203.07682,4216.922974,4199.999897,4207.179384,4205.640923,4191.281949,4214.871692,4208.205025
0,0,4218.461435,4203.07682,4212.82041,4206.153743,4202.564,4203.589641,4207.692205,4221.025538,4212.307589,4217.948615,4227.179384,4200.512718,4245.640922,4227.692204
1,0,4215.897333,4198.974256,4206.153743,4204.615282,4225.128102,4203.589641,4207.179384,4221.025538,4215.384512,4223.58964,4226.153743,4203.589641,4243.58964,4224.102461
2,0,4203.589641,4188.717846,4199.999897,4202.051179,4228.205025,4202.564,4202.051179,4218.461435,4204.615282,4218.974256,4215.384512,4193.846051,4229.230666,4215.384512
3,0,4201.025538,4185.128103,4202.564,4199.999897,4210.256307,4203.07682,4198.974256,4215.384512,4197.948615,4205.128102,4214.358871,4185.128103,4228.205025,4216.922974
4,0,4201.538359,4184.615282,4198.974256,4193.333231,4211.281948,4202.564,4197.948615,4215.384512,4197.435795,4198.974256,4206.153743,4184.615282,4222.051179,4209.743487
5,0,4201.025538,4181.538359,4194.871692,4187.179385,4219.487076,4201.025538,4198.974256,4216.922974,4196.922974,4206.153743,4199.999897,4185.128103,4220.512717,4203.589641
6,0,4208.717846,4181.025539,4199.999897,4184.102462,4220.512717,4198.974256,4195.897333,4216.922974,4201.025538,4216.922974,4212.307589,4186.153744,4231.794768,4214.358871
7,0,4212.82041,4185.640923,4203.07682,4186.153744,4216.410153,4196.922974,4188.717846,4215.897333,4205.128102,4212.307589,4217.435794,4188.205026,4232.307589,4218.974256
8,0,4208.205025,4185.128103,4203.07682,4188.205026,4211.794769,4197.435795,4184.615282,4212.82041,4196.410154,4197.435795,4207.692205,4190.769128,4224.102461,4212.307589
9,0,4203.07682,4175.897334,4201.538359,4187.179385,4217.435794,4196.922974,4184.615282,4204.615282,4187.179385,4191.281949,4195.384513,4187.179385,4213.846051,4205.640923
10,0,4196.922974,4166.153744,4192.30759,4182.05118,4208.205025,4188.205026,4183.076821,4200.512718,4184.615282,4186.666564,4188.717846,4182.564,4203.07682,4196.410154
11,0,4189.230667,4167.692206,4188.717846,4176.410154,4197.435795,4183.589641,4183.076821,4205.640923,4187.692205,4184.615282,4194.358872,4182.05118,4205.640923,4192.82041
12,0,4187.179385,4166.666565,4194.871692,4172.30759,4216.410153,4191.281949,4185.128103,4209.230666,4193.846051,4197.948615,4203.07682,4184.615282,4216.410153,4198.974256
13,0,4187.692205,4155.384514,4193.846051,4165.640924,4219.999897,4192.82041,4184.615282,4206.153743,4193.333231,4208.205025,4198.461436,4184.615282,4217.948615,4199.999897
14,0,4185.640923,4152.820411,4185.640923,4158.974257,4195.384513,4190.256308,4185.128103,4203.589641,4186.666564,4193.846051,4188.717846,4179.487077,4210.256307,4193.333231
15,0,4184.615282,4151.79477,4183.589641,4150.769129,4199.999897,4195.384513,4185.128103,4204.102461,4183.076821,4174.871693,4186.153744,4173.333231,4203.589641,4187.692205
16,0,4182.564,4140.512719,4185.128103,4142.051181,4216.922974,4196.410154,4185.128103,4203.07682,4183.589641,4175.384513,4184.615282,4171.281949,4199.487077,4184.615282
17,0,4181.538359,4141.02554,4185.128103,4142.051181,4202.564,4187.692205,4184.615282,4202.051179,4184.102462,4185.128103,4182.05118,4176.410154,4199.487077,4186.153744
18,0,4184.102462,4153.846052,4186.153744,4150.769129,4195.384513,4186.153744,4181.538359,4201.025538,4185.640923,4189.230667,4186.153744,4183.076821,4202.564,4193.333231
19,0,4186.666564,4148.717847,4189.230667,4153.846052,4206.153743,4190.769128,4175.384513,4198.461436,4185.128103,4184.102462,4193.333231,4185.128103,4202.051179,4191.794769
20,0,4186.666564,4134.358873,4187.692205,4151.79477,4201.538359,4187.179385,4169.743488,4196.410154,4181.538359,4181.025539,4191.794769,4178.461436,4202.051179,4189.230667
21,0,4187.692205,4134.871694,4186.666564,4159.487078,4202.564,4183.076821,4171.79477,4195.897333,4182.564,4182.05118,4184.615282,4172.30759,4201.025538,4196.410154
22,0,4189.743487,4140.512719,4193.846051,4169.230667,4215.384512,4188.717846,4178.461436,4195.384513,4185.640923,4181.538359,4184.102462,4178.461436,4201.538359,4201.538359
23,0,4189.743487,4137.948617,4201.025538,4169.230667,4208.717846,4192.82041,4181.025539,4196.922974,4186.153744,4184.615282,4184.615282,4186.153744,4199.487077,4196.922974
24,0,4187.179385,4136.410155,4199.999897,4166.153744,4198.461436,4188.717846,4180.512718,4198.974256,4185.640923,4185.640923,4184.102462,4187.179385,4196.410154,4195.384513
25,0,4189.230667,4139.487078,4199.999897,4167.179385,4202.051179,4188.717846,4181.025539,4198.974256,4184.102462,4178.974257,4187.692205,4186.153744,4198.461436,4199.487077
26,0,4191.281949,4140.512719,4201.538359,4168.205026,4201.025538,4191.281949,4182.05118,4201.025538,4185.128103,4179.487077,4187.692205,4188.205026,4200.512718,4195.897333
27,0,4187.692205,4136.922976,4200.512718,4164.615283,4204.102461,4187.692205,4182.05118,4202.564,4186.666564,4191.794769,4186.666564,4185.128103,4199.999897,4189.230667
28,0,4183.589641,4135.384514,4195.897333,4163.589642,4215.897333,4184.102462,4183.076821,4198.974256,4186.666564,4196.410154,4186.666564,4175.384513,4199.999897,4185.128103
29,0,4181.538359,4136.410155,4190.256308,4167.692206,4215.384512,4191.794769,4184.102462,4197.435795,4187.179385,4190.256308,4187.692205,4171.79477,4201.538359,4184.102462
30,0,4183.076821,4135.384514,4191.794769,4172.820411,4212.82041,4199.487077,4183.076821,4201.538359,4187.692205,4185.128103,4193.846051,4176.922975,4199.999897,4186.666564
31,0,4189.230667,4139.999899,4199.487077,4178.461436,4213.33323,4195.897333,4183.076821,4202.564,4188.205026,4184.102462,4198.461436,4186.153744,4203.589641,4195.897333
32,0,4193.846051,4149.230668,4203.589641,4185.640923,4204.102461,4189.743487,4183.589641,4202.564,4189.743487,4192.82041,4201.538359,4196.410154,4209.743487,4205.128102
33,0,4191.281949,4148.717847,4203.589641,4187.179385,4204.102461,4187.692205,4182.564,4203.07682,4191.281949,4201.025538,4202.051179,4197.948615,4206.666564,4204.615282
34,0,4188.205026,4144.102463,4199.487077,4182.564,4220.512717,4192.30759,4182.05118,4201.538359,4187.692205,4193.846051,4191.794769,4187.179385,4199.999897,4199.999897
35,0,4188.205026,4150.769129,4193.333231,4182.564,4216.922974,4197.948615,4183.076821,4198.974256,4185.640923,4184.102462,4180.512718,4179.487077,4199.487077,4198.461436
36,0,4189.743487,4156.922975,4191.794769,4186.153744,4198.974256,4199.999897,4184.615282,4204.102461,4192.82041,4188.205026,4189.230667,4185.640923,4207.179384,4201.538359
37,0,4189.743487,4153.333232,4191.794769,4186.153744,4203.589641,4198.461436,4185.640923,4213.33323,4199.999897,4200.512718,4197.948615,4186.666564,4213.33323,4199.999897
38,0,4186.153744,4151.28195,4186.153744,4187.179385,4220.512717,4200.512718,4186.153744,4213.33323,4201.538359,4205.128102,4188.205026,4174.358872,4207.692205,4189.743487
39,0,4184.615282,4153.333232,4182.564,4195.384513,4217.435794,4203.07682,4185.640923,4204.615282,4196.922974,4196.922974,4180.512718,4166.153744,4200.512718,4182.564
40,0,4185.128103,4152.820411,4185.128103,4198.461436,4201.025538,4201.025538,4185.640923,4199.999897,4189.743487,4186.666564,4182.05118,4166.153744,4201.025538,4181.538359
41,0,4184.102462,4151.79477,4191.794769,4194.358872,4199.487077,4201.538359,4186.153744,4202.051179,4188.717846,4183.589641,4184.615282,4173.846052,4200.512718,4182.05118
42,0,4190.769128,4153.846052,4198.974256,4196.922974,4214.358871,4203.07682,4186.153744,4202.564,4190.256308,4182.05118,4190.769128,4182.564,4202.564,4184.102462
43,0,4201.538359,4154.358873,4200.512718,4195.384513,4220.512717,4199.999897,4184.615282,4201.025538,4191.281949,4186.153744,4197.948615,4186.153744,4212.307589,4187.692205
44,0,4199.999897,4153.846052,4197.948615,4187.692205,4216.410153,4199.999897,4185.128103,4202.051179,4196.410154,4199.487077,4198.974256,4185.640923,4215.897333,4192.82041
45,0,4196.922974,4160.512719,4199.487077,4191.794769,4219.487076,4206.153743,4189.743487,4204.615282,4199.487077,4205.640923,4198.461436,4187.692205,4214.871692,4199.487077
46,0,4207.692205,4168.205026,4204.102461,4202.564,4226.666563,4209.743487,4192.30759,4206.153743,4197.435795,4203.07682,4198.974256,4188.717846,4214.871692,4201.538359
47,0,4212.82041,4167.179385,4203.589641,4202.051179,4215.897333,4204.102461,4188.205026,4205.128102,4199.487077,4201.538359,4198.974256,4186.666564,4215.384512,4198.974256
48,0,4204.615282,4164.615283,4201.538359,4199.999897,4200.512718,4197.948615,4183.589641,4204.615282,4198.974256,4200.512718,4199.487077,4187.179385,4216.922974,4199.487077
49,0,4203.589641,4165.640924,4201.025538,4201.025538,4210.769128,4204.102461,4184.615282,4204.615282,4190.256308,4198.461436,4202.051179,4188.205026,4216.410153,4200.512718
50,0,4207.179384,4164.615283,4198.974256,4198.974256,4226.153743,4211.794769,4185.640923,4203.07682,4189.230667,4198.974256,4204.615282,4185.128103,4216.410153,4202.051179
51,0,4216.410153,4169.743488,4203.07682,4204.615282,4221.025538,4206.666564,4180.512718,4201.538359,4191.281949,4198.461436,4204.102461,4185.640923,4224.615281,4211.794769
52,0,4238.461435,4185.128103,4213.33323,4213.33323,4213.846051,4197.435795,4173.846052,4202.051179,4187.179385,4194.358872,4202.051179,4190.769128,4231.281948,4227.692204
53,0,4264.61528,4200.512718,4218.461435,4217.435794,4208.717846,4201.025538,4171.79477,4201.025538,4184.615282,4188.717846,4202.564,4195.384513,4232.820409,4245.128101
54,0,4295.897331,4227.692204,4222.563999,4230.256307,4196.410154,4200.512718,4169.743488,4199.487077,4183.589641,4183.589641,4208.717846,4197.435795,4247.179383,4273.333229
55,0,4345.128099,4264.10246,4232.820409,4246.153742,4202.051179,4188.205026,4166.153744,4197.948615,4181.025539,4181.025539,4220.512717,4206.666564,4274.87169,4319.487074
56,0,4390.769123,4285.1281,4246.666563,4250.256306,4225.640922,4187.179385,4165.128103,4196.922974,4181.025539,4179.999898,4236.922973,4223.07682,4300.512715,4371.281944
57,0,4401.538354,4284.61528,4253.333229,4252.820409,4214.358871,4195.897333,4166.666565,4198.461436,4182.564,4183.589641,4248.205024,4234.358871,4315.89733,4399.487072
58,0,4390.769123,4278.974254,4252.820409,4261.538357,4191.281949,4193.846051,4167.179385,4200.512718,4184.615282,4189.743487,4248.717845,4236.922973,4318.974253,4398.461431
59,0,4375.384508,4271.794767,4249.743486,4254.35887,4207.692205,4189.230667,4166.666565,4201.025538,4186.666564,4187.179385,4246.153742,4230.769127,4312.820407,4383.589636
60,0,4351.794765,4255.897332,4243.076819,4235.384512,4220.512717,4192.82041,4166.153744,4199.487077,4185.640923,4187.692205,4243.076819,4220.512717,4303.076818,4359.487073
61,0,4322.563997,4235.897332,4235.897332,4228.205025,4201.538359,4197.948615,4167.179385,4201.538359,4190.256308,4198.974256,4240.512717,4216.922974,4291.794767,4330.256304
62,0,4299.487074,4219.487076,4233.84605,4228.717845,4202.564,4198.461436,4170.256308,4210.769128,4199.487077,4205.640923,4243.58964,4219.999897,4285.640921,4313.846048
63,0,4281.538357,4205.640923,4233.33323,4226.153743,4226.666563,4200.512718,4172.30759,4215.384512,4202.564,4204.615282,4244.10246,4218.461435,4279.487075,4297.948613
64,0,4262.563998,4188.717846,4225.640922,4223.58964,4221.538358,4201.538359,4171.79477,4207.179384,4199.999897,4203.07682,4231.281948,4209.230666,4260.512716,4269.230665
65,0,4244.10246,4173.333231,4217.435794,4223.58964,4201.025538,4200.512718,4169.743488,4199.999897,4195.384513,4201.025538,4218.461435,4202.564,4242.563999,4249.743486
66,0,4231.794768,4163.589642,4216.922974,4214.871692,4212.82041,4199.487077,4167.692206,4200.512718,4187.692205,4195.384513,4210.769128,4197.435795,4231.794768,4242.563999
67,0,4222.563999,4161.025539,4214.871692,4202.564,4222.563999,4194.871692,4169.230667,4199.487077,4184.615282,4187.692205,4199.999897,4190.256308,4220.512717,4226.153743
68,0,4216.922974,4161.53836,4213.846051,4205.128102,4203.07682,4191.794769,4169.230667,4198.974256,4186.153744,4181.025539,4198.974256,4187.179385,4215.384512,4213.33323
69,0,4216.922974,4161.53836,4214.358871,4216.410153,4206.153743,4199.487077,4170.769129,4202.051179,4186.153744,4190.769128,4203.07682,4188.717846,4218.461435,4212.82041
70,0,4210.256307,4162.564001,4207.179384,4216.922974,4225.128102,4205.640923,4173.846052,4203.07682,4190.769128,4202.051179,4198.974256,4186.153744,4218.461435,4206.666564
71,0,4198.974256,4158.461437,4198.974256,4209.230666,4216.922974,4203.589641,4178.461436,4207.692205,4197.948615,4199.999897,4203.07682,4184.102462,4217.948615,4198.974256
72,0,4197.435795,4151.28195,4201.538359,4203.07682,4217.948615,4206.153743,4182.564,4217.435794,4202.564,4207.692205,4215.384512,4190.769128,4226.666563,4200.512718
73,0,4199.999897,4153.333232,4203.589641,4201.025538,4231.794768,4206.666564,4184.102462,4218.974256,4205.640923,4221.538358,4217.948615,4192.82041,4231.281948,4199.999897
74,0,4198.974256,4159.999898,4199.487077,4209.230666,4219.999897,4207.692205,4182.05118,4212.82041,4203.589641,4217.435794,4215.897333,4192.82041,4228.717845,4197.435795
75,0,4200.512718,4158.974257,4202.051179,4220.512717,4213.846051,4215.897333,4181.025539,4211.794769,4198.461436,4208.205025,4215.384512,4196.410154,4224.102461,4196.922974
76,0,4196.922974,4153.846052,4204.615282,4214.871692,4230.769127,4214.871692,4183.076821,4214.871692,4197.948615,4211.794769,4211.281948,4192.82041,4218.461435,4191.281949
77,0,4188.205026,4149.743488,4199.487077,4201.025538,4235.384512,4205.128102,4184.615282,4215.897333,4202.051179,4216.410153,4210.769128,4186.153744,4216.410153,4184.615282
78,0,4193.846051,4152.307591,4204.615282,4205.640923,4231.281948,4211.794769,4187.692205,4218.461435,4206.666564,4216.410153,4216.410153,4192.30759,4217.435794,4185.128103
79,0,4202.051179,4156.922975,4215.897333,4215.897333,4229.743486,4217.435794,4189.230667,4218.461435,4206.153743,4210.256307,4218.974256,4201.025538,4217.948615,4188.717846
80,0,4195.384513,4150.769129,4215.384512,4208.717846,4221.025538,4204.102461,4184.102462,4213.33323,4201.025538,4205.640923,4213.846051,4197.435795,4215.897333,4190.769128
81,0,4193.333231,4147.179386,4212.307589,4201.538359,4215.384512,4201.025538,4182.05118,4212.307589,4201.538359,4209.230666,4207.692205,4195.897333,4213.33323,4191.281949
82,0,4196.922974,4151.28195,4215.384512,4204.615282,4214.871692,4211.794769,4185.640923,4215.384512,4204.615282,4207.179384,4207.179384,4196.922974,4211.794769,4187.179385
83,0,4190.256308,4147.179386,4213.33323,4202.564,4216.922974,4218.461435,4187.692205,4217.435794,4204.615282,4205.640923,4209.230666,4192.82041,4211.281948,4185.640923
84,0,4182.564,4136.410155,4204.615282,4196.410154,4219.487076,4214.871692,4184.615282,4217.948615,4203.589641,4210.256307,4204.102461,4187.179385,4207.179384,4185.128103
85,0,4182.564,4133.846053,4201.538359,4196.410154,4216.410153,4205.640923,4183.076821,4213.33323,4201.025538,4206.153743,4196.410154,4186.153744,4197.948615,4179.999898
86,0,4182.564,4134.871694,4202.564,4199.999897,4215.897333,4201.538359,4183.589641,4208.205025,4196.922974,4198.974256,4196.410154,4185.128103,4198.461436,4177.435795
87,0,4182.564,4134.358873,4202.051179,4201.025538,4219.999897,4205.640923,4184.615282,4212.82041,4197.948615,4202.051179,4202.051179,4184.102462,4205.128102,4180.512718
88,0,4184.615282,4134.871694,4198.974256,4199.487077,4219.999897,4211.794769,4186.153744,4216.922974,4197.948615,4201.538359,4202.051179,4185.128103,4204.615282,4182.564
89,0,4186.153744,4129.743489,4199.999897,4204.102461,4211.794769,4212.307589,4186.153744,4213.33323,4195.897333,4197.435795,4201.025538,4185.640923,4207.692205,4183.589641
90,0,4185.640923,4125.640925,4204.102461,4209.230666,4211.794769,4205.640923,4185.128103,4212.307589,4197.435795,4201.538359,4203.07682,4186.153744,4213.846051,4181.538359
91,0,4184.102462,4125.128104,4203.07682,4202.051179,4223.07682,4200.512718,4185.128103,4209.230666,4201.025538,4196.922974,4203.589641,4186.153744,4207.692205,4178.461436
92,0,4184.615282,4122.051181,4201.538359,4197.435795,4226.153743,4202.051179,4184.102462,4202.051179,4200.512718,4187.692205,4199.487077,4184.102462,4199.487077,4180.512718
93,0,4184.102462,4119.487079,4204.615282,4207.692205,4217.435794,4204.102461,4183.076821,4205.640923,4197.435795,4193.333231,4198.461436,4184.102462,4203.589641,4183.076821
94,0,4179.487077,4123.076822,4203.589641,4215.384512,4212.82041,4203.589641,4184.615282,4213.33323,4195.384513,4204.102461,4199.487077,4183.589641,4205.128102,4176.410154
95,0,4172.30759,4124.615284,4197.435795,4214.871692,4216.922974,4203.07682,4184.102462,4209.230666,4197.435795,4203.589641,4194.358872,4178.974257,4198.974256,4169.743488
96,0,4167.692206,4113.846053,4197.435795,4216.410153,4222.563999,4202.564,4182.05118,4202.564,4195.897333,4199.999897,4188.717846,4173.333231,4196.410154,4166.666565
97,0,4169.230667,4108.717848,4199.999897,4214.358871,4215.384512,4202.564,4182.05118,4202.564,4189.743487,4194.871692,4186.666564,4170.769129,4197.435795,4165.640924
98,0,4173.846052,4119.487079,4197.948615,4204.615282,4201.538359,4202.564,4183.076821,4204.615282,4189.743487,4186.153744,4191.281949,4175.384513,4199.487077,4167.692206
99,0,4174.871693,4119.487079,4199.999897,4199.487077,4204.102461,4199.999897,4184.615282,4207.179384,4197.948615,4190.769128,4198.461436,4183.076821,4199.487077,4169.230667
100,0,4173.846052,4105.640925,4202.564,4197.435795,4217.948615,4199.999897,4185.128103,4208.205025,4200.512718,4196.410154,4199.999897,4184.102462,4199.999897,4171.281949
101,0,4174.358872,4107.692207,4200.512718,4190.256308,4221.025538,4208.205025,4183.589641,4204.102461,4195.897333,4190.769128,4193.333231,4181.538359,4201.538359,4172.30759
102,0,4174.358872,4122.051181,4198.461436,4190.256308,4213.846051,4212.307589,4184.615282,4202.051179,4194.871692,4195.897333,4186.666564,4182.05118,4198.461436,4169.743488
103,0,4173.846052,4122.051181,4199.999897,4199.999897,4209.743487,4205.128102,4186.153744,4203.589641,4198.461436,4202.051179,4187.179385,4183.076821,4196.410154,4171.281949
104,0,4173.846052,4114.871694,4202.051179,4201.025538,4212.307589,4199.999897,4184.102462,4203.589641,4198.974256,4194.871692,4188.717846,4182.564,4198.974256,4175.384513
105,0,4174.871693,4111.794771,4204.102461,4195.897333,4213.846051,4202.051179,4183.076821,4203.07682,4197.435795,4192.30759,4188.717846,4184.615282,4199.999897,4174.358872
106,0,4172.820411,4111.281951,4203.07682,4196.922974,4208.717846,4201.538359,4184.615282,4203.07682,4197.435795,4192.30759,4191.794769,4186.153744,4197.435795,4170.769129
107,0,4174.358872,4118.461438,4203.07682,4200.512718,4208.717846,4199.487077,4184.102462,4203.589641,4197.948615,4190.256308,4198.461436,4184.102462,4197.435795,4174.871693
108,0,4184.102462,4123.076822,4210.256307,4199.999897,4219.999897,4202.051179,4184.615282,4206.666564,4198.974256,4199.487077,4201.538359,4184.102462,4201.025538,4185.128103
109,0,4185.640923,4114.358874,4213.846051,4201.025538,4213.33323,4202.051179,4184.615282,4204.615282,4200.512718,4205.128102,4199.999897,4186.153744,4201.538359,4183.589641
110,0,4180.512718,4112.307592,4211.281948,4204.102461,4196.922974,4200.512718,4183.076821,4202.564,4198.461436,4197.435795,4195.897333,4185.128103,4197.948615,4170.769129
111,0,4182.05118,4124.102463,4212.82041,4202.051179,4209.230666,4202.051179,4186.153744,4207.179384,4196.410154,4192.82041,4193.846051,4184.615282,4198.974256,4171.281949
112,0,4186.666564,4126.666566,4216.410153,4201.538359,4224.102461,4204.615282,4189.230667,4207.692205,4197.948615,4194.358872,4199.487077,4188.717846,4202.051179,4184.615282
113,0,4186.153744,4121.02554,4215.384512,4207.179384,4216.922974,4204.615282,4186.153744,4204.102461,4198.974256,4196.922974,4201.025538,4190.769128,4201.025538,4184.102462
114,0,4184.102462,4124.615284,4209.743487,4208.205025,4207.179384,4201.538359,4182.05118,4203.589641,4197.435795,4199.999897,4192.30759,4187.179385,4198.974256,4174.358872
115,0,4176.922975,4123.589643,4201.538359,4206.153743,4205.640923,4198.974256,4182.564,4202.051179,4192.82041,4198.974256,4185.128103,4182.564,4193.846051,4169.743488
116,0,4166.666565,4111.281951,4198.461436,4211.794769,4205.128102,4198.974256,4184.102462,4204.102461,4193.333231,4201.025538,4183.076821,4179.487077,4182.564,4165.640924
117,0,4172.820411,4115.897335,4201.538359,4216.410153,4216.410153,4202.051179,4185.640923,4211.281948,4200.512718,4204.102461,4189.743487,4182.564,4187.179385,4166.153744
118,0,4186.666564,4131.794771,4202.051179,4216.410153,4219.487076,4201.538359,4187.179385,4210.256307,4203.589641,4202.051179,4201.538359,4184.615282,4208.205025,4175.384513
119,0,4182.05118,4126.153745,4199.999897,4212.82041,4197.948615,4198.461436,4184.102462,4200.512718,4198.461436,4203.07682,4194.358872,4175.384513,4205.640923,4168.205026
120,0,4168.717847,4114.871694,4197.435795,4206.666564,4196.410154,4199.487077,4183.589641,4199.999897,4196.410154,4199.487077,4180.512718,4170.769129,4187.692205,4155.897334
121,0,4168.205026,4116.410156,4199.999897,4207.692205,4219.999897,4202.564,4190.256308,4208.205025,4199.487077,4189.743487,4190.256308,4181.025539,4191.281949,4162.564001
122,0,4178.461436,4115.384515,4210.256307,4214.871692,4217.948615,4201.025538,4195.897333,4213.33323,4199.999897,4193.846051,4205.128102,4189.230667,4203.589641,4173.846052
123,0,4185.640923,4114.871694,4213.33323,4216.410153,4196.410154,4201.025538,4197.948615,4216.410153,4202.051179,4213.846051,4203.07682,4186.666564,4204.102461,4175.384513
124,0,4182.05118,4124.102463,4204.615282,4215.897333,4206.153743,4203.589641,4194.358872,4213.846051,4207.179384,4216.922974,4199.999897,4184.615282,4202.564,4175.897334
125,0,4174.358872,4126.153745,4199.999897,4215.897333,4220.512717,4203.07682,4187.692205,4206.153743,4205.128102,4200.512718,4203.07682,4185.128103,4203.07682,4173.333231
126,0,4172.820411,4118.461438,4203.07682,4217.435794,4205.128102,4199.999897,4185.128103,4202.051179,4197.948615,4200.512718,4200.512718,4184.615282,4197.435795,4168.717847
127,0,4175.384513,4114.358874,4204.615282,4225.640922,4195.384513,4201.025538,4187.692205,4204.102461,4196.410154,4202.051179,4197.435795,4185.640923,4193.333231,4170.769129
128,0,4171.79477,4110.76913,4202.051179,4232.820409,4205.640923,4201.025538,4188.205026,4204.102461,4198.461436,4187.179385,4199.999897,4185.640923,4190.769128,4170.256308
0,0,4167.692206,4110.76913,4200.512718,4229.743486,4204.615282,4197.948615,4186.153744,4202.564,4196.410154,4188.205026,4197.435795,4183.589641,4187.179385,4166.153744
1,0,4174.871693,4117.435797,4200.512718,4230.769127,4197.948615,4197.948615,4185.640923,4203.07682,4196.922974,4203.07682,4189.743487,4184.615282,4189.743487,4168.717847
2,0,4181.025539,4118.974258,4199.487077,4229.743486,4207.692205,4200.512718,4185.128103,4201.538359,4197.435795,4199.487077,4188.717846,4181.538359,4192.30759,4171.79477
3,0,4175.384513,4119.487079,4196.922974,4219.487076,4214.871692,4202.051179,4186.666564,4202.051179,4196.410154,4194.871692,4189.743487,4173.846052,4188.205026,4168.205026
4,0,4169.743488,4123.589643,4201.025538,4214.358871,4205.640923,4199.999897,4190.769128,4208.205025,4198.461436,4201.538359,4187.692205,4170.256308,4185.128103,4161.025539
5,0,4170.256308,4119.487079,4198.461436,4213.33323,4193.846051,4197.948615,4192.30759,4208.205025,4200.512718,4199.999897,4188.717846,4173.333231,4187.179385,4156.922975
6,0,4169.743488,4106.666566,4186.666564,4202.051179,4196.410154,4198.461436,4190.256308,4202.051179,4197.435795,4199.999897,4187.692205,4170.769129,4185.640923,4155.897334
7,0,4170.769129,4107.692207,4188.717846,4195.897333,4201.025538,4201.025538,4187.179385,4200.512718,4195.897333,4199.999897,4190.256308,4169.230667,4184.615282,4157.948616
8,0,4175.897334,4114.871694,4202.051179,4203.07682,4196.410154,4200.512718,4187.692205,4204.615282,4194.358872,4189.230667,4198.461436,4177.948616,4188.205026,4167.692206
9,0,4173.846052,4111.794771,4202.564,4205.128102,4198.974256,4197.948615,4189.743487,4203.07682,4189.743487,4189.230667,4192.82041,4182.05118,4186.666564,4170.256308
10,0,4168.717847,4109.743489,4195.897333,4201.538359,4209.230666,4197.948615,4188.205026,4196.922974,4184.102462,4191.794769,4179.999898,4173.333231,4179.999898,4158.461437
11,0,4167.692206,4109.230669,4198.461436,4201.025538,4208.717846,4198.974256,4188.205026,4196.410154,4183.076821,4184.102462,4179.999898,4168.717847,4177.435795,4153.846052
12,0,4169.743488,4111.281951,4201.025538,4205.128102,4194.871692,4197.948615,4192.30759,4202.051179,4189.743487,4186.666564,4188.205026,4175.384513,4182.564,4164.102462
13,0,4170.256308,4117.948617,4198.974256,4211.794769,4185.640923,4196.410154,4192.30759,4205.640923,4198.974256,4202.564,4191.794769,4181.538359,4185.128103,4168.205026
14,0,4171.79477,4119.999899,4198.974256,4214.871692,4194.358872,4197.948615,4186.153744,4203.07682,4200.512718,4205.640923,4194.358872,4182.564,4184.102462,4164.102462
15,0,4179.487077,4121.02554,4202.051179,4214.871692,4210.769128,4199.999897,4185.640923,4203.07682,4197.435795,4201.025538,4199.999897,4185.640923,4191.281949,4168.717847
16,0,4180.512718,4125.128104,4201.538359,4213.33323,4209.743487,4198.974256,4191.794769,4205.640923,4199.487077,4202.051179,4198.974256,4184.102462,4195.897333,4172.30759
17,0,4172.30759,4126.153745,4194.871692,4209.230666,4198.461436,4198.974256,4197.948615,4205.640923,4198.461436,4203.07682,4190.256308,4175.897334,4187.692205,4162.564001
18,0,4170.256308,4129.743489,4191.794769,4209.230666,4204.102461,4201.538359,4201.538359,4204.102461,4192.82041,4197.435795,4185.640923,4171.79477,4183.589641,4154.871693
19,0,4175.384513,4132.307591,4191.794769,4213.33323,4201.025538,4198.974256,4196.410154,4202.051179,4192.82041,4186.153744,4185.128103,4172.30759,4185.640923,4156.922975
20,0,4179.999898,4130.256309,4191.794769,4218.461435,4190.256308,4195.897333,4186.153744,4201.025538,4196.922974,4186.153744,4186.153744,4169.230667,4183.589641,4162.05118
21,0,4184.102462,4136.410155,4195.897333,4228.205025,4205.128102,4198.461436,4185.128103,4202.564,4197.948615,4203.07682,4195.897333,4175.384513,4190.769128,4167.692206
22,0,4186.153744,4142.564001,4201.538359,4233.84605,4207.692205,4199.487077,4187.179385,4203.589641,4197.435795,4208.205025,4201.025538,4183.076821,4198.974256,4171.79477
23,0,4183.076821,4138.461437,4196.922974,4225.640922,4188.205026,4197.435795,4185.128103,4200.512718,4198.461436,4191.281949,4192.82041,4175.384513,4191.281949,4167.692206
24,0,4176.922975,4133.846053,4186.666564,4216.922974,4194.358872,4198.974256,4185.640923,4198.974256,4191.794769,4181.538359,4182.564,4167.692206,4181.025539,4157.948616
25,0,4168.205026,4128.205027,4182.564,4214.358871,4204.102461,4199.487077,4187.179385,4198.461436,4183.589641,4182.05118,4171.281949,4167.179385,4175.897334,4152.820411
26,0,4166.153744,4124.102463,4182.564,4213.846051,4191.794769,4195.384513,4186.666564,4198.461436,4188.205026,4183.589641,4172.820411,4164.102462,4175.384513,4155.897334
27,0,4176.410154,4132.820412,4190.769128,4222.563999,4194.871692,4196.410154,4195.897333,4207.692205,4202.051179,4197.948615,4191.794769,4171.281949,4188.717846,4168.717847
28,0,4188.205026,4143.589642,4202.564,4234.358871,4206.153743,4199.487077,4199.999897,4214.871692,4207.179384,4210.769128,4205.640923,4186.666564,4203.07682,4180.512718
29,0,4194.358872,4151.28195,4206.153743,4235.897332,4204.102461,4198.974256,4190.769128,4208.717846,4202.051179,4205.128102,4209.230666,4190.256308,4205.128102,4187.692205
30,0,4191.794769,4156.922975,4202.564,4233.33323,4199.999897,4199.487077,4190.769128,4201.025538,4198.461436,4207.692205,4208.717846,4186.666564,4205.640923,4189.230667
31,0,4184.615282,4148.717847,4200.512718,4232.307589,4187.692205,4199.999897,4197.435795,4202.051179,4198.461436,4215.384512,4203.589641,4186.153744,4205.640923,4181.025539
32,0,4183.076821,4135.897335,4201.025538,4222.051179,4184.615282,4197.948615,4198.974256,4204.102461,4198.974256,4206.153743,4196.410154,4184.615282,4199.999897,4170.769129
33,0,4188.205026,4146.666565,4199.487077,4216.410153,4197.948615,4197.435795,4196.922974,4201.025538,4198.461436,4198.974256,4191.794769,4179.487077,4195.897333,4171.79477
34,0,4188.717846,4156.410155,4199.999897,4222.051179,4195.384513,4199.999897,4192.30759,4197.948615,4196.922974,4203.07682,4190.256308,4177.948616,4193.846051,4176.922975
35,0,4175.384513,4137.435796,4198.461436,4217.948615,4189.230667,4198.461436,4185.640923,4197.948615,4196.410154,4199.487077,4191.281949,4180.512718,4186.153744,4168.717847
36,0,4173.846052,4132.307591,4195.897333,4218.461435,4203.589641,4195.384513,4184.615282,4202.051179,4200.512718,4198.461436,4195.384513,4182.564,4184.102462,4166.153744
37,0,4191.281949,4159.999898,4206.153743,4236.410153,4201.025538,4196.410154,4190.256308,4202.564,4199.487077,4202.051179,4198.461436,4184.102462,4192.30759,4184.102462
38,0,4204.102461,4179.999898,4213.846051,4243.076819,4183.589641,4197.435795,4194.871692,4194.358872,4186.153744,4185.128103,4193.846051,4186.153744,4190.769128,4192.30759
39,0,4205.640923,4182.05118,4205.640923,4232.820409,4194.871692,4197.435795,4194.358872,4188.717846,4178.974257,4171.79477,4180.512718,4183.589641,4181.538359,4184.102462
40,0,4211.794769,4187.179385,4204.102461,4231.794768,4199.487077,4196.410154,4189.743487,4195.897333,4190.256308,4182.564,4178.974257,4181.538359,4183.076821,4188.205026
41,0,4220.512717,4189.743487,4213.33323,4236.410153,4183.589641,4197.948615,4195.384513,4202.564,4201.025538,4195.897333,4190.769128,4186.666564,4187.692205,4199.999897
42,0,4214.358871,4189.230667,4210.256307,4230.256307,4190.256308,4199.999897,4197.948615,4198.974256,4199.999897,4199.487077,4197.948615,4188.205026,4188.205026,4198.461436
43,0,4205.640923,4185.128103,4202.051179,4221.538358,4209.743487,4199.999897,4187.179385,4198.974256,4197.948615,4203.07682,4199.487077,4186.666564,4193.333231,4196.410154
44,0,4207.692205,4171.281949,4205.128102,4217.435794,4203.07682,4197.948615,4187.179385,4204.102461,4201.538359,4204.615282,4199.999897,4195.384513,4195.384513,4200.512718
45,0,4212.82041,4171.281949,4210.769128,4218.974256,4191.794769,4198.974256,4198.974256,4203.07682,4199.999897,4197.948615,4201.538359,4201.025538,4192.30759,4199.999897
46,0,4214.871692,4182.05118,4213.846051,4224.102461,4199.487077,4202.051179,4201.025538,4199.999897,4191.794769,4198.974256,4199.487077,4192.30759,4192.30759,4199.487077
47,0,4215.897333,4177.948616,4216.410153,4230.256307,4201.538359,4201.538359,4197.948615,4199.487077,4187.179385,4200.512718,4192.30759,4186.153744,4190.256308,4203.07682
48,0,4214.358871,4169.230667,4215.897333,4228.205025,4190.769128,4199.487077,4199.999897,4197.435795,4188.205026,4190.256308,4189.230667,4187.692205,4186.153744,4202.051179
49,0,4205.640923,4171.281949,4211.794769,4217.948615,4182.564,4196.922974,4198.974256,4197.435795,4190.769128,4186.153744,4191.281949,4186.666564,4186.153744,4196.922974
50,0,4201.025538,4174.871693,4205.128102,4215.384512,4191.281949,4197.435795,4196.410154,4199.999897,4196.410154,4198.974256,4190.769128,4185.128103,4185.640923,4191.794769
51,0,4201.025538,4172.820411,4201.025538,4218.461435,4204.615282,4200.512718,4197.948615,4201.538359,4199.487077,4202.564,4187.692205,4185.640923,4184.102462,4189.743487
52,0,4197.435795,4173.333231,4198.461436,4216.410153,4202.564,4199.487077,4198.974256,4198.974256,4191.281949,4188.717846,4186.666564,4184.102462,4179.487077,4189.743487
53,0,4193.333231,4170.256308,4196.410154,4214.871692,4192.30759,4190.769128,4196.410154,4196.410154,4183.076821,4183.076821,4179.487077,4183.589641,4170.769129,4187.692205
54,0,4189.743487,4163.589642,4198.461436,4215.897333,4182.05118,4185.640923,4193.846051,4196.410154,4183.589641,4183.589641,4173.333231,4183.076821,4165.128103,4182.05118
55,0,4192.30759,4167.692206,4199.487077,4217.948615,4188.205026,4191.794769,4194.871692,4196.410154,4186.153744,4181.538359,4180.512718,4181.538359,4170.256308,4181.538359
56,0,4204.102461,4183.589641,4200.512718,4227.179384,4197.435795,4199.487077,4197.948615,4199.487077,4192.30759,4191.794769,4193.846051,4189.230667,4179.999898,4193.333231
57,0,4214.358871,4196.922974,4210.256307,4235.384512,4189.230667,4199.487077,4199.999897,4203.07682,4201.538359,4202.564,4199.487077,4199.999897,4187.692205,4204.615282
58,0,4216.410153,4198.974256,4216.922974,4235.384512,4187.692205,4196.922974,4199.999897,4202.564,4199.487077,4195.897333,4201.025538,4204.102461,4193.846051,4204.102461
59,0,4215.897333,4200.512718,4213.33323,4242.051178,4205.640923,4198.974256,4200.512718,4202.051179,4188.717846,4192.82041,4202.564,4199.487077,4195.897333,4202.051179
60,0,4216.410153,4203.07682,4212.307589,4246.666563,4206.153743,4200.512718,4199.999897,4197.435795,4184.615282,4198.461436,4195.384513,4190.256308,4190.256308,4200.512718
61,0,4209.230666,4200.512718,4212.82041,4238.461435,4188.205026,4197.948615,4197.948615,4190.256308,4184.615282,4192.30759,4185.640923,4183.076821,4182.564,4191.794769
62,0,4199.487077,4199.999897,4208.717846,4236.922973,4189.743487,4195.897333,4197.948615,4192.30759,4183.589641,4188.717846,4181.538359,4184.102462,4182.05118,4187.179385
63,0,4205.640923,4209.230666,4208.205025,4244.615281,4198.974256,4197.948615,4201.025538,4200.512718,4188.717846,4198.974256,4185.128103,4186.153744,4185.128103,4195.897333
64,0,4212.307589,4217.435794,4207.692205,4243.076819,4195.897333,4198.974256,4202.051179,4199.999897,4196.922974,4199.487077,4190.769128,4185.640923,4186.666564,4201.025538
65,0,4209.230666,4216.410153,4206.666564,4242.563999,4185.640923,4198.461436,4202.564,4199.999897,4200.512718,4199.487077,4192.82041,4191.281949,4187.692205,4202.051179
66,0,4211.794769,4214.358871,4214.358871,4250.256306,4178.461436,4197.435795,4204.102461,4204.102461,4196.922974,4202.051179,4191.281949,4194.358872,4186.153744,4204.615282
67,0,4211.794769,4215.384512,4214.358871,4248.717845,4185.128103,4195.897333,4203.07682,4204.102461,4189.743487,4186.666564,4188.205026,4189.230667,4183.589641,4202.051179
68,0,4203.589641,4219.999897,4203.589641,4243.58964,4201.538359,4193.846051,4197.948615,4197.948615,4186.666564,4179.999898,4186.666564,4185.128103,4183.076821,4197.435795
69,0,4204.615282,4230.769127,4200.512718,4245.640922,4208.717846,4192.30759,4190.769128,4189.230667,4188.205026,4194.358872,4184.615282,4185.128103,4183.076821,4196.410154
70,0,4211.794769,4238.974255,4202.564,4245.640922,4192.30759,4189.743487,4186.153744,4185.128103,4189.230667,4196.922974,4184.102462,4186.666564,4184.615282,4197.948615
71,0,4216.410153,4242.563999,4200.512718,4240.512717,4186.153744,4187.179385,4185.640923,4187.179385,4182.05118,4181.025539,4183.589641,4186.666564,4183.589641,4200.512718
72,0,4233.84605,4256.410152,4205.128102,4240.512717,4193.846051,4185.640923,4186.666564,4183.589641,4171.281949,4168.717847,4182.05118,4186.153744,4180.512718,4210.256307
73,0,4263.076819,4276.410152,4216.922974,4246.666563,4188.717846,4186.153744,4186.666564,4178.461436,4173.333231,4171.281949,4186.153744,4189.230667,4190.256308,4233.33323
74,0,4299.999895,4302.051177,4228.717845,4252.820409,4185.128103,4185.640923,4186.666564,4182.564,4183.076821,4182.05118,4196.922974,4198.974256,4219.999897,4272.820408
75,0,4356.41015,4343.589637,4247.179383,4266.666562,4186.153744,4184.102462,4187.179385,4188.717846,4187.179385,4190.256308,4218.974256,4217.948615,4260.512716,4331.281945
76,0,4407.6922,4376.92297,4265.640921,4281.025536,4183.076821,4182.564,4185.128103,4188.717846,4184.615282,4190.769128,4241.538358,4235.897332,4294.87169,4392.820405
77,0,4428.20502,4379.999893,4269.743485,4282.051177,4189.230667,4182.564,4182.564,4186.666564,4184.615282,4193.333231,4251.281947,4245.128101,4316.922971,4430.256302
78,0,4433.846045,4376.92297,4268.717844,4276.922972,4199.487077,4182.05118,4182.564,4183.589641,4183.589641,4189.230667,4255.897332,4249.743486,4328.717843,4438.46143
79,0,4433.333225,4379.999893,4269.743485,4279.999895,4191.281949,4182.05118,4183.589641,4182.05118,4181.025539,4180.512718,4262.563998,4252.307588,4330.769125,4437.435789
80,0,4418.974251,4370.769124,4267.179383,4279.999895,4182.05118,4182.564,4183.589641,4182.564,4182.564,4189.230667,4263.076819,4250.769127,4330.256304,4435.384507
81,0,4400.512713,4355.384509,4261.538357,4272.820408,4183.076821,4183.589641,4183.076821,4179.999898,4184.615282,4197.435795,4258.974255,4246.153742,4328.717843,4422.051174
82,0,4384.615277,4347.692201,4255.897332,4264.61528,4182.05118,4184.615282,4182.05118,4176.410154,4184.615282,4194.871692,4259.999896,4240.512717,4322.563997,4403.076815
83,0,4358.461432,4333.846048,4247.692204,4254.35887,4187.179385,4185.640923,4182.564,4177.435795,4186.153744,4198.461436,4252.820409,4233.84605,4311.794766,4381.025534
84,0,4325.128099,4308.205023,4232.820409,4247.179383,4185.128103,4185.128103,4183.076821,4176.922975,4186.153744,4208.717846,4235.384512,4224.615281,4295.897331,4348.717842
85,0,4303.076818,4290.769126,4218.974256,4246.153742,4181.538359,4184.102462,4183.589641,4177.435795,4184.615282,4206.666564,4227.179384,4216.410153,4276.922972,4314.358869
86,0,4291.281946,4286.153741,4215.384512,4245.640922,4194.871692,4188.717846,4184.102462,4183.589641,4191.794769,4199.999897,4231.794768,4214.871692,4267.692203,4298.461433
87,0,4277.948613,4280.512716,4217.435794,4244.10246,4199.999897,4189.230667,4184.102462,4184.615282,4197.948615,4203.07682,4230.769127,4216.410153,4261.538357,4292.307587
88,0,4265.640921,4275.384511,4215.897333,4245.640922,4184.102462,4184.102462,4184.615282,4180.512718,4192.30759,4201.025538,4220.512717,4210.256307,4250.256306,4276.410152
89,0,4259.999896,4274.35887,4208.717846,4242.051178,4178.974257,4188.717846,4186.666564,4184.102462,4194.871692,4197.435795,4217.948615,4205.128102,4244.10246,4262.051178
90,0,4249.743486,4267.692203,4203.589641,4234.871691,4194.871692,4193.333231,4188.205026,4181.538359,4200.512718,4203.589641,4215.384512,4200.512718,4237.948614,4251.794768
91,0,4229.230666,4248.205024,4196.410154,4233.84605,4199.999897,4186.153744,4185.640923,4171.79477,4192.30759,4198.974256,4199.999897,4189.743487,4219.487076,4233.84605
92,0,4219.999897,4240.512717,4192.30759,4232.307589,4185.640923,4185.128103,4184.102462,4174.871693,4190.256308,4184.615282,4193.846051,4188.205026,4212.82041,4221.025538
93,0,4228.717845,4254.871691,4198.974256,4233.33323,4182.05118,4197.435795,4192.30759,4186.666564,4201.538359,4193.333231,4207.179384,4199.999897,4225.128102,4226.666563
94,0,4231.281948,4261.538357,4201.538359,4235.384512,4198.974256,4203.589641,4198.461436,4189.743487,4204.102461,4214.871692,4214.358871,4207.692205,4230.256307,4230.769127
95,0,4219.999897,4249.230665,4190.256308,4231.281948,4197.948615,4196.410154,4190.769128,4182.564,4198.974256,4211.794769,4205.128102,4199.487077,4219.487076,4217.435794
96,0,4207.179384,4242.051178,4181.538359,4228.205025,4181.538359,4190.256308,4185.128103,4173.846052,4197.435795,4196.922974,4196.922974,4185.640923,4205.640923,4202.051179
97,0,4200.512718,4244.10246,4184.615282,4232.307589,4187.179385,4193.846051,4188.205026,4173.333231,4197.948615,4198.974256,4196.410154,4182.564,4201.025538,4198.974256
98,0,4201.025538,4243.076819,4186.153744,4233.84605,4194.358872,4200.512718,4189.743487,4181.538359,4198.461436,4203.07682,4200.512718,4192.30759,4203.07682,4199.999897
99,0,4202.564,4245.640922,4183.589641,4232.307589,4184.615282,4197.948615,4191.794769,4185.640923,4198.974256,4198.974256,4202.051179,4197.435795,4203.589641,4201.025538
100,0,4201.538359,4250.769127,4184.102462,4232.820409,4185.128103,4194.871692,4197.435795,4185.128103,4201.538359,4198.461436,4203.07682,4192.30759,4203.589641,4201.025538
101,0,4198.974256,4245.128101,4185.128103,4234.358871,4194.871692,4199.487077,4202.051179,4186.666564,4202.564,4201.538359,4200.512718,4190.256308,4199.999897,4193.333231
102,0,4190.769128,4236.410153,4175.897334,4232.307589,4188.205026,4196.922974,4199.487077,4186.666564,4199.999897,4203.07682,4189.743487,4186.666564,4191.281949,4176.922975
103,0,4174.871693,4230.256307,4161.53836,4221.025538,4182.564,4187.179385,4190.769128,4183.589641,4197.948615,4197.435795,4179.999898,4175.897334,4182.564,4166.666565
104,0,4168.205026,4227.692204,4158.461437,4210.769128,4186.666564,4186.153744,4187.692205,4181.538359,4197.435795,4188.205026,4179.487077,4167.692206,4181.538359,4162.564001
105,0,4172.30759,4231.794768,4166.153744,4221.025538,4184.615282,4191.281949,4188.205026,4178.461436,4198.974256,4186.153744,4181.538359,4168.717847,4184.615282,4157.948616
106,0,4171.281949,4234.358871,4168.205026,4234.871691,4178.461436,4189.743487,4185.128103,4172.820411,4194.871692,4189.230667,4181.025539,4172.30759,4182.05118,4155.384514
107,0,4170.769129,4234.358871,4168.205026,4228.205025,4181.025539,4189.230667,4189.230667,4168.717847,4186.153744,4186.153744,4181.538359,4172.30759,4174.871693,4157.435796
108,0,4172.820411,4231.794768,4168.717847,4216.922974,4188.205026,4192.30759,4198.461436,4169.230667,4186.153744,4183.589641,4181.538359,4171.281949,4173.846052,4163.076821
109,0,4173.333231,4230.256307,4168.717847,4222.051179,4189.230667,4191.794769,4198.974256,4177.435795,4197.948615,4191.794769,4182.564,4176.410154,4183.589641,4168.205026
110,0,4176.922975,4238.974255,4174.871693,4231.794768,4187.692205,4194.358872,4197.435795,4186.666564,4205.128102,4199.487077,4187.692205,4183.589641,4190.256308,4172.820411
111,0,4182.05118,4245.128101,4179.487077,4231.794768,4183.076821,4194.871692,4196.922974,4183.589641,4200.512718,4200.512718,4190.769128,4186.153744,4183.076821,4170.769129
112,0,4178.461436,4236.922973,4172.820411,4228.205025,4183.076821,4186.666564,4193.333231,4177.948616,4196.922974,4198.974256,4183.589641,4181.025539,4169.230667,4163.076821
113,0,4170.769129,4231.281948,4168.717847,4229.743486,4188.205026,4183.589641,4192.82041,4181.538359,4200.512718,4194.871692,4174.358872,4173.846052,4158.461437,4157.435796
114,0,4167.692206,4234.358871,4167.179385,4227.692204,4175.384513,4187.179385,4196.922974,4177.948616,4195.897333,4180.512718,4171.281949,4169.230667,4152.307591,4155.384514
115,0,4164.102462,4232.820409,4160.512719,4219.487076,4164.102462,4188.205026,4196.410154,4170.769129,4187.179385,4172.820411,4171.79477,4169.743488,4149.743488,4151.79477
116,0,4165.128103,4234.871691,4155.897334,4220.512717,4186.666564,4188.717846,4197.435795,4178.974257,4192.82041,4193.333231,4177.435795,4170.769129,4153.846052,4153.333232
117,0,4169.743488,4248.205024,4155.897334,4229.743486,4202.051179,4190.769128,4198.461436,4183.589641,4202.051179,4206.666564,4184.102462,4171.281949,4158.974257,4159.999898
118,0,4168.717847,4246.666563,4156.922975,4225.640922,4184.615282,4186.153744,4192.30759,4177.435795,4198.974256,4192.30759,4179.999898,4170.256308,4154.871693,4156.922975
119,0,4168.205026,4237.948614,4165.128103,4214.358871,4177.948616,4189.743487,4191.794769,4179.999898,4196.410154,4187.692205,4175.897334,4171.79477,4152.820411,4153.333232
120,0,4169.743488,4242.563999,4170.256308,4218.461435,4187.179385,4199.487077,4197.435795,4187.179385,4201.025538,4200.512718,4184.615282,4179.487077,4157.435796,4161.53836
121,0,4171.79477,4251.281947,4167.179385,4228.205025,4178.461436,4201.025538,4196.922974,4182.564,4200.512718,4201.538359,4187.692205,4184.102462,4161.025539,4168.205026
122,0,4179.487077,4255.384511,4165.640924,4228.717845,4179.999898,4199.487077,4195.897333,4177.948616,4199.487077,4199.999897,4186.153744,4182.564,4165.640924,4169.230667
123,0,4183.589641,4256.922973,4168.717847,4228.717845,4197.435795,4198.974256,4198.461436,4183.076821,4202.564,4202.051179,4191.794769,4185.128103,4168.717847,4172.30759
124,0,4173.846052,4254.871691,4171.79477,4228.717845,4194.871692,4193.333231,4191.281949,4182.564,4199.487077,4196.922974,4192.30759,4183.076821,4161.53836,4169.743488
125,0,4166.153744,4244.10246,4166.153744,4221.025538,4186.153744,4190.256308,4183.589641,4175.897334,4195.897333,4196.922974,4183.076821,4171.281949,4152.820411,4158.974257
126,0,4170.256308,4238.974255,4156.410155,4215.384512,4187.692205,4196.410154,4195.384513,4177.435795,4199.487077,4199.487077,4181.538359,4169.230667,4153.846052,4160.512719
127,0,4170.769129,4237.435794,4158.461437,4217.948615,4184.615282,4201.538359,4200.512718,4179.487077,4201.025538,4191.794769,4186.666564,4177.948616,4156.922975,4169.230667
128,0,4171.79477,4243.076819,4163.076821,4213.33323,4184.615282,4197.435795,4186.666564,4172.30759,4196.922974,4183.589641,4188.717846,4176.410154,4155.384514,4168.205026
0,0,4175.897334,4247.692204,4159.999898,4204.615282,4191.281949,4189.743487,4187.179385,4172.30759,4198.461436,4192.30759,4185.640923,4169.743488,4157.435796,4168.205026
1,0,4164.615283,4222.563999,4156.410155,4199.999897,4173.333231,4184.615282,4195.897333,4178.974257,4196.922974,4199.999897,4174.358872,4168.205026,4153.333232,4163.076821
2,0,4156.922975,4208.205025,4155.897334,4198.461436,4165.640924,4186.153744,4188.717846,4173.846052,4188.205026,4190.769128,4168.717847,4168.205026,4147.179386,4153.333232
3,0,4169.743488,4237.435794,4154.358873,4202.564,4199.999897,4191.794769,4182.564,4168.717847,4190.256308,4189.743487,4175.897334,4169.230667,4152.307591,4158.974257
4,0,4176.410154,4258.974255,4155.897334,4212.307589,4206.666564,4191.281949,4185.640923,4171.79477,4194.358872,4192.30759,4175.897334,4171.79477,4150.769129,4166.153744
5,0,4168.205026,4249.743486,4157.948616,4216.410153,4180.512718,4188.717846,4184.615282,4171.281949,4184.102462,4178.461436,4167.179385,4169.230667,4135.384514,4156.410155
6,0,4168.205026,4248.205024,4160.512719,4215.384512,4185.640923,4195.384513,4190.769128,4169.743488,4179.487077,4171.79477,4167.692206,4167.692206,4131.794771,4151.79477
7,0,4171.79477,4251.281947,4159.999898,4217.948615,4203.07682,4202.051179,4198.974256,4171.281949,4193.333231,4185.640923,4170.769129,4169.743488,4137.948617,4155.897334
8,0,4167.179385,4242.563999,4153.333232,4224.102461,4190.769128,4193.846051,4190.769128,4172.30759,4198.461436,4190.769128,4168.205026,4168.717847,4135.897335,4156.410155
9,0,4169.743488,4247.179383,4157.948616,4231.794768,4178.974257,4185.128103,4183.076821,4172.30759,4189.230667,4185.640923,4169.743488,4171.281949,4136.922976,4162.05118
10,0,4172.820411,4253.84605,4165.640924,4236.410153,4187.179385,4186.666564,4185.128103,4170.256308,4183.589641,4183.076821,4171.79477,4175.897334,4140.512719,4164.102462
11,0,4168.205026,4247.179383,4160.512719,4231.794768,4186.666564,4187.692205,4186.666564,4166.153744,4185.128103,4172.820411,4169.230667,4172.820411,4136.410155,4155.897334
12,0,4161.53836,4242.051178,4152.307591,4219.999897,4179.999898,4186.666564,4185.640923,4165.640924,4183.589641,4169.230667,4167.692206,4166.153744,4133.333232,4151.28195
13,0,4161.53836,4244.10246,4154.358873,4214.871692,4190.769128,4187.692205,4185.640923,4165.128103,4180.512718,4181.025539,4164.615283,4166.153744,4135.384514,4151.79477
14,0,4169.743488,4248.717845,4163.589642,4219.487076,4201.538359,4195.384513,4187.692205,4167.692206,4188.205026,4190.256308,4166.153744,4170.256308,4140.512719,4159.487078
15,0,4175.897334,4255.384511,4170.769129,4221.025538,4188.717846,4197.948615,4189.230667,4176.410154,4198.461436,4187.692205,4179.487077,4172.820411,4146.666565,4169.743488
16,0,4174.871693,4260.512716,4172.30759,4218.461435,4184.102462,4191.794769,4189.230667,4177.948616,4198.461436,4188.717846,4184.615282,4174.871693,4151.28195,4171.79477
17,0,4173.333231,4256.410152,4165.640924,4214.358871,4201.538359,4189.230667,4189.230667,4171.79477,4190.256308,4193.846051,4175.897334,4173.846052,4151.79477,4170.769129
18,0,4172.30759,4247.179383,4157.435796,4206.666564,4202.051179,4190.256308,4188.717846,4170.769129,4186.153744,4189.230667,4172.30759,4170.256308,4145.640924,4167.179385
19,0,4168.717847,4244.615281,4152.820411,4204.615282,4194.358872,4186.153744,4187.179385,4171.281949,4186.153744,4181.538359,4172.820411,4167.692206,4138.461437,4155.897334
20,0,4168.717847,4249.230665,4157.948616,4215.384512,4201.025538,4185.640923,4187.692205,4168.717847,4186.153744,4185.640923,4168.205026,4168.717847,4141.53836,4153.846052
21,0,4174.358872,4250.769127,4166.666565,4224.102461,4189.743487,4190.769128,4188.205026,4169.743488,4185.640923,4189.230667,4174.358872,4169.230667,4150.256309,4166.153744
22,0,4179.487077,4250.769127,4168.205026,4219.487076,4177.948616,4189.230667,4185.640923,4172.820411,4187.692205,4189.230667,4185.128103,4169.230667,4153.846052,4170.769129
23,0,4182.05118,4251.281947,4167.692206,4215.384512,4194.871692,4185.640923,4185.640923,4171.79477,4193.846051,4193.333231,4181.538359,4172.30759,4151.28195,4170.256308
24,0,4183.076821,4250.769127,4167.692206,4224.615281,4202.564,4188.717846,4186.666564,4169.743488,4193.846051,4189.230667,4176.410154,4174.358872,4148.205027,4171.79477
25,0,4182.564,4250.256306,4169.743488,4232.820409,4193.846051,4193.846051,4187.692205,4171.79477,4188.717846,4181.538359,4180.512718,4171.79477,4150.256309,4172.30759
26,0,4175.384513,4250.769127,4166.666565,4224.102461,4194.871692,4191.794769,4189.230667,4172.30759,4185.640923,4186.666564,4178.461436,4169.230667,4149.230668,4170.256308
27,0,4168.205026,4246.153742,4157.435796,4211.281948,4200.512718,4186.153744,4186.666564,4169.230667,4186.153744,4188.205026,4170.256308,4169.743488,4140.512719,4165.128103
28,0,4175.384513,4243.58964,4157.435796,4214.871692,4202.051179,4193.333231,4185.640923,4174.871693,4192.30759,4183.589641,4174.358872,4170.256308,4141.53836,4162.564001
29,0,4182.564,4249.743486,4168.717847,4228.717845,4193.846051,4198.461436,4189.230667,4183.589641,4200.512718,4192.82041,4183.589641,4170.769129,4152.307591,4168.717847
30,0,4177.435795,4248.205024,4170.769129,4228.205025,4182.564,4190.256308,4189.743487,4185.128103,4202.051179,4201.538359,4186.666564,4175.384513,4154.358873,4173.846052
31,0,4175.897334,4235.897332,4164.102462,4219.487076,4193.846051,4191.794769,4192.30759,4184.615282,4198.461436,4197.948615,4187.179385,4179.999898,4153.333232,4171.281949
32,0,4182.05118,4231.794768,4165.640924,4222.051179,4209.230666,4200.512718,4196.410154,4183.589641,4198.974256,4198.974256,4186.666564,4176.410154,4155.384514,4171.281949
33,0,4185.128103,4238.461435,4169.743488,4230.769127,4199.487077,4201.025538,4196.922974,4183.076821,4199.999897,4203.07682,4185.640923,4173.333231,4155.897334,4174.871693
34,0,4182.564,4242.051178,4169.230667,4231.281948,4196.922974,4198.461436,4195.384513,4184.102462,4199.487077,4201.538359,4183.589641,4172.820411,4154.358873,4172.820411
35,0,4181.538359,4242.051178,4169.230667,4230.256307,4202.051179,4198.974256,4195.897333,4185.128103,4198.461436,4199.487077,4184.615282,4172.30759,4154.871693,4170.769129
36,0,4185.640923,4241.025537,4169.743488,4232.307589,4192.30759,4196.922974,4191.794769,4184.615282,4199.999897,4201.025538,4187.692205,4174.871693,4157.435796,4175.897334
37,0,4184.615282,4235.897332,4168.717847,4230.769127,4189.743487,4198.461436,4188.205026,4184.102462,4201.025538,4203.589641,4188.205026,4175.384513,4158.974257,4175.897334
38,0,4174.871693,4233.33323,4166.666565,4227.692204,4207.692205,4201.538359,4193.846051,4181.025539,4197.948615,4200.512718,4184.615282,4171.281949,4153.846052,4169.230667
39,0,4172.820411,4232.820409,4166.153744,4229.743486,4215.384512,4199.487077,4197.948615,4180.512718,4194.358872,4186.666564,4182.05118,4170.256308,4150.769129,4170.769129
40,0,4184.615282,4232.307589,4170.256308,4243.076819,4206.153743,4200.512718,4198.461436,4184.615282,4197.948615,4184.102462,4184.615282,4175.384513,4155.897334,4176.410154
41,0,4191.281949,4234.358871,4172.820411,4249.230665,4202.564,4202.564,4197.948615,4184.102462,4202.564,4199.999897,4187.692205,4175.384513,4158.974257,4174.358872
42,0,4183.589641,4231.281948,4164.102462,4235.897332,4197.948615,4197.435795,4195.897333,4181.025539,4197.948615,4204.102461,4180.512718,4169.230667,4151.79477,4168.717847
43,0,4172.820411,4219.487076,4159.487078,4227.179384,4184.615282,4192.82041,4193.846051,4183.076821,4193.333231,4194.358872,4169.743488,4166.153744,4143.076822,4168.205026
44,0,4176.410154,4215.384512,4167.692206,4231.281948,4189.230667,4198.461436,4196.922974,4187.692205,4199.487077,4195.897333,4174.871693,4170.769129,4148.717847,4167.692206
45,0,4185.640923,4219.999897,4171.281949,4229.743486,4205.640923,4202.051179,4201.025538,4189.230667,4204.102461,4201.538359,4187.179385,4174.871693,4156.922975,4167.692206
46,0,4183.589641,4224.615281,4167.179385,4225.640922,4199.999897,4198.461436,4199.999897,4187.179385,4201.025538,4198.461436,4185.640923,4175.897334,4151.28195,4173.846052
47,0,4185.640923,4229.743486,4175.384513,4231.794768,4196.922974,4198.974256,4200.512718,4187.692205,4201.025538,4197.435795,4185.640923,4182.564,4153.846052,4183.076821
48,0,4197.948615,4231.794768,4187.692205,4237.948614,4212.307589,4202.051179,4201.025538,4190.256308,4204.615282,4206.153743,4195.897333,4188.717846,4169.230667,4187.179385
49,0,4198.461436,4232.820409,4187.179385,4236.922973,4211.281948,4201.025538,4199.999897,4190.769128,4204.102461,4212.82041,4194.358872,4188.717846,4169.743488,4186.153744
50,0,4188.205026,4229.230666,4179.999898,4233.84605,4198.974256,4200.512718,4201.538359,4189.230667,4198.974256,4201.025538,4184.102462,4182.564,4155.897334,4181.025539
51,0,4184.102462,4219.487076,4173.846052,4225.640922,4198.461436,4200.512718,4199.487077,4186.153744,4196.410154,4191.281949,4182.05118,4175.897334,4150.769129,4171.79477
52,0,4183.589641,4214.358871,4170.256308,4214.871692,4204.102461,4195.897333,4189.230667,4181.538359,4195.897333,4194.871692,4185.640923,4178.974257,4156.410155,4169.743488
53,0,4179.487077,4213.33323,4168.717847,4211.794769,4199.999897,4193.333231,4183.076821,4176.922975,4189.230667,4190.256308,4186.153744,4183.076821,4157.435796,4173.846052
54,0,4175.384513,4207.692205,4167.179385,4214.871692,4191.794769,4195.897333,4191.794769,4177.948616,4184.102462,4183.589641,4181.538359,4174.358872,4153.333232,4172.820411
55,0,4176.410154,4204.102461,4165.640924,4214.358871,4192.30759,4201.538359,4198.461436,4182.05118,4191.281949,4190.769128,4175.897334,4167.179385,4151.79477,4168.205026
56,0,4179.487077,4206.666564,4166.153744,4210.256307,4201.025538,4198.974256,4189.743487,4181.025539,4197.948615,4192.82041,4177.435795,4168.717847,4154.358873,4168.717847
57,0,4182.05118,4211.794769,4167.179385,4212.307589,4202.564,4188.717846,4184.615282,4178.974257,4196.410154,4189.743487,4184.102462,4169.230667,4155.897334,4171.281949
58,0,4183.589641,4212.307589,4167.692206,4217.435794,4198.974256,4189.743487,4192.30759,4182.564,4196.410154,4196.410154,4186.666564,4169.743488,4157.948616,4171.79477
59,0,4184.102462,4208.205025,4167.692206,4217.948615,4204.615282,4199.999897,4200.512718,4187.692205,4198.461436,4196.410154,4185.128103,4172.820411,4159.999898,4170.769129
60,0,4181.538359,4207.179384,4169.743488,4225.128102,4212.307589,4204.102461,4199.999897,4188.717846,4197.948615,4192.82041,4184.615282,4172.30759,4155.897334,4170.256308
61,0,4182.564,4210.256307,4170.256308,4231.281948,4211.281948,4201.538359,4196.922974,4185.640923,4196.922974,4194.871692,4182.564,4172.820411,4153.333232,4170.256308
62,0,4187.692205,4211.281948,4170.256308,4222.051179,4206.153743,4201.025538,4197.948615,4185.128103,4198.461436,4195.384513,4183.076821,4178.461436,4163.076821,4172.30759
63,0,4188.717846,4212.307589,4175.384513,4214.871692,4197.435795,4201.538359,4201.538359,4188.205026,4202.051179,4198.461436,4186.666564,4184.615282,4167.179385,4174.358872
64,0,4184.102462,4213.846051,4176.922975,4216.410153,4190.769128,4199.999897,4200.512718,4189.743487,4203.07682,4201.538359,4187.692205,4183.589641,4162.05118,4172.820411
65,0,4184.102462,4213.846051,4175.897334,4215.897333,4204.102461,4200.512718,4197.948615,4187.692205,4198.461436,4203.589641,4186.666564,4181.538359,4162.564001,4170.256308
66,0,4187.692205,4219.487076,4177.948616,4221.025538,4218.461435,4201.025538,4198.974256,4186.153744,4197.948615,4201.538359,4188.205026,4183.076821,4168.205026,4171.281949
67,0,4185.640923,4217.435794,4179.487077,4230.769127,4210.769128,4200.512718,4198.974256,4188.205026,4202.051179,4194.871692,4190.256308,4181.538359,4170.769129,4172.30759
68,0,4181.538359,4205.640923,4173.846052,4224.615281,4202.051179,4198.461436,4192.82041,4187.692205,4196.922974,4192.30759,4184.102462,4176.410154,4166.666565,4170.769129
69,0,4183.076821,4205.640923,4170.256308,4215.384512,4195.897333,4193.333231,4185.640923,4182.05118,4188.205026,4191.281949,4176.922975,4170.769129,4156.922975,4170.769129
70,0,4186.666564,4215.897333,4176.410154,4222.051179,4186.153744,4191.794769,4189.743487,4181.025539,4193.333231,4191.281949,4181.538359,4175.384513,4156.922975,4173.333231
71,0,4187.179385,4220.512717,4182.564,4231.794768,4195.897333,4196.922974,4199.487077,4188.205026,4201.538359,4196.922974,4188.717846,4183.589641,4166.666565,4174.358872
72,0,4185.128103,4212.307589,4177.435795,4231.281948,4223.58964,4202.051179,4200.512718,4191.794769,4199.487077,4201.025538,4185.640923,4178.974257,4159.487078,4169.743488
73,0,4179.487077,4202.564,4167.692206,4227.692204,4216.922974,4201.025538,4196.922974,4189.230667,4197.435795,4195.384513,4178.461436,4173.846052,4146.153745,4166.666565
74,0,4179.999898,4204.102461,4174.871693,4231.794768,4193.846051,4200.512718,4198.974256,4189.230667,4201.538359,4194.871692,4187.179385,4182.564,4160.512719,4177.948616
75,0,4191.281949,4213.846051,4186.153744,4235.897332,4205.128102,4203.07682,4199.999897,4189.230667,4203.07682,4200.512718,4202.564,4190.256308,4181.538359,4191.281949
76,0,4198.461436,4216.410153,4184.615282,4233.84605,4221.538358,4202.051179,4196.922974,4187.179385,4200.512718,4199.487077,4201.025538,4184.615282,4178.461436,4189.743487
77,0,4191.281949,4208.205025,4182.564,4234.871691,4209.230666,4201.538359,4196.922974,4189.230667,4198.461436,4199.487077,4191.281949,4182.564,4168.205026,4186.153744
78,0,4182.564,4196.922974,4181.538359,4231.794768,4196.922974,4202.564,4197.948615,4190.256308,4196.922974,4198.461436,4188.717846,4185.128103,4170.769129,4182.564
79,0,4184.615282,4189.230667,4174.358872,4221.025538,4204.615282,4201.025538,4192.30759,4186.666564,4197.948615,4195.897333,4187.692205,4180.512718,4173.846052,4175.384513
80,0,4186.666564,4193.846051,4167.692206,4212.82041,4209.743487,4198.974256,4185.640923,4186.153744,4199.999897,4198.461436,4187.692205,4176.922975,4170.256308,4177.435795
81,0,4184.615282,4203.07682,4174.871693,4215.384512,4204.102461,4199.999897,4189.230667,4188.205026,4199.999897,4196.922974,4191.281949,4179.487077,4170.769129,4186.153744
82,0,4190.256308,4201.538359,4184.615282,4224.102461,4205.640923,4202.564,4198.974256,4188.717846,4198.461436,4189.230667,4191.794769,4184.102462,4180.512718,4187.179385
83,0,4195.384513,4197.435795,4187.179385,4229.743486,4212.82041,4202.051179,4201.025538,4185.640923,4198.974256,4193.846051,4190.256308,4183.076821,4185.128103,4185.128103
84,0,4189.743487,4199.999897,4185.640923,4227.692204,4216.922974,4202.051179,4198.974256,4184.615282,4198.974256,4202.564,4191.281949,4183.076821,4176.922975,4184.102462
85,0,4184.102462,4202.051179,4183.076821,4227.179384,4213.846051,4204.102461,4201.538359,4191.794769,4198.974256,4193.333231,4190.769128,4183.589641,4173.333231,4184.102462
86,0,4184.615282,4198.461436,4180.512718,4230.769127,4210.256307,4203.589641,4203.07682,4194.871692,4199.487077,4184.102462,4191.281949,4181.025539,4179.999898,4183.589641
87,0,4190.769128,4199.487077,4182.05118,4234.358871,4215.384512,4202.051179,4199.999897,4193.333231,4202.051179,4201.538359,4196.922974,4182.05118,4185.128103,4183.589641
88,0,4199.999897,4208.205025,4189.230667,4235.897332,4219.999897,4205.128102,4198.461436,4198.461436,4206.666564,4219.999897,4201.538359,4189.230667,4187.179385,4193.846051
89,0,4199.487077,4208.717846,4190.256308,4237.435794,4209.743487,4206.666564,4201.025538,4198.974256,4203.589641,4211.794769,4198.461436,4190.256308,4187.179385,4200.512718
90,0,4187.179385,4199.487077,4183.589641,4229.230666,4202.051179,4203.07682,4199.999897,4194.358872,4197.435795,4200.512718,4188.717846,4182.564,4183.076821,4189.230667
91,0,4184.102462,4196.410154,4180.512718,4217.948615,4214.871692,4201.025538,4197.948615,4195.384513,4198.974256,4199.999897,4185.128103,4178.974257,4181.025539,4181.025539
92,0,4187.692205,4201.538359,4182.564,4221.025538,4226.666563,4203.589641,4199.999897,4195.384513,4203.07682,4200.512718,4195.384513,4184.615282,4183.076821,4187.179385
93,0,4186.666564,4199.487077,4182.564,4227.692204,4216.922974,4201.538359,4199.487077,4187.179385,4201.025538,4201.025538,4199.487077,4186.666564,4183.076821,4188.717846
94,0,4186.666564,4201.025538,4180.512718,4218.974256,4208.717846,4198.461436,4195.897333,4185.128103,4198.974256,4201.538359,4196.410154,4183.589641,4182.05118,4189.230667
95,0,4187.179385,4208.205025,4181.538359,4214.871692,4205.640923,4198.461436,4195.384513,4187.692205,4198.974256,4195.384513,4199.487077,4185.128103,4182.564,4194.358872
96,0,4185.128103,4206.666564,4181.538359,4217.948615,4202.564,4200.512718,4197.948615,4186.666564,4197.948615,4193.333231,4198.974256,4185.128103,4184.615282,4190.769128
97,0,4184.615282,4200.512718,4173.846052,4203.589641,4204.615282,4199.999897,4198.974256,4188.717846,4197.948615,4202.051179,4187.692205,4174.358872,4179.487077,4183.589641
98,0,4183.076821,4196.922974,4169.743488,4191.281949,4195.897333,4195.897333,4197.948615,4191.794769,4198.974256,4200.512718,4183.589641,4167.692206,4172.30759,4182.05118
99,0,4182.05118,4196.410154,4176.922975,4198.461436,4199.999897,4196.922974,4198.461436,4194.358872,4201.538359,4196.922974,4190.769128,4174.358872,4176.410154,4184.102462
100,0,4188.717846,4207.179384,4184.102462,4202.564,4225.128102,4201.025538,4199.487077,4196.922974,4203.589641,4204.615282,4197.948615,4184.102462,4185.128103,4191.794769
101,0,4201.025538,4222.051179,4191.281949,4206.153743,4230.256307,4201.025538,4198.974256,4200.512718,4205.640923,4209.743487,4209.230666,4193.333231,4193.846051,4203.589641
102,0,4207.179384,4223.58964,4201.538359,4217.948615,4219.999897,4199.487077,4198.461436,4202.051179,4207.692205,4210.769128,4217.948615,4203.07682,4202.051179,4210.256307
103,0,4199.999897,4216.922974,4201.025538,4219.999897,4212.82041,4200.512718,4198.974256,4198.974256,4205.128102,4208.205025,4211.281948,4199.487077,4198.974256,4199.999897
104,0,4190.256308,4214.358871,4189.230667,4208.205025,4204.102461,4201.538359,4201.025538,4200.512718,4199.999897,4199.999897,4198.461436,4186.153744,4185.640923,4188.205026
105,0,4186.666564,4212.82041,4184.615282,4199.999897,4206.153743,4201.025538,4202.564,4197.948615,4198.461436,4197.948615,4191.281949,4184.102462,4180.512718,4187.692205
106,0,4186.666564,4213.33323,4186.153744,4199.999897,4217.948615,4199.999897,4200.512718,4189.230667,4196.922974,4198.461436,4187.179385,4185.640923,4181.538359,4188.205026
107,0,4187.179385,4211.281948,4185.128103,4203.07682,4215.384512,4200.512718,4199.487077,4190.769128,4197.948615,4195.384513,4189.230667,4182.05118,4182.05118,4187.179385
108,0,4187.179385,4208.717846,4183.589641,4204.615282,4210.769128,4201.025538,4200.512718,4198.974256,4201.025538,4198.974256,4195.897333,4182.05118,4185.128103,4192.30759
109,0,4185.640923,4209.230666,4183.076821,4198.461436,4216.410153,4197.435795,4196.922974,4197.948615,4199.487077,4200.512718,4196.410154,4185.640923,4184.615282,4193.846051
110,0,4189.230667,4214.871692,4186.153744,4197.435795,4217.948615,4197.435795,4196.410154,4196.922974,4197.948615,4191.794769,4196.922974,4187.692205,4183.589641,4191.794769
111,0,4199.487077,4225.640922,4190.769128,4207.692205,4218.974256,4207.692205,4207.692205,4203.589641,4204.102461,4194.871692,4202.564,4189.230667,4189.743487,4201.538359
112,0,4198.461436,4227.179384,4189.230667,4210.769128,4219.999897,4216.410153,4213.33323,4205.128102,4207.179384,4208.205025,4202.051179,4188.205026,4190.769128,4201.025538
113,0,4186.666564,4219.487076,4183.076821,4198.974256,4224.102461,4212.307589,4204.615282,4199.999897,4202.051179,4209.230666,4196.410154,4184.102462,4184.615282,4190.256308
114,0,4183.076821,4214.358871,4182.564,4192.30759,4228.205025,4203.07682,4197.435795,4196.410154,4198.974256,4197.948615,4197.948615,4183.589641,4185.640923,4194.871692
115,0,4191.281949,4215.384512,4186.666564,4201.025538,4219.999897,4201.538359,4198.974256,4196.410154,4201.538359,4196.922974,4203.589641,4186.666564,4195.897333,4204.102461
116,0,4200.512718,4219.487076,4189.230667,4204.615282,4216.922974,4201.025538,4199.487077,4198.974256,4203.589641,4211.281948,4205.128102,4189.230667,4201.025538,4204.102461
117,0,4197.435795,4218.974256,4185.640923,4188.205026,4212.307589,4193.846051,4195.384513,4197.435795,4200.512718,4213.33323,4203.07682,4187.179385,4198.974256,4200.512718
118,0,4188.717846,4212.82041,4179.999898,4174.871693,4204.615282,4190.256308,4195.384513,4195.897333,4199.999897,4203.07682,4202.051179,4184.102462,4196.922974,4197.435795
119,0,4193.333231,4219.999897,4181.538359,4189.743487,4217.435794,4198.461436,4201.025538,4198.461436,4204.102461,4206.666564,4203.07682,4185.640923,4199.999897,4197.948615
120,0,4202.564,4230.256307,4187.692205,4207.179384,4235.384512,4211.281948,4204.102461,4201.025538,4202.564,4214.358871,4202.564,4186.666564,4201.538359,4203.07682
121,0,4199.487077,4220.512717,4187.179385,4202.564,4235.384512,4212.307589,4202.564,4201.538359,4199.487077,4208.205025,4200.512718,4184.615282,4198.461436,4203.07682
122,0,4197.435795,4218.974256,4186.153744,4202.564,4231.794768,4204.615282,4200.512718,4199.999897,4201.538359,4203.589641,4198.974256,4184.615282,4195.897333,4202.051179
123,0,4203.07682,4233.33323,4195.384513,4217.948615,4223.07682,4207.692205,4203.07682,4197.435795,4203.589641,4201.025538,4203.589641,4186.666564,4199.487077,4208.717846
124,0,4204.615282,4226.666563,4200.512718,4217.435794,4211.281948,4212.82041,4207.179384,4198.461436,4202.564,4196.922974,4209.230666,4188.717846,4199.999897,4211.794769
125,0,4198.461436,4210.256307,4192.30759,4205.128102,4218.461435,4205.640923,4205.640923,4203.07682,4203.07682,4208.717846,4206.666564,4190.769128,4190.769128,4207.179384
126,0,4191.281949,4210.256307,4185.128103,4199.999897,4226.153743,4200.512718,4201.025538,4201.538359,4203.589641,4216.410153,4197.948615,4188.205026,4182.05118,4196.410154
127,0,4186.153744,4212.82041,4186.153744,4203.07682,4213.33323,4203.07682,4201.025538,4197.948615,4202.051179,4207.179384,4196.410154,4183.076821,4184.102462,4190.769128
128,0,4183.589641,4210.256307,4185.640923,4208.205025,4213.33323,4202.564,4202.051179,4199.999897,4201.025538,4205.640923,4197.435795,4181.538359,4186.153744,4193.846051
0,0,4189.743487,4212.82041,4183.076821,4212.82041,4230.769127,4206.666564,4199.487077,4201.025538,4203.589641,4212.82041,4195.897333,4184.615282,4184.102462,4197.948615
1,0,4203.07682,4218.974256,4191.281949,4216.922974,4229.743486,4217.435794,4204.102461,4202.051179,4207.692205,4216.922974,4206.153743,4188.205026,4189.743487,4206.666564
2,0,4205.640923,4217.435794,4199.487077,4219.487076,4221.538358,4215.384512,4212.307589,4204.615282,4206.666564,4215.384512,4216.922974,4190.256308,4194.358872,4212.82041
3,0,4200.512718,4214.358871,4197.435795,4219.999897,4233.33323,4206.153743,4213.846051,4202.051179,4202.564,4207.692205,4210.256307,4190.769128,4189.743487,4206.666564
4,0,4203.589641,4213.846051,4196.410154,4218.461435,4237.948614,4204.102461,4212.307589,4198.974256,4201.538359,4201.025538,4201.538359,4189.230667,4186.153744,4198.974256
5,0,4204.615282,4206.153743,4197.435795,4218.461435,4217.435794,4203.07682,4209.230666,4196.410154,4201.025538,4206.153743,4201.538359,4187.179385,4189.230667,4201.538359
6,0,4202.051179,4203.589641,4191.281949,4217.948615,4208.717846,4202.051179,4204.615282,4197.948615,4204.102461,4215.897333,4206.153743,4187.179385,4193.846051,4205.128102
7,0,4208.205025,4217.435794,4188.717846,4217.948615,4226.153743,4206.153743,4201.538359,4207.179384,4215.384512,4225.128102,4214.358871,4189.230667,4201.538359,4207.692205
8,0,4211.281948,4220.512717,4191.794769,4220.512717,4233.33323,4207.179384,4200.512718,4212.307589,4219.999897,4225.640922,4216.922974,4189.230667,4206.153743,4210.256307
9,0,4198.461436,4203.07682,4185.128103,4215.897333,4219.999897,4203.07682,4200.512718,4205.128102,4209.230666,4211.281948,4204.615282,4181.538359,4196.922974,4201.538359
10,0,4187.179385,4197.948615,4178.974257,4213.33323,4211.794769,4207.179384,4201.538359,4197.948615,4197.435795,4197.435795,4189.230667,4171.281949,4183.589641,4188.205026
11,0,4188.717846,4202.051179,4180.512718,4217.948615,4216.922974,4214.358871,4202.051179,4197.435795,4196.922974,4193.846051,4186.666564,4167.692206,4179.487077,4186.153744
12,0,4196.410154,4200.512718,4183.589641,4219.487076,4225.640922,4215.384512,4208.717846,4205.128102,4207.179384,4206.666564,4201.538359,4176.922975,4190.256308,4194.358872
13,0,4206.666564,4208.205025,4186.666564,4218.974256,4228.717845,4216.922974,4216.922974,4216.410153,4219.999897,4226.666563,4219.487076,4188.717846,4204.102461,4209.743487
14,0,4212.307589,4218.974256,4189.743487,4220.512717,4229.230666,4214.871692,4209.743487,4211.794769,4218.461435,4222.563999,4219.487076,4189.230667,4206.666564,4218.461435
15,0,4203.589641,4207.179384,4185.640923,4211.794769,4230.769127,4206.153743,4197.948615,4197.435795,4205.128102,4209.743487,4212.307589,4184.615282,4202.564,4212.307589
16,0,4196.922974,4194.358872,4184.102462,4203.07682,4229.743486,4201.025538,4197.948615,4196.922974,4202.051179,4219.999897,4211.794769,4184.615282,4199.999897,4207.179384
17,0,4212.307589,4213.846051,4192.30759,4213.33323,4228.717845,4204.102461,4199.999897,4200.512718,4210.256307,4228.205025,4217.948615,4188.717846,4203.589641,4215.384512
18,0,4223.07682,4230.256307,4196.410154,4223.07682,4233.33323,4204.615282,4198.461436,4198.974256,4209.230666,4215.897333,4216.410153,4188.717846,4203.07682,4215.897333
19,0,4209.230666,4219.999897,4188.205026,4221.025538,4228.717845,4201.538359,4199.487077,4200.512718,4205.128102,4213.846051,4204.615282,4184.102462,4192.82041,4203.07682
20,0,4198.461436,4208.205025,4183.076821,4215.897333,4214.358871,4202.564,4202.051179,4204.615282,4206.666564,4218.461435,4197.435795,4180.512718,4183.076821,4198.974256
21,0,4201.025538,4207.179384,4185.640923,4213.846051,4209.743487,4202.564,4204.615282,4205.640923,4205.640923,4206.153743,4198.974256,4182.05118,4181.538359,4200.512718
22,0,4202.051179,4211.794769,4192.30759,4219.999897,4217.948615,4202.051179,4205.128102,4205.128102,4202.051179,4197.948615,4198.974256,4185.128103,4182.564,4197.948615
23,0,4200.512718,4215.384512,4197.435795,4229.230666,4226.153743,4208.717846,4204.615282,4201.025538,4199.999897,4203.589641,4197.435795,4185.640923,4182.564,4197.948615
24,0,4205.128102,4214.358871,4198.974256,4224.102461,4231.281948,4211.794769,4204.615282,4198.974256,4198.974256,4203.589641,4200.512718,4184.615282,4183.076821,4201.538359
25,0,4210.769128,4216.922974,4199.999897,4213.846051,4230.769127,4211.281948,4203.589641,4201.025538,4199.487077,4201.538359,4203.07682,4184.102462,4186.153744,4203.589641
26,0,4208.205025,4217.948615,4197.435795,4215.384512,4232.820409,4213.33323,4202.564,4198.461436,4202.051179,4206.666564,4203.07682,4185.640923,4189.743487,4203.07682
27,0,4202.564,4204.102461,4189.230667,4217.435794,4231.281948,4209.743487,4201.025538,4193.333231,4198.974256,4201.025538,4196.922974,4183.589641,4184.102462,4197.948615
28,0,4205.128102,4199.487077,4192.30759,4218.974256,4217.948615,4201.025538,4199.487077,4196.922974,4198.974256,4192.82041,4195.897333,4183.589641,4181.538359,4197.948615
29,0,4215.897333,4217.435794,4204.102461,4222.563999,4221.538358,4201.538359,4198.974256,4204.615282,4209.743487,4208.205025,4208.205025,4192.82041,4196.922974,4209.743487
30,0,4216.410153,4219.999897,4203.589641,4219.999897,4235.897332,4203.589641,4198.974256,4205.128102,4211.794769,4222.051179,4209.230666,4195.384513,4203.07682,4212.307589
31,0,4208.717846,4205.128102,4197.435795,4215.897333,4235.384512,4202.564,4202.564,4202.564,4202.564,4211.794769,4200.512718,4186.153744,4190.256308,4203.589641
32,0,4196.922974,4197.948615,4189.743487,4212.82041,4226.153743,4207.692205,4204.615282,4199.999897,4197.435795,4192.30759,4193.846051,4177.435795,4182.05118,4194.358872
33,0,4186.666564,4193.333231,4182.564,4208.717846,4220.512717,4211.794769,4202.051179,4197.948615,4197.435795,4187.692205,4189.230667,4175.897334,4184.102462,4185.640923
34,0,4192.30759,4190.769128,4189.743487,4212.82041,4223.07682,4212.307589,4206.153743,4201.538359,4200.512718,4199.999897,4193.333231,4181.025539,4186.153744,4189.230667
35,0,4203.589641,4198.461436,4201.538359,4217.948615,4222.563999,4210.769128,4213.33323,4205.128102,4204.615282,4206.666564,4203.589641,4186.666564,4186.153744,4201.025538
36,0,4202.564,4203.589641,4198.461436,4215.897333,4212.307589,4203.07682,4207.692205,4202.051179,4202.564,4199.487077,4197.948615,4184.102462,4184.615282,4198.461436
37,0,4197.948615,4199.999897,4193.333231,4216.922974,4212.82041,4201.538359,4201.538359,4199.487077,4197.435795,4196.410154,4186.153744,4181.538359,4183.076821,4190.256308
38,0,4200.512718,4201.538359,4197.435795,4215.897333,4232.820409,4208.717846,4207.179384,4200.512718,4201.538359,4198.461436,4195.384513,4186.153744,4185.128103,4196.922974
39,0,4205.128102,4206.666564,4202.051179,4204.615282,4234.871691,4208.205025,4208.717846,4202.051179,4204.102461,4196.922974,4204.102461,4187.692205,4188.205026,4203.589641
40,0,4205.128102,4201.025538,4201.025538,4198.974256,4220.512717,4198.974256,4201.538359,4203.589641,4202.051179,4203.589641,4198.974256,4187.692205,4188.717846,4201.025538
41,0,4203.589641,4198.974256,4200.512718,4203.589641,4215.384512,4199.487077,4200.512718,4204.615282,4204.102461,4214.871692,4199.487077,4189.230667,4189.230667,4201.025538
42,0,4202.051179,4201.025538,4200.512718,4207.692205,4218.974256,4206.153743,4204.102461,4202.051179,4204.615282,4211.794769,4203.07682,4186.666564,4188.205026,4201.538359
43,0,4198.974256,4192.30759,4196.922974,4207.179384,4225.128102,4206.666564,4204.102461,4199.487077,4201.538359,4198.974256,4192.82041,4183.076821,4185.128103,4195.897333
44,0,4196.922974,4185.640923,4193.846051,4204.102461,4218.974256,4204.102461,4203.07682,4198.974256,4199.999897,4193.846051,4184.102462,4182.564,4183.076821,4191.794769
45,0,4199.999897,4193.846051,4197.948615,4202.564,4207.692205,4206.153743,4206.666564,4197.948615,4199.487077,4195.384513,4192.82041,4185.128103,4184.102462,4195.897333
46,0,4202.051179,4201.538359,4200.512718,4204.615282,4216.922974,4207.179384,4206.153743,4197.948615,4197.948615,4195.384513,4196.410154,4185.128103,4183.589641,4199.487077
47,0,4198.974256,4197.435795,4198.974256,4200.512718,4231.281948,4201.025538,4200.512718,4197.435795,4197.435795,4192.82041,4191.281949,4184.102462,4183.076821,4198.461436
48,0,4202.051179,4196.922974,4200.512718,4198.461436,4220.512717,4199.999897,4199.999897,4198.461436,4200.512718,4196.922974,4195.897333,4185.128103,4187.179385,4202.051179
49,0,4205.640923,4201.025538,4202.564,4210.769128,4216.922974,4208.205025,4205.128102,4201.538359,4201.025538,4202.051179,4202.051179,4187.179385,4189.230667,4206.153743
50,0,4200.512718,4197.948615,4199.487077,4216.410153,4229.230666,4207.692205,4206.153743,4203.07682,4199.487077,4201.538359,4197.948615,4186.666564,4189.230667,4202.051179
51,0,4201.538359,4199.487077,4198.461436,4211.794769,4224.102461,4204.102461,4204.102461,4203.07682,4206.153743,4207.179384,4198.461436,4185.128103,4194.871692,4205.640923
52,0,4212.307589,4207.692205,4201.538359,4215.897333,4214.871692,4213.846051,4203.589641,4204.615282,4212.82041,4216.922974,4205.128102,4188.717846,4202.564,4214.871692
53,0,4215.897333,4207.179384,4202.051179,4219.999897,4222.051179,4215.384512,4202.051179,4205.128102,4206.666564,4216.922974,4207.692205,4194.358872,4203.07682,4211.794769
54,0,4210.256307,4197.948615,4202.564,4206.666564,4229.230666,4204.615282,4203.589641,4203.07682,4203.589641,4211.281948,4211.794769,4193.333231,4201.025538,4208.205025
55,0,4209.743487,4198.974256,4204.102461,4195.897333,4229.743486,4207.179384,4206.153743,4203.589641,4207.692205,4208.205025,4213.846051,4189.743487,4204.615282,4211.794769
56,0,4204.615282,4204.615282,4201.025538,4199.487077,4224.102461,4209.743487,4203.07682,4202.564,4202.051179,4197.948615,4205.128102,4185.128103,4200.512718,4206.153743
57,0,4198.974256,4201.025538,4196.410154,4199.999897,4211.794769,4201.538359,4198.974256,4197.948615,4196.410154,4190.256308,4197.948615,4182.564,4190.256308,4198.461436
58,0,4206.666564,4198.974256,4200.512718,4199.999897,4212.307589,4200.512718,4202.051179,4197.435795,4202.051179,4198.461436,4201.025538,4186.666564,4192.82041,4205.640923
59,0,4211.281948,4201.025538,4205.640923,4204.102461,4218.461435,4205.128102,4204.615282,4202.564,4203.589641,4204.615282,4201.538359,4189.743487,4201.538359,4210.256307
60,0,4205.128102,4198.974256,4201.538359,4204.102461,4213.33323,4202.051179,4203.589641,4205.128102,4199.999897,4202.564,4198.974256,4187.179385,4199.999897,4203.07682
61,0,4203.07682,4197.435795,4196.922974,4198.974256,4214.871692,4202.051179,4203.589641,4203.07682,4200.512718,4201.025538,4199.487077,4186.153744,4194.871692,4200.512718
62,0,4207.179384,4198.974256,4201.025538,4197.435795,4223.58964,4210.256307,4206.153743,4203.589641,4202.051179,4199.999897,4198.974256,4188.205026,4190.256308,4199.487077
63,0,4204.102461,4196.922974,4202.564,4198.974256,4225.640922,4213.846051,4206.153743,4204.102461,4202.051179,4201.025538,4198.461436,4185.128103,4188.717846,4196.410154
64,0,4201.025538,4199.999897,4197.948615,4198.461436,4226.666563,4214.358871,4203.589641,4199.999897,4201.025538,4202.051179,4201.538359,4183.589641,4194.871692,4200.512718
65,0,4201.538359,4199.487077,4195.897333,4198.461436,4225.128102,4216.410153,4202.051179,4199.999897,4199.999897,4197.948615,4200.512718,4185.640923,4190.769128,4197.948615
66,0,4197.435795,4189.743487,4198.974256,4200.512718,4225.128102,4218.461435,4203.07682,4201.538359,4199.999897,4197.435795,4196.922974,4185.128103,4181.025539,4190.256308
67,0,4197.435795,4191.794769,4199.487077,4198.461436,4226.153743,4214.358871,4203.589641,4198.974256,4199.487077,4203.589641,4198.461436,4184.615282,4191.794769,4196.410154
68,0,4211.281948,4203.07682,4201.025538,4198.461436,4217.948615,4212.82041,4202.564,4197.948615,4200.512718,4204.615282,4204.615282,4187.179385,4209.230666,4208.205025
69,0,4217.948615,4196.410154,4203.589641,4202.564,4212.82041,4212.82041,4202.051179,4198.974256,4202.051179,4201.025538,4205.640923,4188.717846,4206.666564,4207.692205
70,0,4205.128102,4182.564,4199.487077,4201.538359,4220.512717,4206.153743,4200.512718,4198.461436,4200.512718,4199.999897,4197.948615,4186.666564,4197.948615,4201.025538
71,0,4198.974256,4182.564,4197.435795,4201.025538,4216.922974,4206.153743,4202.051179,4200.512718,4199.999897,4201.538359,4196.922974,4185.640923,4200.512718,4201.025538
72,0,4206.153743,4185.640923,4200.512718,4204.102461,4206.153743,4211.281948,4203.589641,4204.102461,4202.564,4204.615282,4209.743487,4190.769128,4204.102461,4202.564
73,0,4204.102461,4186.153744,4201.538359,4204.102461,4214.358871,4209.743487,4202.564,4205.128102,4202.564,4206.153743,4213.846051,4193.333231,4201.538359,4205.128102
74,0,4199.487077,4184.615282,4199.487077,4207.692205,4217.948615,4207.179384,4206.153743,4202.051179,4201.025538,4202.051179,4206.666564,4193.333231,4202.051179,4204.615282
75,0,4208.205025,4182.564,4202.564,4215.897333,4215.897333,4212.82041,4213.33323,4203.07682,4202.564,4199.487077,4208.205025,4196.410154,4203.589641,4202.564
76,0,4217.948615,4191.281949,4211.281948,4218.461435,4222.051179,4217.435794,4216.410153,4206.666564,4202.051179,4206.666564,4215.384512,4201.025538,4203.589641,4207.692205
77,0,4219.487076,4199.487077,4217.435794,4218.974256,4219.999897,4215.897333,4216.410153,4206.153743,4201.538359,4214.871692,4216.410153,4202.051179,4207.692205,4215.384512
78,0,4216.922974,4191.281949,4217.435794,4220.512717,4216.410153,4216.410153,4216.410153,4206.153743,4209.230666,4217.948615,4216.922974,4201.025538,4213.846051,4216.922974
79,0,4214.871692,4186.666564,4214.358871,4217.435794,4227.179384,4217.435794,4214.871692,4212.82041,4213.846051,4218.461435,4218.461435,4202.564,4215.384512,4215.384512
80,0,4217.435794,4200.512718,4212.82041,4216.922974,4226.666563,4216.410153,4213.33323,4219.999897,4214.358871,4218.461435,4216.922974,4202.564,4217.435794,4215.897333
81,0,4215.897333,4200.512718,4210.256307,4220.512717,4207.179384,4211.794769,4210.256307,4214.358871,4212.82041,4217.948615,4216.410153,4202.051179,4214.871692,4214.358871
82,0,4210.256307,4184.615282,4204.615282,4218.461435,4204.615282,4212.307589,4211.281948,4208.717846,4206.153743,4212.307589,4213.846051,4199.487077,4206.153743,4210.769128
83,0,4211.281948,4188.205026,4203.589641,4214.358871,4216.410153,4216.922974,4216.410153,4210.769128,4201.538359,4210.769128,4210.769128,4196.922974,4207.179384,4210.256307
84,0,4216.410153,4201.538359,4204.615282,4216.922974,4225.640922,4215.897333,4214.358871,4209.743487,4203.07682,4214.358871,4213.846051,4199.487077,4216.410153,4213.846051
85,0,4217.435794,4201.025538,4203.589641,4225.128102,4233.84605,4215.384512,4211.794769,4208.717846,4204.615282,4215.384512,4218.974256,4202.564,4218.461435,4214.871692
86,0,4214.871692,4195.384513,4201.025538,4232.307589,4224.615281,4218.461435,4212.307589,4210.256307,4202.051179,4213.846051,4213.33323,4198.974256,4211.281948,4209.230666
87,0,4207.179384,4191.794769,4201.025538,4234.871691,4203.07682,4216.922974,4208.717846,4208.717846,4203.07682,4211.281948,4205.128102,4193.333231,4204.102461,4207.692205
88,0,4202.564,4185.640923,4201.538359,4231.794768,4203.589641,4209.743487,4203.07682,4201.538359,4202.564,4204.615282,4204.102461,4192.82041,4201.025538,4211.794769
89,0,4209.743487,4184.102462,4202.051179,4228.717845,4217.948615,4209.743487,4205.128102,4201.025538,4199.487077,4203.589641,4205.640923,4196.922974,4206.666564,4215.384512
90,0,4216.410153,4192.82041,4207.179384,4231.281948,4213.33323,4213.33323,4208.717846,4203.589641,4198.974256,4210.256307,4207.179384,4199.487077,4213.33323,4215.384512
91,0,4217.435794,4200.512718,4212.82041,4233.33323,4210.256307,4213.846051,4211.794769,4203.589641,4204.615282,4210.769128,4215.897333,4199.999897,4215.897333,4217.435794
92,0,4223.58964,4202.564,4216.410153,4236.410153,4221.025538,4216.922974,4216.410153,4211.281948,4214.871692,4213.846051,4227.179384,4205.128102,4219.487076,4225.640922
93,0,4224.615281,4199.487077,4216.410153,4239.487076,4214.871692,4211.794769,4213.846051,4218.461435,4214.358871,4220.512717,4227.179384,4209.230666,4222.563999,4226.666563
94,0,4216.410153,4199.487077,4215.384512,4236.922973,4205.128102,4201.025538,4206.153743,4212.82041,4203.07682,4213.33323,4214.871692,4204.102461,4215.897333,4217.435794
95,0,4213.33323,4201.538359,4213.846051,4239.487076,4222.051179,4206.666564,4203.07682,4202.051179,4197.948615,4204.615282,4205.128102,4197.948615,4205.128102,4213.33323
96,0,4213.846051,4194.871692,4206.666564,4242.563999,4232.307589,4214.358871,4203.589641,4201.538359,4201.025538,4202.051179,4207.692205,4199.999897,4205.128102,4213.33323
97,0,4210.256307,4190.769128,4201.538359,4234.358871,4214.358871,4205.128102,4199.999897,4203.589641,4199.999897,4196.410154,4212.82041,4200.512718,4210.256307,4208.205025
98,0,4213.33323,4198.974256,4205.640923,4232.820409,4205.640923,4203.589641,4199.999897,4201.538359,4197.435795,4202.051179,4214.358871,4199.487077,4212.82041,4209.743487
99,0,4217.948615,4205.128102,4214.358871,4245.128101,4217.948615,4216.922974,4208.205025,4207.179384,4203.589641,4216.922974,4216.922974,4203.07682,4214.871692,4217.435794
100,0,4218.974256,4201.025538,4217.435794,4246.666563,4220.512717,4219.487076,4213.846051,4212.82041,4209.230666,4221.025538,4218.974256,4205.640923,4217.435794,4218.461435
101,0,4223.07682,4202.051179,4218.974256,4235.897332,4215.384512,4215.897333,4214.871692,4208.205025,4207.179384,4216.410153,4218.974256,4205.128102,4218.974256,4216.922974
102,0,4222.563999,4205.128102,4217.948615,4226.666563,4221.025538,4216.410153,4213.846051,4203.07682,4203.07682,4212.307589,4215.384512,4202.051179,4217.948615,4216.410153
103,0,4213.33323,4200.512718,4211.281948,4217.948615,4220.512717,4214.358871,4207.692205,4203.07682,4199.999897,4205.640923,4208.205025,4199.487077,4210.769128,4214.358871
104,0,4210.256307,4194.871692,4208.205025,4211.794769,4199.999897,4206.153743,4200.512718,4203.07682,4198.974256,4194.358872,4202.564,4197.435795,4204.102461,4211.281948
105,0,4208.717846,4189.230667,4206.666564,4204.102461,4197.435795,4198.974256,4199.487077,4197.435795,4198.461436,4188.717846,4199.487077,4191.281949,4199.999897,4204.615282
106,0,4203.589641,4187.179385,4203.589641,4196.410154,4219.487076,4205.128102,4202.564,4198.974256,4198.461436,4193.846051,4196.922974,4189.743487,4198.974256,4203.589641
107,0,4207.179384,4188.717846,4207.179384,4198.461436,4223.58964,4214.358871,4204.102461,4209.743487,4199.999897,4206.666564,4205.128102,4198.461436,4210.256307,4213.33323
108,0,4213.33323,4184.615282,4211.281948,4204.102461,4215.897333,4209.230666,4203.07682,4208.205025,4202.564,4210.256307,4213.846051,4202.051179,4216.922974,4215.384512
109,0,4206.153743,4181.025539,4205.640923,4203.589641,4212.307589,4199.487077,4199.999897,4196.922974,4196.410154,4206.153743,4204.102461,4196.922974,4205.128102,4204.615282
110,0,4199.999897,4179.487077,4201.025538,4202.051179,4202.564,4199.999897,4198.974256,4198.461436,4191.281949,4197.948615,4196.410154,4196.922974,4198.461436,4199.999897
111,0,4200.512718,4175.384513,4201.025538,4202.564,4206.666564,4202.051179,4201.025538,4202.051179,4194.871692,4183.589641,4201.538359,4198.974256,4201.538359,4202.051179
112,0,4201.538359,4175.897334,4199.999897,4200.512718,4222.563999,4201.538359,4202.051179,4201.025538,4197.948615,4187.179385,4202.051179,4196.922974,4202.051179,4199.999897
113,0,4207.179384,4179.999898,4205.640923,4199.999897,4215.384512,4207.692205,4201.538359,4205.128102,4197.948615,4209.743487,4204.615282,4199.487077,4208.717846,4205.128102
114,0,4215.384512,4179.999898,4215.897333,4206.666564,4212.82041,4216.410153,4204.102461,4208.205025,4198.461436,4214.358871,4213.33323,4205.640923,4218.461435,4217.435794
115,0,4218.461435,4182.05118,4219.487076,4213.33323,4232.820409,4216.922974,4207.692205,4203.589641,4198.974256,4201.538359,4215.384512,4206.666564,4218.461435,4220.512717
116,0,4215.897333,4185.640923,4214.871692,4206.666564,4230.769127,4213.846051,4204.102461,4204.102461,4199.487077,4199.487077,4210.256307,4203.07682,4215.897333,4215.897333
117,0,4212.82041,4186.153744,4210.769128,4197.435795,4213.33323,4213.846051,4200.512718,4203.589641,4199.999897,4202.051179,4206.153743,4200.512718,4216.922974,4213.846051
118,0,4211.281948,4183.589641,4213.33323,4206.666564,4217.435794,4215.384512,4202.564,4200.512718,4198.461436,4202.564,4206.666564,4202.051179,4214.871692,4214.871692
119,0,4213.33323,4180.512718,4216.410153,4213.33323,4225.640922,4213.33323,4203.07682,4207.692205,4197.948615,4205.640923,4212.307589,4204.102461,4216.410153,4214.871692
120,0,4218.461435,4186.153744,4214.358871,4203.07682,4212.82041,4209.743487,4203.07682,4217.435794,4200.512718,4204.615282,4214.871692,4206.153743,4220.512717,4218.461435
121,0,4232.307589,4200.512718,4212.307589,4201.538359,4196.922974,4205.128102,4202.564,4212.82041,4199.487077,4200.512718,4211.281948,4207.179384,4225.640922,4229.743486
122,0,4253.84605,4210.256307,4213.846051,4211.794769,4202.564,4202.051179,4200.512718,4201.538359,4190.256308,4201.025538,4212.82041,4208.717846,4234.358871,4249.230665
123,0,4276.922972,4225.128102,4221.538358,4216.922974,4216.410153,4202.564,4198.974256,4199.487077,4186.666564,4203.07682,4222.051179,4212.82041,4247.179383,4271.794767
124,0,4308.205023,4254.35887,4233.84605,4226.666563,4217.435794,4204.102461,4201.025538,4202.564,4195.384513,4204.615282,4233.84605,4223.58964,4265.640921,4306.153741
125,0,4347.692201,4274.87169,4246.666563,4248.717845,4213.846051,4202.051179,4201.025538,4201.025538,4197.948615,4202.051179,4245.128101,4238.461435,4286.666562,4346.15374
126,0,4377.43579,4284.102459,4257.435793,4260.512716,4215.384512,4199.487077,4195.384513,4198.461436,4187.692205,4196.410154,4251.794768,4248.205024,4304.615279,4375.897329
127,0,4392.307585,4297.435792,4266.153742,4257.435793,4215.897333,4199.487077,4189.230667,4196.922974,4183.076821,4198.974256,4255.384511,4250.769127,4314.871689,4397.94861
128,0,4394.358867,4301.538356,4269.230665,4257.948614,4217.435794,4198.461436,4187.692205,4189.230667,4184.102462,4201.538359,4254.35887,4252.307588,4316.922971,4405.640918
0,0,4377.948611,4290.256305,4262.051178,4261.538357,4211.281948,4197.435795,4187.692205,4183.589641,4182.05118,4197.948615,4250.256306,4247.179383,4311.794766,4389.743482
1,0,4350.256304,4279.487075,4250.769127,4258.461434,4201.025538,4198.461436,4186.153744,4192.30759,4184.615282,4201.538359,4246.153742,4236.922973,4304.615279,4365.640919
2,0,4323.589638,4267.179383,4241.025537,4246.153742,4209.230666,4199.999897,4188.205026,4199.487077,4187.692205,4205.640923,4241.538358,4228.717845,4291.794767,4341.025535
3,0,4299.999895,4247.179383,4230.769127,4233.33323,4222.563999,4201.025538,4191.281949,4197.948615,4188.717846,4202.051179,4233.84605,4221.538358,4273.333229,4315.89733
4,0,4279.487075,4229.230666,4219.487076,4221.025538,4219.999897,4200.512718,4190.769128,4197.435795,4189.743487,4198.974256,4225.128102,4215.384512,4258.974255,4294.358869
5,0,4263.076819,4219.999897,4214.358871,4208.717846,4210.769128,4198.974256,4191.281949,4195.384513,4186.666564,4201.538359,4217.948615,4213.33323,4247.692204,4272.820408
6,0,4249.743486,4208.205025,4216.410153,4207.179384,4209.743487,4200.512718,4196.922974,4192.82041,4187.692205,4198.461436,4214.871692,4213.33323,4244.10246,4257.948614
7,0,4247.179383,4203.589641,4217.435794,4210.256307,4217.435794,4204.102461,4201.025538,4199.487077,4198.461436,4198.974256,4218.461435,4213.846051,4245.128101,4257.435793
8,0,4247.179383,4198.974256,4216.410153,4207.692205,4214.358871,4202.564,4194.358872,4205.128102,4203.07682,4206.153743,4217.948615,4214.358871,4237.435794,4254.871691
9,0,4236.922973,4186.666564,4213.846051,4196.922974,4199.999897,4198.974256,4187.179385,4200.512718,4195.384513,4207.692205,4213.33323,4214.871692,4229.230666,4242.051178
10,0,4231.281948,4188.205026,4213.846051,4194.358872,4202.051179,4198.974256,4188.717846,4200.512718,4190.769128,4205.128102,4214.871692,4213.33323,4232.820409,4237.435794
11,0,4229.743486,4195.897333,4214.871692,4195.384513,4214.871692,4201.538359,4189.230667,4197.948615,4188.205026,4198.974256,4212.82041,4206.153743,4230.256307,4232.307589
12,0,4218.461435,4188.205026,4210.256307,4199.999897,4213.846051,4201.538359,4190.256308,4187.692205,4184.102462,4191.281949,4204.102461,4197.948615,4216.922974,4219.999897
13,0,4213.846051,4180.512718,4205.128102,4213.33323,4211.794769,4202.051179,4197.435795,4185.640923,4186.666564,4192.30759,4201.538359,4199.487077,4215.897333,4214.871692
14,0,4217.948615,4189.230667,4204.102461,4212.82041,4216.922974,4205.128102,4198.974256,4187.179385,4187.692205,4200.512718,4202.564,4200.512718,4219.999897,4214.358871
15,0,4212.307589,4187.692205,4203.07682,4203.07682,4218.461435,4205.128102,4193.846051,4189.743487,4187.692205,4200.512718,4199.999897,4196.922974,4215.384512,4210.256307
16,0,4202.051179,4170.769129,4200.512718,4201.025538,4215.897333,4203.589641,4196.922974,4196.410154,4194.871692,4196.922974,4197.435795,4197.435795,4209.743487,4202.564
17,0,4202.051179,4171.281949,4203.07682,4205.128102,4216.922974,4208.205025,4202.051179,4202.564,4200.512718,4199.487077,4195.897333,4198.974256,4210.256307,4198.461436
18,0,4205.640923,4184.615282,4206.666564,4210.769128,4215.384512,4215.384512,4203.589641,4210.256307,4199.999897,4204.102461,4198.461436,4199.999897,4214.358871,4201.025538
19,0,4204.102461,4186.666564,4205.128102,4212.307589,4212.82041,4213.846051,4204.615282,4212.307589,4200.512718,4206.666564,4202.564,4202.051179,4217.435794,4204.102461
20,0,4198.974256,4174.871693,4201.025538,4209.230666,4213.33323,4207.692205,4202.051179,4202.051179,4199.999897,4203.589641,4200.512718,4200.512718,4212.82041,4201.538359
21,0,4195.897333,4167.179385,4197.948615,4210.256307,4212.307589,4206.153743,4200.512718,4195.897333,4196.410154,4200.512718,4195.897333,4196.410154,4206.666564,4196.922974
22,0,4197.435795,4166.666565,4199.487077,4216.410153,4209.230666,4208.717846,4201.025538,4198.461436,4195.897333,4201.538359,4198.461436,4197.435795,4209.743487,4197.948615
23,0,4201.538359,4168.205026,4202.564,4214.871692,4214.358871,4211.794769,4200.512718,4200.512718,4200.512718,4199.999897,4206.666564,4203.589641,4216.922974,4201.025538
24,0,4204.102461,4170.769129,4204.615282,4215.897333,4222.051179,4214.871692,4200.512718,4204.102461,4204.102461,4201.025538,4206.666564,4204.615282,4221.538358,4197.948615
25,0,4198.461436,4166.666565,4202.564,4219.487076,4218.461435,4214.871692,4201.538359,4197.948615,4195.897333,4203.589641,4193.333231,4198.974256,4213.33323,4189.230667
26,0,4189.743487,4157.435796,4199.999897,4216.410153,4212.82041,4211.794769,4199.999897,4189.230667,4186.153744,4199.999897,4185.640923,4195.384513,4202.564,4185.128103
27,0,4188.717846,4153.333232,4201.538359,4212.82041,4213.33323,4213.33323,4201.025538,4195.897333,4192.30759,4199.999897,4194.871692,4199.487077,4209.230666,4189.743487
28,0,4190.256308,4152.820411,4203.07682,4207.692205,4205.640923,4213.846051,4205.640923,4204.102461,4202.051179,4208.717846,4201.538359,4202.564,4216.410153,4190.769128
29,0,4184.615282,4149.230668,4197.948615,4199.999897,4201.025538,4206.153743,4203.07682,4199.999897,4199.999897,4209.230666,4197.435795,4199.487077,4205.640923,4184.615282
30,0,4181.538359,4149.743488,4195.897333,4197.435795,4203.589641,4203.589641,4200.512718,4199.487077,4198.974256,4201.025538,4195.384513,4199.487077,4197.435795,4181.538359
31,0,4188.717846,4153.846052,4204.102461,4204.615282,4209.743487,4214.871692,4205.640923,4208.717846,4205.128102,4198.974256,4202.051179,4207.179384,4203.589641,4186.666564
32,0,4191.794769,4147.179386,4208.205025,4208.717846,4216.410153,4221.538358,4209.230666,4208.717846,4199.487077,4201.025538,4201.025538,4207.692205,4204.615282,4189.743487
33,0,4183.589641,4138.461437,4198.461436,4204.102461,4212.307589,4208.717846,4202.564,4197.435795,4186.153744,4195.897333,4188.717846,4198.974256,4197.948615,4185.640923
34,0,4181.538359,4139.999899,4192.30759,4200.512718,4206.153743,4199.487077,4197.948615,4191.794769,4187.179385,4192.82041,4188.717846,4195.897333,4197.435795,4182.05118
35,0,4187.692205,4141.53836,4196.410154,4203.07682,4202.564,4202.564,4200.512718,4195.897333,4194.871692,4201.538359,4201.025538,4199.999897,4204.615282,4186.153744
36,0,4187.692205,4137.948617,4199.487077,4208.205025,4201.025538,4204.615282,4200.512718,4195.897333,4196.410154,4206.666564,4201.538359,4199.999897,4208.205025,4188.717846
37,0,4186.666564,4139.999899,4198.461436,4212.307589,4210.256307,4201.025538,4198.461436,4194.871692,4196.922974,4199.487077,4195.384513,4198.461436,4200.512718,4186.153744
38,0,4196.410154,4145.640924,4200.512718,4215.384512,4218.461435,4201.025538,4198.974256,4198.974256,4203.589641,4203.589641,4205.128102,4201.025538,4204.615282,4190.769128
39,0,4204.102461,4149.743488,4205.640923,4212.82041,4205.640923,4209.230666,4198.974256,4203.07682,4205.640923,4218.461435,4218.461435,4205.128102,4219.487076,4199.999897
40,0,4192.82041,4141.02554,4206.666564,4205.640923,4198.974256,4211.281948,4198.974256,4202.051179,4202.051179,4213.846051,4206.666564,4205.640923,4205.128102,4189.743487
41,0,4179.999898,4126.666566,4196.922974,4198.974256,4216.922974,4204.615282,4198.974256,4197.948615,4197.948615,4194.871692,4185.128103,4199.487077,4179.487077,4169.743488
42,0,4181.538359,4130.76913,4189.743487,4201.025538,4213.846051,4200.512718,4198.974256,4195.897333,4196.922974,4196.922974,4187.179385,4194.871692,4189.230667,4172.820411
43,0,4187.179385,4135.384514,4196.922974,4205.640923,4197.948615,4204.102461,4198.461436,4199.999897,4198.461436,4211.281948,4202.051179,4197.435795,4212.307589,4186.153744
44,0,4185.640923,4123.076822,4202.051179,4204.102461,4201.538359,4206.666564,4199.487077,4202.564,4197.948615,4210.256307,4203.07682,4203.589641,4214.358871,4187.692205
45,0,4178.461436,4118.974258,4193.333231,4198.974256,4206.666564,4204.102461,4198.974256,4199.999897,4196.922974,4198.461436,4200.512718,4202.051179,4211.281948,4182.05118
46,0,4168.717847,4119.999899,4183.076821,4188.205026,4198.974256,4199.999897,4196.410154,4196.922974,4196.410154,4195.384513,4200.512718,4190.769128,4206.666564,4172.820411
47,0,4164.615283,4105.640925,4183.076821,4182.564,4203.07682,4199.999897,4198.974256,4198.974256,4198.461436,4205.640923,4197.435795,4188.205026,4198.461436,4166.666565
48,0,4171.281949,4101.025541,4190.256308,4188.205026,4218.461435,4210.256307,4204.102461,4204.615282,4202.564,4215.384512,4198.461436,4199.999897,4203.589641,4175.384513
49,0,4173.846052,4116.410156,4191.281949,4188.717846,4218.974256,4213.33323,4202.051179,4205.128102,4202.051179,4214.358871,4204.615282,4204.615282,4214.358871,4185.640923
50,0,4170.256308,4117.435797,4186.666564,4184.615282,4213.33323,4204.615282,4198.461436,4201.025538,4197.948615,4214.871692,4205.640923,4199.999897,4214.358871,4182.05118
51,0,4175.897334,4108.717848,4190.256308,4193.846051,4212.82041,4199.487077,4196.922974,4199.999897,4197.435795,4214.358871,4204.102461,4199.487077,4212.307589,4178.461436
52,0,4182.05118,4110.25631,4198.974256,4202.051179,4205.640923,4200.512718,4188.717846,4196.410154,4197.948615,4206.153743,4204.615282,4202.051179,4215.384512,4182.564
53,0,4178.461436,4113.333233,4196.922974,4195.384513,4194.871692,4199.999897,4182.564,4189.743487,4197.948615,4201.538359,4204.102461,4200.512718,4214.871692,4185.640923
54,0,4172.30759,4104.102464,4189.230667,4188.205026,4195.897333,4198.974256,4193.333231,4191.794769,4197.435795,4204.615282,4201.538359,4197.948615,4206.153743,4180.512718
55,0,4169.743488,4095.384515,4187.179385,4189.230667,4207.179384,4201.025538,4203.07682,4197.948615,4197.435795,4201.025538,4197.435795,4191.794769,4199.999897,4172.30759
56,0,4168.205026,4098.461438,4186.666564,4186.666564,4214.358871,4200.512718,4200.512718,4199.487077,4198.461436,4195.897333,4194.871692,4186.153744,4202.051179,4169.230667
57,0,4165.128103,4096.410156,4184.615282,4173.333231,4213.846051,4203.07682,4204.615282,4203.589641,4201.025538,4202.564,4197.435795,4185.640923,4206.153743,4169.743488
58,0,4159.999898,4089.230669,4182.05118,4167.692206,4209.743487,4208.717846,4212.82041,4207.692205,4202.564,4209.230666,4197.435795,4185.128103,4203.589641,4169.743488
59,0,4156.410155,4087.692208,4179.487077,4178.974257,4210.769128,4210.769128,4207.179384,4204.102461,4199.999897,4201.538359,4189.743487,4183.589641,4198.461436,4166.153744
60,0,4159.999898,4090.769131,4181.538359,4188.717846,4211.794769,4205.640923,4199.999897,4201.538359,4197.948615,4195.384513,4186.153744,4186.153744,4194.358872,4164.615283
61,0,4166.153744,4092.307592,4182.564,4189.230667,4193.333231,4201.025538,4202.051179,4204.102461,4198.974256,4202.564,4188.717846,4187.692205,4194.871692,4169.230667
62,0,4167.692206,4090.25631,4178.974257,4192.82041,4183.589641,4204.102461,4202.564,4201.538359,4197.948615,4202.564,4187.692205,4183.589641,4197.435795,4170.256308
63,0,4167.692206,4087.692208,4178.974257,4197.948615,4207.179384,4209.230666,4197.948615,4199.487077,4197.435795,4192.82041,4191.281949,4182.564,4197.948615,4166.153744
64,0,4171.79477,4091.281951,4185.640923,4198.461436,4227.179384,4208.717846,4198.461436,4203.07682,4201.025538,4203.07682,4202.051179,4195.384513,4204.615282,4173.846052
65,0,4181.025539,4099.487079,4193.333231,4199.487077,4211.794769,4203.07682,4199.999897,4203.589641,4200.512718,4219.999897,4204.615282,4205.640923,4210.769128,4185.128103
66,0,4181.538359,4104.615284,4193.333231,4199.999897,4198.461436,4198.974256,4196.410154,4199.999897,4194.358872,4210.256307,4201.538359,4202.564,4211.281948,4184.102462
67,0,4175.384513,4107.692207,4188.717846,4202.564,4207.692205,4201.538359,4197.435795,4199.487077,4196.410154,4199.999897,4201.025538,4199.999897,4210.769128,4182.05118
68,0,4172.30759,4104.102464,4186.666564,4202.564,4201.025538,4202.564,4202.051179,4202.564,4201.025538,4211.281948,4201.025538,4201.025538,4211.281948,4182.05118
69,0,4171.281949,4097.435797,4187.692205,4197.435795,4190.256308,4201.025538,4202.051179,4203.589641,4198.974256,4219.999897,4199.999897,4200.512718,4207.179384,4175.897334
70,0,4173.333231,4102.051182,4187.179385,4199.487077,4198.461436,4202.051179,4200.512718,4203.589641,4198.974256,4215.897333,4199.999897,4201.025538,4202.564,4171.281949
71,0,4176.410154,4109.230669,4186.666564,4203.589641,4204.615282,4202.564,4203.589641,4205.640923,4200.512718,4210.256307,4199.487077,4197.435795,4203.07682,4173.846052
72,0,4173.846052,4103.589643,4186.153744,4200.512718,4202.564,4202.564,4204.102461,4203.589641,4199.999897,4203.07682,4197.948615,4190.256308,4201.538359,4170.769129
73,0,4175.897334,4101.538361,4183.589641,4199.999897,4212.82041,4202.564,4200.512718,4203.07682,4198.974256,4198.461436,4198.974256,4193.333231,4200.512718,4168.205026
74,0,4184.615282,4110.76913,4185.128103,4202.051179,4218.461435,4202.051179,4202.051179,4207.179384,4198.974256,4207.692205,4201.538359,4200.512718,4206.153743,4176.410154
75,0,4184.615282,4113.333233,4192.30759,4202.051179,4199.999897,4201.538359,4203.589641,4206.666564,4198.461436,4213.33323,4202.051179,4200.512718,4213.846051,4183.589641
76,0,4184.102462,4112.307592,4197.948615,4207.692205,4200.512718,4203.589641,4202.564,4203.589641,4197.948615,4209.230666,4203.07682,4200.512718,4215.897333,4184.615282
77,0,4186.153744,4112.820412,4197.435795,4213.33323,4214.358871,4203.07682,4199.999897,4200.512718,4196.922974,4204.615282,4203.07682,4201.538359,4213.846051,4186.666564
78,0,4183.589641,4112.820412,4197.435795,4213.33323,4204.615282,4200.512718,4198.974256,4199.487077,4196.410154,4205.640923,4201.025538,4200.512718,4214.871692,4188.717846
79,0,4185.640923,4119.487079,4202.051179,4215.897333,4195.897333,4202.564,4202.051179,4206.666564,4201.025538,4211.281948,4208.205025,4204.615282,4218.461435,4188.717846
80,0,4183.589641,4118.974258,4201.025538,4216.410153,4205.640923,4203.07682,4205.128102,4213.33323,4204.615282,4216.922974,4215.384512,4206.153743,4217.948615,4187.179385
81,0,4173.846052,4109.230669,4190.769128,4213.846051,4206.153743,4201.025538,4203.589641,4209.230666,4202.564,4216.922974,4206.666564,4201.025538,4211.281948,4181.538359
82,0,4173.333231,4106.666566,4186.153744,4213.846051,4191.281949,4200.512718,4205.640923,4209.230666,4200.512718,4211.794769,4200.512718,4201.025538,4207.179384,4175.384513
83,0,4173.846052,4099.9999,4188.205026,4209.230666,4188.205026,4202.051179,4213.33323,4217.435794,4202.564,4214.358871,4204.615282,4201.025538,4205.128102,4171.281949
84,0,4166.666565,4089.74349,4186.153744,4206.153743,4198.974256,4210.256307,4213.33323,4216.922974,4203.07682,4214.358871,4196.922974,4191.281949,4197.948615,4167.179385
85,0,4173.846052,4108.205028,4180.512718,4214.358871,4207.692205,4214.871692,4205.640923,4213.33323,4202.051179,4205.128102,4187.692205,4189.230667,4195.384513,4171.281949
86,0,4196.922974,4137.435796,4188.205026,4226.153743,4203.07682,4206.666564,4203.589641,4216.922974,4201.538359,4201.025538,4198.461436,4201.025538,4203.07682,4184.615282
87,0,4206.153743,4143.076822,4202.051179,4233.33323,4193.846051,4198.974256,4204.102461,4214.871692,4200.512718,4202.564,4206.153743,4205.640923,4205.640923,4196.410154
88,0,4203.07682,4144.102463,4205.128102,4236.410153,4197.948615,4202.051179,4200.512718,4211.281948,4199.487077,4205.128102,4201.025538,4203.589641,4204.102461,4204.102461
89,0,4205.128102,4150.256309,4203.07682,4238.461435,4207.692205,4204.615282,4201.538359,4215.897333,4201.025538,4207.179384,4201.538359,4205.640923,4206.153743,4204.102461
90,0,4198.974256,4138.974258,4200.512718,4233.84605,4200.512718,4201.538359,4205.640923,4213.33323,4195.897333,4199.999897,4198.461436,4202.051179,4198.461436,4191.281949
91,0,4185.640923,4122.564002,4193.846051,4222.051179,4189.743487,4201.025538,4203.589641,4202.051179,4191.281949,4190.769128,4187.179385,4191.281949,4187.692205,4179.999898
92,0,4183.076821,4123.589643,4187.179385,4215.384512,4198.974256,4201.025538,4199.999897,4205.128102,4195.897333,4199.999897,4184.615282,4192.82041,4191.281949,4182.564
93,0,4187.179385,4129.230668,4189.230667,4217.948615,4205.640923,4201.538359,4202.051179,4211.794769,4196.922974,4203.07682,4187.692205,4198.974256,4194.871692,4182.05118
94,0,4185.128103,4124.102463,4194.871692,4217.435794,4186.666564,4201.025538,4202.564,4205.128102,4193.333231,4189.743487,4186.666564,4194.871692,4185.640923,4177.435795
95,0,4184.102462,4121.538361,4195.897333,4213.846051,4178.461436,4200.512718,4201.025538,4201.025538,4191.794769,4188.717846,4185.128103,4195.384513,4183.589641,4178.974257
96,0,4186.153744,4128.205027,4192.30759,4215.384512,4197.435795,4201.025538,4200.512718,4205.128102,4190.769128,4194.358872,4187.179385,4198.461436,4189.230667,4184.102462
97,0,4183.076821,4127.692207,4188.717846,4214.358871,4196.922974,4199.999897,4199.487077,4203.07682,4191.281949,4193.846051,4184.102462,4190.769128,4187.179385,4182.05118
98,0,4187.179385,4128.717848,4193.333231,4210.256307,4188.717846,4198.974256,4198.974256,4201.538359,4196.922974,4196.922974,4184.615282,4189.743487,4189.743487,4180.512718
99,0,4198.974256,4138.461437,4200.512718,4212.307589,4206.153743,4201.538359,4200.512718,4209.230666,4201.025538,4201.538359,4194.871692,4202.051179,4199.999897,4187.692205
100,0,4202.564,4139.487078,4201.538359,4217.948615,4217.948615,4204.615282,4201.025538,4210.769128,4198.461436,4203.589641,4198.974256,4204.102461,4202.051179,4193.333231
101,0,4198.974256,4134.871694,4197.948615,4216.922974,4201.538359,4202.051179,4200.512718,4204.615282,4189.743487,4198.461436,4193.333231,4196.410154,4201.025538,4189.743487
102,0,4196.922974,4136.922976,4196.410154,4209.743487,4195.384513,4198.974256,4199.999897,4199.999897,4184.102462,4185.640923,4193.846051,4197.948615,4202.564,4185.128103
103,0,4197.435795,4138.974258,4197.435795,4207.179384,4205.640923,4200.512718,4200.512718,4201.538359,4190.769128,4184.615282,4199.999897,4201.025538,4202.564,4186.153744
104,0,4198.974256,4137.435796,4198.461436,4212.307589,4197.435795,4201.538359,4201.538359,4208.205025,4197.948615,4199.999897,4198.974256,4199.487077,4200.512718,4187.692205
105,0,4195.384513,4135.897335,4200.512718,4217.948615,4189.230667,4201.025538,4202.564,4211.281948,4199.487077,4206.666564,4191.794769,4199.487077,4202.051179,4187.692205
106,0,4187.179385,4132.307591,4196.410154,4216.410153,4198.974256,4200.512718,4201.538359,4207.692205,4197.435795,4198.461436,4186.666564,4195.897333,4199.487077,4182.564
107,0,4189.230667,4132.820412,4191.281949,4214.358871,4208.205025,4201.025538,4198.974256,4202.051179,4191.794769,4190.769128,4188.205026,4193.846051,4196.922974,4176.922975
108,0,4198.974256,4134.358873,4198.461436,4217.948615,4192.30759,4201.025538,4198.974256,4202.564,4189.743487,4190.256308,4192.30759,4194.871692,4202.051179,4181.025539
109,0,4192.82041,4126.153745,4199.999897,4213.33323,4179.999898,4198.461436,4196.410154,4201.025538,4188.717846,4186.153744,4187.179385,4189.743487,4196.922974,4186.153744
110,0,4183.076821,4118.974258,4189.743487,4206.153743,4198.974256,4198.461436,4195.384513,4197.948615,4185.128103,4182.05118,4181.538359,4184.102462,4188.717846,4182.564
111,0,4188.205026,4127.692207,4192.82041,4214.871692,4204.102461,4202.051179,4199.999897,4204.102461,4191.281949,4192.30759,4186.153744,4193.846051,4195.384513,4181.538359
112,0,4196.922974,4136.410155,4203.07682,4222.051179,4187.179385,4203.07682,4205.128102,4212.82041,4201.025538,4202.564,4193.333231,4201.538359,4204.102461,4190.769128
113,0,4198.974256,4136.410155,4201.538359,4218.461435,4194.358872,4201.538359,4209.230666,4216.410153,4200.512718,4201.538359,4197.948615,4199.999897,4204.615282,4199.487077
114,0,4203.07682,4139.487078,4205.128102,4225.128102,4218.461435,4204.102461,4212.82041,4216.410153,4200.512718,4202.564,4207.692205,4208.205025,4210.256307,4201.538359
115,0,4205.640923,4141.53836,4213.846051,4236.410153,4210.256307,4206.666564,4213.846051,4214.871692,4203.589641,4203.589641,4215.384512,4213.33323,4219.487076,4201.025538
116,0,4202.564,4137.435796,4210.256307,4234.871691,4190.769128,4204.102461,4213.846051,4214.871692,4203.07682,4204.615282,4211.794769,4205.128102,4214.358871,4195.897333
117,0,4200.512718,4139.487078,4204.615282,4232.820409,4200.512718,4205.640923,4214.871692,4216.410153,4203.589641,4215.384512,4206.666564,4201.538359,4206.666564,4190.769128
118,0,4201.025538,4141.02554,4206.666564,4232.820409,4215.384512,4213.33323,4215.384512,4215.384512,4203.07682,4217.948615,4205.128102,4204.615282,4204.102461,4193.333231
119,0,4202.051179,4138.461437,4209.743487,4227.692204,4211.794769,4213.846051,4214.871692,4213.846051,4200.512718,4211.281948,4203.07682,4203.589641,4203.589641,4197.948615
120,0,4203.589641,4147.179386,4212.82041,4227.692204,4193.846051,4204.102461,4212.307589,4215.384512,4202.564,4215.384512,4201.538359,4200.512718,4208.717846,4198.974256
121,0,4203.07682,4153.846052,4210.769128,4232.307589,4193.333231,4199.999897,4207.692205,4215.897333,4205.640923,4215.384512,4203.07682,4201.025538,4211.281948,4197.948615
122,0,4198.974256,4141.53836,4202.051179,4230.769127,4210.256307,4204.102461,4204.615282,4214.358871,4203.07682,4198.974256,4203.589641,4199.999897,4206.666564,4192.82041
123,0,4195.897333,4133.846053,4198.974256,4221.538358,4201.538359,4202.564,4201.025538,4213.846051,4199.487077,4195.897333,4201.025538,4199.999897,4201.538359,4187.692205
124,0,4197.435795,4139.487078,4201.025538,4215.897333,4188.205026,4201.025538,4204.102461,4213.846051,4201.538359,4205.640923,4197.435795,4200.512718,4201.538359,4189.743487
125,0,4200.512718,4140.512719,4198.461436,4221.025538,4206.153743,4208.205025,4209.743487,4214.871692,4202.051179,4205.128102,4197.948615,4200.512718,4201.538359,4195.897333
126,0,4201.025538,4139.487078,4197.435795,4228.205025,4224.102461,4215.897333,4206.666564,4212.307589,4201.538359,4199.999897,4199.999897,4200.512718,4202.564,4195.384513
127,0,4196.410154,4140.512719,4201.025538,4228.205025,4214.358871,4215.897333,4207.179384,4208.205025,4200.512718,4204.102461,4197.948615,4195.897333,4204.102461,4189.230667
128,0,4189.743487,4137.948617,4197.948615,4224.615281,4205.128102,4216.410153,4212.307589,4209.230666,4198.974256,4205.128102,4197.435795,4194.358872,4202.564,4188.205026
0,0,4184.102462,4136.922976,4191.281949,4221.025538,4205.640923,4215.897333,4209.230666,4207.179384,4197.435795,4195.897333,4194.871692,4194.871692,4201.538359,4187.692205
1,0,4188.717846,4136.410155,4191.794769,4219.999897,4196.922974,4206.666564,4202.564,4201.025538,4197.948615,4189.230667,4190.769128,4189.230667,4200.512718,4183.589641
2,0,4197.948615,4138.974258,4198.974256,4222.051179,4192.82041,4199.999897,4199.999897,4206.153743,4199.487077,4195.897333,4195.897333,4188.717846,4205.640923,4189.230667
3,0,4203.589641,4147.692206,4203.589641,4214.358871,4206.666564,4206.666564,4203.07682,4216.410153,4204.102461,4207.179384,4206.666564,4199.487077,4216.922974,4202.051179
4,0,4208.205025,4153.333232,4204.102461,4201.538359,4223.58964,4216.922974,4209.230666,4218.461435,4210.769128,4214.358871,4215.897333,4205.128102,4222.051179,4206.666564
5,0,4207.692205,4147.692206,4201.538359,4193.846051,4219.487076,4212.82041,4207.692205,4217.948615,4209.743487,4221.025538,4214.871692,4201.025538,4220.512717,4204.615282
6,0,4201.025538,4134.358873,4197.435795,4188.717846,4201.538359,4202.051179,4198.461436,4212.307589,4203.07682,4216.410153,4204.615282,4197.948615,4214.358871,4198.461436
7,0,4195.897333,4123.076822,4197.435795,4188.717846,4200.512718,4199.487077,4199.487077,4207.179384,4199.999897,4202.051179,4198.461436,4198.974256,4206.153743,4190.769128
8,0,4199.487077,4116.410156,4200.512718,4197.948615,4202.051179,4204.102461,4209.743487,4211.794769,4199.487077,4198.461436,4201.025538,4201.025538,4201.538359,4192.82041
9,0,4199.487077,4112.307592,4201.025538,4208.717846,4193.333231,4208.717846,4214.358871,4217.435794,4201.025538,4201.538359,4201.025538,4200.512718,4202.051179,4196.922974
10,0,4191.281949,4107.179387,4200.512718,4214.358871,4203.07682,4210.256307,4209.743487,4217.435794,4201.025538,4201.538359,4196.922974,4197.435795,4201.025538,4190.256308
11,0,4185.128103,4103.589643,4202.051179,4217.948615,4221.025538,4206.153743,4204.102461,4212.307589,4199.999897,4199.487077,4192.82041,4196.922974,4196.922974,4183.589641
12,0,4185.640923,4105.640925,4201.025538,4214.358871,4215.384512,4202.051179,4203.07682,4205.128102,4195.897333,4189.743487,4186.153744,4194.871692,4190.769128,4185.128103
13,0,4186.153744,4107.179387,4197.435795,4214.871692,4201.538359,4204.102461,4204.102461,4206.666564,4190.256308,4177.435795,4184.102462,4187.692205,4184.615282,4184.615282
14,0,4186.666564,4112.820412,4198.461436,4226.666563,4198.974256,4204.102461,4203.07682,4212.82041,4190.769128,4184.102462,4186.666564,4185.128103,4188.205026,4182.564
15,0,4192.30759,4118.461438,4201.025538,4226.153743,4198.974256,4201.025538,4202.051179,4211.794769,4197.948615,4200.512718,4188.205026,4190.769128,4196.922974,4189.230667
16,0,4197.948615,4117.948617,4199.999897,4211.794769,4197.435795,4200.512718,4201.025538,4210.256307,4199.487077,4201.025538,4192.30759,4197.435795,4199.487077,4197.435795
17,0,4201.538359,4119.999899,4198.974256,4213.846051,4202.051179,4204.615282,4201.538359,4213.846051,4198.974256,4199.999897,4199.487077,4200.512718,4204.615282,4202.051179
18,0,4207.179384,4127.692207,4203.07682,4232.820409,4206.666564,4209.743487,4203.589641,4212.82041,4201.538359,4204.615282,4203.589641,4203.07682,4213.33323,4211.281948
19,0,4207.179384,4126.666566,4201.538359,4238.461435,4204.102461,4207.179384,4202.051179,4210.256307,4201.538359,4204.102461,4199.999897,4199.999897,4209.230666,4211.794769
20,0,4199.487077,4118.461438,4193.333231,4228.717845,4201.538359,4202.051179,4201.025538,4211.281948,4200.512718,4199.487077,4195.384513,4194.358872,4202.564,4198.461436
21,0,4198.974256,4122.051181,4194.358872,4229.230666,4213.33323,4207.692205,4206.666564,4214.871692,4203.07682,4198.974256,4199.487077,4197.435795,4211.281948,4196.410154
22,0,4204.615282,4130.76913,4201.538359,4242.051178,4222.563999,4216.410153,4214.358871,4217.435794,4204.615282,4204.615282,4205.640923,4202.051179,4218.461435,4206.153743
23,0,4205.640923,4133.333232,4201.025538,4245.640922,4205.128102,4219.999897,4216.410153,4216.410153,4204.615282,4213.846051,4204.615282,4198.974256,4213.33323,4205.128102
24,0,4204.615282,4135.897335,4196.410154,4234.358871,4194.871692,4213.846051,4211.281948,4214.871692,4203.07682,4215.897333,4200.512718,4196.410154,4211.794769,4199.999897
25,0,4202.051179,4135.384514,4197.948615,4226.153743,4210.769128,4205.640923,4202.564,4215.384512,4201.025538,4204.615282,4199.999897,4197.948615,4214.358871,4201.025538
26,0,4200.512718,4134.358873,4197.435795,4232.307589,4217.948615,4206.153743,4201.538359,4214.358871,4197.948615,4199.487077,4202.564,4198.461436,4214.358871,4204.615282
27,0,4208.717846,4144.615283,4198.974256,4242.563999,4215.897333,4216.410153,4210.256307,4215.897333,4199.999897,4208.205025,4207.692205,4201.538359,4215.897333,4212.307589
28,0,4218.974256,4155.384514,4212.307589,4248.205024,4218.461435,4221.538358,4217.948615,4221.538358,4211.281948,4216.922974,4216.922974,4211.281948,4224.615281,4224.102461
29,0,4220.512717,4153.846052,4222.051179,4251.794768,4218.974256,4217.948615,4216.410153,4221.025538,4213.846051,4219.999897,4219.999897,4217.435794,4229.743486,4229.743486
30,0,4216.922974,4145.640924,4217.948615,4243.58964,4214.358871,4214.358871,4212.82041,4215.897333,4205.640923,4215.384512,4215.384512,4214.358871,4222.563999,4222.051179
31,0,4216.410153,4142.051181,4215.897333,4234.358871,4204.615282,4214.358871,4215.384512,4217.948615,4210.256307,4212.307589,4216.410153,4216.410153,4216.410153,4215.384512
32,0,4215.897333,4137.948617,4214.358871,4237.435794,4196.922974,4216.410153,4214.358871,4222.563999,4219.487076,4216.922974,4219.487076,4216.410153,4221.025538,4218.461435
33,0,4212.82041,4138.461437,4204.615282,4243.58964,4204.102461,4214.358871,4204.615282,4218.461435,4210.769128,4217.948615,4215.897333,4206.666564,4220.512717,4218.461435
