title:JTA                                                                             , recorded:03.07.20 14.22.19, sampling:128, subject:JTA                                                                             , labels:COUNTER INTERPOLATED AF3 F7 F3 FC5 T7 P7 O1 O2 P8 T8 FC6 F4 F8 AF4,, units:emotiv,,,,,,,,,
1,0,4211.281948,4225.128102,4213.33323,4226.666563,4227.692204,4231.281948,4225.640922,4225.128102,4222.051179,4216.410153,4209.743487,4194.358872,4215.897333,4199.999897
2,0,4215.897333,4235.384512,4217.948615,4230.256307,4230.256307,4234.358871,4228.717845,4231.281948,4228.717845,4228.717845,4217.435794,4194.358872,4218.974256,4203.07682
3,0,4215.384512,4231.281948,4216.410153,4236.922973,4233.33323,4233.84605,4230.769127,4232.307589,4228.205025,4229.743486,4217.948615,4195.384513,4221.025538,4203.07682
4,0,4202.564,4227.692204,4203.589641,4228.205025,4231.281948,4231.281948,4219.999897,4218.461435,4216.922974,4215.384512,4203.07682,4185.640923,4213.846051,4195.897333
5,0,4200.512718,4236.410153,4201.025538,4221.538358,4227.692204,4228.717845,4213.846051,4216.410153,4217.435794,4216.922974,4201.025538,4180.512718,4214.358871,4195.384513
6,0,4214.358871,4247.692204,4212.82041,4229.743486,4229.743486,4229.230666,4227.692204,4233.33323,4231.794768,4231.794768,4218.461435,4195.384513,4223.07682,4206.666564
7,0,4219.999897,4252.820409,4217.948615,4233.84605,4235.897332,4235.384512,4234.871691,4235.384512,4233.84605,4235.384512,4220.512717,4202.051179,4225.640922,4209.230666
8,0,4207.179384,4245.128101,4211.281948,4230.256307,4229.743486,4229.743486,4220.512717,4218.974256,4219.487076,4220.512717,4202.564,4188.205026,4215.897333,4200.512718
9,0,4198.461436,4243.076819,4210.256307,4227.179384,4218.974256,4217.948615,4214.358871,4215.384512,4214.358871,4210.256307,4198.974256,4184.102462,4208.205025,4199.487077
10,0,4201.025538,4256.922973,4208.717846,4221.025538,4223.07682,4221.025538,4219.487076,4221.538358,4217.948615,4213.33323,4203.07682,4188.717846,4210.256307,4201.538359
11,0,4201.538359,4263.589639,4202.051179,4215.384512,4227.179384,4228.717845,4218.461435,4217.435794,4214.871692,4213.33323,4200.512718,4185.640923,4211.281948,4199.487077
12,0,4208.205025,4267.179383,4208.717846,4224.615281,4229.230666,4228.717845,4222.563999,4219.487076,4218.461435,4218.461435,4206.666564,4189.230667,4215.384512,4207.179384
13,0,4224.102461,4282.563998,4223.07682,4242.563999,4241.025537,4232.820409,4235.384512,4234.358871,4235.384512,4237.435794,4221.538358,4203.07682,4227.692204,4221.025538
14,0,4224.615281,4284.61528,4224.102461,4246.153742,4243.076819,4231.281948,4230.256307,4232.307589,4233.33323,4237.948614,4224.615281,4203.589641,4233.33323,4221.025538
15,0,4214.871692,4276.410152,4215.897333,4237.948614,4229.743486,4216.410153,4214.871692,4213.33323,4217.435794,4218.974256,4215.897333,4196.410154,4229.230666,4215.897333
16,0,4226.666563,4290.256305,4218.461435,4237.948614,4229.230666,4218.461435,4214.871692,4213.33323,4219.999897,4221.538358,4216.410153,4200.512718,4230.256307,4224.102461
17,0,4236.410153,4301.025536,4221.538358,4241.025537,4235.384512,4228.205025,4221.025538,4221.025538,4224.102461,4229.230666,4220.512717,4205.128102,4237.435794,4227.692204
18,0,4222.051179,4294.358869,4214.358871,4235.384512,4229.743486,4221.538358,4218.461435,4214.871692,4214.871692,4216.922974,4212.307589,4194.358872,4230.256307,4215.384512
19,0,4212.82041,4290.256305,4212.307589,4229.743486,4229.743486,4215.897333,4216.922974,4211.794769,4212.82041,4211.281948,4204.102461,4189.230667,4220.512717,4211.794769
20,0,4217.948615,4287.179382,4215.384512,4228.717845,4227.179384,4217.435794,4217.948615,4217.435794,4217.435794,4216.922974,4207.692205,4197.435795,4223.07682,4215.384512
21,0,4217.435794,4287.692203,4213.33323,4225.128102,4215.897333,4212.82041,4216.410153,4215.897333,4214.871692,4213.33323,4211.281948,4199.999897,4225.640922,4211.794769
22,0,4216.410153,4297.435792,4214.358871,4228.205025,4221.025538,4216.410153,4219.487076,4216.922974,4216.922974,4215.384512,4215.897333,4199.487077,4228.717845,4215.384512
23,0,4220.512717,4297.435792,4216.922974,4228.205025,4226.153743,4218.461435,4222.051179,4215.897333,4215.897333,4217.435794,4216.410153,4203.589641,4230.769127,4219.999897
24,0,4217.948615,4288.205023,4209.230666,4218.461435,4213.846051,4205.128102,4214.358871,4206.153743,4207.179384,4203.589641,4204.102461,4201.025538,4222.563999,4209.230666
25,0,4214.358871,4292.307587,4207.692205,4217.435794,4211.794769,4206.153743,4212.307589,4209.230666,4211.794769,4204.102461,4205.128102,4196.922974,4221.538358,4208.717846
26,0,4217.435794,4304.102459,4217.948615,4222.051179,4221.025538,4219.999897,4218.461435,4218.461435,4222.051179,4221.025538,4222.563999,4201.025538,4234.358871,4221.538358
27,0,4217.435794,4308.205023,4218.461435,4222.051179,4218.974256,4215.384512,4220.512717,4216.410153,4218.974256,4218.974256,4217.435794,4202.051179,4230.256307,4219.487076
28,0,4214.358871,4306.666561,4210.256307,4218.974256,4213.33323,4201.025538,4213.33323,4208.717846,4209.230666,4202.564,4199.487077,4194.871692,4215.897333,4207.692205
29,0,4214.871692,4308.205023,4208.205025,4221.538358,4216.922974,4199.487077,4206.153743,4205.128102,4206.153743,4201.538359,4202.564,4191.281949,4221.025538,4209.230666
30,0,4206.666564,4304.615279,4204.615282,4217.948615,4215.384512,4202.051179,4207.692205,4206.153743,4203.07682,4202.564,4199.487077,4188.205026,4210.769128,4201.025538
31,0,4196.410154,4292.820408,4201.025538,4203.07682,4206.666564,4201.025538,4214.358871,4210.256307,4202.051179,4197.435795,4189.230667,4189.230667,4194.358872,4187.692205
32,0,4204.615282,4294.358869,4207.692205,4203.07682,4201.538359,4200.512718,4215.897333,4213.33323,4209.230666,4205.640923,4205.128102,4198.461436,4219.999897,4203.07682
33,0,4209.743487,4298.974254,4207.179384,4212.82041,4198.461436,4197.948615,4209.743487,4209.743487,4209.743487,4212.82041,4218.974256,4197.435795,4241.538358,4216.922974
34,0,4199.487077,4289.230664,4201.538359,4207.179384,4200.512718,4199.999897,4209.230666,4211.281948,4208.205025,4211.794769,4213.33323,4192.30759,4232.820409,4205.640923
35,0,4193.846051,4277.948613,4201.025538,4195.897333,4201.025538,4200.512718,4214.358871,4214.871692,4212.307589,4213.33323,4211.281948,4195.897333,4231.794768,4195.897333
36,0,4195.897333,4273.846049,4203.07682,4205.128102,4199.487077,4198.974256,4216.410153,4214.358871,4215.384512,4215.384512,4215.384512,4198.461436,4237.948614,4200.512718
37,0,4202.564,4278.974254,4209.230666,4217.435794,4207.692205,4206.153743,4218.974256,4220.512717,4216.410153,4216.410153,4221.025538,4200.512718,4237.435794,4208.717846
38,0,4214.871692,4293.846049,4217.435794,4215.897333,4218.461435,4215.897333,4222.563999,4226.153743,4220.512717,4219.999897,4229.230666,4210.769128,4244.10246,4217.435794
39,0,4213.846051,4299.999895,4218.461435,4211.794769,4220.512717,4212.307589,4218.974256,4223.07682,4218.974256,4218.974256,4229.743486,4215.897333,4247.692204,4219.487076
40,0,4204.102461,4292.820408,4216.922974,4213.33323,4219.487076,4207.692205,4214.871692,4224.102461,4218.461435,4219.999897,4229.230666,4212.307589,4246.153742,4216.410153
41,0,4208.205025,4293.333228,4218.974256,4218.974256,4219.999897,4213.33323,4224.615281,4234.871691,4229.743486,4231.794768,4236.410153,4216.922974,4251.794768,4219.487076
42,0,4216.922974,4296.410151,4221.025538,4220.512717,4217.948615,4218.461435,4228.717845,4237.435794,4233.84605,4236.410153,4239.487076,4219.999897,4254.35887,4226.153743
43,0,4216.922974,4297.435792,4224.615281,4215.384512,4217.948615,4215.384512,4223.58964,4230.256307,4228.205025,4232.820409,4236.922973,4218.461435,4249.230665,4228.205025
44,0,4217.435794,4296.922972,4226.153743,4215.897333,4221.025538,4211.794769,4227.692204,4232.307589,4229.230666,4232.307589,4237.435794,4220.512717,4251.281947,4224.615281
45,0,4213.33323,4285.640921,4221.025538,4217.435794,4218.974256,4211.794769,4235.384512,4234.358871,4228.717845,4226.666563,4229.743486,4214.871692,4249.230665,4216.410153
46,0,4199.487077,4275.897331,4211.794769,4206.666564,4207.692205,4206.153743,4228.205025,4224.102461,4217.948615,4214.871692,4218.461435,4197.948615,4235.384512,4207.179384
47,0,4192.30759,4283.076818,4198.974256,4193.846051,4201.538359,4199.999897,4217.435794,4218.461435,4209.743487,4209.743487,4209.743487,4190.256308,4226.666563,4197.435795
48,0,4199.999897,4295.897331,4200.512718,4202.564,4219.487076,4209.743487,4227.692204,4230.256307,4224.102461,4220.512717,4215.384512,4198.974256,4237.435794,4202.564
49,0,4205.640923,4296.922972,4209.230666,4213.33323,4232.820409,4219.999897,4235.384512,4235.897332,4232.820409,4228.717845,4224.102461,4204.102461,4248.205024,4216.410153
50,0,4201.025538,4292.820408,4202.051179,4206.153743,4222.051179,4215.897333,4222.051179,4221.025538,4217.948615,4221.025538,4219.999897,4197.435795,4244.10246,4212.82041
51,0,4202.564,4293.846049,4204.615282,4210.256307,4215.384512,4215.384512,4218.974256,4220.512717,4218.461435,4219.999897,4219.999897,4196.922974,4245.128101,4208.717846
52,0,4205.640923,4290.769126,4216.922974,4213.846051,4215.384512,4214.871692,4224.615281,4228.205025,4229.230666,4222.563999,4223.07682,4202.564,4248.717845,4214.358871
53,0,4205.128102,4289.230664,4208.205025,4203.07682,4215.897333,4207.179384,4216.410153,4220.512717,4219.999897,4217.435794,4218.974256,4198.461436,4244.615281,4212.82041
54,0,4214.358871,4297.948613,4205.640923,4205.640923,4227.692204,4215.384512,4222.051179,4225.640922,4219.487076,4223.58964,4223.58964,4199.487077,4248.205024,4213.33323
55,0,4214.358871,4300.512715,4213.33323,4207.179384,4224.102461,4216.922974,4232.307589,4232.820409,4228.205025,4226.153743,4225.128102,4203.07682,4247.692204,4213.33323
56,0,4203.07682,4291.281946,4206.153743,4198.461436,4214.358871,4207.179384,4221.538358,4224.615281,4221.025538,4216.922974,4214.871692,4197.435795,4235.897332,4204.615282
57,0,4198.974256,4281.025536,4198.974256,4206.153743,4218.974256,4209.743487,4213.846051,4221.025538,4217.435794,4215.897333,4212.307589,4190.256308,4231.794768,4198.461436
58,0,4197.435795,4274.35887,4201.025538,4206.666564,4208.205025,4208.717846,4216.922974,4221.025538,4217.948615,4211.794769,4211.794769,4185.640923,4232.307589,4196.410154
59,0,4202.051179,4288.717844,4206.153743,4194.871692,4203.589641,4207.692205,4219.487076,4217.435794,4210.256307,4200.512718,4206.666564,4189.743487,4229.230666,4201.538359
60,0,4219.999897,4314.358869,4217.435794,4209.743487,4232.820409,4226.153743,4229.743486,4228.205025,4214.358871,4209.230666,4213.846051,4201.025538,4234.358871,4215.897333
61,0,4218.974256,4307.179382,4218.461435,4215.897333,4241.025537,4232.820409,4235.384512,4236.410153,4223.07682,4219.487076,4218.461435,4204.615282,4236.410153,4214.871692
62,0,4199.999897,4283.589639,4208.717846,4198.461436,4217.948615,4216.410153,4225.128102,4227.179384,4218.461435,4214.358871,4210.769128,4197.948615,4228.205025,4202.564
63,0,4206.666564,4288.717844,4214.871692,4204.102461,4216.410153,4215.384512,4222.051179,4230.769127,4219.999897,4217.948615,4217.435794,4201.025538,4238.461435,4212.82041
64,0,4222.563999,4303.589638,4222.563999,4216.410153,4223.07682,4219.999897,4223.07682,4233.33323,4224.102461,4224.615281,4228.717845,4207.179384,4251.794768,4224.102461
65,0,4213.846051,4292.307587,4213.33323,4214.358871,4215.897333,4210.256307,4215.897333,4217.948615,4215.384512,4217.948615,4221.538358,4199.999897,4241.538358,4212.82041
66,0,4201.538359,4277.435793,4206.153743,4212.307589,4217.435794,4209.743487,4213.846051,4213.33323,4212.307589,4210.256307,4215.384512,4193.333231,4233.33323,4203.589641
67,0,4197.948615,4281.025536,4201.025538,4197.435795,4215.384512,4215.384512,4215.897333,4217.948615,4214.871692,4204.102461,4209.230666,4185.128103,4228.717845,4198.461436
68,0,4198.974256,4292.307587,4196.922974,4186.153744,4208.205025,4212.307589,4211.794769,4211.794769,4210.769128,4198.974256,4199.487077,4178.974257,4223.07682,4195.384513
69,0,4210.256307,4290.769126,4208.205025,4204.102461,4218.461435,4214.871692,4214.871692,4215.384512,4216.922974,4211.281948,4212.307589,4192.30759,4235.897332,4209.230666
70,0,4216.410153,4276.922972,4218.974256,4209.743487,4225.128102,4222.563999,4225.128102,4230.769127,4227.179384,4226.153743,4229.743486,4206.666564,4246.153742,4217.435794
71,0,4213.846051,4279.999895,4213.33323,4196.922974,4211.281948,4215.897333,4219.999897,4225.640922,4220.512717,4218.461435,4219.487076,4199.999897,4233.33323,4211.281948
72,0,4233.33323,4302.563997,4217.435794,4210.256307,4216.922974,4213.846051,4216.410153,4221.538358,4221.538358,4212.307589,4216.922974,4201.025538,4238.974255,4227.179384
73,0,4259.487075,4314.358869,4233.33323,4226.153743,4234.871691,4223.58964,4227.179384,4233.84605,4233.33323,4222.051179,4235.384512,4214.358871,4258.974255,4252.820409
74,0,4256.410152,4309.743484,4231.794768,4220.512717,4221.025538,4218.461435,4221.538358,4226.153743,4222.051179,4218.974256,4231.794768,4212.82041,4250.256306,4249.230665
75,0,4257.435793,4307.179382,4225.640922,4225.128102,4214.871692,4211.281948,4211.281948,4214.871692,4215.897333,4215.384512,4224.615281,4212.307589,4243.58964,4243.58964
76,0,4266.666562,4306.153741,4233.33323,4234.358871,4227.692204,4217.948615,4216.922974,4225.128102,4229.230666,4225.128102,4232.820409,4219.999897,4253.84605,4252.820409
77,0,4253.333229,4291.281946,4233.33323,4221.538358,4219.487076,4217.948615,4217.435794,4223.58964,4221.538358,4219.999897,4227.692204,4215.384512,4247.692204,4248.205024
78,0,4246.153742,4285.1281,4231.281948,4214.871692,4219.487076,4216.410153,4215.897333,4213.846051,4209.743487,4212.307589,4222.051179,4214.358871,4242.051178,4242.563999
79,0,4250.256306,4282.563998,4231.794768,4221.025538,4228.717845,4218.461435,4217.435794,4215.897333,4217.435794,4216.922974,4226.153743,4216.410153,4246.153742,4243.58964
80,0,4245.640922,4272.307588,4226.666563,4216.410153,4216.922974,4216.922974,4215.897333,4217.948615,4219.999897,4215.897333,4225.640922,4212.307589,4245.128101,4239.487076
81,0,4252.307588,4272.307588,4233.33323,4219.487076,4223.07682,4224.615281,4224.102461,4226.666563,4224.615281,4223.58964,4233.33323,4221.025538,4251.281947,4245.128101
82,0,4258.974255,4266.666562,4241.025537,4228.205025,4237.435794,4227.692204,4227.179384,4230.256307,4226.666563,4229.230666,4239.487076,4227.179384,4258.461434,4252.307588
83,0,4246.666563,4248.205024,4231.794768,4218.974256,4221.025538,4214.871692,4213.33323,4221.025538,4220.512717,4220.512717,4229.743486,4217.435794,4250.256306,4246.153742
84,0,4243.58964,4246.666563,4226.666563,4211.281948,4215.897333,4213.33323,4213.33323,4225.640922,4228.717845,4222.563999,4230.256307,4216.410153,4247.692204,4245.128101
85,0,4251.281947,4252.820409,4231.794768,4215.384512,4231.794768,4223.07682,4222.051179,4235.897332,4237.435794,4231.794768,4239.487076,4221.025538,4254.35887,4250.769127
86,0,4245.640922,4236.922973,4228.205025,4207.179384,4221.538358,4217.948615,4219.999897,4227.179384,4225.640922,4218.974256,4227.179384,4214.358871,4249.230665,4246.153742
87,0,4237.435794,4222.051179,4223.58964,4197.435795,4211.281948,4212.82041,4216.922974,4224.102461,4220.512717,4208.717846,4217.948615,4210.769128,4242.051178,4242.563999
88,0,4242.051178,4229.743486,4228.717845,4205.128102,4226.666563,4224.102461,4220.512717,4233.84605,4231.281948,4222.051179,4227.179384,4215.897333,4246.666563,4247.179383
89,0,4246.153742,4232.307589,4230.769127,4214.358871,4235.897332,4232.820409,4223.07682,4232.307589,4234.358871,4232.820409,4233.84605,4216.410153,4252.307588,4249.230665
90,0,4249.230665,4230.769127,4233.33323,4216.410153,4233.84605,4235.384512,4229.743486,4229.230666,4233.33323,4233.33323,4235.897332,4219.487076,4259.487075,4255.384511
91,0,4250.256306,4233.33323,4235.384512,4216.922974,4233.33323,4235.897332,4235.897332,4232.820409,4233.84605,4230.256307,4235.897332,4221.025538,4259.999896,4261.025537
92,0,4249.230665,4228.205025,4228.205025,4212.307589,4233.33323,4234.358871,4229.743486,4236.922973,4234.871691,4232.307589,4233.33323,4217.435794,4252.820409,4253.84605
93,0,4245.640922,4215.897333,4222.051179,4209.230666,4232.307589,4230.256307,4219.999897,4231.281948,4232.820409,4231.281948,4229.230666,4215.384512,4248.205024,4247.692204
94,0,4243.58964,4213.846051,4228.717845,4211.794769,4230.256307,4228.205025,4216.410153,4219.487076,4226.666563,4219.487076,4228.205025,4216.922974,4248.205024,4250.256306
95,0,4246.153742,4219.487076,4235.897332,4213.846051,4230.769127,4229.230666,4218.461435,4220.512717,4225.640922,4218.974256,4228.717845,4217.948615,4249.743486,4252.307588
96,0,4250.769127,4219.487076,4234.358871,4217.435794,4234.358871,4232.820409,4225.128102,4231.281948,4231.281948,4230.256307,4231.281948,4217.435794,4250.256306,4253.333229
97,0,4254.35887,4217.435794,4233.84605,4220.512717,4233.33323,4234.871691,4230.769127,4234.871691,4235.897332,4235.384512,4235.384512,4218.974256,4251.794768,4261.025537
98,0,4251.794768,4216.410153,4234.358871,4216.922974,4225.128102,4229.230666,4224.102461,4227.692204,4230.256307,4226.153743,4233.33323,4219.487076,4251.794768,4261.538357
99,0,4247.179383,4213.33323,4234.358871,4215.897333,4225.640922,4227.179384,4214.871692,4224.102461,4225.128102,4215.384512,4229.230666,4219.487076,4249.743486,4252.820409
100,0,4247.179383,4212.82041,4235.897332,4219.999897,4234.871691,4231.281948,4217.435794,4231.281948,4228.717845,4223.58964,4231.281948,4221.025538,4250.256306,4248.717845
101,0,4245.128101,4210.256307,4228.205025,4210.256307,4230.256307,4227.692204,4217.435794,4230.256307,4231.281948,4230.769127,4231.794768,4216.410153,4249.743486,4247.692204
102,0,4242.563999,4208.717846,4223.07682,4206.153743,4223.58964,4226.153743,4215.384512,4228.205025,4232.307589,4224.615281,4229.743486,4214.871692,4248.717845,4246.153742
103,0,4246.153742,4210.256307,4230.769127,4214.358871,4229.230666,4232.820409,4222.563999,4230.769127,4231.281948,4218.461435,4230.769127,4223.07682,4247.179383,4248.717845
104,0,4247.179383,4205.640923,4233.33323,4208.717846,4225.128102,4228.717845,4221.538358,4226.153743,4223.58964,4219.487076,4230.769127,4225.128102,4246.666563,4249.743486
105,0,4243.076819,4199.999897,4229.230666,4202.051179,4213.846051,4223.58964,4215.897333,4223.07682,4222.563999,4217.435794,4230.769127,4221.025538,4246.153742,4247.179383
106,0,4243.58964,4202.051179,4232.307589,4211.794769,4221.025538,4231.281948,4220.512717,4231.281948,4230.256307,4216.922974,4232.820409,4227.692204,4247.692204,4248.205024
107,0,4246.666563,4204.102461,4233.84605,4213.33323,4231.281948,4234.358871,4223.58964,4233.84605,4228.717845,4217.948615,4230.256307,4231.281948,4248.717845,4246.153742
108,0,4245.128101,4201.538359,4229.743486,4204.102461,4225.128102,4232.820409,4217.948615,4226.666563,4224.615281,4217.948615,4228.205025,4222.051179,4242.563999,4241.025537
109,0,4238.974255,4202.051179,4229.743486,4204.615282,4219.999897,4230.769127,4215.384512,4220.512717,4224.102461,4222.051179,4229.230666,4218.461435,4236.922973,4240.512717
110,0,4234.358871,4201.025538,4228.205025,4200.512718,4216.410153,4218.974256,4213.846051,4214.358871,4215.897333,4212.307589,4219.999897,4218.461435,4232.820409,4236.922973
111,0,4238.461435,4200.512718,4227.179384,4194.358872,4212.82041,4214.358871,4213.33323,4212.307589,4211.281948,4201.025538,4213.33323,4216.922974,4232.820409,4235.897332
112,0,4248.205024,4208.717846,4232.307589,4208.205025,4222.051179,4224.102461,4214.871692,4217.435794,4216.922974,4210.256307,4223.07682,4224.615281,4239.999896,4243.58964
113,0,4252.307588,4219.999897,4234.871691,4218.974256,4232.820409,4229.743486,4218.461435,4223.58964,4224.102461,4218.974256,4232.820409,4235.384512,4244.615281,4250.769127
114,0,4245.640922,4219.999897,4234.358871,4207.692205,4226.666563,4228.205025,4222.051179,4232.820409,4231.281948,4216.922974,4228.205025,4231.281948,4236.922973,4244.615281
115,0,4234.358871,4213.846051,4229.230666,4195.384513,4215.897333,4225.128102,4218.461435,4232.820409,4230.769127,4213.846051,4217.435794,4217.435794,4227.692204,4232.820409
116,0,4236.922973,4223.07682,4224.615281,4204.102461,4219.999897,4225.640922,4218.974256,4227.179384,4225.640922,4221.025538,4219.487076,4219.487076,4235.897332,4235.897332
117,0,4235.897332,4228.717845,4219.487076,4205.640923,4222.051179,4223.58964,4218.461435,4222.051179,4224.102461,4221.538358,4219.487076,4219.999897,4232.307589,4234.871691
118,0,4212.307589,4208.205025,4205.128102,4183.589641,4207.179384,4212.82041,4204.615282,4209.743487,4215.384512,4203.589641,4199.999897,4202.051179,4203.07682,4211.794769
119,0,4210.256307,4208.205025,4204.102461,4183.589641,4206.153743,4210.769128,4202.051179,4206.666564,4210.769128,4196.922974,4198.974256,4201.538359,4204.615282,4211.281948
120,0,4242.051178,4242.051178,4225.128102,4209.230666,4223.07682,4223.07682,4218.461435,4220.512717,4222.563999,4215.897333,4227.692204,4226.666563,4243.076819,4244.615281
121,0,4255.384511,4248.717845,4235.384512,4212.307589,4227.692204,4223.07682,4220.512717,4223.58964,4225.640922,4223.07682,4237.948614,4234.871691,4257.948614,4257.435793
122,0,4246.666563,4232.307589,4228.717845,4202.051179,4215.897333,4213.846051,4211.794769,4213.33323,4216.410153,4215.384512,4229.743486,4227.692204,4247.179383,4247.692204
123,0,4248.717845,4236.922973,4232.307589,4209.230666,4213.846051,4218.461435,4216.410153,4217.948615,4221.538358,4223.07682,4232.820409,4230.769127,4249.743486,4249.743486
124,0,4251.794768,4242.051178,4233.33323,4210.769128,4225.128102,4222.563999,4219.487076,4229.230666,4233.33323,4230.769127,4235.897332,4234.871691,4256.410152,4253.84605
125,0,4242.051178,4232.307589,4221.538358,4199.487077,4229.230666,4218.974256,4217.948615,4226.153743,4229.743486,4222.051179,4234.358871,4231.281948,4252.820409,4246.153742
126,0,4231.281948,4225.128102,4214.871692,4195.897333,4219.999897,4214.871692,4216.410153,4216.922974,4218.461435,4213.33323,4227.692204,4222.563999,4244.10246,4234.358871
127,0,4227.179384,4224.615281,4215.897333,4196.922974,4211.794769,4212.82041,4210.769128,4213.33323,4214.871692,4210.769128,4216.410153,4213.846051,4237.948614,4228.205025
128,0,4232.820409,4229.230666,4218.974256,4200.512718,4217.435794,4215.384512,4212.307589,4214.871692,4216.410153,4213.33323,4222.051179,4216.922974,4246.666563,4233.84605
0,0,4235.384512,4228.717845,4217.948615,4199.999897,4219.999897,4217.948615,4215.897333,4214.871692,4214.358871,4213.846051,4229.230666,4221.025538,4248.717845,4235.897332
1,0,4229.230666,4218.974256,4213.846051,4195.897333,4215.384512,4215.384512,4213.33323,4212.82041,4214.358871,4209.743487,4217.948615,4214.358871,4234.871691,4230.256307
2,0,4228.205025,4216.410153,4211.794769,4199.487077,4217.435794,4215.897333,4212.82041,4215.897333,4218.974256,4212.307589,4213.33323,4211.281948,4231.794768,4228.717845
3,0,4230.769127,4218.461435,4211.794769,4197.948615,4216.410153,4218.461435,4214.358871,4219.487076,4218.974256,4217.948615,4220.512717,4214.358871,4237.435794,4230.256307
4,0,4229.743486,4215.384512,4213.33323,4192.82041,4212.307589,4215.897333,4211.281948,4216.410153,4218.974256,4215.897333,4223.58964,4213.33323,4237.435794,4229.230666
5,0,4232.307589,4223.58964,4214.871692,4199.487077,4217.435794,4215.897333,4213.33323,4222.051179,4230.769127,4224.102461,4230.769127,4216.922974,4243.58964,4232.820409
6,0,4236.410153,4231.794768,4214.358871,4204.615282,4224.615281,4223.58964,4217.948615,4230.256307,4236.922973,4234.871691,4236.410153,4217.948615,4252.820409,4236.410153
7,0,4230.769127,4217.948615,4211.794769,4195.897333,4214.871692,4222.051179,4214.871692,4221.538358,4223.58964,4219.487076,4222.563999,4205.640923,4243.076819,4226.666563
8,0,4229.743486,4211.281948,4215.384512,4196.922974,4210.256307,4216.922974,4215.897333,4213.846051,4213.846051,4202.564,4212.307589,4203.07682,4231.794768,4221.025538
9,0,4242.563999,4230.256307,4221.538358,4209.230666,4225.640922,4224.102461,4221.025538,4220.512717,4220.512717,4210.769128,4216.922974,4215.897333,4238.461435,4230.256307
10,0,4240.512717,4233.84605,4218.461435,4207.692205,4229.743486,4229.743486,4218.461435,4219.999897,4220.512717,4215.384512,4221.025538,4215.384512,4244.10246,4232.307589
11,0,4228.717845,4218.461435,4213.33323,4199.999897,4222.563999,4228.205025,4217.435794,4216.410153,4217.948615,4211.794769,4225.640922,4209.743487,4243.58964,4228.205025
12,0,4237.435794,4222.051179,4215.897333,4203.589641,4227.179384,4227.179384,4221.538358,4223.07682,4228.717845,4224.615281,4232.820409,4215.897333,4246.153742,4232.307589
13,0,4242.051178,4233.33323,4219.487076,4204.102461,4225.640922,4223.58964,4219.487076,4224.102461,4231.281948,4230.256307,4232.307589,4217.948615,4249.230665,4234.358871
14,0,4232.307589,4229.230666,4217.948615,4201.538359,4213.846051,4216.922974,4214.358871,4217.948615,4217.948615,4217.948615,4228.205025,4214.358871,4247.692204,4229.743486
15,0,4235.897332,4228.205025,4217.948615,4204.615282,4222.051179,4218.461435,4215.897333,4219.999897,4222.051179,4221.025538,4232.820409,4218.974256,4249.230665,4231.281948
16,0,4240.512717,4231.794768,4215.384512,4203.07682,4229.230666,4220.512717,4214.358871,4223.07682,4229.230666,4228.205025,4233.84605,4220.512717,4252.307588,4233.33323
17,0,4234.358871,4233.84605,4215.897333,4200.512718,4221.025538,4226.153743,4218.974256,4225.640922,4226.153743,4221.025538,4232.307589,4221.025538,4250.256306,4233.84605
18,0,4233.84605,4233.33323,4222.051179,4205.128102,4222.563999,4235.384512,4232.820409,4236.410153,4230.256307,4221.025538,4229.230666,4224.102461,4242.051178,4230.769127
19,0,4230.256307,4221.025538,4214.871692,4198.974256,4213.33323,4223.07682,4224.615281,4231.281948,4227.179384,4218.461435,4216.410153,4212.82041,4230.256307,4218.974256
20,0,4228.205025,4224.102461,4208.205025,4194.358872,4199.487077,4208.205025,4208.717846,4215.897333,4216.922974,4207.179384,4213.846051,4207.179384,4233.84605,4222.051179
21,0,4244.615281,4244.615281,4220.512717,4209.230666,4211.794769,4216.410153,4214.358871,4224.102461,4227.692204,4218.974256,4229.743486,4221.025538,4249.230665,4239.487076
22,0,4248.717845,4241.538358,4225.128102,4214.358871,4229.230666,4222.563999,4220.512717,4231.794768,4234.871691,4232.820409,4236.922973,4224.102461,4247.692204,4238.974255
23,0,4236.922973,4233.84605,4215.897333,4205.640923,4228.717845,4216.922974,4214.358871,4226.153743,4224.615281,4222.051179,4229.743486,4215.897333,4235.897332,4229.230666
24,0,4234.871691,4241.025537,4214.871692,4203.07682,4222.563999,4216.922974,4214.871692,4225.640922,4222.563999,4212.82041,4221.025538,4211.794769,4232.307589,4229.230666
25,0,4230.769127,4232.820409,4215.384512,4202.564,4216.410153,4216.922974,4217.948615,4224.615281,4222.051179,4216.410153,4213.33323,4202.564,4231.794768,4227.179384
26,0,4230.256307,4221.538358,4212.307589,4202.564,4214.358871,4215.384512,4217.435794,4223.07682,4223.07682,4217.435794,4217.948615,4202.564,4236.410153,4227.692204
27,0,4243.58964,4230.769127,4217.435794,4206.666564,4223.58964,4223.07682,4222.051179,4233.33323,4230.256307,4216.922974,4227.692204,4218.461435,4242.563999,4238.974255
28,0,4244.10246,4233.33323,4219.487076,4203.07682,4229.743486,4223.07682,4220.512717,4231.281948,4222.563999,4214.871692,4219.999897,4218.461435,4235.897332,4237.435794
29,0,4231.281948,4223.58964,4214.871692,4198.974256,4227.692204,4216.410153,4214.358871,4214.358871,4213.33323,4211.281948,4210.769128,4208.205025,4228.717845,4229.230666
30,0,4238.461435,4222.563999,4217.948615,4209.743487,4222.563999,4217.948615,4216.922974,4214.358871,4219.487076,4215.897333,4215.897333,4213.33323,4234.358871,4234.358871
31,0,4242.563999,4217.435794,4219.999897,4213.846051,4217.435794,4218.974256,4218.461435,4218.461435,4222.051179,4218.461435,4219.999897,4216.922974,4235.384512,4235.897332
32,0,4231.281948,4205.128102,4216.410153,4203.07682,4216.410153,4212.82041,4211.281948,4218.461435,4219.999897,4217.948615,4223.07682,4211.794769,4236.410153,4232.307589
33,0,4236.922973,4205.640923,4221.538358,4203.589641,4216.922974,4211.794769,4212.307589,4223.58964,4227.692204,4226.153743,4231.794768,4218.461435,4247.692204,4239.487076
34,0,4253.84605,4218.974256,4234.871691,4215.897333,4221.538358,4217.948615,4221.025538,4224.615281,4231.281948,4231.281948,4237.948614,4233.33323,4252.307588,4251.281947
35,0,4246.153742,4214.358871,4233.33323,4209.230666,4216.922974,4214.358871,4218.461435,4217.435794,4223.07682,4221.025538,4230.256307,4230.769127,4246.666563,4249.743486
36,0,4235.897332,4200.512718,4225.640922,4195.897333,4210.769128,4208.205025,4212.82041,4212.307589,4214.871692,4211.794769,4222.563999,4219.999897,4242.563999,4245.640922
37,0,4244.615281,4204.615282,4230.256307,4208.205025,4227.179384,4214.358871,4217.948615,4217.948615,4216.922974,4214.358871,4229.743486,4223.58964,4246.666563,4250.769127
38,0,4243.58964,4209.743487,4230.256307,4217.948615,4235.384512,4219.487076,4222.051179,4222.051179,4219.999897,4216.922974,4232.307589,4225.640922,4244.10246,4252.307588
39,0,4230.256307,4201.025538,4217.948615,4202.051179,4217.435794,4214.358871,4216.922974,4217.948615,4218.461435,4212.82041,4220.512717,4213.846051,4233.84605,4245.128101
40,0,4228.205025,4198.461436,4213.33323,4197.948615,4217.948615,4212.82041,4218.461435,4220.512717,4223.07682,4212.82041,4219.999897,4210.769128,4236.922973,4242.051178
41,0,4234.871691,4203.07682,4217.948615,4212.307589,4237.948614,4219.999897,4227.179384,4228.205025,4234.871691,4224.615281,4231.281948,4215.384512,4251.281947,4246.666563
42,0,4232.307589,4198.974256,4216.922974,4211.281948,4231.794768,4220.512717,4224.102461,4223.58964,4232.820409,4229.743486,4226.666563,4207.692205,4247.692204,4240.512717
43,0,4225.640922,4193.846051,4211.794769,4198.974256,4220.512717,4214.871692,4215.384512,4213.846051,4221.538358,4218.461435,4215.384512,4197.948615,4233.84605,4229.230666
44,0,4227.692204,4197.435795,4212.307589,4203.07682,4229.230666,4213.846051,4216.410153,4215.897333,4220.512717,4212.307589,4216.410153,4199.487077,4237.435794,4236.922973
45,0,4234.871691,4198.974256,4215.897333,4215.897333,4232.307589,4217.948615,4218.974256,4220.512717,4225.128102,4219.487076,4222.051179,4208.205025,4248.205024,4250.256306
46,0,4235.384512,4191.794769,4216.922974,4214.358871,4221.025538,4214.871692,4214.358871,4218.974256,4219.999897,4217.948615,4220.512717,4211.281948,4244.615281,4246.153742
47,0,4231.794768,4184.102462,4215.897333,4206.153743,4215.897333,4207.692205,4213.33323,4216.410153,4214.358871,4211.281948,4217.435794,4212.307589,4233.84605,4241.538358
48,0,4235.897332,4186.666564,4218.461435,4206.666564,4222.563999,4214.358871,4217.948615,4218.974256,4218.974256,4216.410153,4220.512717,4217.948615,4234.358871,4247.692204
49,0,4232.820409,4184.615282,4217.948615,4204.102461,4220.512717,4213.33323,4215.384512,4217.435794,4217.948615,4212.82041,4215.897333,4211.794769,4232.820409,4241.025537
50,0,4229.743486,4175.384513,4216.410153,4203.07682,4214.358871,4205.128102,4212.82041,4212.82041,4212.307589,4204.615282,4212.307589,4204.102461,4227.179384,4233.84605
51,0,4238.974255,4174.871693,4220.512717,4208.717846,4219.487076,4209.743487,4217.948615,4216.922974,4217.948615,4211.794769,4222.563999,4215.384512,4231.794768,4247.179383
52,0,4239.487076,4177.435795,4221.025538,4207.692205,4221.538358,4211.794769,4217.948615,4219.999897,4223.07682,4219.999897,4225.128102,4217.948615,4235.897332,4251.794768
53,0,4229.743486,4170.256308,4214.358871,4201.538359,4211.281948,4201.538359,4211.794769,4213.33323,4216.922974,4214.358871,4213.33323,4203.07682,4229.743486,4241.538358
54,0,4230.769127,4164.102462,4214.871692,4202.051179,4207.692205,4198.461436,4212.82041,4210.769128,4212.307589,4209.230666,4212.307589,4203.07682,4228.717845,4241.025537
55,0,4236.922973,4170.256308,4219.999897,4204.102461,4217.948615,4205.128102,4215.897333,4218.974256,4217.435794,4216.410153,4220.512717,4216.922974,4232.820409,4247.179383
56,0,4232.820409,4169.230667,4217.948615,4205.128102,4219.487076,4204.102461,4212.82041,4215.384512,4218.974256,4215.384512,4218.461435,4215.384512,4230.769127,4246.153742
57,0,4230.769127,4153.846052,4213.846051,4210.256307,4212.307589,4202.051179,4208.717846,4202.051179,4212.307589,4204.102461,4212.82041,4205.640923,4228.717845,4240.512717
58,0,4232.307589,4151.28195,4215.897333,4210.769128,4214.358871,4208.205025,4210.256307,4206.153743,4211.794769,4207.179384,4217.435794,4203.589641,4230.769127,4235.897332
59,0,4231.281948,4156.922975,4218.461435,4204.102461,4222.051179,4214.871692,4216.922974,4221.025538,4225.128102,4222.051179,4219.999897,4206.153743,4233.84605,4232.820409
60,0,4227.692204,4149.230668,4215.897333,4200.512718,4216.410153,4213.33323,4215.384512,4219.999897,4232.307589,4221.538358,4215.384512,4207.179384,4231.281948,4231.281948
61,0,4232.307589,4138.974258,4220.512717,4208.717846,4214.358871,4212.82041,4214.358871,4220.512717,4230.769127,4217.435794,4222.563999,4214.871692,4231.794768,4238.974255
62,0,4241.025537,4144.102463,4229.743486,4218.974256,4225.128102,4220.512717,4226.153743,4235.384512,4231.281948,4226.153743,4234.871691,4227.179384,4241.025537,4249.230665
63,0,4237.435794,4142.564001,4224.102461,4215.897333,4221.025538,4218.974256,4227.692204,4232.307589,4226.153743,4223.58964,4224.102461,4221.025538,4236.410153,4241.538358
64,0,4228.205025,4127.692207,4214.358871,4204.615282,4211.281948,4212.307589,4216.922974,4215.384512,4215.897333,4210.256307,4208.205025,4207.692205,4219.999897,4230.256307
65,0,4230.256307,4124.615284,4219.999897,4203.589641,4216.410153,4214.871692,4218.461435,4216.410153,4216.410153,4212.307589,4213.33323,4212.307589,4219.999897,4235.384512
66,0,4230.769127,4122.564002,4219.999897,4205.128102,4214.358871,4213.846051,4219.487076,4217.948615,4218.461435,4216.410153,4217.435794,4215.384512,4222.563999,4235.897332
67,0,4227.692204,4117.948617,4214.871692,4206.666564,4212.82041,4210.256307,4213.33323,4211.281948,4212.82041,4213.33323,4212.307589,4211.794769,4218.461435,4229.743486
68,0,4234.871691,4125.640925,4222.051179,4215.897333,4225.128102,4216.410153,4222.051179,4217.435794,4218.974256,4216.410153,4217.948615,4217.948615,4225.640922,4236.922973
69,0,4234.358871,4123.589643,4224.102461,4215.384512,4222.051179,4218.974256,4227.179384,4218.974256,4221.538358,4215.384512,4216.922974,4217.435794,4227.179384,4237.435794
70,0,4219.487076,4107.692207,4217.435794,4203.07682,4209.230666,4211.794769,4214.358871,4206.666564,4207.179384,4202.564,4206.666564,4203.589641,4215.384512,4225.640922
71,0,4213.33323,4104.102464,4213.33323,4196.410154,4209.743487,4208.717846,4210.769128,4203.589641,4202.051179,4197.948615,4205.128102,4198.461436,4213.33323,4218.974256
72,0,4220.512717,4114.871694,4214.358871,4202.051179,4215.384512,4211.794769,4215.384512,4208.717846,4213.33323,4205.640923,4211.281948,4206.153743,4218.461435,4222.051179
73,0,4232.307589,4123.076822,4226.666563,4215.897333,4225.640922,4216.922974,4217.948615,4218.461435,4224.615281,4221.538358,4224.102461,4215.897333,4226.153743,4234.871691
74,0,4240.512717,4123.076822,4236.922973,4224.102461,4232.307589,4221.538358,4219.487076,4229.743486,4227.179384,4229.743486,4233.84605,4222.051179,4235.384512,4243.58964
75,0,4231.794768,4113.846053,4224.615281,4217.435794,4221.025538,4213.846051,4216.410153,4221.025538,4221.025538,4221.538358,4225.640922,4216.922974,4232.820409,4234.871691
76,0,4215.384512,4103.076823,4211.794769,4208.717846,4205.640923,4201.538359,4210.769128,4205.128102,4211.281948,4206.153743,4211.794769,4206.153743,4219.487076,4225.640922
77,0,4219.487076,4103.076823,4217.948615,4215.384512,4208.205025,4204.102461,4213.846051,4211.281948,4211.281948,4203.07682,4212.307589,4205.640923,4217.435794,4229.743486
78,0,4229.230666,4106.666566,4219.999897,4219.999897,4214.358871,4210.256307,4218.974256,4219.999897,4216.410153,4206.666564,4214.871692,4207.692205,4221.538358,4229.743486
79,0,4225.128102,4107.692207,4217.435794,4211.281948,4217.948615,4211.281948,4222.563999,4213.846051,4217.435794,4212.307589,4214.871692,4210.256307,4219.487076,4226.666563
80,0,4221.538358,4098.974259,4215.897333,4207.692205,4213.846051,4212.307589,4222.563999,4211.281948,4214.358871,4214.871692,4217.435794,4214.871692,4216.922974,4227.692204
81,0,4226.153743,4092.820413,4217.948615,4213.846051,4208.205025,4215.897333,4218.974256,4214.358871,4217.435794,4215.384512,4216.922974,4215.384512,4220.512717,4226.666563
82,0,4234.871691,4108.717848,4226.153743,4222.563999,4214.871692,4216.410153,4217.435794,4216.410153,4226.153743,4221.538358,4224.615281,4215.384512,4231.794768,4232.307589
83,0,4232.307589,4107.179387,4226.666563,4217.435794,4216.410153,4211.794769,4210.256307,4216.922974,4224.615281,4224.102461,4231.281948,4217.948615,4233.33323,4235.384512
84,0,4214.871692,4076.410157,4216.410153,4202.564,4210.769128,4206.153743,4207.179384,4217.435794,4219.487076,4218.974256,4221.025538,4213.33323,4219.999897,4223.07682
85,0,4216.410153,4082.564003,4215.897333,4207.692205,4211.794769,4204.615282,4211.794769,4217.948615,4218.974256,4217.435794,4214.871692,4204.615282,4215.384512,4220.512717
86,0,4233.84605,4112.820412,4220.512717,4222.563999,4209.743487,4204.102461,4208.205025,4212.307589,4209.230666,4208.717846,4213.846051,4203.589641,4215.897333,4228.205025
87,0,4226.153743,4102.051182,4211.794769,4211.794769,4195.384513,4198.461436,4199.999897,4199.999897,4195.384513,4188.717846,4197.435795,4197.435795,4199.999897,4217.948615
88,0,4223.07682,4094.358874,4211.794769,4207.179384,4198.461436,4201.538359,4208.205025,4197.435795,4196.922974,4185.128103,4188.717846,4194.871692,4190.256308,4213.846051
89,0,4245.640922,4121.538361,4225.128102,4227.179384,4216.410153,4210.256307,4218.461435,4208.205025,4208.205025,4202.564,4204.615282,4205.128102,4205.640923,4230.769127
90,0,4248.205024,4123.589643,4224.102461,4226.153743,4215.897333,4207.692205,4216.410153,4216.922974,4215.897333,4213.33323,4213.846051,4207.179384,4218.974256,4236.410153
91,0,4237.435794,4108.717848,4220.512717,4217.948615,4210.256307,4207.179384,4216.410153,4218.461435,4220.512717,4216.922974,4213.846051,4204.615282,4219.487076,4231.794768
92,0,4244.10246,4117.435797,4226.666563,4227.692204,4215.897333,4212.82041,4215.384512,4214.871692,4218.461435,4215.384512,4215.897333,4210.769128,4218.461435,4233.84605
93,0,4250.769127,4125.128104,4232.307589,4233.33323,4217.948615,4213.846051,4212.82041,4213.846051,4216.922974,4212.82041,4217.948615,4216.922974,4217.948615,4238.461435
94,0,4252.307588,4126.666566,4239.487076,4232.307589,4218.461435,4215.384512,4221.025538,4225.128102,4225.128102,4222.051179,4225.128102,4222.563999,4224.615281,4246.153742
95,0,4255.897332,4132.307591,4249.230665,4236.410153,4230.256307,4219.999897,4228.717845,4232.307589,4229.230666,4232.820409,4235.897332,4230.769127,4231.794768,4254.35887
96,0,4248.717845,4126.666566,4242.563999,4235.897332,4231.794768,4220.512717,4221.538358,4223.58964,4223.07682,4225.640922,4233.33323,4224.615281,4225.128102,4245.640922
97,0,4243.58964,4121.02554,4230.769127,4229.743486,4223.58964,4222.051179,4217.435794,4218.974256,4217.435794,4214.871692,4219.999897,4212.307589,4216.410153,4232.307589
98,0,4247.692204,4127.692207,4231.281948,4230.769127,4227.179384,4227.692204,4228.205025,4226.666563,4219.999897,4216.922974,4215.384512,4211.281948,4215.384512,4230.256307
99,0,4243.076819,4126.666566,4232.820409,4233.84605,4235.897332,4228.717845,4234.358871,4232.820409,4224.102461,4221.025538,4218.974256,4207.692205,4217.948615,4229.230666
100,0,4231.794768,4121.538361,4226.153743,4230.256307,4228.717845,4225.640922,4225.640922,4227.179384,4224.615281,4218.461435,4215.384512,4200.512718,4212.307589,4221.538358
101,0,4228.205025,4121.538361,4217.435794,4220.512717,4214.358871,4219.487076,4218.461435,4221.025538,4218.461435,4214.358871,4206.153743,4198.461436,4204.102461,4213.33323
102,0,4234.358871,4122.564002,4221.538358,4224.615281,4221.025538,4217.435794,4225.128102,4224.102461,4214.871692,4213.33323,4208.717846,4203.589641,4207.692205,4215.897333
103,0,4238.461435,4124.102463,4231.281948,4233.84605,4232.307589,4219.487076,4224.102461,4222.563999,4217.435794,4214.358871,4215.384512,4207.179384,4213.33323,4217.948615
104,0,4238.974255,4122.051181,4231.281948,4230.256307,4225.128102,4216.922974,4216.410153,4217.948615,4216.922974,4214.871692,4212.82041,4208.717846,4210.769128,4217.435794
105,0,4244.10246,4119.999899,4229.230666,4228.717845,4217.435794,4216.410153,4223.07682,4223.07682,4215.897333,4216.922974,4213.846051,4208.717846,4210.256307,4223.07682
106,0,4247.179383,4119.999899,4231.281948,4230.769127,4219.487076,4218.974256,4227.179384,4223.58964,4216.922974,4215.897333,4216.922974,4205.128102,4216.410153,4224.615281
107,0,4247.692204,4116.410156,4232.307589,4229.230666,4222.051179,4217.948615,4216.922974,4219.999897,4217.948615,4216.922974,4221.025538,4209.743487,4218.461435,4219.487076
108,0,4243.58964,4107.179387,4228.717845,4223.07682,4221.025538,4218.461435,4214.871692,4224.615281,4220.512717,4221.025538,4225.128102,4214.871692,4218.461435,4217.435794
109,0,4236.922973,4102.564002,4226.153743,4222.051179,4218.974256,4218.974256,4220.512717,4222.563999,4216.922974,4212.307589,4218.974256,4208.205025,4215.897333,4217.948615
110,0,4236.922973,4104.615284,4225.640922,4226.666563,4215.897333,4215.897333,4214.358871,4210.256307,4211.281948,4203.07682,4209.743487,4203.589641,4210.769128,4216.410153
111,0,4242.563999,4107.179387,4227.692204,4229.743486,4218.974256,4215.897333,4215.384512,4214.871692,4215.384512,4212.307589,4214.358871,4207.179384,4212.82041,4217.435794
112,0,4241.538358,4106.153746,4228.205025,4227.692204,4220.512717,4217.948615,4224.102461,4226.153743,4219.487076,4219.487076,4218.974256,4206.153743,4215.384512,4219.487076
113,0,4237.948614,4102.564002,4231.281948,4226.666563,4219.999897,4223.58964,4229.230666,4225.640922,4219.999897,4217.435794,4216.922974,4208.205025,4214.871692,4223.58964
114,0,4240.512717,4105.128105,4233.33323,4230.769127,4231.281948,4230.769127,4232.820409,4225.640922,4226.666563,4220.512717,4221.538358,4216.922974,4219.999897,4228.717845
115,0,4241.538358,4112.307592,4230.769127,4229.230666,4229.743486,4225.640922,4225.640922,4225.640922,4225.640922,4221.538358,4226.666563,4212.82041,4226.666563,4223.07682
116,0,4258.974255,4125.640925,4236.922973,4231.794768,4217.948615,4216.410153,4218.461435,4225.640922,4218.461435,4223.07682,4230.256307,4214.358871,4232.307589,4231.281948
117,0,4291.794767,4143.076822,4247.179383,4239.999896,4217.435794,4217.948615,4222.051179,4224.615281,4218.461435,4226.666563,4233.33323,4228.205025,4238.974255,4262.563998
118,0,4318.461433,4157.948616,4251.281947,4244.10246,4217.435794,4217.948615,4221.538358,4217.435794,4217.435794,4218.974256,4234.871691,4232.820409,4250.256306,4285.640921
119,0,4366.153739,4192.30759,4266.666562,4264.61528,4215.897333,4212.82041,4215.897333,4216.410153,4213.846051,4213.33323,4244.10246,4237.948614,4272.307588,4321.538356
120,0,4433.846045,4231.794768,4285.640921,4288.205023,4214.871692,4205.640923,4213.846051,4214.358871,4210.769128,4214.358871,4258.461434,4251.281947,4297.435792,4385.128098
121,0,4468.205019,4240.512717,4292.307587,4284.102459,4205.128102,4193.846051,4206.153743,4203.589641,4199.999897,4204.102461,4262.563998,4261.025537,4314.358869,4430.256302
122,0,4475.384506,4238.974255,4298.461433,4277.435793,4202.051179,4189.230667,4197.948615,4194.358872,4193.333231,4194.358872,4261.538357,4264.10246,4325.64092,4442.563994
123,0,4482.051172,4249.743486,4303.589638,4288.717844,4215.897333,4198.461436,4201.025538,4198.974256,4198.974256,4205.128102,4270.256306,4267.179383,4335.89733,4448.71784
124,0,4469.74348,4245.128101,4302.051177,4291.281946,4211.794769,4203.07682,4209.743487,4207.692205,4204.102461,4217.435794,4283.589639,4269.743485,4339.487073,4444.102455
125,0,4435.897327,4216.410153,4297.435792,4276.410152,4195.897333,4198.461436,4212.307589,4210.769128,4206.153743,4218.461435,4283.076818,4267.179383,4331.794766,4417.94861
126,0,4399.487072,4190.769128,4282.051177,4256.922973,4196.922974,4196.922974,4207.692205,4208.717846,4204.615282,4216.410153,4265.128101,4254.871691,4312.820407,4386.153739
127,0,4364.615278,4173.846052,4261.025537,4239.999896,4202.564,4201.025538,4205.640923,4208.717846,4199.999897,4212.82041,4247.179383,4235.897332,4293.333228,4353.333227
128,0,4338.461432,4155.384514,4252.820409,4239.487076,4208.205025,4206.153743,4217.948615,4215.897333,4207.179384,4213.33323,4247.692204,4231.281948,4282.051177,4326.666561
0,0,4318.461433,4144.102463,4252.307588,4240.512717,4210.256307,4206.153743,4218.974256,4216.410153,4216.410153,4216.410153,4248.205024,4233.33323,4271.794767,4307.179382
1,0,4298.974254,4142.051181,4245.640922,4228.205025,4208.717846,4200.512718,4201.025538,4209.230666,4211.281948,4215.384512,4235.384512,4226.153743,4256.922973,4289.230664
2,0,4295.897331,4144.102463,4247.179383,4230.769127,4214.871692,4203.589641,4203.07682,4210.769128,4211.281948,4216.922974,4232.307589,4219.999897,4252.307588,4283.076818
3,0,4288.717844,4134.358873,4246.666563,4237.435794,4213.33323,4208.717846,4213.33323,4212.82041,4217.948615,4218.974256,4234.871691,4218.461435,4250.769127,4274.87169
4,0,4264.61528,4122.564002,4234.358871,4227.692204,4205.128102,4210.256307,4207.179384,4208.717846,4212.307589,4214.358871,4226.666563,4213.33323,4238.974255,4253.84605
5,0,4259.487075,4125.128104,4231.794768,4225.128102,4213.33323,4215.897333,4208.717846,4212.82041,4211.794769,4218.461435,4226.666563,4212.82041,4237.435794,4246.666563
6,0,4267.692203,4127.179386,4237.948614,4231.281948,4224.102461,4219.487076,4218.974256,4224.102461,4228.205025,4231.281948,4235.384512,4219.999897,4242.051178,4251.794768
7,0,4253.333229,4119.487079,4235.384512,4223.07682,4215.897333,4215.384512,4218.974256,4227.692204,4232.307589,4230.769127,4233.84605,4216.410153,4236.410153,4237.435794
8,0,4235.897332,4109.230669,4233.33323,4214.358871,4211.794769,4214.358871,4216.922974,4228.717845,4218.974256,4223.07682,4228.717845,4205.640923,4228.205025,4220.512717
9,0,4231.794768,4106.666566,4233.84605,4217.948615,4215.897333,4216.410153,4219.999897,4226.666563,4213.846051,4222.051179,4225.128102,4203.589641,4223.07682,4216.922974
10,0,4222.563999,4104.615284,4221.538358,4213.846051,4215.384512,4215.897333,4217.435794,4216.410153,4217.435794,4218.461435,4216.410153,4203.07682,4218.461435,4207.692205
11,0,4218.461435,4106.666566,4218.974256,4209.743487,4218.974256,4217.435794,4214.871692,4213.846051,4219.487076,4216.922974,4215.384512,4198.974256,4222.051179,4203.589641
12,0,4221.538358,4109.743489,4226.153743,4215.897333,4220.512717,4217.435794,4215.897333,4216.922974,4217.435794,4220.512717,4219.999897,4198.461436,4225.128102,4207.692205
13,0,4217.435794,4104.102464,4219.487076,4215.897333,4215.384512,4211.281948,4212.307589,4211.281948,4213.846051,4215.897333,4214.358871,4197.435795,4214.871692,4203.07682
14,0,4222.051179,4110.25631,4217.435794,4219.487076,4221.538358,4216.922974,4213.33323,4213.846051,4217.435794,4217.435794,4212.82041,4196.410154,4215.897333,4204.615282
15,0,4238.461435,4127.179386,4233.33323,4231.794768,4236.922973,4232.820409,4226.153743,4232.307589,4230.256307,4232.820409,4228.717845,4201.025538,4232.307589,4220.512717
16,0,4233.33323,4124.102463,4233.84605,4226.666563,4237.435794,4237.435794,4235.384512,4236.922973,4234.871691,4236.410153,4232.307589,4204.615282,4231.281948,4218.974256
17,0,4215.384512,4109.230669,4215.384512,4214.871692,4228.717845,4231.281948,4226.666563,4226.153743,4228.717845,4226.666563,4217.435794,4195.384513,4216.410153,4201.538359
18,0,4215.384512,4110.25631,4209.743487,4218.461435,4227.179384,4227.692204,4218.974256,4225.640922,4229.230666,4227.179384,4213.846051,4185.640923,4214.358871,4196.922974
19,0,4217.435794,4113.333233,4212.307589,4217.435794,4222.051179,4228.205025,4220.512717,4230.256307,4232.820409,4232.820409,4220.512717,4187.692205,4219.999897,4201.538359
20,0,4211.794769,4106.153746,4214.358871,4209.743487,4216.410153,4226.666563,4218.974256,4228.717845,4232.307589,4231.281948,4222.051179,4195.897333,4218.461435,4199.999897
21,0,4211.794769,4106.153746,4217.948615,4216.410153,4221.538358,4228.717845,4222.563999,4229.230666,4236.410153,4231.281948,4226.153743,4199.999897,4222.051179,4197.948615
22,0,4212.307589,4110.25631,4215.897333,4216.410153,4225.128102,4233.33323,4232.307589,4237.435794,4243.58964,4237.435794,4231.281948,4197.435795,4229.743486,4195.897333
23,0,4201.025538,4106.153746,4204.102461,4198.461436,4218.974256,4227.692204,4225.640922,4235.897332,4238.974255,4233.33323,4221.025538,4188.717846,4221.025538,4184.615282
24,0,4194.358872,4105.640925,4196.410154,4193.846051,4211.281948,4214.358871,4212.82041,4221.538358,4223.58964,4218.461435,4210.256307,4181.025539,4210.769128,4179.487077
25,0,4216.410153,4121.538361,4206.153743,4211.281948,4214.358871,4213.846051,4216.410153,4218.974256,4217.948615,4218.461435,4215.897333,4188.205026,4223.58964,4199.999897
26,0,4261.025537,4149.230668,4224.102461,4230.256307,4222.051179,4223.07682,4220.512717,4230.256307,4227.179384,4230.256307,4229.230666,4204.102461,4247.692204,4237.948614
27,0,4306.666561,4179.487077,4238.974255,4244.10246,4222.563999,4223.58964,4217.435794,4231.281948,4232.307589,4231.281948,4241.538358,4219.999897,4262.563998,4280.512716
28,0,4355.384509,4209.230666,4254.35887,4257.435793,4217.435794,4217.435794,4216.922974,4219.999897,4223.58964,4227.179384,4254.871691,4235.384512,4280.512716,4332.820407
29,0,4409.230661,4235.897332,4271.281947,4266.153742,4215.897333,4214.358871,4214.358871,4216.410153,4216.922974,4231.281948,4272.820408,4248.205024,4307.692202,4386.666559
30,0,4439.487071,4251.281947,4282.563998,4270.256306,4216.410153,4214.871692,4210.769128,4216.922974,4217.435794,4229.230666,4279.999895,4258.461434,4323.076817,4415.897328
31,0,4441.538353,4255.384511,4291.794767,4276.410152,4214.871692,4215.897333,4213.846051,4215.897333,4216.410153,4224.102461,4280.512716,4265.640921,4326.15374,4423.589635
32,0,4437.948609,4252.307588,4296.922972,4284.102459,4215.897333,4214.871692,4218.461435,4222.051179,4218.974256,4230.256307,4289.743485,4267.692203,4333.846048,4423.589635
33,0,4423.589635,4244.10246,4290.256305,4278.974254,4216.410153,4214.871692,4216.922974,4228.205025,4222.563999,4236.410153,4292.307587,4266.153742,4332.820407,4410.256302
34,0,4390.256303,4232.307589,4277.948613,4264.61528,4215.384512,4214.358871,4215.384512,4228.205025,4221.025538,4232.307589,4282.563998,4262.051178,4311.794766,4378.974252
35,0,4352.820406,4214.358871,4268.205024,4254.35887,4217.435794,4216.922974,4217.948615,4227.692204,4223.07682,4232.820409,4274.87169,4251.281947,4295.897331,4342.563996
36,0,4318.461433,4190.769128,4255.897332,4244.10246,4217.948615,4223.07682,4217.948615,4222.563999,4224.615281,4237.948614,4267.179383,4235.897332,4282.051177,4305.64092
37,0,4283.589639,4172.820411,4239.487076,4230.256307,4216.410153,4227.692204,4209.743487,4213.846051,4218.974256,4232.820409,4251.794768,4222.563999,4258.974255,4271.794767
38,0,4259.487075,4169.743488,4227.179384,4221.025538,4216.922974,4226.666563,4204.102461,4214.358871,4215.897333,4227.692204,4243.58964,4211.794769,4242.563999,4247.179383
39,0,4245.128101,4165.640924,4218.461435,4216.410153,4218.974256,4229.230666,4209.230666,4218.974256,4219.999897,4230.256307,4238.461435,4203.589641,4231.281948,4232.307589
40,0,4226.666563,4152.307591,4212.307589,4214.871692,4216.410153,4231.281948,4212.307589,4214.358871,4216.922974,4223.58964,4223.07682,4193.846051,4215.897333,4217.435794
41,0,4211.794769,4147.179386,4212.307589,4216.922974,4212.82041,4225.128102,4210.769128,4211.281948,4213.33323,4213.33323,4212.82041,4189.743487,4208.717846,4200.512718
42,0,4211.794769,4151.28195,4214.871692,4216.410153,4213.33323,4223.58964,4216.922974,4224.102461,4223.58964,4222.051179,4218.974256,4194.358872,4211.281948,4195.384513
43,0,4216.410153,4152.307591,4214.871692,4215.384512,4216.922974,4230.256307,4219.999897,4234.871691,4235.384512,4238.974255,4229.743486,4199.999897,4215.897333,4206.153743
44,0,4219.487076,4161.53836,4222.563999,4225.640922,4225.640922,4233.84605,4219.999897,4235.384512,4241.538358,4247.179383,4238.461435,4208.717846,4227.179384,4215.384512
45,0,4220.512717,4171.79477,4232.307589,4234.871691,4235.897332,4234.358871,4223.58964,4235.384512,4242.563999,4247.692204,4241.025537,4213.33323,4230.256307,4209.230666
46,0,4211.281948,4160.512719,4223.07682,4227.179384,4230.256307,4233.33323,4220.512717,4230.769127,4235.897332,4239.999896,4234.358871,4203.07682,4212.82041,4195.384513
47,0,4199.999897,4148.717847,4213.846051,4215.384512,4217.435794,4231.281948,4215.384512,4218.461435,4225.128102,4232.307589,4229.230666,4195.897333,4208.717846,4188.717846
48,0,4202.564,4157.435796,4219.487076,4216.410153,4223.07682,4230.769127,4218.461435,4214.358871,4222.051179,4232.307589,4231.794768,4203.07682,4215.897333,4188.205026
49,0,4201.025538,4158.974257,4220.512717,4220.512717,4232.307589,4231.281948,4220.512717,4223.58964,4227.179384,4234.871691,4231.794768,4205.640923,4208.205025,4186.666564
50,0,4188.717846,4147.179386,4212.307589,4216.410153,4224.102461,4229.230666,4220.512717,4231.281948,4231.794768,4235.897332,4227.692204,4200.512718,4197.435795,4182.05118
51,0,4186.666564,4150.256309,4213.33323,4215.384512,4223.07682,4230.769127,4227.692204,4237.435794,4235.384512,4234.871691,4227.179384,4201.538359,4198.461436,4176.922975
52,0,4191.794769,4154.358873,4219.487076,4219.487076,4230.769127,4235.384512,4232.307589,4243.076819,4235.897332,4233.33323,4224.615281,4203.07682,4201.025538,4174.358872
53,0,4180.512718,4138.974258,4213.33323,4210.769128,4221.025538,4230.256307,4224.102461,4236.410153,4232.820409,4232.307589,4218.974256,4200.512718,4192.82041,4170.256308
54,0,4168.205026,4130.256309,4205.128102,4207.179384,4211.281948,4222.563999,4214.358871,4223.58964,4228.717845,4231.281948,4215.897333,4197.435795,4185.640923,4166.153744
55,0,4175.897334,4139.487078,4208.717846,4212.307589,4222.051179,4226.666563,4215.384512,4221.025538,4230.256307,4230.769127,4218.461435,4197.948615,4192.82041,4168.717847
56,0,4184.102462,4144.102463,4213.33323,4206.666564,4222.563999,4232.820409,4221.025538,4226.153743,4231.281948,4233.84605,4224.102461,4202.051179,4201.025538,4171.79477
57,0,4179.487077,4145.128104,4207.179384,4204.615282,4215.897333,4230.769127,4216.410153,4228.205025,4230.256307,4235.897332,4228.717845,4201.538359,4196.922974,4169.743488
58,0,4183.076821,4156.410155,4208.205025,4217.435794,4225.640922,4232.820409,4217.948615,4232.820409,4241.025537,4243.58964,4235.384512,4202.051179,4199.999897,4178.461436
59,0,4189.230667,4161.025539,4214.358871,4221.025538,4233.33323,4237.435794,4225.128102,4236.410153,4243.58964,4250.256306,4234.358871,4203.07682,4209.230666,4187.179385
60,0,4182.564,4151.79477,4209.743487,4214.358871,4229.230666,4234.871691,4219.999897,4232.307589,4231.794768,4244.10246,4222.051179,4198.461436,4199.999897,4176.410154
61,0,4183.076821,4152.307591,4209.743487,4217.948615,4230.769127,4233.84605,4219.487076,4233.84605,4235.897332,4241.538358,4222.563999,4197.948615,4194.871692,4176.410154
62,0,4191.794769,4164.615283,4212.307589,4223.07682,4232.307589,4236.410153,4225.640922,4238.974255,4247.692204,4250.256306,4232.307589,4199.487077,4203.07682,4189.230667
63,0,4175.384513,4154.358873,4203.589641,4213.33323,4225.128102,4232.820409,4221.025538,4233.84605,4236.922973,4242.051178,4218.974256,4190.256308,4189.230667,4176.410154
64,0,4154.358873,4132.820412,4195.897333,4199.999897,4215.897333,4230.256307,4212.82041,4225.640922,4221.538358,4217.948615,4195.384513,4180.512718,4163.589642,4153.846052
65,0,4160.512719,4141.53836,4199.999897,4204.102461,4215.384512,4231.281948,4218.974256,4226.153743,4224.615281,4215.897333,4201.538359,4182.564,4171.79477,4163.076821
66,0,4176.410154,4161.025539,4204.102461,4221.025538,4227.179384,4232.307589,4224.615281,4229.743486,4231.794768,4232.820409,4221.538358,4188.717846,4201.025538,4185.128103
67,0,4171.281949,4155.384514,4200.512718,4217.435794,4232.820409,4230.769127,4219.487076,4224.102461,4230.256307,4233.84605,4219.999897,4187.179385,4199.999897,4181.025539
68,0,4163.076821,4148.205027,4198.974256,4210.256307,4227.692204,4231.794768,4219.487076,4222.051179,4229.230666,4227.179384,4211.281948,4184.615282,4185.128103,4168.205026
69,0,4164.102462,4153.846052,4201.538359,4220.512717,4230.256307,4235.897332,4229.230666,4231.281948,4234.358871,4232.820409,4215.384512,4186.153744,4190.769128,4169.743488
70,0,4157.435796,4149.230668,4201.025538,4215.384512,4233.84605,4234.871691,4229.743486,4234.358871,4235.897332,4236.922973,4216.922974,4189.230667,4194.871692,4169.743488
71,0,4157.435796,4150.256309,4196.410154,4198.974256,4230.769127,4231.281948,4220.512717,4228.717845,4233.33323,4231.281948,4213.846051,4188.205026,4188.717846,4168.205026
72,0,4168.205026,4166.153744,4199.487077,4205.128102,4231.281948,4231.794768,4221.538358,4227.692204,4233.33323,4231.281948,4214.871692,4185.640923,4189.743487,4171.79477
73,0,4166.153744,4165.640924,4201.538359,4216.922974,4226.666563,4226.666563,4221.538358,4229.230666,4230.256307,4232.820409,4208.205025,4184.102462,4189.230667,4171.281949
74,0,4161.025539,4156.922975,4198.974256,4213.33323,4223.07682,4222.051179,4215.897333,4227.692204,4229.230666,4233.84605,4207.179384,4186.153744,4189.230667,4171.79477
75,0,4167.179385,4161.53836,4206.153743,4212.307589,4230.769127,4228.205025,4221.538358,4232.307589,4235.384512,4237.435794,4222.563999,4195.384513,4198.974256,4181.025539
76,0,4179.487077,4175.384513,4218.461435,4221.025538,4235.384512,4235.384512,4231.281948,4235.897332,4237.435794,4245.640922,4232.820409,4203.589641,4206.153743,4189.743487
77,0,4184.102462,4185.640923,4214.358871,4220.512717,4232.307589,4233.84605,4232.307589,4234.358871,4234.358871,4246.666563,4227.692204,4202.051179,4202.564,4192.30759
78,0,4178.461436,4188.717846,4201.025538,4215.897333,4230.256307,4230.769127,4226.153743,4232.307589,4232.820409,4237.948614,4217.948615,4195.384513,4196.922974,4188.717846
79,0,4167.692206,4182.564,4196.922974,4214.358871,4222.051179,4228.205025,4216.922974,4229.230666,4230.769127,4229.230666,4206.666564,4186.666564,4188.205026,4175.384513
80,0,4165.128103,4177.435795,4196.922974,4209.230666,4214.358871,4226.153743,4215.384512,4228.717845,4228.717845,4228.717845,4202.051179,4183.076821,4183.589641,4169.230667
81,0,4172.30759,4185.640923,4198.974256,4210.769128,4225.128102,4231.794768,4226.153743,4234.871691,4233.33323,4232.820409,4212.307589,4190.256308,4188.205026,4181.025539
82,0,4171.281949,4188.205026,4197.948615,4213.33323,4230.769127,4230.256307,4226.153743,4234.358871,4233.84605,4231.794768,4212.82041,4191.794769,4188.717846,4183.076821
83,0,4168.717847,4186.666564,4194.871692,4213.846051,4226.153743,4223.07682,4216.922974,4229.230666,4231.794768,4231.281948,4207.179384,4184.615282,4186.153744,4173.333231
84,0,4174.358872,4188.205026,4197.435795,4216.410153,4226.153743,4226.666563,4215.897333,4230.769127,4231.794768,4233.84605,4212.307589,4184.615282,4186.153744,4177.435795
85,0,4181.025539,4187.179385,4201.538359,4216.922974,4220.512717,4232.307589,4216.410153,4232.307589,4234.358871,4233.33323,4217.435794,4193.333231,4188.205026,4185.128103
86,0,4184.615282,4193.846051,4205.128102,4217.948615,4223.07682,4233.84605,4223.58964,4233.84605,4239.999896,4239.487076,4217.435794,4201.025538,4197.948615,4184.615282
87,0,4183.589641,4206.666564,4206.666564,4217.435794,4233.84605,4235.384512,4229.743486,4239.487076,4239.999896,4243.58964,4221.025538,4202.051179,4203.589641,4188.205026
88,0,4171.79477,4192.82041,4202.051179,4206.666564,4224.102461,4228.205025,4219.999897,4234.358871,4231.281948,4233.84605,4217.948615,4195.384513,4188.717846,4184.102462
89,0,4163.076821,4178.461436,4198.461436,4201.025538,4215.897333,4223.58964,4214.358871,4229.743486,4233.33323,4229.743486,4210.769128,4190.769128,4181.538359,4173.846052
90,0,4179.999898,4204.102461,4208.717846,4217.435794,4234.871691,4235.384512,4228.205025,4242.051178,4247.692204,4246.666563,4222.563999,4199.999897,4199.487077,4186.153744
91,0,4193.846051,4230.769127,4213.846051,4225.640922,4243.58964,4241.025537,4235.384512,4251.281947,4254.871691,4253.84605,4230.769127,4202.051179,4210.256307,4197.435795
92,0,4178.461436,4214.871692,4205.128102,4216.922974,4229.230666,4233.84605,4227.692204,4244.615281,4244.615281,4241.025537,4219.999897,4190.769128,4199.487077,4185.640923
93,0,4166.153744,4196.410154,4199.487077,4214.871692,4224.102461,4231.281948,4220.512717,4236.922973,4234.871691,4232.820409,4212.82041,4184.102462,4193.846051,4177.435795
94,0,4179.999898,4211.281948,4203.07682,4218.974256,4232.307589,4236.410153,4225.640922,4233.33323,4238.974255,4235.384512,4218.461435,4189.743487,4200.512718,4186.153744
95,0,4189.743487,4222.563999,4206.153743,4220.512717,4235.384512,4236.410153,4233.84605,4233.33323,4244.10246,4236.922973,4223.58964,4192.30759,4203.07682,4190.256308
96,0,4174.358872,4209.230666,4195.897333,4213.33323,4222.051179,4222.563999,4222.563999,4230.769127,4235.384512,4232.307589,4212.82041,4181.538359,4191.794769,4178.461436
97,0,4163.076821,4202.564,4186.153744,4204.615282,4210.769128,4211.281948,4210.769128,4225.640922,4224.102461,4226.153743,4202.564,4172.820411,4181.025539,4170.769129
98,0,4177.948616,4216.922974,4195.897333,4211.794769,4225.128102,4223.07682,4222.563999,4228.717845,4232.307589,4231.794768,4210.769128,4182.05118,4190.769128,4180.512718
99,0,4191.281949,4224.102461,4208.717846,4222.563999,4232.307589,4234.871691,4231.794768,4234.871691,4242.563999,4242.563999,4221.025538,4191.281949,4201.538359,4190.769128
100,0,4186.153744,4215.384512,4205.640923,4219.487076,4219.999897,4230.256307,4228.205025,4235.384512,4238.974255,4241.025537,4217.435794,4188.717846,4197.948615,4186.666564
101,0,4181.538359,4213.33323,4198.974256,4211.281948,4221.025538,4228.205025,4225.640922,4232.307589,4232.307589,4231.794768,4213.846051,4185.640923,4195.897333,4182.564
102,0,4183.076821,4216.922974,4197.948615,4208.717846,4228.205025,4229.230666,4219.999897,4229.743486,4230.256307,4231.794768,4217.948615,4186.153744,4197.435795,4182.564
103,0,4184.615282,4217.948615,4206.153743,4213.33323,4228.205025,4229.743486,4224.102461,4238.461435,4239.487076,4234.871691,4219.999897,4193.333231,4197.435795,4185.128103
104,0,4184.102462,4216.410153,4214.358871,4217.948615,4230.769127,4233.84605,4234.871691,4245.640922,4242.563999,4232.820409,4218.461435,4196.410154,4198.461436,4186.666564
105,0,4184.102462,4214.358871,4206.666564,4217.948615,4235.384512,4234.358871,4231.281948,4237.948614,4237.435794,4232.820409,4215.384512,4187.692205,4199.999897,4184.102462
106,0,4184.102462,4215.897333,4198.974256,4214.358871,4228.717845,4230.769127,4217.948615,4229.230666,4235.897332,4232.307589,4213.846051,4187.692205,4197.948615,4182.564
107,0,4185.128103,4215.897333,4208.205025,4212.82041,4217.948615,4228.717845,4214.358871,4231.794768,4240.512717,4230.769127,4215.897333,4198.461436,4197.435795,4183.076821
108,0,4195.897333,4216.922974,4220.512717,4221.025538,4223.07682,4232.307589,4223.58964,4241.538358,4246.666563,4242.563999,4228.205025,4204.615282,4208.717846,4193.333231
109,0,4204.102461,4217.948615,4219.487076,4225.640922,4233.84605,4234.358871,4229.230666,4244.10246,4244.615281,4248.205024,4233.84605,4203.589641,4214.871692,4200.512718
110,0,4194.358872,4218.461435,4212.82041,4217.435794,4224.615281,4228.205025,4221.538358,4232.820409,4236.410153,4235.897332,4219.487076,4198.974256,4202.564,4191.281949
111,0,4185.640923,4213.33323,4212.307589,4214.358871,4212.307589,4226.153743,4213.846051,4225.640922,4230.256307,4227.179384,4210.769128,4197.435795,4194.871692,4183.076821
112,0,4186.153744,4205.640923,4212.82041,4218.461435,4224.102461,4229.743486,4216.922974,4229.743486,4228.717845,4230.769127,4215.897333,4196.410154,4199.487077,4187.179385
113,0,4191.794769,4209.743487,4212.307589,4216.922974,4235.897332,4234.358871,4226.153743,4232.820409,4232.307589,4231.794768,4217.948615,4193.846051,4201.538359,4188.717846
114,0,4199.999897,4217.948615,4215.384512,4216.410153,4233.33323,4244.10246,4234.358871,4237.435794,4241.025537,4233.33323,4216.922974,4195.384513,4202.051179,4188.205026
115,0,4201.025538,4218.461435,4217.435794,4220.512717,4230.769127,4247.692204,4232.820409,4245.128101,4246.153742,4238.974255,4218.974256,4197.948615,4203.07682,4192.30759
116,0,4198.974256,4214.358871,4216.922974,4227.692204,4233.33323,4244.10246,4230.256307,4243.076819,4241.538358,4239.487076,4224.102461,4198.461436,4204.615282,4196.922974
117,0,4203.07682,4208.205025,4215.384512,4229.743486,4233.84605,4242.563999,4230.256307,4236.922973,4238.461435,4236.922973,4228.205025,4199.487077,4211.281948,4197.435795
118,0,4194.358872,4199.487077,4207.692205,4217.435794,4225.640922,4239.487076,4222.051179,4230.256307,4231.794768,4230.769127,4217.435794,4191.794769,4205.640923,4187.692205
119,0,4186.666564,4198.974256,4205.128102,4212.82041,4223.58964,4237.948614,4220.512717,4228.205025,4229.230666,4229.230666,4208.717846,4186.666564,4197.948615,4185.640923
120,0,4199.487077,4202.564,4213.846051,4221.538358,4231.794768,4243.58964,4225.640922,4231.794768,4237.948614,4234.358871,4220.512717,4197.435795,4209.743487,4197.948615
121,0,4206.153743,4202.564,4217.435794,4222.563999,4233.84605,4243.58964,4223.07682,4233.33323,4239.999896,4236.410153,4228.205025,4204.615282,4215.897333,4202.051179
122,0,4201.538359,4199.999897,4217.948615,4216.922974,4226.153743,4236.410153,4222.563999,4233.84605,4237.435794,4237.948614,4223.58964,4203.589641,4206.666564,4199.487077
123,0,4198.974256,4190.256308,4214.358871,4214.871692,4218.974256,4233.33323,4221.538358,4226.153743,4232.820409,4232.307589,4216.922974,4195.897333,4198.974256,4193.846051
124,0,4196.922974,4187.179385,4204.102461,4212.307589,4213.33323,4230.769127,4212.307589,4215.384512,4225.128102,4223.07682,4211.794769,4189.230667,4199.487077,4190.256308
125,0,4202.051179,4199.999897,4207.692205,4214.358871,4215.897333,4231.281948,4212.307589,4222.051179,4232.307589,4232.307589,4220.512717,4197.435795,4209.743487,4198.974256
126,0,4204.102461,4201.025538,4214.871692,4217.948615,4228.717845,4235.897332,4219.999897,4227.179384,4237.435794,4238.461435,4223.58964,4202.051179,4211.281948,4200.512718
127,0,4188.717846,4184.102462,4202.564,4212.82041,4229.230666,4234.358871,4215.384512,4215.384512,4221.025538,4218.974256,4204.615282,4184.615282,4197.948615,4182.05118
128,0,4183.589641,4178.974257,4195.897333,4210.256307,4218.974256,4230.256307,4212.307589,4212.307589,4217.435794,4212.82041,4199.999897,4177.948616,4193.846051,4177.948616
0,0,4197.435795,4191.794769,4205.128102,4213.33323,4214.871692,4229.743486,4215.897333,4222.051179,4232.820409,4230.256307,4215.384512,4192.82041,4202.051179,4192.82041
1,0,4204.615282,4196.922974,4207.179384,4214.358871,4216.922974,4228.205025,4216.922974,4225.128102,4235.897332,4235.384512,4218.974256,4199.487077,4205.640923,4194.358872
2,0,4206.666564,4197.435795,4205.640923,4216.410153,4215.897333,4222.051179,4214.358871,4221.538358,4228.717845,4229.230666,4215.384512,4194.358872,4211.281948,4191.281949
3,0,4217.948615,4208.205025,4210.769128,4219.999897,4215.384512,4217.948615,4210.256307,4218.461435,4223.07682,4227.179384,4221.025538,4193.846051,4218.461435,4205.640923
4,0,4229.743486,4216.410153,4214.358871,4222.563999,4216.410153,4221.025538,4209.743487,4214.358871,4216.410153,4221.025538,4218.461435,4196.410154,4215.384512,4218.974256
5,0,4248.717845,4223.58964,4217.948615,4227.692204,4214.358871,4225.640922,4210.256307,4213.846051,4215.897333,4215.897333,4217.435794,4198.461436,4221.538358,4231.794768
6,0,4291.281946,4251.794768,4229.230666,4240.512717,4215.384512,4227.692204,4211.281948,4215.897333,4223.07682,4221.538358,4233.84605,4208.205025,4250.256306,4271.794767
7,0,4346.66656,4289.743485,4248.717845,4259.487075,4218.974256,4229.230666,4216.410153,4218.974256,4227.692204,4231.794768,4254.871691,4229.230666,4284.61528,4333.333227
8,0,4389.230662,4310.769125,4263.589639,4274.35887,4218.461435,4227.179384,4214.358871,4216.922974,4224.102461,4231.281948,4267.179383,4243.58964,4309.230664,4375.384508
9,0,4410.769123,4318.461433,4269.743485,4277.435793,4216.410153,4219.487076,4206.153743,4212.307589,4215.897333,4219.487076,4273.846049,4248.717845,4323.589638,4396.410149
10,0,4422.051174,4328.205022,4276.922972,4277.435793,4217.948615,4216.922974,4209.743487,4215.897333,4216.922974,4222.051179,4280.512716,4257.948614,4331.794766,4415.384507
11,0,4424.102456,4331.281945,4282.563998,4281.025536,4218.974256,4221.025538,4217.435794,4218.461435,4219.487076,4228.717845,4282.051177,4264.61528,4330.256304,4422.563994
12,0,4418.46143,4317.435792,4281.538357,4276.410152,4211.794769,4218.974256,4214.358871,4214.871692,4215.897333,4225.640922,4280.512716,4265.128101,4329.743484,4416.922969
13,0,4407.6922,4303.076818,4278.974254,4265.128101,4206.666564,4215.897333,4212.307589,4216.410153,4217.948615,4226.153743,4279.999895,4260.512716,4328.205022,4402.563995
14,0,4391.281944,4304.615279,4277.435793,4264.61528,4214.358871,4224.615281,4216.410153,4221.538358,4229.743486,4235.384512,4281.538357,4255.897332,4317.948612,4382.563995
15,0,4368.205021,4298.461433,4268.205024,4265.640921,4221.025538,4232.307589,4217.435794,4220.512717,4232.307589,4236.922973,4277.948613,4249.230665,4300.512715,4361.025534
16,0,4340.512714,4272.307588,4251.281947,4250.256306,4216.922974,4226.153743,4212.307589,4213.33323,4218.974256,4225.640922,4260.512716,4235.384512,4278.461434,4332.307586
17,0,4322.051176,4254.871691,4243.076819,4243.076819,4216.922974,4225.640922,4211.794769,4214.358871,4215.384512,4224.102461,4245.640922,4227.692204,4263.589639,4308.717843
18,0,4311.794766,4252.307588,4246.666563,4251.794768,4221.025538,4234.358871,4217.435794,4217.948615,4227.692204,4228.205025,4244.10246,4227.692204,4257.435793,4297.435792
19,0,4295.897331,4244.615281,4242.563999,4246.666563,4218.974256,4234.358871,4218.974256,4218.461435,4231.794768,4223.07682,4241.025537,4229.230666,4250.256306,4286.153741
20,0,4279.999895,4231.794768,4232.820409,4231.281948,4217.435794,4231.281948,4216.410153,4223.07682,4228.205025,4219.999897,4232.820409,4227.692204,4239.999896,4272.307588
21,0,4267.179383,4220.512717,4230.769127,4226.666563,4215.384512,4233.84605,4217.948615,4223.58964,4225.128102,4226.153743,4230.769127,4222.051179,4232.307589,4264.61528
22,0,4257.948614,4214.871692,4229.230666,4227.692204,4209.230666,4230.769127,4217.435794,4216.410153,4218.974256,4226.153743,4227.179384,4213.33323,4229.230666,4256.410152
23,0,4255.897332,4215.384512,4230.769127,4228.717845,4211.281948,4228.205025,4214.358871,4214.871692,4220.512717,4224.615281,4225.640922,4213.846051,4230.769127,4249.743486
24,0,4256.410152,4217.948615,4234.871691,4234.358871,4219.487076,4232.307589,4214.871692,4219.999897,4228.717845,4233.33323,4229.230666,4218.974256,4230.769127,4249.230665
25,0,4245.128101,4214.358871,4226.666563,4233.84605,4221.025538,4232.820409,4215.384512,4217.435794,4225.128102,4229.743486,4225.128102,4207.692205,4221.025538,4243.076819
26,0,4225.640922,4207.179384,4216.410153,4222.563999,4215.384512,4230.769127,4215.384512,4214.358871,4218.974256,4219.487076,4217.435794,4197.948615,4214.358871,4228.717845
27,0,4217.435794,4202.051179,4211.794769,4215.897333,4213.33323,4230.769127,4216.410153,4216.922974,4221.025538,4219.999897,4213.846051,4200.512718,4211.281948,4217.948615
28,0,4214.358871,4199.487077,4204.615282,4217.435794,4216.922974,4233.33323,4216.922974,4216.410153,4220.512717,4218.461435,4206.153743,4193.846051,4204.615282,4212.307589
29,0,4206.153743,4198.461436,4198.974256,4217.435794,4217.435794,4232.820409,4217.435794,4215.384512,4217.948615,4213.846051,4197.948615,4183.589641,4199.487077,4205.128102
30,0,4198.461436,4199.999897,4199.999897,4213.846051,4211.794769,4230.256307,4216.410153,4215.384512,4219.999897,4214.358871,4201.025538,4190.769128,4199.487077,4201.025538
31,0,4202.051179,4202.564,4200.512718,4209.743487,4212.82041,4231.794768,4216.922974,4216.922974,4221.538358,4215.897333,4203.07682,4201.025538,4201.025538,4202.564
32,0,4198.974256,4201.538359,4202.051179,4210.256307,4215.897333,4234.871691,4218.974256,4215.897333,4216.922974,4215.897333,4199.487077,4195.384513,4199.487077,4201.538359
33,0,4187.692205,4197.435795,4201.538359,4212.307589,4211.281948,4232.307589,4217.435794,4215.897333,4215.897333,4214.871692,4198.974256,4187.692205,4196.922974,4196.922974
34,0,4186.153744,4203.589641,4197.948615,4212.307589,4212.307589,4228.717845,4215.384512,4223.07682,4225.128102,4214.871692,4201.538359,4191.281949,4198.461436,4196.410154
35,0,4191.794769,4216.922974,4207.179384,4211.794769,4221.538358,4234.358871,4222.051179,4232.307589,4233.84605,4223.07682,4205.640923,4198.974256,4202.564,4201.538359
36,0,4197.435795,4220.512717,4216.922974,4215.897333,4221.025538,4241.538358,4227.179384,4232.820409,4233.33323,4232.307589,4211.794769,4204.102461,4205.128102,4205.640923
37,0,4197.948615,4216.922974,4208.717846,4214.871692,4214.358871,4236.922973,4221.025538,4222.563999,4229.230666,4228.205025,4212.82041,4197.948615,4204.102461,4199.999897
38,0,4190.256308,4221.025538,4197.948615,4209.743487,4216.410153,4232.307589,4215.384512,4214.358871,4227.179384,4219.999897,4204.102461,4189.230667,4202.051179,4190.769128
39,0,4188.717846,4228.205025,4201.025538,4213.33323,4219.487076,4236.922973,4218.974256,4223.07682,4227.692204,4224.615281,4202.051179,4193.846051,4201.538359,4192.82041
40,0,4192.82041,4231.281948,4209.230666,4217.948615,4218.461435,4238.461435,4221.538358,4230.769127,4230.256307,4228.205025,4210.256307,4199.999897,4201.538359,4199.487077
41,0,4189.743487,4232.820409,4207.692205,4215.384512,4216.922974,4231.281948,4218.974256,4223.58964,4229.743486,4222.563999,4212.82041,4198.461436,4202.051179,4198.461436
42,0,4186.153744,4239.487076,4202.051179,4212.307589,4217.435794,4228.717845,4219.487076,4220.512717,4229.743486,4219.487076,4210.769128,4197.435795,4203.589641,4196.922974
43,0,4190.256308,4245.640922,4206.153743,4212.307589,4217.435794,4231.281948,4218.461435,4227.179384,4232.307589,4219.487076,4211.794769,4200.512718,4203.07682,4199.487077
44,0,4190.769128,4249.230665,4212.82041,4214.871692,4216.410153,4231.794768,4218.461435,4231.281948,4231.794768,4225.640922,4216.410153,4202.564,4202.051179,4199.487077
45,0,4188.717846,4250.256306,4206.153743,4216.410153,4215.897333,4232.820409,4224.102461,4231.794768,4230.769127,4229.230666,4214.358871,4201.538359,4202.051179,4191.794769
46,0,4184.615282,4248.205024,4198.461436,4210.256307,4213.33323,4230.769127,4222.563999,4227.692204,4230.256307,4221.538358,4203.589641,4194.358872,4198.974256,4180.512718
47,0,4183.589641,4251.794768,4202.564,4208.205025,4213.846051,4230.769127,4217.435794,4226.666563,4232.820409,4221.025538,4204.615282,4193.333231,4199.999897,4186.153744
48,0,4189.230667,4264.10246,4205.640923,4214.871692,4217.435794,4231.281948,4218.461435,4227.692204,4231.281948,4228.717845,4214.358871,4201.538359,4206.153743,4198.974256
49,0,4189.230667,4268.205024,4202.564,4215.897333,4218.461435,4228.717845,4219.487076,4219.487076,4224.615281,4221.025538,4210.256307,4201.025538,4203.589641,4194.871692
50,0,4185.128103,4263.589639,4203.589641,4213.33323,4217.435794,4229.230666,4216.410153,4217.435794,4225.640922,4212.307589,4204.615282,4196.922974,4198.974256,4189.743487
51,0,4185.128103,4268.717844,4207.179384,4213.846051,4217.435794,4231.281948,4217.948615,4229.743486,4232.820409,4225.128102,4211.794769,4199.487077,4201.538359,4196.410154
52,0,4185.128103,4277.948613,4208.717846,4215.384512,4216.922974,4232.307589,4219.999897,4234.358871,4234.871691,4231.794768,4215.897333,4202.051179,4204.615282,4201.025538
53,0,4186.153744,4280.512716,4213.846051,4215.897333,4216.410153,4229.230666,4217.435794,4226.153743,4232.307589,4221.538358,4215.897333,4201.538359,4203.589641,4201.025538
54,0,4189.743487,4280.512716,4214.871692,4217.435794,4216.410153,4222.563999,4215.384512,4218.461435,4225.128102,4216.922974,4214.358871,4203.589641,4203.07682,4199.999897
55,0,4185.128103,4278.974254,4205.128102,4214.871692,4213.846051,4215.384512,4212.82041,4211.281948,4212.82041,4213.33323,4203.07682,4199.999897,4198.974256,4191.281949
56,0,4180.512718,4283.589639,4203.589641,4212.307589,4211.794769,4215.384512,4211.794769,4210.769128,4211.794769,4212.307589,4201.025538,4196.922974,4198.974256,4188.717846
57,0,4194.871692,4296.410151,4217.435794,4216.922974,4216.922974,4224.615281,4216.922974,4217.435794,4227.692204,4222.051179,4215.897333,4209.230666,4211.281948,4204.102461
58,0,4203.07682,4304.102459,4219.999897,4219.999897,4222.051179,4229.230666,4218.974256,4217.948615,4228.717845,4225.640922,4220.512717,4213.846051,4215.897333,4208.717846
59,0,4190.256308,4299.487074,4210.769128,4216.922974,4215.384512,4226.153743,4215.897333,4213.846051,4214.871692,4217.948615,4211.281948,4202.051179,4204.615282,4197.435795
60,0,4191.794769,4306.666561,4221.025538,4224.102461,4218.974256,4231.794768,4223.58964,4223.07682,4222.051179,4231.794768,4217.948615,4209.230666,4211.794769,4204.615282
61,0,4208.205025,4324.102458,4234.871691,4234.871691,4235.897332,4246.153742,4234.358871,4240.512717,4243.58964,4253.333229,4235.897332,4229.230666,4230.256307,4221.538358
62,0,4208.205025,4327.692202,4231.281948,4233.84605,4238.974255,4250.769127,4232.820409,4241.538358,4242.051178,4245.128101,4237.435794,4225.640922,4225.640922,4219.999897
63,0,4202.051179,4322.563997,4229.743486,4231.794768,4233.84605,4245.640922,4232.820409,4232.820409,4230.769127,4232.307589,4225.640922,4215.384512,4214.871692,4215.384512
64,0,4202.564,4318.461433,4228.717845,4231.281948,4228.205025,4233.84605,4229.230666,4228.717845,4228.717845,4228.205025,4215.897333,4216.410153,4214.358871,4212.82041
65,0,4198.974256,4314.358869,4220.512717,4228.205025,4215.897333,4223.07682,4217.435794,4228.205025,4226.153743,4221.025538,4213.846051,4215.384512,4210.769128,4204.615282
66,0,4198.974256,4317.948612,4223.07682,4229.743486,4220.512717,4228.717845,4221.538358,4232.307589,4229.743486,4225.640922,4221.538358,4215.384512,4213.33323,4207.179384
67,0,4207.179384,4326.15374,4232.307589,4233.84605,4232.820409,4236.410153,4228.205025,4234.871691,4234.871691,4236.922973,4231.794768,4219.999897,4225.128102,4216.922974
68,0,4209.743487,4327.179381,4230.769127,4232.307589,4223.58964,4231.794768,4221.538358,4230.769127,4231.794768,4234.871691,4230.769127,4218.461435,4228.717845,4213.846051
69,0,4207.179384,4330.256304,4227.692204,4230.769127,4221.025538,4228.205025,4218.974256,4228.717845,4229.230666,4228.717845,4227.179384,4214.358871,4224.615281,4209.743487
70,0,4211.794769,4337.948612,4229.230666,4232.820409,4231.794768,4231.281948,4222.563999,4231.794768,4230.256307,4230.769127,4227.692204,4214.871692,4225.640922,4214.871692
71,0,4232.307589,4347.692201,4234.358871,4238.461435,4232.307589,4235.384512,4224.615281,4233.33323,4232.307589,4231.794768,4231.281948,4223.58964,4235.897332,4229.743486
72,0,4263.076819,4368.205021,4244.615281,4248.205024,4226.153743,4233.84605,4224.615281,4230.769127,4229.743486,4228.205025,4234.871691,4230.769127,4250.769127,4256.410152
73,0,4295.38451,4391.794764,4247.692204,4253.333229,4219.999897,4221.025538,4217.435794,4219.999897,4217.948615,4219.487076,4232.820409,4226.666563,4257.435793,4279.487075
74,0,4343.076817,4417.94861,4255.897332,4263.589639,4217.948615,4213.846051,4211.281948,4212.82041,4210.256307,4211.794769,4236.922973,4232.820409,4270.256306,4316.922971
75,0,4408.717841,4450.769122,4286.666562,4286.153741,4224.615281,4221.025538,4217.948615,4217.435794,4215.897333,4216.410153,4263.076819,4261.538357,4309.743484,4387.6922
76,0,4455.897327,4475.897326,4308.205023,4297.435792,4223.58964,4219.999897,4216.922974,4218.461435,4219.487076,4223.07682,4289.230664,4282.563998,4353.333227,4444.615276
77,0,4467.179378,4482.563993,4302.563997,4295.38451,4214.871692,4212.82041,4206.666564,4212.82041,4210.769128,4219.999897,4291.794767,4284.61528,4366.153739,4459.999891
78,0,4462.563993,4481.025531,4296.410151,4295.38451,4214.871692,4210.769128,4203.589641,4210.256307,4200.512718,4213.846051,4282.051177,4283.589639,4357.435791,4462.563993
79,0,4457.435788,4481.538352,4297.948613,4295.38451,4216.922974,4208.205025,4208.205025,4213.33323,4205.640923,4214.358871,4282.563998,4283.076818,4356.41015,4465.128096
80,0,4455.897327,4478.974249,4299.999895,4296.922972,4219.487076,4208.205025,4217.948615,4217.435794,4215.384512,4219.487076,4294.87169,4285.640921,4362.051175,4461.025532
81,0,4447.692199,4468.717839,4296.922972,4294.358869,4221.025538,4211.281948,4212.82041,4210.769128,4207.179384,4217.948615,4292.307587,4281.538357,4354.871688,4448.205019
82,0,4418.974251,4453.333224,4284.61528,4284.61528,4217.435794,4213.846051,4203.589641,4202.051179,4197.948615,4211.281948,4274.87169,4269.743485,4336.922971,4422.563994
83,0,4377.43579,4432.820404,4267.692203,4273.333229,4216.922974,4214.358871,4206.153743,4201.025538,4200.512718,4203.07682,4258.974255,4256.410152,4314.358869,4381.025534
84,0,4347.692201,4415.384507,4259.999896,4266.666562,4221.025538,4215.897333,4208.717846,4199.487077,4198.974256,4197.948615,4249.743486,4248.205024,4291.794767,4344.102458
85,0,4328.717843,4404.615277,4259.487075,4261.538357,4219.487076,4216.922974,4211.794769,4205.640923,4202.564,4206.666564,4247.179383,4243.58964,4279.999895,4326.15374
86,0,4308.717843,4391.281944,4254.35887,4252.307588,4215.384512,4213.33323,4213.846051,4216.922974,4216.922974,4217.435794,4245.128101,4239.487076,4274.35887,4310.256305
87,0,4287.692203,4373.333226,4246.153742,4245.128101,4215.384512,4210.769128,4206.153743,4212.82041,4218.974256,4218.461435,4237.435794,4235.384512,4265.640921,4289.230664
88,0,4267.692203,4358.461432,4235.897332,4243.58964,4211.794769,4210.769128,4200.512718,4203.07682,4211.281948,4211.794769,4228.205025,4224.102461,4251.794768,4268.205024
89,0,4259.999896,4352.820406,4232.307589,4245.640922,4213.846051,4215.384512,4211.794769,4214.358871,4218.461435,4213.846051,4227.692204,4219.487076,4244.10246,4261.025537
90,0,4261.538357,4355.897329,4245.640922,4249.230665,4230.256307,4228.205025,4222.051179,4234.871691,4233.84605,4229.230666,4236.922973,4230.769127,4247.179383,4262.051178
91,0,4249.743486,4347.179381,4248.717845,4245.128101,4237.948614,4230.256307,4215.384512,4233.84605,4232.307589,4233.84605,4236.922973,4233.33323,4244.10246,4250.769127
92,0,4231.794768,4326.666561,4232.820409,4236.922973,4229.230666,4218.974256,4212.82041,4218.974256,4219.999897,4221.025538,4221.025538,4218.974256,4228.205025,4230.769127
93,0,4225.128102,4322.563997,4230.256307,4235.384512,4227.692204,4223.07682,4223.58964,4219.487076,4222.563999,4214.871692,4214.871692,4213.33323,4217.948615,4219.999897
94,0,4216.922974,4323.076817,4234.358871,4235.897332,4230.769127,4233.33323,4229.743486,4230.769127,4229.743486,4218.974256,4219.487076,4215.384512,4215.384512,4213.33323
95,0,4204.102461,4313.846048,4228.205025,4230.256307,4227.179384,4223.07682,4218.461435,4229.230666,4228.205025,4222.051179,4215.897333,4210.769128,4213.33323,4201.025538
96,0,4203.07682,4309.743484,4226.153743,4227.692204,4228.717845,4216.410153,4213.846051,4223.07682,4229.230666,4227.179384,4215.384512,4211.281948,4215.897333,4198.461436
97,0,4194.871692,4302.563997,4223.07682,4222.563999,4223.07682,4219.487076,4218.974256,4218.461435,4224.615281,4222.563999,4212.307589,4209.230666,4205.128102,4196.410154
98,0,4178.461436,4289.743485,4210.769128,4213.33323,4213.846051,4217.435794,4216.922974,4215.384512,4213.33323,4209.230666,4198.461436,4197.435795,4188.717846,4184.102462
99,0,4179.999898,4291.281946,4211.281948,4219.999897,4226.666563,4223.58964,4214.871692,4222.051179,4218.974256,4216.410153,4202.051179,4195.897333,4195.384513,4183.076821
100,0,4189.230667,4299.487074,4227.179384,4232.820409,4239.999896,4232.307589,4216.922974,4231.794768,4233.33323,4232.820409,4218.974256,4208.205025,4208.205025,4192.30759
101,0,4187.692205,4294.87169,4231.794768,4235.384512,4234.358871,4229.230666,4219.487076,4232.820409,4234.871691,4234.871691,4223.58964,4218.461435,4205.128102,4194.358872
102,0,4178.974257,4279.999895,4220.512717,4228.205025,4228.205025,4224.615281,4223.58964,4231.281948,4229.743486,4229.230666,4213.846051,4212.82041,4198.974256,4186.666564
103,0,4172.820411,4268.717844,4216.922974,4219.487076,4233.33323,4232.820409,4231.281948,4232.820409,4232.820409,4229.230666,4209.743487,4200.512718,4200.512718,4182.564
104,0,4170.256308,4263.076819,4216.922974,4217.435794,4233.33323,4242.563999,4239.999896,4234.871691,4238.461435,4233.33323,4215.384512,4199.999897,4203.07682,4182.564
105,0,4167.692206,4262.051178,4206.153743,4218.974256,4230.769127,4239.487076,4234.358871,4233.33323,4237.435794,4232.307589,4213.846051,4203.07682,4203.07682,4183.076821
106,0,4166.666565,4262.563998,4204.615282,4218.461435,4234.871691,4232.820409,4219.999897,4229.230666,4230.769127,4230.256307,4210.256307,4199.999897,4203.07682,4183.589641
107,0,4169.743488,4261.538357,4219.487076,4217.435794,4232.820409,4227.179384,4217.948615,4228.205025,4230.256307,4231.281948,4211.794769,4200.512718,4203.589641,4184.615282
108,0,4169.230667,4259.487075,4221.025538,4215.897333,4227.179384,4224.615281,4225.640922,4231.281948,4233.84605,4229.230666,4208.205025,4203.589641,4202.051179,4182.564
109,0,4166.153744,4259.999896,4211.281948,4214.358871,4230.256307,4226.153743,4227.179384,4230.769127,4230.256307,4225.128102,4202.051179,4199.487077,4198.461436,4179.999898
110,0,4168.205026,4264.10246,4213.846051,4219.487076,4237.948614,4232.820409,4228.717845,4234.871691,4232.820409,4228.717845,4212.307589,4200.512718,4201.025538,4185.640923
111,0,4171.281949,4266.153742,4221.025538,4224.615281,4235.384512,4234.871691,4233.33323,4241.538358,4242.051178,4234.871691,4222.563999,4209.743487,4205.640923,4193.846051
112,0,4171.79477,4262.051178,4220.512717,4221.025538,4231.281948,4232.307589,4233.33323,4238.974255,4239.487076,4233.33323,4217.948615,4209.230666,4204.615282,4191.281949
113,0,4166.666565,4253.84605,4216.410153,4216.410153,4233.33323,4230.256307,4232.307589,4233.33323,4232.820409,4232.307589,4213.33323,4203.589641,4202.051179,4186.153744
114,0,4158.974257,4248.717845,4215.897333,4214.871692,4227.179384,4227.692204,4230.256307,4234.358871,4235.897332,4232.820409,4211.794769,4202.564,4201.025538,4185.128103
115,0,4157.948616,4249.230665,4219.487076,4217.435794,4225.128102,4231.281948,4231.281948,4235.897332,4239.487076,4233.33323,4212.82041,4203.07682,4202.051179,4186.666564
116,0,4157.435796,4248.717845,4216.922974,4215.384512,4230.256307,4229.743486,4228.717845,4230.256307,4233.33323,4228.717845,4211.281948,4199.487077,4201.538359,4185.128103
117,0,4155.384514,4249.743486,4212.307589,4213.33323,4227.692204,4226.666563,4224.102461,4227.179384,4228.717845,4225.128102,4210.256307,4198.461436,4202.051179,4183.076821
118,0,4154.358873,4250.769127,4210.769128,4216.922974,4226.153743,4229.743486,4225.128102,4228.205025,4230.769127,4225.128102,4214.358871,4200.512718,4202.564,4183.076821
119,0,4153.333232,4247.179383,4210.256307,4214.358871,4223.58964,4226.666563,4224.615281,4225.128102,4230.769127,4218.974256,4212.82041,4199.999897,4200.512718,4183.076821
120,0,4159.487078,4253.333229,4213.33323,4208.717846,4218.461435,4219.999897,4222.051179,4223.58964,4230.769127,4221.025538,4211.281948,4202.051179,4202.051179,4192.30759
121,0,4167.692206,4264.10246,4216.922974,4212.82041,4221.538358,4223.07682,4223.07682,4227.692204,4230.256307,4228.717845,4213.846051,4202.564,4203.589641,4197.948615
122,0,4166.153744,4263.589639,4215.384512,4221.538358,4228.205025,4230.769127,4229.743486,4230.769127,4230.256307,4227.692204,4211.794769,4200.512718,4203.07682,4191.794769
123,0,4162.05118,4263.076819,4211.281948,4215.897333,4222.051179,4230.769127,4227.692204,4224.102461,4231.281948,4222.563999,4206.666564,4198.974256,4202.051179,4189.743487
124,0,4166.153744,4270.769126,4211.794769,4207.179384,4221.025538,4227.692204,4220.512717,4222.051179,4232.307589,4224.102461,4209.743487,4197.435795,4201.025538,4195.897333
125,0,4175.384513,4278.461434,4216.922974,4214.358871,4233.33323,4230.769127,4228.205025,4230.256307,4234.871691,4227.692204,4215.897333,4201.538359,4205.128102,4202.051179
126,0,4182.564,4282.051177,4218.974256,4221.025538,4233.84605,4232.820409,4233.33323,4232.820409,4235.384512,4229.743486,4217.435794,4207.179384,4212.82041,4209.743487
127,0,4180.512718,4285.640921,4216.922974,4216.922974,4228.717845,4230.769127,4222.563999,4229.743486,4234.358871,4234.358871,4216.410153,4205.640923,4214.358871,4213.846051
128,0,4180.512718,4295.897331,4221.538358,4218.974256,4231.281948,4230.256307,4221.538358,4230.256307,4234.358871,4234.871691,4219.487076,4205.640923,4212.307589,4212.307589
0,0,4190.256308,4305.1281,4227.692204,4227.179384,4230.769127,4230.769127,4230.256307,4233.84605,4236.410153,4233.33323,4226.666563,4213.33323,4214.358871,4220.512717
1,0,4199.487077,4310.256305,4225.128102,4225.640922,4228.205025,4230.769127,4222.051179,4230.769127,4234.871691,4233.33323,4229.743486,4215.897333,4215.897333,4229.743486
2,0,4210.256307,4325.128099,4221.538358,4225.128102,4229.230666,4227.179384,4213.33323,4222.051179,4229.230666,4227.692204,4225.128102,4212.82041,4216.922974,4231.794768
3,0,4245.640922,4352.820406,4232.307589,4237.435794,4226.153743,4222.051179,4221.025538,4219.487076,4229.743486,4226.153743,4229.230666,4219.487076,4230.256307,4254.871691
4,0,4302.051177,4384.102457,4253.84605,4254.35887,4218.974256,4219.999897,4222.563999,4222.051179,4230.256307,4225.640922,4240.512717,4233.33323,4252.820409,4302.563997
5,0,4361.025534,4415.897328,4272.307588,4268.205024,4215.897333,4212.82041,4212.307589,4217.435794,4220.512717,4216.410153,4253.84605,4249.743486,4276.410152,4358.461432
6,0,4413.846046,4449.743481,4288.205023,4281.538357,4217.948615,4206.153743,4212.307589,4212.307589,4214.871692,4217.435794,4272.820408,4270.256306,4307.179382,4415.897328
7,0,4442.563994,4467.179378,4297.948613,4286.153741,4218.974256,4208.717846,4214.871692,4212.307589,4215.384512,4225.640922,4286.666562,4282.563998,4334.871689,4454.871686
8,0,4447.179378,4468.205019,4299.487074,4285.1281,4214.871692,4207.179384,4207.179384,4207.179384,4210.769128,4220.512717,4287.179382,4282.563998,4339.487073,4464.615275
9,0,4445.640917,4471.794762,4297.435792,4289.743485,4215.897333,4202.051179,4203.589641,4206.666564,4209.230666,4215.897333,4288.205023,4280.512716,4336.41015,4464.615275
10,0,4443.589635,4484.102454,4299.487074,4295.38451,4227.179384,4211.794769,4215.384512,4218.461435,4224.615281,4232.307589,4301.025536,4285.640921,4344.615278,4467.179378
11,0,4421.538353,4478.974249,4295.38451,4285.1281,4227.179384,4221.025538,4219.487076,4221.025538,4229.230666,4240.512717,4299.999895,4280.512716,4342.563996,4449.743481
12,0,4381.538354,4449.23066,4278.461434,4265.640921,4215.897333,4212.82041,4211.281948,4212.82041,4216.922974,4224.102461,4274.35887,4259.999896,4317.948612,4408.717841
13,0,4356.41015,4433.846045,4265.128101,4261.538357,4222.051179,4214.358871,4215.384512,4212.307589,4212.307589,4217.435794,4258.461434,4247.179383,4297.435792,4378.974252
14,0,4338.974253,4432.307584,4263.076819,4264.61528,4234.358871,4223.58964,4222.051179,4218.461435,4217.948615,4228.205025,4262.563998,4246.666563,4287.692203,4362.563996
15,0,4316.410151,4418.974251,4265.128101,4254.871691,4233.33323,4220.512717,4217.948615,4218.461435,4219.487076,4232.820409,4264.10246,4247.179383,4276.410152,4337.948612
16,0,4296.922972,4400.512713,4259.487075,4245.640922,4225.128102,4213.846051,4212.82041,4216.410153,4216.410153,4228.717845,4255.897332,4242.563999,4266.666562,4314.871689
17,0,4283.589639,4391.794764,4251.281947,4244.10246,4219.999897,4214.871692,4212.82041,4217.435794,4219.999897,4234.358871,4253.84605,4238.461435,4263.076819,4308.717843
18,0,4262.563998,4381.025534,4244.615281,4237.948614,4223.07682,4218.461435,4215.897333,4219.487076,4223.07682,4234.358871,4248.717845,4233.33323,4249.230665,4291.281946
19,0,4239.487076,4363.589637,4236.410153,4226.666563,4229.230666,4218.974256,4216.922974,4215.897333,4217.948615,4217.435794,4232.820409,4221.538358,4230.769127,4261.538357
20,0,4229.743486,4354.358868,4231.281948,4225.640922,4231.281948,4225.128102,4217.948615,4215.384512,4216.922974,4217.435794,4224.615281,4215.897333,4225.640922,4248.205024
21,0,4229.230666,4358.974252,4232.820409,4229.743486,4231.281948,4229.743486,4218.974256,4225.128102,4228.205025,4233.33323,4232.307589,4223.58964,4230.769127,4250.769127
22,0,4231.794768,4367.17938,4235.384512,4226.666563,4228.717845,4224.102461,4217.435794,4229.743486,4233.33323,4237.435794,4240.512717,4231.281948,4233.84605,4247.179383
23,0,4219.487076,4361.025534,4230.769127,4218.974256,4221.025538,4216.922974,4214.871692,4220.512717,4221.538358,4227.692204,4232.307589,4221.025538,4224.102461,4231.794768
24,0,4202.051179,4348.205022,4221.538358,4213.846051,4218.461435,4217.435794,4216.410153,4210.769128,4212.82041,4218.974256,4217.435794,4204.102461,4206.666564,4215.897333
25,0,4193.333231,4342.051176,4216.410153,4213.846051,4217.435794,4215.897333,4216.922974,4208.205025,4209.743487,4210.769128,4207.692205,4198.974256,4195.897333,4203.07682
26,0,4189.743487,4342.563996,4219.487076,4214.871692,4217.435794,4216.922974,4215.897333,4211.281948,4214.871692,4213.33323,4208.205025,4202.051179,4200.512718,4202.564
27,0,4191.281949,4348.717842,4222.563999,4215.384512,4228.205025,4228.205025,4218.974256,4216.410153,4228.205025,4229.743486,4218.461435,4204.102461,4213.846051,4210.769128
28,0,4190.256308,4350.256304,4217.435794,4214.871692,4233.33323,4226.666563,4217.435794,4213.846051,4229.743486,4231.794768,4219.999897,4201.025538,4213.846051,4208.205025
29,0,4182.05118,4343.076817,4213.33323,4215.384512,4230.256307,4218.461435,4212.82041,4211.794769,4223.07682,4225.128102,4212.82041,4199.999897,4203.07682,4194.871692
30,0,4172.820411,4335.384509,4213.33323,4210.769128,4226.153743,4221.025538,4215.384512,4220.512717,4228.717845,4228.205025,4212.307589,4200.512718,4201.025538,4188.205026
31,0,4168.205026,4333.846048,4211.281948,4203.589641,4223.58964,4223.58964,4218.461435,4230.256307,4233.33323,4230.256307,4215.384512,4198.974256,4202.051179,4184.102462
32,0,4167.692206,4337.948612,4210.769128,4206.153743,4227.179384,4225.128102,4216.410153,4230.769127,4229.743486,4226.153743,4213.846051,4199.487077,4198.974256,4182.05118
33,0,4166.153744,4338.461432,4216.410153,4209.743487,4234.871691,4227.179384,4216.922974,4224.615281,4229.743486,4224.615281,4214.358871,4202.564,4199.487077,4184.615282
34,0,4157.948616,4326.666561,4213.33323,4201.025538,4226.666563,4221.025538,4214.871692,4214.871692,4222.051179,4219.487076,4211.281948,4199.999897,4193.333231,4177.948616
35,0,4149.743488,4318.974253,4201.538359,4195.897333,4215.897333,4216.410153,4211.281948,4210.769128,4214.358871,4218.461435,4208.717846,4194.871692,4186.666564,4166.666565
36,0,4152.820411,4326.15374,4200.512718,4201.538359,4227.692204,4231.281948,4223.07682,4217.435794,4224.615281,4230.769127,4212.82041,4197.948615,4192.30759,4169.230667
37,0,4154.871693,4328.205022,4204.615282,4204.102461,4238.461435,4238.461435,4230.769127,4216.410153,4226.153743,4229.743486,4208.717846,4198.974256,4192.30759,4172.30759
38,0,4151.28195,4322.051176,4202.051179,4199.487077,4230.769127,4225.128102,4218.974256,4203.07682,4213.33323,4213.846051,4198.974256,4189.230667,4182.05118,4165.128103
39,0,4149.743488,4318.461433,4205.128102,4197.435795,4218.461435,4213.33323,4210.256307,4196.922974,4208.717846,4206.666564,4197.435795,4184.102462,4181.025539,4159.999898
40,0,4156.922975,4322.563997,4215.897333,4204.102461,4219.999897,4214.358871,4213.33323,4205.128102,4212.82041,4209.743487,4203.589641,4192.30759,4191.281949,4167.179385
41,0,4170.256308,4336.41015,4224.615281,4218.974256,4232.820409,4223.07682,4218.974256,4218.461435,4224.102461,4223.07682,4216.410153,4204.615282,4202.051179,4182.05118
42,0,4173.846052,4338.974253,4219.999897,4218.461435,4231.794768,4222.051179,4220.512717,4222.051179,4231.281948,4229.743486,4221.538358,4205.640923,4205.128102,4187.179385
43,0,4161.53836,4325.128099,4204.102461,4201.538359,4217.948615,4213.846051,4216.410153,4211.794769,4222.051179,4218.461435,4207.179384,4192.82041,4196.410154,4173.846052
44,0,4153.333232,4317.948612,4197.435795,4195.897333,4210.256307,4213.846051,4212.307589,4207.179384,4214.871692,4212.307589,4198.461436,4183.076821,4186.666564,4163.076821
45,0,4154.358873,4316.410151,4203.07682,4200.512718,4213.846051,4217.435794,4215.384512,4210.256307,4219.487076,4218.974256,4202.564,4184.102462,4188.205026,4166.153744
46,0,4156.410155,4314.358869,4205.128102,4201.538359,4222.051179,4217.435794,4215.897333,4205.640923,4218.974256,4219.999897,4202.564,4190.769128,4194.358872,4168.717847
47,0,4162.564001,4318.974253,4209.230666,4206.153743,4228.205025,4216.922974,4214.871692,4202.051179,4216.410153,4216.410153,4205.640923,4196.410154,4197.948615,4166.666565
48,0,4170.256308,4320.512715,4215.897333,4212.82041,4229.743486,4219.487076,4216.922974,4211.794769,4223.07682,4220.512717,4213.846051,4200.512718,4197.948615,4168.205026
49,0,4162.564001,4309.230664,4206.153743,4207.692205,4229.230666,4217.948615,4212.82041,4214.358871,4222.563999,4219.999897,4210.769128,4197.948615,4192.82041,4167.692206
50,0,4151.79477,4306.153741,4194.871692,4200.512718,4228.717845,4214.358871,4208.717846,4207.692205,4216.922974,4215.384512,4203.07682,4193.333231,4185.128103,4164.102462
51,0,4162.564001,4310.256305,4206.153743,4209.743487,4229.230666,4216.922974,4215.384512,4212.82041,4222.563999,4221.025538,4211.281948,4199.999897,4191.794769,4168.717847
52,0,4168.717847,4305.1281,4212.307589,4215.384512,4229.230666,4221.025538,4218.974256,4213.846051,4225.640922,4224.615281,4215.384512,4201.025538,4199.487077,4172.30759
53,0,4158.461437,4295.38451,4208.205025,4204.615282,4229.743486,4219.487076,4215.897333,4202.051179,4216.922974,4214.358871,4202.051179,4190.769128,4191.794769,4168.205026
54,0,4155.384514,4286.666562,4210.256307,4196.410154,4225.640922,4215.897333,4217.948615,4198.461436,4211.794769,4211.281948,4196.922974,4187.692205,4185.640923,4164.102462
55,0,4158.461437,4279.999895,4210.769128,4199.487077,4218.974256,4214.871692,4216.922974,4201.538359,4216.922974,4218.974256,4202.564,4191.281949,4188.717846,4162.564001
56,0,4156.922975,4278.461434,4202.051179,4201.538359,4215.384512,4215.897333,4210.769128,4203.589641,4221.538358,4216.922974,4202.051179,4189.230667,4190.769128,4162.564001
57,0,4160.512719,4277.435793,4197.948615,4198.974256,4221.025538,4217.435794,4211.794769,4211.281948,4227.179384,4218.461435,4205.640923,4185.640923,4194.358872,4166.153744
58,0,4169.230667,4281.025536,4200.512718,4202.564,4231.281948,4219.999897,4218.461435,4217.948615,4232.307589,4229.230666,4215.897333,4188.717846,4203.589641,4173.333231
59,0,4160.512719,4271.794767,4195.384513,4200.512718,4226.666563,4218.461435,4218.461435,4207.692205,4223.58964,4223.58964,4208.205025,4187.179385,4199.487077,4167.179385
60,0,4144.615283,4245.640922,4191.281949,4192.30759,4213.33323,4216.922974,4216.922974,4201.025538,4214.871692,4212.307589,4195.384513,4184.102462,4183.589641,4152.307591
61,0,4147.179386,4242.051178,4197.435795,4191.794769,4212.82041,4218.461435,4217.435794,4204.615282,4217.948615,4214.871692,4198.461436,4186.153744,4181.025539,4149.230668
62,0,4156.410155,4263.589639,4204.615282,4199.999897,4221.025538,4215.897333,4213.33323,4200.512718,4219.487076,4216.410153,4202.051179,4186.666564,4189.743487,4156.922975
63,0,4148.205027,4257.435793,4199.487077,4204.102461,4217.948615,4211.794769,4210.256307,4197.435795,4216.410153,4212.307589,4198.461436,4185.128103,4190.769128,4152.820411
64,0,4133.333232,4231.794768,4186.666564,4194.871692,4214.871692,4215.384512,4212.82041,4202.051179,4217.435794,4214.358871,4195.384513,4178.461436,4184.102462,4137.435796
65,0,4132.307591,4224.615281,4185.128103,4187.692205,4225.640922,4219.487076,4214.358871,4199.999897,4216.922974,4213.846051,4189.743487,4172.30759,4179.999898,4134.358873
66,0,4134.871694,4225.128102,4190.769128,4191.794769,4225.640922,4214.871692,4211.794769,4186.666564,4205.640923,4203.07682,4181.538359,4168.717847,4171.79477,4135.897335
67,0,4132.820412,4222.563999,4193.846051,4199.487077,4215.384512,4213.846051,4213.33323,4181.025539,4198.974256,4197.435795,4178.461436,4171.281949,4167.692206,4135.897335
68,0,4139.999899,4229.230666,4193.846051,4197.435795,4218.974256,4215.384512,4214.358871,4191.281949,4206.153743,4201.538359,4186.153744,4177.948616,4178.461436,4143.076822
69,0,4154.871693,4241.538358,4204.102461,4199.999897,4229.230666,4217.435794,4217.948615,4207.179384,4223.58964,4214.358871,4205.640923,4190.769128,4194.871692,4158.461437
70,0,4164.615283,4250.256306,4217.435794,4211.794769,4230.256307,4223.07682,4227.179384,4218.974256,4235.897332,4233.33323,4221.025538,4204.615282,4204.615282,4169.743488
71,0,4159.487078,4248.717845,4210.769128,4209.743487,4227.179384,4222.051179,4225.128102,4215.897333,4232.820409,4232.820409,4215.384512,4196.410154,4203.07682,4169.230667
72,0,4153.846052,4244.615281,4199.999897,4205.640923,4230.769127,4219.999897,4215.897333,4207.692205,4227.179384,4218.974256,4208.717846,4184.615282,4197.948615,4167.179385
73,0,4158.974257,4249.230665,4207.179384,4215.897333,4234.358871,4229.230666,4216.922974,4206.666564,4229.743486,4217.948615,4211.794769,4191.281949,4199.999897,4166.666565
74,0,4159.487078,4248.205024,4211.281948,4217.948615,4230.769127,4231.794768,4221.538358,4205.640923,4223.58964,4220.512717,4207.179384,4192.82041,4198.974256,4162.564001
75,0,4151.79477,4241.538358,4196.410154,4205.128102,4227.692204,4219.487076,4220.512717,4204.615282,4214.358871,4213.846051,4196.410154,4182.564,4186.153744,4153.846052
76,0,4151.79477,4244.615281,4187.692205,4200.512718,4230.769127,4221.025538,4226.666563,4211.794769,4224.102461,4212.307589,4197.948615,4181.538359,4184.615282,4152.307591
77,0,4155.384514,4250.256306,4195.384513,4204.615282,4235.897332,4234.358871,4233.84605,4218.461435,4234.358871,4218.974256,4205.640923,4186.153744,4193.846051,4157.435796
78,0,4149.743488,4246.666563,4197.948615,4200.512718,4232.307589,4231.281948,4229.743486,4213.846051,4227.692204,4217.948615,4199.487077,4180.512718,4189.230667,4152.307591
79,0,4150.769129,4248.205024,4197.948615,4200.512718,4230.769127,4227.179384,4230.769127,4214.358871,4228.205025,4217.435794,4197.948615,4181.538359,4187.692205,4150.256309
80,0,4158.974257,4257.948614,4203.07682,4211.281948,4235.384512,4229.743486,4233.84605,4215.897333,4231.794768,4221.025538,4207.692205,4189.743487,4197.435795,4162.05118
81,0,4157.435796,4260.512716,4205.128102,4214.871692,4234.871691,4221.538358,4228.205025,4205.640923,4219.999897,4217.435794,4205.640923,4188.205026,4193.846051,4163.076821
82,0,4156.410155,4261.025537,4203.07682,4214.358871,4230.256307,4218.974256,4224.615281,4203.589641,4216.922974,4215.384512,4196.410154,4185.640923,4184.102462,4152.820411
83,0,4165.640924,4264.61528,4205.128102,4212.307589,4230.769127,4227.692204,4231.794768,4215.384512,4233.33323,4223.07682,4200.512718,4187.692205,4189.230667,4160.512719
84,0,4170.256308,4264.10246,4209.743487,4206.666564,4231.794768,4225.128102,4232.820409,4216.410153,4234.358871,4224.615281,4205.128102,4188.205026,4195.384513,4171.79477
85,0,4168.205026,4267.692203,4211.281948,4208.205025,4230.256307,4215.897333,4219.999897,4202.051179,4215.384512,4214.358871,4200.512718,4190.256308,4189.743487,4167.692206
86,0,4172.30759,4277.948613,4216.410153,4215.384512,4232.820409,4219.999897,4215.897333,4199.999897,4213.33323,4211.281948,4202.051179,4195.897333,4189.743487,4166.153744
87,0,4172.30759,4270.769126,4214.358871,4215.897333,4232.820409,4222.051179,4222.051179,4208.717846,4224.615281,4217.948615,4203.07682,4192.82041,4195.384513,4169.743488
88,0,4168.717847,4261.538357,4203.07682,4212.82041,4229.743486,4217.435794,4224.615281,4208.717846,4226.666563,4218.974256,4199.999897,4185.640923,4197.435795,4166.153744
89,0,4166.153744,4269.230665,4197.948615,4209.743487,4231.281948,4220.512717,4227.179384,4206.153743,4224.102461,4217.948615,4202.051179,4186.666564,4192.30759,4160.512719
90,0,4159.487078,4271.281947,4197.948615,4201.025538,4230.769127,4226.153743,4230.256307,4206.153743,4221.025538,4215.384512,4199.999897,4184.615282,4185.640923,4155.897334
91,0,4162.05118,4267.692203,4197.435795,4203.07682,4230.769127,4230.769127,4230.769127,4210.769128,4222.563999,4217.435794,4200.512718,4182.564,4189.743487,4159.487078
92,0,4172.30759,4275.384511,4206.666564,4214.871692,4235.384512,4231.794768,4231.794768,4216.410153,4229.743486,4223.07682,4210.256307,4192.30759,4199.487077,4168.205026
93,0,4173.333231,4282.051177,4217.948615,4217.435794,4235.384512,4226.666563,4233.33323,4217.948615,4233.84605,4222.563999,4212.82041,4199.999897,4200.512718,4169.230667
94,0,4167.179385,4272.820408,4212.82041,4211.794769,4229.743486,4223.58964,4231.794768,4216.410153,4231.794768,4216.922974,4205.128102,4198.974256,4189.230667,4166.666565
95,0,4166.153744,4264.61528,4207.179384,4203.589641,4227.179384,4225.640922,4231.281948,4218.461435,4229.743486,4215.384512,4203.589641,4197.435795,4183.589641,4167.692206
96,0,4172.30759,4269.743485,4215.384512,4205.128102,4229.743486,4228.205025,4232.307589,4219.999897,4231.281948,4221.538358,4209.230666,4201.025538,4193.846051,4169.743488
97,0,4182.05118,4279.487075,4222.051179,4222.051179,4234.871691,4229.743486,4233.84605,4218.461435,4231.794768,4230.256307,4216.410153,4208.205025,4202.564,4175.897334
98,0,4186.666564,4284.102459,4218.974256,4230.256307,4235.384512,4231.281948,4233.33323,4218.461435,4232.307589,4232.307589,4217.948615,4209.230666,4200.512718,4182.564
99,0,4185.640923,4289.743485,4220.512717,4220.512717,4233.33323,4232.307589,4234.358871,4218.461435,4231.794768,4230.769127,4215.384512,4204.615282,4198.974256,4181.538359
100,0,4188.717846,4295.897331,4225.128102,4216.922974,4236.410153,4235.384512,4241.025537,4222.051179,4235.897332,4233.84605,4218.461435,4203.07682,4206.153743,4178.974257
101,0,4183.589641,4284.102459,4219.487076,4218.461435,4234.358871,4232.820409,4239.999896,4220.512717,4231.281948,4226.666563,4213.33323,4202.051179,4201.538359,4172.820411
102,0,4173.333231,4273.333229,4213.33323,4214.358871,4227.179384,4226.153743,4231.281948,4212.307589,4219.999897,4212.82041,4201.025538,4197.948615,4187.179385,4167.179385
103,0,4176.410154,4278.974254,4216.410153,4213.846051,4229.230666,4228.717845,4230.256307,4212.82041,4221.025538,4214.358871,4204.615282,4201.025538,4188.717846,4169.230667
104,0,4182.564,4279.999895,4215.384512,4215.897333,4234.358871,4235.384512,4233.33323,4213.846051,4228.205025,4219.999897,4213.33323,4201.025538,4197.948615,4171.281949
105,0,4183.589641,4284.102459,4211.281948,4215.897333,4231.281948,4233.33323,4232.307589,4214.871692,4230.256307,4222.563999,4215.384512,4197.435795,4197.948615,4172.30759
106,0,4189.743487,4295.897331,4220.512717,4223.07682,4233.33323,4232.307589,4232.820409,4224.102461,4233.33323,4231.281948,4223.07682,4208.717846,4203.07682,4181.538359
107,0,4202.564,4298.461433,4233.33323,4231.281948,4241.025537,4234.358871,4235.897332,4226.666563,4236.410153,4237.948614,4233.84605,4218.974256,4217.435794,4190.256308
108,0,4201.025538,4291.281946,4230.769127,4228.717845,4238.461435,4232.820409,4232.820409,4217.948615,4231.281948,4231.794768,4229.230666,4208.717846,4216.410153,4189.230667
109,0,4190.256308,4294.358869,4222.051179,4222.051179,4233.84605,4232.307589,4232.307589,4218.461435,4229.230666,4228.717845,4221.025538,4203.07682,4204.615282,4183.589641
110,0,4184.615282,4292.307587,4218.461435,4217.435794,4232.820409,4232.307589,4234.358871,4219.487076,4231.281948,4228.717845,4217.948615,4205.128102,4201.538359,4173.333231
111,0,4178.974257,4278.974254,4214.871692,4214.358871,4229.743486,4227.692204,4228.717845,4211.794769,4228.717845,4226.666563,4213.846051,4195.897333,4200.512718,4166.153744
112,0,4179.999898,4282.563998,4213.846051,4216.410153,4230.256307,4229.230666,4228.205025,4214.358871,4230.769127,4227.692204,4215.384512,4191.794769,4199.487077,4168.717847
113,0,4181.025539,4291.794767,4215.384512,4218.461435,4234.358871,4230.256307,4230.256307,4217.435794,4227.692204,4226.153743,4216.410153,4195.897333,4202.051179,4170.256308
114,0,4174.358872,4282.563998,4214.871692,4215.897333,4226.153743,4223.07682,4222.563999,4205.128102,4213.846051,4214.871692,4206.153743,4190.769128,4197.948615,4165.128103
115,0,4174.871693,4275.897331,4215.384512,4212.307589,4220.512717,4221.025538,4220.512717,4202.051179,4214.358871,4209.230666,4204.102461,4189.743487,4195.897333,4165.128103
116,0,4186.153744,4288.205023,4218.974256,4215.384512,4234.871691,4233.33323,4231.794768,4219.487076,4230.769127,4222.563999,4219.487076,4201.025538,4209.230666,4174.358872
117,0,4190.256308,4296.922972,4220.512717,4221.538358,4249.743486,4241.538358,4237.435794,4231.794768,4235.384512,4235.384512,4225.640922,4204.615282,4216.410153,4178.974257
118,0,4186.666564,4290.256305,4218.461435,4219.487076,4245.640922,4237.948614,4234.358871,4227.692204,4230.256307,4230.769127,4216.410153,4199.999897,4206.153743,4174.871693
119,0,4185.640923,4289.230664,4215.897333,4216.410153,4233.33323,4233.84605,4233.84605,4219.999897,4225.640922,4218.974256,4213.33323,4199.999897,4198.974256,4170.769129
120,0,4187.692205,4294.358869,4213.33323,4223.07682,4233.33323,4232.307589,4230.256307,4213.846051,4219.487076,4214.358871,4211.281948,4196.922974,4197.435795,4171.79477
121,0,4196.922974,4294.358869,4221.538358,4233.84605,4242.563999,4233.84605,4229.743486,4221.538358,4226.153743,4221.538358,4211.794769,4199.999897,4202.564,4181.025539
122,0,4204.615282,4295.897331,4231.281948,4233.33323,4241.025537,4234.871691,4235.384512,4232.820409,4238.974255,4234.358871,4225.128102,4209.230666,4214.871692,4188.717846
123,0,4200.512718,4296.922972,4223.58964,4224.102461,4229.743486,4231.281948,4233.33323,4222.563999,4234.358871,4234.358871,4229.230666,4207.179384,4215.897333,4185.640923
124,0,4198.974256,4287.692203,4215.897333,4218.461435,4228.717845,4228.717845,4228.717845,4212.82041,4226.666563,4224.102461,4219.999897,4201.538359,4208.717846,4182.05118
125,0,4197.435795,4281.025536,4216.922974,4217.948615,4228.717845,4222.051179,4228.717845,4217.435794,4230.256307,4219.487076,4213.33323,4202.564,4208.205025,4184.102462
126,0,4195.384513,4289.230664,4219.487076,4221.538358,4226.666563,4218.461435,4230.769127,4221.538358,4234.358871,4224.102461,4215.897333,4202.051179,4210.256307,4184.102462
127,0,4198.974256,4296.922972,4224.615281,4227.692204,4234.358871,4228.205025,4234.358871,4222.051179,4236.922973,4233.33323,4225.128102,4202.564,4215.384512,4187.179385
128,0,4199.487077,4291.281946,4223.58964,4230.256307,4231.794768,4231.281948,4232.820409,4221.025538,4232.820409,4233.84605,4225.128102,4201.538359,4217.435794,4186.666564
0,0,4197.948615,4291.281946,4216.922974,4231.794768,4225.640922,4224.102461,4228.205025,4222.563999,4230.256307,4229.230666,4223.58964,4201.025538,4215.384512,4184.102462
1,0,4202.564,4297.435792,4222.051179,4235.897332,4239.999896,4229.230666,4232.307589,4232.307589,4243.58964,4239.999896,4235.897332,4212.307589,4225.128102,4194.358872
2,0,4203.07682,4295.38451,4230.256307,4233.33323,4247.179383,4237.435794,4236.922973,4236.922973,4248.205024,4248.717845,4242.563999,4218.461435,4233.33323,4201.025538
3,0,4204.102461,4292.820408,4227.179384,4228.205025,4231.794768,4232.820409,4232.307589,4227.179384,4236.410153,4235.897332,4231.794768,4210.256307,4221.538358,4193.846051
4,0,4213.846051,4297.435792,4229.230666,4232.307589,4229.743486,4230.769127,4235.897332,4226.666563,4236.922973,4230.256307,4229.743486,4211.281948,4215.384512,4196.410154
5,0,4219.999897,4301.538356,4236.410153,4236.922973,4247.179383,4238.461435,4243.58964,4234.871691,4247.692204,4239.487076,4237.948614,4218.461435,4222.051179,4203.07682
6,0,4207.692205,4292.307587,4231.281948,4231.281948,4247.692204,4236.410153,4235.897332,4231.281948,4243.58964,4233.84605,4231.794768,4213.846051,4217.435794,4189.230667
7,0,4204.615282,4288.717844,4227.692204,4232.307589,4242.051178,4237.435794,4236.410153,4227.692204,4240.512717,4233.33323,4229.743486,4212.307589,4216.922974,4185.640923
8,0,4217.948615,4293.333228,4233.84605,4242.563999,4249.230665,4246.153742,4250.256306,4232.820409,4249.230665,4247.179383,4241.538358,4219.487076,4228.717845,4202.564
9,0,4216.922974,4286.666562,4235.384512,4238.974255,4249.230665,4243.58964,4247.692204,4233.84605,4247.692204,4243.076819,4241.538358,4218.461435,4228.205025,4201.025538
10,0,4206.153743,4280.512716,4229.743486,4230.769127,4239.487076,4236.410153,4237.435794,4226.666563,4233.33323,4227.692204,4228.717845,4213.33323,4215.897333,4188.717846
11,0,4210.256307,4282.563998,4231.281948,4236.922973,4241.025537,4239.999896,4242.563999,4225.640922,4229.743486,4225.128102,4224.102461,4212.82041,4213.33323,4193.333231
12,0,4220.512717,4282.051177,4237.435794,4241.025537,4249.230665,4246.666563,4250.256306,4232.820409,4243.076819,4234.871691,4230.256307,4215.897333,4223.07682,4202.564
13,0,4215.384512,4277.435793,4233.84605,4232.307589,4247.692204,4243.58964,4247.692204,4233.33323,4250.256306,4239.999896,4231.281948,4215.897333,4224.615281,4199.999897
14,0,4210.769128,4275.384511,4229.743486,4228.205025,4246.666563,4238.461435,4241.538358,4230.769127,4244.10246,4237.948614,4230.256307,4216.410153,4223.58964,4197.948615
15,0,4213.846051,4273.846049,4233.33323,4230.769127,4243.58964,4233.84605,4234.871691,4232.307589,4245.128101,4235.384512,4234.358871,4219.999897,4231.281948,4201.538359
16,0,4213.846051,4270.769126,4232.820409,4230.256307,4232.307589,4230.256307,4230.769127,4232.307589,4245.640922,4235.897332,4235.897332,4218.974256,4235.384512,4207.692205
17,0,4215.897333,4273.846049,4230.256307,4232.307589,4237.435794,4232.820409,4232.820409,4231.281948,4238.974255,4237.435794,4235.897332,4217.435794,4233.84605,4213.846051
18,0,4213.33323,4274.87169,4231.794768,4233.84605,4246.153742,4232.820409,4235.897332,4228.717845,4233.84605,4232.820409,4230.769127,4211.794769,4227.179384,4208.205025
19,0,4205.128102,4271.794767,4228.717845,4229.743486,4236.410153,4230.769127,4234.871691,4218.974256,4233.33323,4222.051179,4217.948615,4202.564,4218.974256,4197.948615
20,0,4199.487077,4272.307588,4225.128102,4230.256307,4233.84605,4229.230666,4232.820409,4214.358871,4229.743486,4215.384512,4210.256307,4195.384513,4214.358871,4195.384513
21,0,4202.564,4275.897331,4225.640922,4233.33323,4245.128101,4230.769127,4239.487076,4225.128102,4231.281948,4224.615281,4222.563999,4201.025538,4216.922974,4197.435795
22,0,4204.615282,4270.256306,4223.58964,4230.256307,4238.974255,4232.820409,4248.205024,4236.410153,4239.487076,4237.435794,4233.33323,4208.205025,4219.487076,4198.461436
23,0,4201.025538,4265.640921,4216.922974,4227.179384,4229.743486,4232.820409,4242.563999,4230.256307,4236.410153,4229.230666,4223.07682,4206.666564,4218.974256,4199.999897
24,0,4199.999897,4272.820408,4215.897333,4227.692204,4239.487076,4231.281948,4232.307589,4216.410153,4225.128102,4214.871692,4215.897333,4203.07682,4216.922974,4203.07682
25,0,4206.153743,4275.897331,4223.07682,4232.307589,4246.153742,4232.307589,4232.820409,4215.897333,4224.615281,4219.487076,4226.153743,4204.615282,4219.487076,4209.230666
26,0,4217.435794,4272.307588,4231.794768,4241.538358,4244.615281,4234.871691,4236.410153,4227.692204,4233.84605,4233.84605,4235.384512,4211.281948,4230.256307,4216.410153
27,0,4225.128102,4279.999895,4233.84605,4244.615281,4248.205024,4232.820409,4233.84605,4233.84605,4236.410153,4235.384512,4232.307589,4214.358871,4235.384512,4218.974256
28,0,4231.281948,4296.410151,4234.358871,4244.10246,4251.281947,4233.84605,4233.33323,4231.281948,4232.307589,4233.33323,4232.820409,4216.922974,4233.33323,4219.487076
29,0,4228.205025,4293.846049,4236.922973,4244.615281,4243.58964,4233.84605,4233.33323,4226.153743,4230.769127,4234.358871,4233.33323,4215.897333,4231.281948,4218.461435
30,0,4216.922974,4278.974254,4232.820409,4239.487076,4231.281948,4224.615281,4229.230666,4217.948615,4228.205025,4224.615281,4223.07682,4206.153743,4229.743486,4215.897333
31,0,4214.871692,4278.461434,4223.58964,4233.84605,4231.281948,4224.615281,4231.794768,4216.410153,4224.102461,4215.897333,4216.922974,4200.512718,4226.153743,4213.846051
32,0,4214.871692,4281.025536,4217.435794,4231.794768,4235.384512,4226.666563,4233.84605,4218.461435,4218.974256,4213.33323,4217.435794,4201.538359,4219.999897,4206.153743
33,0,4203.589641,4275.897331,4214.871692,4229.230666,4235.384512,4219.487076,4228.205025,4213.846051,4215.897333,4208.717846,4214.358871,4202.051179,4215.897333,4202.051179
34,0,4197.435795,4272.820408,4211.794769,4225.640922,4234.358871,4216.922974,4224.615281,4211.281948,4216.922974,4210.769128,4214.871692,4199.487077,4218.974256,4205.128102
35,0,4195.897333,4267.179383,4201.538359,4219.487076,4226.666563,4217.435794,4224.102461,4213.846051,4216.922974,4214.358871,4216.922974,4196.922974,4217.948615,4200.512718
36,0,4194.358872,4262.563998,4196.922974,4214.358871,4225.128102,4216.922974,4226.666563,4213.33323,4217.435794,4215.897333,4216.410153,4197.435795,4216.922974,4199.487077
37,0,4206.666564,4275.384511,4208.205025,4226.666563,4237.435794,4225.128102,4230.256307,4214.871692,4224.102461,4223.07682,4224.102461,4202.051179,4227.692204,4215.384512
38,0,4218.974256,4285.640921,4216.410153,4237.435794,4239.487076,4227.179384,4224.615281,4217.948615,4228.717845,4226.666563,4231.794768,4202.564,4234.871691,4221.538358
39,0,4219.487076,4281.538357,4218.974256,4231.794768,4231.794768,4224.615281,4224.102461,4218.974256,4230.769127,4221.025538,4229.230666,4204.615282,4231.281948,4217.435794
40,0,4225.640922,4281.025536,4231.281948,4231.794768,4233.33323,4231.281948,4232.307589,4219.487076,4230.769127,4219.999897,4228.205025,4214.871692,4229.743486,4227.179384
41,0,4230.256307,4283.076818,4235.897332,4233.33323,4232.820409,4227.692204,4224.102461,4216.922974,4222.563999,4218.974256,4228.205025,4215.897333,4230.769127,4229.743486
42,0,4224.102461,4277.435793,4229.743486,4231.794768,4229.743486,4220.512717,4217.435794,4215.384512,4218.461435,4215.897333,4228.717845,4212.82041,4232.820409,4219.999897
43,0,4217.948615,4269.743485,4228.717845,4231.794768,4235.384512,4228.205025,4228.205025,4221.025538,4224.615281,4220.512717,4231.794768,4214.871692,4232.820409,4219.487076
44,0,4208.205025,4257.948614,4220.512717,4224.102461,4230.769127,4226.153743,4224.615281,4215.897333,4222.563999,4216.410153,4225.128102,4206.666564,4222.563999,4215.897333
45,0,4195.897333,4249.743486,4202.564,4213.33323,4225.640922,4214.871692,4215.384512,4205.128102,4212.82041,4208.205025,4212.307589,4193.846051,4212.307589,4201.025538
46,0,4197.435795,4253.84605,4206.153743,4214.358871,4230.769127,4218.461435,4224.102461,4212.82041,4217.948615,4216.410153,4213.33323,4198.974256,4216.922974,4198.461436
47,0,4201.025538,4253.333229,4216.922974,4216.410153,4224.615281,4219.487076,4224.615281,4215.897333,4218.461435,4216.410153,4215.384512,4201.025538,4215.897333,4204.615282
48,0,4196.922974,4246.153742,4206.153743,4212.307589,4214.358871,4211.794769,4213.33323,4203.07682,4206.666564,4201.025538,4203.589641,4191.281949,4202.564,4198.974256
49,0,4196.410154,4244.615281,4198.461436,4212.307589,4213.33323,4211.794769,4213.33323,4199.999897,4205.128102,4194.871692,4196.410154,4191.794769,4200.512718,4195.384513
50,0,4200.512718,4250.256306,4207.692205,4215.384512,4211.794769,4213.846051,4216.922974,4205.640923,4213.33323,4202.051179,4205.128102,4199.999897,4211.281948,4204.102461
51,0,4208.717846,4259.487075,4217.435794,4218.974256,4217.435794,4215.384512,4217.435794,4209.230666,4217.435794,4211.794769,4222.051179,4207.179384,4223.58964,4217.948615
52,0,4222.051179,4266.153742,4227.179384,4228.205025,4231.794768,4216.922974,4217.948615,4212.82041,4221.538358,4218.974256,4232.307589,4216.410153,4232.307589,4228.717845
