title:JTA                                                                             , recorded:03.07.20 14.52.28, sampling:128, subject:JTA                                                                             , labels:COUNTER INTERPOLATED AF3 F7 F3 FC5 T7 P7 O1 O2 P8 T8 FC6 F4 F8 AF4,, units:emotiv,,,,,,,,,
96,0,4213.846051,4231.281948,4222.563999,4202.051179,4243.58964,4228.205025,4226.153743,4235.384512,4228.717845,4231.281948,4237.435794,4251.794768,4218.461435,4245.128101
97,0,4204.102461,4223.58964,4216.922974,4196.922974,4247.179383,4215.384512,4217.948615,4226.153743,4229.230666,4245.640922,4232.820409,4248.717845,4213.33323,4237.948614
98,0,4194.871692,4212.82041,4211.794769,4201.025538,4243.58964,4211.794769,4212.82041,4212.82041,4224.102461,4235.384512,4229.743486,4242.563999,4211.794769,4224.615281
99,0,4200.512718,4218.461435,4218.974256,4211.281948,4245.128101,4221.538358,4219.999897,4217.948615,4223.58964,4219.999897,4232.820409,4246.153742,4216.410153,4231.794768
100,0,4210.256307,4227.692204,4227.692204,4230.769127,4244.615281,4223.07682,4223.58964,4229.743486,4225.640922,4228.717845,4235.897332,4252.307588,4219.999897,4247.692204
101,0,4202.564,4219.999897,4222.051179,4222.563999,4244.615281,4210.769128,4215.897333,4218.461435,4218.974256,4226.153743,4229.230666,4244.10246,4211.794769,4237.948614
102,0,4206.666564,4217.948615,4221.538358,4217.948615,4254.35887,4219.487076,4217.948615,4216.410153,4223.58964,4229.743486,4229.743486,4243.58964,4212.307589,4229.230666
103,0,4215.897333,4222.051179,4226.666563,4233.33323,4248.205024,4231.281948,4223.07682,4230.769127,4232.820409,4247.179383,4237.435794,4250.769127,4220.512717,4235.897332
104,0,4198.974256,4206.666564,4216.922974,4224.102461,4219.999897,4207.179384,4204.615282,4214.871692,4222.563999,4227.179384,4225.128102,4236.922973,4206.153743,4223.58964
105,0,4185.128103,4195.897333,4206.666564,4211.281948,4210.769128,4186.153744,4188.205026,4191.281949,4209.230666,4209.230666,4206.153743,4221.538358,4191.281949,4207.179384
106,0,4211.794769,4222.563999,4225.128102,4209.230666,4249.743486,4215.897333,4210.256307,4209.230666,4216.922974,4225.128102,4223.58964,4238.974255,4210.769128,4225.128102
107,0,4228.205025,4238.461435,4238.461435,4190.256308,4279.999895,4236.410153,4228.717845,4228.717845,4223.07682,4221.538358,4244.10246,4255.384511,4225.640922,4242.051178
108,0,4204.102461,4211.794769,4220.512717,4169.743488,4256.410152,4207.692205,4206.666564,4210.769128,4214.358871,4210.769128,4223.58964,4235.897332,4205.640923,4227.179384
109,0,4202.051179,4204.102461,4217.435794,4174.871693,4241.538358,4195.897333,4194.871692,4205.640923,4217.435794,4232.307589,4215.897333,4230.256307,4201.538359,4227.179384
110,0,4216.410153,4217.948615,4229.230666,4182.05118,4251.794768,4208.205025,4208.717846,4216.922974,4218.461435,4237.948614,4233.33323,4244.615281,4214.358871,4237.948614
111,0,4209.743487,4215.384512,4223.58964,4182.564,4249.743486,4212.307589,4214.358871,4215.897333,4215.384512,4222.563999,4232.820409,4243.076819,4210.769128,4232.820409
112,0,4206.153743,4215.384512,4218.461435,4188.717846,4250.256306,4219.487076,4220.512717,4221.538358,4223.58964,4232.820409,4231.281948,4242.051178,4209.743487,4234.871691
113,0,4222.563999,4229.230666,4236.410153,4211.281948,4255.897332,4237.948614,4234.871691,4236.922973,4231.794768,4251.794768,4248.205024,4257.435793,4222.051179,4251.281947
114,0,4222.563999,4226.153743,4238.461435,4202.051179,4241.025537,4230.769127,4230.256307,4233.33323,4224.615281,4244.615281,4247.692204,4257.948614,4216.410153,4250.769127
115,0,4193.846051,4197.435795,4212.82041,4132.820412,4221.025538,4188.205026,4201.538359,4200.512718,4208.717846,4217.948615,4212.82041,4228.717845,4185.640923,4218.974256
116,0,4194.358872,4193.333231,4215.384512,4130.256309,4236.922973,4187.179385,4200.512718,4190.769128,4213.33323,4207.692205,4205.128102,4224.615281,4184.615282,4215.897333
117,0,4229.230666,4223.58964,4246.666563,4207.692205,4267.692203,4242.563999,4240.512717,4228.205025,4233.84605,4233.84605,4241.025537,4259.999896,4217.948615,4252.307588
118,0,4236.922973,4234.358871,4246.153742,4221.025538,4264.10246,4252.307588,4248.717845,4247.692204,4234.358871,4257.948614,4252.820409,4266.666562,4223.07682,4256.922973
119,0,4210.769128,4207.692205,4217.948615,4183.076821,4238.461435,4208.717846,4216.410153,4222.051179,4213.846051,4231.794768,4227.692204,4233.84605,4193.846051,4225.128102
120,0,4205.640923,4200.512718,4218.974256,4194.358872,4238.974255,4209.743487,4215.384512,4211.794769,4213.846051,4213.846051,4221.538358,4230.769127,4191.794769,4221.538358
121,0,4221.538358,4218.974256,4235.384512,4214.871692,4258.974255,4245.640922,4241.538358,4236.410153,4232.307589,4252.307588,4241.025537,4254.35887,4215.897333,4242.563999
122,0,4210.256307,4212.307589,4222.563999,4195.384513,4246.666563,4230.256307,4232.307589,4238.461435,4226.153743,4255.897332,4239.487076,4244.615281,4209.743487,4235.897332
123,0,4181.538359,4183.589641,4199.487077,4192.82041,4213.846051,4196.410154,4209.230666,4210.769128,4209.743487,4208.717846,4216.922974,4217.435794,4184.102462,4213.846051
124,0,4175.897334,4174.358872,4195.384513,4212.307589,4204.615282,4201.538359,4211.281948,4196.922974,4213.33323,4209.743487,4205.128102,4212.82041,4180.512718,4211.281948
125,0,4193.846051,4191.281949,4206.153743,4208.717846,4222.051179,4221.538358,4219.487076,4204.615282,4221.538358,4242.051178,4211.794769,4223.58964,4190.256308,4218.974256
126,0,4201.538359,4202.564,4210.769128,4194.358872,4233.84605,4219.487076,4214.871692,4214.871692,4219.999897,4234.871691,4215.897333,4228.717845,4188.205026,4218.974256
127,0,4195.384513,4195.384513,4208.205025,4210.769128,4214.358871,4201.025538,4209.743487,4211.794769,4216.410153,4214.871692,4210.256307,4225.128102,4183.589641,4218.974256
128,0,4206.666564,4199.487077,4215.897333,4239.487076,4201.538359,4199.999897,4215.897333,4207.179384,4222.563999,4206.666564,4217.435794,4230.769127,4192.30759,4232.820409
0,0,4235.384512,4227.179384,4235.897332,4255.897332,4222.563999,4223.07682,4232.307589,4228.205025,4232.820409,4224.102461,4239.487076,4256.410152,4208.205025,4251.794768
1,0,4250.769127,4242.563999,4247.179383,4273.846049,4238.461435,4241.025537,4244.615281,4256.922973,4235.384512,4263.589639,4257.948614,4274.35887,4219.999897,4262.563998
2,0,4245.128101,4231.794768,4244.615281,4254.871691,4231.281948,4231.794768,4243.076819,4253.333229,4228.717845,4272.307588,4260.512716,4266.666562,4218.974256,4260.512716
3,0,4249.230665,4234.358871,4252.307588,4215.384512,4245.640922,4232.307589,4248.717845,4250.256306,4237.435794,4259.487075,4265.128101,4270.256306,4225.640922,4263.076819
4,0,4276.410152,4258.461434,4277.435793,4246.666563,4273.846049,4264.61528,4275.384511,4286.153741,4253.84605,4264.10246,4295.38451,4302.051177,4248.717845,4282.051177
5,0,4287.692203,4264.61528,4287.692203,4283.589639,4278.974254,4278.461434,4288.717844,4307.179382,4246.153742,4271.794767,4316.410151,4313.333228,4252.307588,4288.205023
6,0,4268.205024,4239.487076,4270.769126,4229.743486,4273.333229,4261.025537,4273.333229,4285.1281,4228.205025,4272.820408,4295.897331,4291.794767,4230.256307,4269.743485
7,0,4252.820409,4221.025538,4254.35887,4175.897334,4271.281947,4253.84605,4259.487075,4267.179383,4229.743486,4270.769126,4270.769126,4278.461434,4218.461435,4253.84605
8,0,4241.538358,4213.33323,4245.128101,4170.256308,4263.589639,4243.076819,4250.256306,4254.35887,4230.256307,4249.230665,4255.897332,4270.256306,4211.281948,4241.538358
9,0,4220.512717,4201.025538,4231.794768,4141.53836,4257.948614,4218.974256,4234.358871,4232.820409,4217.435794,4218.974256,4236.922973,4247.692204,4198.974256,4230.256307
10,0,4215.897333,4194.871692,4228.717845,4107.692207,4267.179383,4218.461435,4230.256307,4226.153743,4215.897333,4215.384512,4227.692204,4234.871691,4196.922974,4229.743486
11,0,4217.948615,4189.743487,4229.230666,4122.564002,4264.61528,4221.025538,4228.717845,4219.487076,4218.461435,4222.051179,4219.487076,4230.256307,4187.692205,4221.025538
12,0,4215.384512,4183.589641,4228.717845,4143.589642,4256.922973,4212.82041,4223.58964,4210.256307,4218.974256,4230.256307,4208.205025,4227.692204,4180.512718,4212.82041
13,0,4224.615281,4189.230667,4235.384512,4133.333232,4271.794767,4226.153743,4232.820409,4224.102461,4226.666563,4237.435794,4219.487076,4239.487076,4196.410154,4227.179384
14,0,4228.717845,4192.82041,4237.948614,4149.743488,4272.307588,4234.358871,4236.922973,4231.281948,4225.128102,4222.051179,4229.230666,4246.153742,4199.999897,4231.794768
15,0,4213.33323,4180.512718,4228.205025,4218.974256,4232.820409,4215.384512,4218.974256,4215.384512,4214.871692,4203.07682,4214.871692,4233.33323,4182.564,4219.999897
16,0,4213.846051,4176.410154,4231.794768,4212.307589,4214.871692,4216.922974,4215.897333,4214.871692,4222.051179,4221.538358,4216.922974,4233.84605,4187.179385,4226.153743
17,0,4218.461435,4176.410154,4233.84605,4156.922975,4233.84605,4223.07682,4224.615281,4221.538358,4226.666563,4242.051178,4226.666563,4238.461435,4196.410154,4229.230666
18,0,4201.025538,4165.640924,4215.384512,4167.692206,4224.102461,4198.974256,4211.281948,4205.640923,4215.384512,4222.563999,4204.615282,4219.999897,4181.025539,4211.794769
19,0,4199.999897,4167.692206,4218.461435,3919.487084,4289.743485,4203.07682,4207.179384,4190.769128,4213.33323,4211.794769,4191.281949,4216.410153,4182.564,4216.410153
20,0,4201.025538,4164.615283,4235.384512,3295.384535,4501.538351,4215.897333,4207.692205,4167.692206,4208.205025,4201.538359,4184.615282,4217.435794,4186.666564,4217.948615
21,0,4175.384513,4139.999899,4221.538358,2936.410185,4658.461425,4186.153744,4182.564,4124.102463,4196.410154,4163.076821,4144.102463,4182.05118,4164.615283,4191.281949
22,0,4157.948616,4125.640925,4197.435795,3073.846079,4640.512707,4157.948616,4164.615283,4098.974259,4196.410154,4151.28195,4107.692207,4151.79477,4146.153745,4178.974257
23,0,4150.769129,4117.435797,4192.30759,3050.256336,4636.922964,4162.564001,4166.153744,4087.179387,4197.948615,4170.769129,4096.410156,4147.692206,4135.897335,4175.384513
24,0,4153.333232,4122.051181,4206.153743,2844.615315,4735.89732,4180.512718,4170.769129,4083.076823,4201.538359,4192.30759,4095.897336,4150.256309,4140.512719,4173.333231
25,0,4178.461436,4148.717847,4217.435794,3048.205054,4732.307577,4201.025538,4185.128103,4110.76913,4215.384512,4203.589641,4116.922976,4162.564001,4168.205026,4194.358872
26,0,4181.025539,4156.922975,4209.743487,3495.38453,4580.512709,4206.153743,4201.025538,4139.487078,4216.410153,4191.794769,4142.051181,4175.384513,4179.999898,4203.07682
27,0,4152.820411,4135.384514,4194.871692,3764.102472,4441.025532,4195.897333,4197.948615,4143.076822,4208.717846,4187.179385,4145.640924,4173.333231,4166.666565,4185.640923
28,0,4154.358873,4132.820412,4198.461436,3904.102469,4367.692201,4202.051179,4197.948615,4155.897334,4213.846051,4209.743487,4152.820411,4180.512718,4171.281949,4187.692205
29,0,4172.820411,4145.128104,4201.538359,4012.307594,4327.692202,4217.435794,4211.794769,4177.435795,4218.974256,4208.205025,4174.358872,4198.461436,4188.205026,4205.640923
30,0,4173.846052,4152.820411,4198.974256,4053.846055,4309.230664,4224.615281,4219.999897,4187.179385,4217.948615,4202.564,4191.281949,4204.102461,4193.846051,4211.281948
31,0,4179.487077,4163.589642,4207.692205,4085.640926,4291.794767,4225.128102,4219.487076,4194.358872,4218.461435,4232.307589,4201.025538,4202.051179,4198.461436,4214.358871
32,0,4189.230667,4164.615283,4213.33323,4093.333233,4275.897331,4221.025538,4219.487076,4197.948615,4218.974256,4235.384512,4204.615282,4209.743487,4203.589641,4219.487076
33,0,4179.999898,4153.333232,4205.640923,4024.102466,4291.794767,4213.33323,4216.922974,4186.666564,4215.384512,4203.07682,4198.461436,4214.358871,4196.410154,4213.846051
34,0,4172.30759,4148.717847,4196.922974,4011.794774,4293.846049,4199.487077,4201.538359,4175.897334,4211.281948,4189.230667,4191.794769,4203.07682,4184.102462,4202.051179
35,0,4182.05118,4155.897334,4205.128102,4082.564003,4273.846049,4206.666564,4204.102461,4185.128103,4219.999897,4207.692205,4197.948615,4208.205025,4190.769128,4206.666564
36,0,4191.281949,4167.179385,4219.999897,4125.128104,4277.435793,4232.820409,4229.743486,4204.615282,4232.820409,4235.384512,4211.281948,4230.256307,4202.564,4217.435794
37,0,4185.640923,4167.179385,4213.846051,4102.564002,4279.999895,4227.179384,4227.179384,4205.128102,4226.153743,4242.563999,4205.128102,4223.07682,4189.743487,4206.666564
38,0,4181.025539,4164.615283,4207.692205,4090.769131,4266.666562,4209.743487,4217.435794,4201.025538,4215.384512,4228.205025,4197.948615,4211.281948,4181.538359,4196.410154
39,0,4187.179385,4168.205026,4214.871692,4127.179386,4256.922973,4217.948615,4232.307589,4210.256307,4219.487076,4218.974256,4207.179384,4223.07682,4193.846051,4206.153743
40,0,4185.128103,4162.05118,4211.794769,4164.102462,4240.512717,4212.307589,4232.307589,4208.717846,4218.974256,4208.717846,4207.692205,4224.102461,4191.281949,4206.666564
41,0,4178.974257,4153.333232,4201.025538,4160.512719,4223.58964,4190.769128,4211.794769,4197.435795,4212.82041,4195.384513,4198.461436,4213.33323,4182.564,4196.922974
42,0,4181.025539,4161.025539,4201.025538,4124.102463,4230.769127,4189.743487,4209.230666,4195.897333,4215.897333,4202.564,4194.871692,4214.358871,4185.640923,4197.435795
43,0,4184.615282,4167.179385,4202.051179,4116.410156,4246.666563,4199.999897,4214.871692,4197.948615,4219.999897,4218.974256,4192.30759,4216.410153,4188.717846,4199.999897
44,0,4184.615282,4166.153744,4204.102461,4142.564001,4250.769127,4208.717846,4215.384512,4197.948615,4218.974256,4222.563999,4196.922974,4214.358871,4194.358872,4199.999897
45,0,4188.205026,4174.871693,4213.846051,4155.384514,4244.615281,4207.179384,4214.358871,4197.948615,4217.435794,4216.410153,4210.256307,4215.897333,4201.025538,4199.999897
46,0,4199.487077,4185.640923,4218.974256,4131.794771,4247.179383,4202.564,4211.281948,4201.538359,4218.974256,4217.948615,4217.948615,4225.640922,4202.564,4209.743487
47,0,4206.666564,4187.179385,4218.461435,4042.564004,4285.1281,4206.666564,4214.358871,4204.615282,4218.974256,4219.487076,4213.846051,4230.769127,4204.615282,4216.922974
48,0,4198.461436,4185.128103,4219.487076,3969.230672,4325.64092,4206.666564,4215.384512,4197.948615,4215.897333,4216.410153,4204.102461,4221.538358,4197.435795,4206.666564
49,0,4186.153744,4183.589641,4214.871692,4041.538363,4302.051177,4199.487077,4205.128102,4192.30759,4215.897333,4226.153743,4196.410154,4211.794769,4189.743487,4195.897333
50,0,4183.076821,4180.512718,4204.615282,4172.820411,4245.640922,4196.410154,4198.974256,4196.410154,4216.410153,4215.897333,4197.435795,4214.871692,4194.358872,4198.461436
51,0,4190.769128,4181.538359,4206.666564,4215.897333,4224.102461,4197.435795,4205.640923,4198.461436,4216.410153,4196.922974,4207.692205,4224.102461,4202.051179,4205.128102
52,0,4201.025538,4194.871692,4218.461435,4216.922974,4234.871691,4205.640923,4215.384512,4208.717846,4226.153743,4226.666563,4223.07682,4233.33323,4209.743487,4213.846051
53,0,4205.128102,4205.640923,4224.102461,4217.948615,4247.179383,4223.07682,4226.666563,4229.743486,4233.33323,4260.512716,4236.922973,4240.512717,4221.538358,4222.563999
54,0,4199.487077,4194.871692,4216.410153,4218.461435,4235.384512,4215.897333,4227.692204,4228.717845,4222.051179,4238.461435,4232.820409,4233.84605,4215.897333,4213.846051
55,0,4199.999897,4184.102462,4210.769128,4257.948614,4202.051179,4199.999897,4217.948615,4216.410153,4215.384512,4216.410153,4223.07682,4228.717845,4204.102461,4204.102461
56,0,4197.435795,4180.512718,4206.153743,4246.666563,4194.358872,4198.461436,4207.692205,4211.794769,4217.948615,4210.769128,4215.384512,4222.563999,4199.999897,4200.512718
57,0,4182.05118,4172.30759,4199.487077,4170.256308,4217.435794,4191.794769,4200.512718,4197.435795,4211.794769,4188.205026,4199.999897,4204.102461,4188.717846,4189.743487
58,0,4186.153744,4180.512718,4206.666564,4177.948616,4234.358871,4201.538359,4213.33323,4200.512718,4219.487076,4210.769128,4200.512718,4209.230666,4190.769128,4190.256308
59,0,4208.205025,4203.07682,4222.051179,4236.922973,4245.128101,4224.102461,4235.384512,4227.692204,4232.820409,4258.974255,4221.025538,4235.897332,4205.640923,4204.615282
60,0,4205.640923,4205.128102,4223.07682,4213.33323,4252.307588,4224.102461,4231.794768,4230.769127,4223.07682,4241.025537,4225.640922,4235.384512,4202.051179,4205.640923
61,0,4189.743487,4192.82041,4209.230666,4168.717847,4246.153742,4214.358871,4215.897333,4212.307589,4213.33323,4211.281948,4216.922974,4219.487076,4197.948615,4195.384513
62,0,4184.102462,4185.640923,4202.564,4170.256308,4228.205025,4208.205025,4215.384512,4207.692205,4217.435794,4220.512717,4214.358871,4219.999897,4202.564,4191.794769
63,0,4172.820411,4175.897334,4200.512718,4160.512719,4214.871692,4187.179385,4205.128102,4199.487077,4213.846051,4210.769128,4203.589641,4211.281948,4191.794769,4185.128103
64,0,4167.692206,4174.871693,4198.461436,4179.487077,4222.051179,4184.615282,4193.333231,4189.230667,4211.794769,4196.410154,4192.82041,4199.999897,4185.640923,4184.102462
65,0,4185.640923,4192.82041,4210.256307,4243.58964,4230.256307,4212.307589,4211.281948,4208.717846,4222.051179,4220.512717,4208.205025,4215.384512,4203.07682,4200.512718
66,0,4194.358872,4201.025538,4214.871692,4249.743486,4216.922974,4210.256307,4213.33323,4218.461435,4219.999897,4228.205025,4219.487076,4223.58964,4204.615282,4203.07682
67,0,4190.769128,4197.435795,4205.128102,4240.512717,4205.128102,4192.82041,4195.384513,4203.07682,4212.82041,4211.794769,4215.384512,4214.871692,4197.948615,4196.410154
68,0,4196.922974,4197.948615,4206.153743,4268.717844,4207.179384,4199.999897,4201.025538,4202.564,4217.435794,4218.461435,4219.487076,4222.051179,4211.281948,4205.640923
69,0,4204.615282,4203.589641,4219.487076,4183.076821,4228.205025,4209.230666,4212.82041,4209.743487,4218.974256,4218.974256,4226.153743,4234.871691,4217.948615,4215.897333
70,0,4198.461436,4199.487077,4219.999897,3936.922981,4291.794767,4197.435795,4201.538359,4196.922974,4211.794769,4204.615282,4212.82041,4224.102461,4204.102461,4207.692205
71,0,4185.128103,4186.153744,4212.307589,3746.666575,4368.205021,4182.05118,4189.230667,4178.461436,4211.281948,4207.692205,4187.692205,4205.128102,4194.358872,4196.922974
72,0,4184.615282,4181.538359,4212.82041,3746.153755,4402.051174,4187.179385,4194.358872,4177.435795,4217.435794,4214.358871,4182.05118,4201.025538,4197.948615,4197.948615
73,0,4198.461436,4194.358872,4216.410153,3864.61529,4391.281944,4203.07682,4210.256307,4191.281949,4219.999897,4218.974256,4198.461436,4212.307589,4206.666564,4204.102461
74,0,4200.512718,4203.07682,4213.846051,3989.743492,4348.717842,4205.128102,4213.33323,4199.487077,4215.897333,4218.974256,4204.615282,4215.897333,4203.07682,4201.538359
75,0,4196.410154,4199.999897,4209.743487,4057.948619,4304.102459,4201.025538,4206.666564,4200.512718,4216.410153,4206.153743,4201.025538,4215.384512,4199.999897,4198.974256
76,0,4203.589641,4202.564,4214.871692,4102.564002,4280.512716,4206.666564,4211.794769,4207.692205,4218.461435,4202.051179,4212.307589,4226.666563,4208.717846,4205.640923
77,0,4203.07682,4202.564,4214.871692,4161.025539,4255.897332,4202.564,4216.922974,4210.256307,4215.384512,4214.358871,4217.948615,4224.102461,4208.205025,4202.564
78,0,4199.999897,4199.999897,4208.205025,4193.846051,4236.922973,4199.999897,4212.82041,4209.230666,4221.025538,4234.358871,4214.358871,4217.435794,4203.589641,4202.051179
79,0,4217.435794,4213.33323,4216.922974,4199.999897,4248.205024,4216.410153,4217.435794,4224.102461,4230.769127,4246.153742,4231.794768,4236.410153,4215.384512,4223.07682
80,0,4226.666563,4218.974256,4227.179384,4211.281948,4247.692204,4220.512717,4223.07682,4231.794768,4225.640922,4234.358871,4243.58964,4247.179383,4221.025538,4226.666563
81,0,4206.666564,4204.102461,4217.435794,4204.615282,4223.07682,4202.564,4213.846051,4217.435794,4210.256307,4212.307589,4227.179384,4230.256307,4208.717846,4207.179384
82,0,4184.102462,4191.281949,4202.051179,4190.769128,4211.794769,4185.128103,4201.538359,4204.102461,4204.102461,4196.410154,4208.717846,4216.410153,4200.512718,4198.461436
83,0,4181.025539,4188.205026,4197.948615,4217.948615,4207.692205,4178.974257,4193.846051,4196.410154,4209.743487,4197.948615,4202.051179,4209.743487,4193.333231,4194.871692
84,0,4204.615282,4203.589641,4215.384512,4262.563998,4221.025538,4206.153743,4207.179384,4210.769128,4225.640922,4238.461435,4222.051179,4227.179384,4209.743487,4211.281948
85,0,4227.179384,4226.666563,4234.358871,4257.435793,4245.128101,4233.33323,4224.615281,4240.512717,4233.84605,4266.666562,4255.897332,4258.974255,4237.435794,4239.999896
86,0,4212.307589,4216.922974,4222.563999,4224.102461,4227.179384,4207.692205,4207.692205,4229.230666,4216.410153,4222.563999,4244.10246,4246.153742,4221.025538,4225.128102
87,0,4194.358872,4197.435795,4209.743487,4217.948615,4208.205025,4187.179385,4193.333231,4205.640923,4208.717846,4199.487077,4215.897333,4223.58964,4202.051179,4202.051179
88,0,4207.692205,4206.153743,4217.948615,4211.281948,4236.410153,4206.666564,4204.102461,4216.410153,4221.025538,4238.461435,4225.640922,4236.410153,4215.384512,4215.384512
89,0,4201.538359,4202.564,4209.743487,4186.153744,4235.897332,4196.922974,4194.871692,4209.743487,4215.897333,4229.743486,4220.512717,4227.179384,4206.153743,4210.256307
90,0,4181.538359,4186.666564,4194.358872,4196.922974,4205.128102,4175.384513,4179.487077,4188.205026,4203.589641,4190.256308,4196.410154,4202.564,4186.153744,4187.692205
91,0,4187.179385,4191.281949,4199.999897,4223.58964,4210.769128,4190.256308,4188.205026,4196.922974,4211.794769,4199.487077,4205.640923,4210.769128,4198.461436,4195.384513
92,0,4192.30759,4192.30759,4203.589641,4216.922974,4215.897333,4194.358872,4190.256308,4203.07682,4221.025538,4217.435794,4213.846051,4219.999897,4206.153743,4205.128102
93,0,4188.717846,4190.256308,4199.999897,4223.07682,4198.974256,4182.05118,4187.692205,4195.384513,4216.922974,4221.025538,4204.615282,4212.307589,4198.974256,4199.487077
94,0,4198.974256,4200.512718,4203.07682,4254.871691,4198.974256,4193.333231,4198.974256,4208.717846,4215.384512,4219.487076,4215.384512,4218.461435,4206.666564,4204.102461
95,0,4202.564,4201.025538,4203.07682,4238.974255,4202.051179,4199.487077,4202.564,4214.871692,4215.897333,4199.999897,4223.58964,4221.025538,4207.179384,4204.615282
96,0,4195.897333,4194.358872,4204.102461,4201.025538,4202.051179,4194.871692,4198.974256,4200.512718,4215.384512,4203.589641,4211.281948,4211.794769,4197.948615,4201.025538
97,0,4203.589641,4203.589641,4213.846051,4203.589641,4217.435794,4205.640923,4204.615282,4204.615282,4221.538358,4238.974255,4215.384512,4222.563999,4205.128102,4212.307589
98,0,4191.794769,4197.435795,4204.102461,4218.974256,4207.179384,4190.769128,4191.281949,4202.564,4215.384512,4225.640922,4214.871692,4222.051179,4201.025538,4205.640923
99,0,4166.666565,4175.897334,4184.615282,4231.794768,4173.333231,4167.179385,4173.333231,4181.538359,4205.640923,4178.461436,4191.794769,4197.948615,4185.640923,4183.076821
100,0,4184.615282,4189.743487,4200.512718,4251.281947,4190.256308,4200.512718,4197.948615,4195.897333,4222.051179,4198.461436,4204.615282,4210.769128,4203.07682,4198.974256
101,0,4212.307589,4213.33323,4222.051179,4264.61528,4216.410153,4232.307589,4224.102461,4226.153743,4233.33323,4246.666563,4236.410153,4240.512717,4224.615281,4222.563999
102,0,4201.538359,4208.205025,4212.82041,4246.666563,4202.051179,4211.281948,4210.256307,4218.974256,4219.487076,4239.487076,4229.743486,4230.256307,4210.769128,4207.692205
103,0,4184.615282,4194.358872,4203.589641,4198.974256,4199.999897,4195.384513,4195.897333,4200.512718,4212.82041,4214.871692,4209.230666,4211.794769,4198.974256,4194.358872
104,0,4186.666564,4192.82041,4206.153743,4156.922975,4218.974256,4194.358872,4195.897333,4194.358872,4216.410153,4203.07682,4206.666564,4211.281948,4204.615282,4199.487077
105,0,4181.538359,4189.230667,4199.999897,4130.76913,4222.051179,4176.410154,4183.589641,4180.512718,4207.692205,4183.076821,4197.948615,4202.051179,4197.948615,4191.794769
106,0,4185.640923,4196.410154,4204.102461,4132.307591,4237.948614,4187.179385,4190.769128,4182.05118,4212.82041,4188.205026,4198.461436,4204.615282,4202.564,4198.461436
107,0,4209.230666,4218.974256,4225.128102,4171.79477,4261.538357,4226.153743,4219.999897,4213.846051,4231.281948,4237.948614,4228.717845,4234.358871,4224.615281,4222.051179
108,0,4209.743487,4218.974256,4219.999897,4218.461435,4227.692204,4211.281948,4208.717846,4218.974256,4224.615281,4234.358871,4235.384512,4236.410153,4223.58964,4217.435794
109,0,4190.769128,4203.589641,4202.051179,4222.563999,4184.615282,4172.820411,4180.512718,4191.281949,4209.743487,4186.153744,4212.307589,4211.794769,4208.205025,4201.538359
110,0,4196.410154,4212.307589,4212.82041,4212.307589,4202.564,4190.769128,4194.358872,4199.487077,4217.948615,4216.922974,4216.410153,4218.974256,4215.897333,4213.846051
111,0,4208.205025,4225.640922,4225.640922,4210.769128,4223.58964,4212.307589,4209.743487,4223.58964,4225.128102,4267.179383,4232.307589,4235.384512,4225.640922,4224.102461
112,0,4191.794769,4212.307589,4209.743487,4179.487077,4210.256307,4184.615282,4188.717846,4202.564,4210.769128,4226.153743,4215.897333,4216.922974,4210.769128,4206.666564
113,0,4205.640923,4226.666563,4217.435794,4190.769128,4225.128102,4195.384513,4201.025538,4204.102461,4219.487076,4208.717846,4226.153743,4224.615281,4227.692204,4219.999897
114,0,4257.948614,4281.025536,4263.589639,4281.025536,4266.153742,4267.179383,4264.61528,4274.87169,4252.820409,4282.563998,4292.307587,4286.153741,4280.512716,4271.281947
115,0,4269.230665,4294.358869,4273.846049,4317.948612,4261.025537,4285.1281,4286.153741,4306.666561,4252.820409,4302.563997,4317.435792,4307.179382,4283.076818,4279.999895
116,0,4249.230665,4273.333229,4248.205024,4277.435793,4233.84605,4251.281947,4255.897332,4276.410152,4230.769127,4256.922973,4291.281946,4276.922972,4253.333229,4252.820409
117,0,4238.461435,4265.128101,4234.358871,4252.820409,4220.512717,4233.33323,4233.84605,4258.974255,4224.615281,4247.179383,4272.307588,4256.922973,4246.153742,4239.487076
118,0,4218.461435,4250.769127,4222.563999,4236.410153,4206.666564,4212.307589,4218.974256,4239.999896,4218.974256,4234.871691,4244.615281,4231.281948,4230.769127,4223.07682
119,0,4208.717846,4244.10246,4215.897333,4231.281948,4210.769128,4202.051179,4210.256307,4217.948615,4214.358871,4207.179384,4225.128102,4213.846051,4212.82041,4210.256307
120,0,4238.461435,4274.87169,4234.871691,4289.230664,4229.230666,4238.461435,4230.256307,4238.974255,4230.256307,4232.307589,4251.281947,4238.461435,4232.820409,4231.281948
121,0,4242.563999,4284.61528,4239.999896,4326.666561,4213.846051,4261.025537,4241.538358,4262.563998,4235.897332,4258.974255,4265.128101,4249.230665,4239.999896,4238.461435
122,0,4202.051179,4250.769127,4214.871692,4276.922972,4182.05118,4230.256307,4221.025538,4242.051178,4220.512717,4231.794768,4232.820409,4217.435794,4208.205025,4206.153743
123,0,4188.205026,4238.974255,4209.230666,4230.256307,4188.717846,4209.743487,4213.846051,4221.538358,4214.871692,4213.33323,4221.025538,4205.128102,4202.051179,4196.922974
124,0,4203.589641,4251.794768,4216.922974,4230.769127,4207.179384,4213.846051,4219.487076,4224.615281,4219.999897,4219.487076,4235.897332,4221.538358,4219.999897,4216.922974
125,0,4197.435795,4246.666563,4206.153743,4237.948614,4190.769128,4197.435795,4204.102461,4218.461435,4216.410153,4215.384512,4224.102461,4216.922974,4211.794769,4216.410153
126,0,4188.717846,4249.230665,4201.025538,4236.410153,4178.461436,4185.128103,4193.846051,4208.717846,4214.871692,4219.999897,4209.230666,4204.615282,4202.564,4207.692205
127,0,4206.153743,4269.230665,4216.410153,4223.07682,4207.179384,4207.179384,4213.33323,4219.487076,4221.025538,4236.410153,4225.640922,4217.435794,4215.897333,4221.025538
128,0,4218.974256,4273.846049,4222.051179,4221.025538,4229.743486,4224.615281,4225.640922,4234.871691,4222.051179,4231.794768,4242.051178,4234.871691,4224.615281,4230.769127
0,0,4211.794769,4267.179383,4213.846051,4245.640922,4215.384512,4216.410153,4216.410153,4233.84605,4223.58964,4223.07682,4235.384512,4230.256307,4214.871692,4226.153743
1,0,4215.384512,4278.974254,4219.487076,4272.307588,4208.205025,4219.999897,4219.999897,4233.33323,4230.256307,4235.384512,4234.871691,4231.281948,4217.435794,4227.692204
2,0,4211.794769,4283.076818,4218.461435,4259.487075,4202.564,4216.922974,4217.948615,4232.307589,4224.615281,4230.256307,4236.922973,4232.820409,4217.948615,4224.615281
3,0,4190.256308,4262.563998,4198.461436,4217.948615,4188.205026,4191.794769,4196.922974,4216.922974,4212.82041,4199.487077,4216.410153,4211.281948,4200.512718,4211.794769
4,0,4192.30759,4265.640921,4203.07682,4211.794769,4204.102461,4202.051179,4199.487077,4212.307589,4216.922974,4202.051179,4210.769128,4205.128102,4203.07682,4215.897333
5,0,4206.666564,4285.640921,4217.948615,4232.820409,4220.512717,4224.615281,4212.82041,4220.512717,4220.512717,4225.128102,4223.58964,4220.512717,4213.846051,4220.512717
6,0,4203.07682,4283.076818,4207.692205,4224.615281,4207.692205,4207.179384,4200.512718,4214.358871,4214.871692,4207.692205,4218.974256,4216.922974,4205.128102,4213.846051
7,0,4197.435795,4273.333229,4198.461436,4207.179384,4203.07682,4194.871692,4191.794769,4211.281948,4214.871692,4192.30759,4213.33323,4210.769128,4198.974256,4214.871692
8,0,4194.871692,4271.794767,4206.153743,4219.487076,4209.743487,4206.666564,4200.512718,4215.384512,4217.948615,4217.948615,4217.435794,4216.410153,4206.666564,4212.82041
9,0,4179.487077,4262.563998,4194.871692,4213.846051,4197.948615,4201.025538,4195.384513,4202.051179,4213.846051,4228.205025,4204.102461,4205.128102,4199.999897,4197.435795
10,0,4177.435795,4261.025537,4184.615282,4209.230666,4196.410154,4195.897333,4192.30759,4196.410154,4216.410153,4212.307589,4195.384513,4196.922974,4195.897333,4197.948615
11,0,4202.564,4285.1281,4207.692205,4254.871691,4215.897333,4217.435794,4210.256307,4221.538358,4224.102461,4209.230666,4223.07682,4217.435794,4215.384512,4219.487076
12,0,4211.281948,4294.87169,4219.999897,4270.256306,4210.769128,4226.153743,4214.358871,4230.256307,4223.58964,4217.435794,4235.897332,4227.179384,4221.025538,4223.07682
13,0,4188.205026,4276.922972,4201.025538,4226.153743,4182.564,4198.461436,4190.769128,4205.640923,4212.82041,4207.692205,4204.615282,4203.589641,4199.487077,4198.974256
14,0,4176.922975,4266.153742,4193.333231,4215.897333,4179.999898,4180.512718,4176.922975,4190.256308,4211.794769,4198.461436,4182.05118,4188.717846,4186.666564,4188.717846
15,0,4206.666564,4290.256305,4217.948615,4239.487076,4219.487076,4213.33323,4204.102461,4214.871692,4228.717845,4220.512717,4209.743487,4215.897333,4211.281948,4218.461435
16,0,4239.487076,4318.974253,4235.384512,4237.435794,4248.205024,4247.179383,4236.410153,4249.230665,4237.435794,4234.358871,4250.256306,4246.666563,4237.435794,4244.10246
17,0,4231.794768,4304.615279,4223.07682,4239.487076,4212.307589,4222.051179,4226.153743,4243.58964,4224.102461,4208.717846,4245.640922,4237.435794,4224.615281,4234.871691
18,0,4212.82041,4275.384511,4207.692205,4251.794768,4167.692206,4191.281949,4201.538359,4216.922974,4210.769128,4189.230667,4217.948615,4212.307589,4208.717846,4222.563999
19,0,4226.153743,4281.538357,4210.769128,4223.58964,4186.666564,4197.948615,4198.974256,4210.769128,4214.358871,4205.128102,4211.794769,4211.794769,4215.384512,4230.256307
20,0,4256.922973,4300.512715,4224.102461,4183.589641,4227.692204,4208.717846,4205.640923,4221.538358,4219.999897,4227.692204,4219.487076,4228.205025,4223.07682,4242.563999
21,0,4274.35887,4297.948613,4232.820409,4175.384513,4230.256307,4205.640923,4206.666564,4227.692204,4215.897333,4223.07682,4225.640922,4234.358871,4224.615281,4253.84605
22,0,4284.61528,4291.281946,4231.794768,4177.948616,4213.846051,4189.743487,4196.410154,4219.487076,4212.307589,4188.717846,4226.153743,4227.692204,4228.717845,4259.999896
23,0,4307.692202,4302.051177,4234.871691,4190.769128,4215.897333,4186.666564,4189.230667,4216.922974,4214.871692,4183.076821,4226.153743,4229.230666,4231.281948,4269.743485
24,0,4335.89733,4314.871689,4249.743486,4222.051179,4223.07682,4209.743487,4198.974256,4235.897332,4219.487076,4216.410153,4239.999896,4247.692204,4234.358871,4286.153741
25,0,4344.102458,4312.820407,4249.743486,4227.179384,4218.461435,4217.435794,4207.179384,4245.640922,4216.922974,4216.922974,4245.128101,4250.769127,4235.897332,4287.692203
26,0,4342.563996,4308.205023,4236.410153,4213.846051,4212.82041,4194.358872,4196.922974,4229.230666,4210.769128,4201.025538,4229.230666,4234.358871,4228.205025,4282.563998
27,0,4348.717842,4309.743484,4238.974255,4233.84605,4209.743487,4192.82041,4192.82041,4228.717845,4213.846051,4204.102461,4231.794768,4234.871691,4229.743486,4291.281946
28,0,4356.41015,4313.846048,4250.256306,4257.948614,4207.179384,4219.487076,4207.692205,4253.333229,4222.051179,4203.589641,4259.487075,4254.871691,4247.179383,4300.512715
29,0,4351.794765,4311.281946,4246.153742,4249.230665,4194.871692,4209.743487,4207.692205,4252.307588,4219.487076,4204.615282,4258.974255,4254.871691,4249.230665,4295.38451
30,0,4341.538355,4307.692202,4238.461435,4245.640922,4186.666564,4181.538359,4193.333231,4231.281948,4211.794769,4212.307589,4238.974255,4239.487076,4238.461435,4289.230664
31,0,4339.487073,4313.333228,4245.128101,4264.10246,4198.974256,4198.461436,4202.564,4238.461435,4217.435794,4213.33323,4250.769127,4249.230665,4243.58964,4293.333228
32,0,4341.025535,4322.563997,4251.794768,4283.076818,4206.153743,4225.640922,4221.538358,4257.948614,4224.102461,4221.538358,4271.281947,4269.230665,4258.461434,4297.948613
33,0,4322.563997,4313.333228,4239.999896,4263.589639,4190.769128,4200.512718,4204.615282,4244.10246,4211.794769,4212.307589,4254.35887,4254.35887,4248.205024,4285.1281
34,0,4296.922972,4299.999895,4227.179384,4199.487077,4194.358872,4174.871693,4183.076821,4219.999897,4205.128102,4181.538359,4230.256307,4229.743486,4231.794768,4267.179383
35,0,4301.538356,4314.871689,4237.435794,4162.05118,4230.256307,4196.922974,4197.435795,4231.794768,4217.435794,4197.948615,4242.051178,4242.563999,4243.58964,4271.794767
36,0,4310.256305,4329.743484,4246.666563,4189.230667,4239.999896,4210.769128,4209.743487,4249.230665,4222.563999,4243.076819,4257.948614,4257.435793,4256.922973,4279.999895
37,0,4286.153741,4317.435792,4230.769127,4238.974255,4210.769128,4198.974256,4201.025538,4240.512717,4216.922974,4238.461435,4247.692204,4243.076819,4245.128101,4263.076819
38,0,4255.384511,4305.64092,4217.435794,4275.384511,4188.205026,4198.461436,4198.974256,4230.769127,4216.922974,4208.717846,4234.358871,4228.205025,4231.281948,4242.051178
39,0,4238.974255,4304.615279,4214.871692,4286.153741,4181.538359,4204.615282,4202.564,4229.743486,4217.435794,4199.999897,4229.743486,4224.102461,4228.205025,4232.307589
40,0,4221.538358,4293.846049,4203.07682,4258.461434,4177.948616,4191.794769,4195.384513,4216.922974,4212.307589,4197.948615,4217.435794,4212.307589,4218.974256,4220.512717
41,0,4212.82041,4289.743485,4202.564,4229.230666,4193.846051,4190.769128,4198.974256,4209.230666,4214.871692,4206.153743,4213.33323,4210.256307,4213.846051,4212.307589
42,0,4221.538358,4304.102459,4221.025538,4225.640922,4219.999897,4217.435794,4218.461435,4224.615281,4221.538358,4214.358871,4225.128102,4223.58964,4222.051179,4219.487076
43,0,4215.384512,4301.538356,4214.871692,4211.281948,4218.974256,4222.563999,4218.974256,4227.692204,4216.922974,4204.102461,4221.538358,4218.974256,4218.461435,4218.974256
44,0,4204.615282,4290.769126,4202.051179,4196.410154,4212.307589,4208.717846,4202.564,4212.82041,4213.33323,4205.640923,4210.256307,4208.717846,4214.358871,4215.897333
45,0,4215.897333,4303.589638,4215.897333,4217.948615,4226.666563,4213.33323,4202.051179,4217.948615,4219.999897,4224.615281,4225.128102,4226.153743,4228.205025,4226.666563
46,0,4213.846051,4306.666561,4220.512717,4230.256307,4222.563999,4210.256307,4201.538359,4222.563999,4216.922974,4212.82041,4228.717845,4230.769127,4229.230666,4222.051179
47,0,4183.589641,4280.512716,4199.487077,4201.538359,4201.538359,4190.769128,4184.615282,4200.512718,4205.640923,4185.128103,4199.999897,4201.538359,4209.743487,4196.410154
48,0,4175.384513,4269.743485,4195.384513,4200.512718,4205.640923,4197.948615,4187.692205,4194.871692,4213.846051,4202.564,4195.897333,4197.948615,4210.769128,4197.948615
49,0,4195.897333,4286.666562,4211.794769,4237.948614,4223.07682,4219.999897,4211.281948,4223.58964,4230.256307,4234.871691,4219.487076,4229.230666,4229.230666,4220.512717
50,0,4203.07682,4296.410151,4219.999897,4259.999896,4221.538358,4224.615281,4221.025538,4238.974255,4227.692204,4237.435794,4229.230666,4237.948614,4231.281948,4223.07682
51,0,4188.205026,4287.179382,4211.794769,4254.35887,4194.358872,4208.717846,4211.794769,4223.07682,4216.922974,4218.461435,4218.974256,4221.025538,4218.461435,4208.205025
52,0,4177.435795,4272.820408,4201.538359,4226.153743,4187.692205,4192.30759,4201.538359,4211.281948,4216.410153,4201.538359,4204.615282,4211.281948,4212.307589,4198.974256
53,0,4182.05118,4272.820408,4207.179384,4201.025538,4218.461435,4198.974256,4200.512718,4212.82041,4215.897333,4196.922974,4203.589641,4213.846051,4214.358871,4199.487077
54,0,4183.589641,4278.461434,4212.82041,4215.384512,4231.794768,4215.897333,4211.794769,4211.794769,4213.33323,4194.871692,4210.769128,4216.922974,4218.461435,4203.589641
55,0,4174.358872,4272.820408,4207.692205,4221.538358,4219.999897,4219.999897,4217.435794,4208.205025,4217.435794,4198.974256,4210.256307,4214.358871,4214.871692,4198.461436
56,0,4167.179385,4262.563998,4201.538359,4196.922974,4215.384512,4211.794769,4206.153743,4203.589641,4219.487076,4209.743487,4197.435795,4205.128102,4204.102461,4191.794769
57,0,4165.128103,4258.974255,4197.435795,4215.897333,4201.025538,4200.512718,4194.871692,4197.948615,4213.846051,4219.487076,4191.794769,4197.948615,4204.102461,4195.384513
58,0,4169.230667,4265.128101,4199.487077,4236.922973,4200.512718,4203.07682,4198.974256,4203.589641,4219.487076,4221.025538,4202.051179,4205.640923,4217.435794,4202.051179
59,0,4179.999898,4275.384511,4209.743487,4199.999897,4241.538358,4220.512717,4212.82041,4216.410153,4229.743486,4216.410153,4218.461435,4218.461435,4222.563999,4205.128102
60,0,4184.615282,4279.999895,4209.743487,4199.487077,4246.153742,4216.410153,4217.948615,4217.435794,4224.615281,4211.281948,4218.974256,4218.974256,4217.435794,4202.051179
61,0,4184.102462,4278.974254,4202.564,4237.948614,4215.384512,4202.564,4211.794769,4214.871692,4216.922974,4216.410153,4210.769128,4216.922974,4218.461435,4202.564
62,0,4173.846052,4271.794767,4200.512718,4226.153743,4207.179384,4201.538359,4204.102461,4209.743487,4217.435794,4225.640922,4205.640923,4210.256307,4213.846051,4199.999897
63,0,4156.410155,4258.974255,4190.256308,4199.487077,4203.07682,4189.743487,4197.948615,4194.871692,4214.358871,4203.07682,4189.743487,4191.794769,4196.922974,4185.128103
64,0,4158.461437,4261.538357,4185.128103,4213.33323,4208.717846,4188.205026,4196.410154,4191.794769,4212.307589,4182.05118,4185.128103,4190.256308,4199.999897,4185.128103
65,0,4175.384513,4280.512716,4196.922974,4224.615281,4232.307589,4212.307589,4203.589641,4204.615282,4218.974256,4204.102461,4203.07682,4207.692205,4218.974256,4203.07682
66,0,4177.435795,4284.61528,4202.564,4208.205025,4234.358871,4213.33323,4210.769128,4206.153743,4217.948615,4210.256307,4206.666564,4207.692205,4219.487076,4204.102461
67,0,4169.230667,4276.410152,4196.922974,4178.974257,4226.666563,4196.922974,4204.102461,4198.461436,4211.281948,4187.692205,4195.897333,4196.922974,4209.743487,4193.333231
68,0,4172.30759,4279.999895,4199.487077,4171.79477,4237.948614,4209.743487,4202.051179,4203.07682,4216.922974,4201.538359,4202.051179,4202.564,4216.922974,4199.487077
69,0,4170.256308,4284.102459,4196.922974,4194.358872,4228.205025,4212.82041,4203.07682,4204.615282,4218.974256,4223.58964,4206.153743,4205.128102,4217.948615,4198.974256
70,0,4158.974257,4275.897331,4188.717846,4196.410154,4210.769128,4192.30759,4193.846051,4190.769128,4213.846051,4201.538359,4185.640923,4193.333231,4200.512718,4184.615282
71,0,4163.076821,4275.897331,4197.435795,4187.179385,4224.615281,4205.640923,4200.512718,4195.897333,4219.999897,4197.948615,4187.692205,4199.487077,4196.410154,4190.769128
72,0,4178.461436,4287.179382,4208.717846,4226.153743,4231.281948,4224.102461,4216.922974,4216.410153,4225.128102,4221.538358,4212.82041,4216.410153,4208.205025,4205.128102
73,0,4172.30759,4283.589639,4201.025538,4257.435793,4212.307589,4202.051179,4206.153743,4208.717846,4217.435794,4209.743487,4207.692205,4208.205025,4203.589641,4198.461436
74,0,4162.05118,4276.410152,4193.846051,4237.435794,4213.33323,4200.512718,4201.025538,4199.999897,4215.897333,4199.999897,4196.410154,4202.051179,4195.384513,4192.82041
75,0,4176.410154,4284.102459,4203.589641,4236.922973,4228.717845,4230.256307,4222.563999,4218.461435,4223.07682,4222.051179,4213.846051,4219.487076,4206.666564,4204.102461
76,0,4179.999898,4284.102459,4202.051179,4251.794768,4213.33323,4218.461435,4215.384512,4217.948615,4218.974256,4219.487076,4215.897333,4215.897333,4207.692205,4199.999897
77,0,4162.05118,4273.846049,4190.769128,4241.025537,4193.846051,4190.769128,4193.333231,4194.871692,4211.281948,4192.30759,4193.846051,4194.871692,4192.82041,4187.179385
78,0,4169.230667,4279.487075,4197.435795,4254.35887,4198.461436,4205.640923,4206.666564,4203.07682,4217.948615,4204.102461,4199.487077,4206.666564,4197.948615,4198.461436
79,0,4186.153744,4279.999895,4206.153743,4291.794767,4195.897333,4219.487076,4221.538358,4222.563999,4229.230666,4235.384512,4216.922974,4222.051179,4213.846051,4211.281948
80,0,4180.512718,4268.717844,4200.512718,4298.461433,4189.743487,4209.230666,4216.922974,4220.512717,4225.640922,4231.794768,4214.871692,4215.897333,4215.384512,4208.717846
81,0,4182.05118,4270.769126,4203.07682,4300.512715,4196.410154,4208.205025,4217.948615,4222.563999,4216.410153,4218.461435,4218.974256,4222.051179,4217.435794,4213.33323
82,0,4201.025538,4278.461434,4215.897333,4305.1281,4203.589641,4218.974256,4219.487076,4232.820409,4222.051179,4217.435794,4231.281948,4237.948614,4228.717845,4222.051179
83,0,4201.025538,4279.487075,4218.461435,4290.256305,4205.128102,4216.922974,4215.897333,4233.33323,4229.743486,4225.640922,4235.384512,4236.410153,4233.33323,4219.487076
84,0,4188.717846,4277.948613,4213.846051,4293.846049,4198.461436,4209.230666,4215.384512,4229.743486,4224.102461,4234.358871,4231.794768,4232.820409,4227.179384,4217.435794
85,0,4177.948616,4262.563998,4204.102461,4289.743485,4181.538359,4195.897333,4202.564,4216.410153,4211.281948,4216.410153,4216.922974,4226.666563,4215.384512,4210.256307
86,0,4183.589641,4264.61528,4205.128102,4275.384511,4192.82041,4196.410154,4199.999897,4210.769128,4216.410153,4203.589641,4216.410153,4226.666563,4221.025538,4211.794769
87,0,4206.666564,4299.999895,4224.615281,4295.38451,4231.281948,4227.179384,4230.256307,4237.948614,4235.897332,4235.384512,4242.563999,4248.717845,4244.10246,4235.384512
88,0,4217.948615,4315.89733,4235.897332,4312.820407,4241.538358,4249.230665,4252.820409,4264.10246,4241.538358,4257.435793,4261.025537,4265.640921,4255.384511,4249.230665
89,0,4225.640922,4313.333228,4238.461435,4304.615279,4234.871691,4253.333229,4256.410152,4273.846049,4237.435794,4249.230665,4275.897331,4274.35887,4263.076819,4253.333229
90,0,4245.640922,4332.307586,4249.743486,4307.692202,4246.666563,4262.563998,4268.205024,4289.230664,4246.666563,4271.794767,4303.589638,4291.794767,4282.563998,4266.666562
91,0,4254.871691,4342.563996,4255.384511,4325.128099,4257.948614,4264.10246,4274.35887,4296.922972,4252.820409,4284.61528,4312.820407,4295.897331,4285.640921,4265.640921
92,0,4241.538358,4326.15374,4241.538358,4331.281945,4242.051178,4244.10246,4252.820409,4278.974254,4235.384512,4250.769127,4291.281946,4275.897331,4265.640921,4245.128101
93,0,4239.999896,4327.179381,4238.974255,4329.743484,4233.84605,4243.58964,4240.512717,4272.307588,4231.281948,4252.820409,4287.692203,4275.897331,4266.666562,4251.281947
94,0,4252.820409,4346.66656,4251.281947,4335.384509,4253.333229,4271.281947,4258.974255,4293.846049,4249.743486,4292.307587,4311.794766,4301.025536,4289.743485,4273.333229
95,0,4249.743486,4342.563996,4247.179383,4357.435791,4242.563999,4267.179383,4262.051178,4297.948613,4243.076819,4281.538357,4310.769125,4296.922972,4284.102459,4263.076819
96,0,4226.153743,4315.38451,4227.179384,4366.66656,4195.897333,4227.179384,4236.922973,4270.769126,4214.358871,4228.717845,4274.87169,4264.61528,4250.769127,4232.307589
97,0,4212.82041,4304.615279,4224.615281,4339.487073,4189.743487,4214.871692,4226.153743,4255.897332,4215.897333,4218.461435,4253.333229,4252.820409,4238.974255,4224.615281
98,0,4224.615281,4316.410151,4233.33323,4309.743484,4220.512717,4235.897332,4237.948614,4264.10246,4238.461435,4248.205024,4264.61528,4266.666562,4250.256306,4241.025537
99,0,4222.051179,4316.410151,4224.102461,4279.999895,4219.999897,4229.743486,4234.871691,4258.461434,4230.256307,4247.692204,4266.153742,4263.076819,4247.692204,4238.974255
100,0,4211.794769,4310.769125,4220.512717,4251.794768,4218.461435,4210.769128,4227.692204,4242.051178,4221.538358,4226.153743,4255.384511,4252.307588,4243.076819,4228.205025
101,0,4225.640922,4320.512715,4233.84605,4256.922973,4236.410153,4225.640922,4231.794768,4245.640922,4232.820409,4232.307589,4263.589639,4264.10246,4253.333229,4238.461435
102,0,4233.33323,4327.692202,4233.84605,4281.025536,4226.153743,4227.692204,4220.512717,4246.153742,4225.640922,4231.794768,4262.051178,4264.10246,4249.743486,4241.538358
103,0,4220.512717,4322.563997,4228.717845,4290.256305,4216.922974,4215.384512,4210.769128,4242.563999,4215.384512,4218.974256,4249.743486,4250.769127,4242.563999,4232.820409
104,0,4214.358871,4317.948612,4231.794768,4258.461434,4238.461435,4225.640922,4222.051179,4251.281947,4227.692204,4234.358871,4251.281947,4257.435793,4249.230665,4233.33323
105,0,4212.307589,4308.205023,4220.512717,4220.512717,4232.820409,4214.358871,4212.82041,4239.999896,4223.07682,4232.820409,4241.538358,4253.84605,4237.948614,4228.717845
106,0,4215.897333,4305.1281,4211.794769,4234.871691,4206.666564,4194.871692,4197.948615,4218.461435,4211.281948,4209.230666,4229.743486,4240.512717,4226.666563,4228.205025
107,0,4239.999896,4319.999894,4236.410153,4272.307588,4222.051179,4219.487076,4218.461435,4234.871691,4225.128102,4225.640922,4252.307588,4258.974255,4250.769127,4255.897332
108,0,4249.743486,4323.589638,4248.205024,4275.897331,4239.999896,4229.743486,4229.230666,4254.35887,4230.256307,4241.025537,4266.666562,4274.35887,4258.461434,4265.128101
109,0,4243.076819,4319.999894,4238.461435,4261.538357,4233.84605,4205.640923,4205.640923,4238.461435,4211.794769,4217.948615,4249.230665,4261.538357,4236.922973,4245.640922
110,0,4248.717845,4327.692202,4235.897332,4248.717845,4228.717845,4201.538359,4189.743487,4224.102461,4212.307589,4206.666564,4240.512717,4253.84605,4237.435794,4239.999896
111,0,4255.897332,4331.281945,4238.461435,4242.563999,4236.922973,4218.461435,4201.538359,4236.410153,4226.666563,4221.025538,4248.205024,4254.871691,4251.281947,4246.153742
112,0,4262.051178,4333.846048,4240.512717,4266.153742,4254.35887,4231.281948,4225.128102,4254.871691,4224.615281,4234.358871,4256.922973,4256.922973,4251.281947,4247.179383
113,0,4263.076819,4340.512714,4235.897332,4296.922972,4256.922973,4228.717845,4227.692204,4256.410152,4216.410153,4231.794768,4256.922973,4258.461434,4244.10246,4235.897332
114,0,4242.563999,4325.128099,4222.563999,4274.87169,4235.384512,4207.692205,4208.205025,4236.410153,4214.358871,4211.281948,4239.487076,4247.179383,4233.33323,4223.58964
115,0,4228.205025,4302.051177,4223.07682,4248.205024,4224.102461,4206.153743,4210.256307,4228.205025,4218.974256,4206.666564,4234.358871,4245.128101,4230.769127,4230.256307
116,0,4247.692204,4314.358869,4247.179383,4315.89733,4230.256307,4235.384512,4237.435794,4253.333229,4230.256307,4232.307589,4261.538357,4273.333229,4250.769127,4252.307588
117,0,4262.051178,4329.743484,4257.435793,4321.025535,4238.461435,4244.615281,4238.461435,4270.769126,4237.435794,4250.769127,4281.538357,4288.717844,4263.076819,4256.922973
118,0,4237.948614,4306.153741,4238.974255,4163.076821,4255.384511,4209.230666,4208.205025,4244.10246,4224.102461,4239.487076,4257.948614,4258.974255,4244.10246,4233.33323
119,0,4218.974256,4288.717844,4226.666563,4102.564002,4269.230665,4184.615282,4195.897333,4218.461435,4211.794769,4217.435794,4226.153743,4230.769127,4227.692204,4215.897333
120,0,4237.435794,4307.692202,4237.948614,4195.897333,4275.897331,4211.794769,4212.82041,4234.358871,4223.07682,4214.358871,4233.84605,4248.205024,4236.410153,4227.179384
121,0,4249.743486,4314.871689,4250.769127,4221.538358,4268.205024,4229.230666,4221.025538,4245.128101,4225.128102,4220.512717,4247.179383,4266.666562,4239.999896,4237.948614
122,0,4235.897332,4297.435792,4248.205024,4197.948615,4245.128101,4208.717846,4216.922974,4234.358871,4215.384512,4210.769128,4235.897332,4253.333229,4230.769127,4230.769127
123,0,4227.179384,4288.205023,4241.538358,4223.07682,4227.179384,4195.384513,4209.743487,4226.666563,4213.33323,4195.897333,4229.230666,4246.153742,4226.666563,4225.640922
124,0,4227.692204,4281.538357,4231.794768,4234.871691,4225.128102,4194.871692,4192.82041,4220.512717,4216.410153,4203.589641,4230.256307,4250.769127,4228.205025,4222.051179
125,0,4224.615281,4275.384511,4229.230666,4264.10246,4225.640922,4199.487077,4192.30759,4219.487076,4222.051179,4223.07682,4224.615281,4246.153742,4229.743486,4218.461435
126,0,4231.794768,4285.640921,4241.025537,4322.563997,4227.692204,4226.153743,4223.58964,4242.051178,4232.820409,4232.820409,4237.948614,4245.640922,4235.897332,4226.153743
127,0,4239.999896,4295.38451,4247.179383,4312.307587,4239.999896,4247.179383,4241.538358,4258.461434,4233.33323,4231.281948,4255.384511,4253.333229,4239.487076,4230.769127
128,0,4224.615281,4279.999895,4230.256307,4282.563998,4227.179384,4225.128102,4221.025538,4239.999896,4216.922974,4219.999897,4235.897332,4240.512717,4225.128102,4213.846051
0,0,4196.922974,4248.205024,4205.128102,4294.87169,4182.564,4184.615282,4192.30759,4206.153743,4205.640923,4192.82041,4195.897333,4211.281948,4196.922974,4185.128103
1,0,4192.82041,4236.922973,4204.615282,4314.871689,4171.79477,4184.615282,4189.230667,4194.358872,4212.82041,4176.922975,4189.230667,4206.666564,4193.846051,4181.025539
2,0,4232.820409,4271.281947,4243.58964,4324.102458,4229.230666,4244.10246,4230.256307,4236.410153,4235.897332,4218.461435,4238.974255,4252.307588,4241.538358,4228.205025
3,0,4248.717845,4286.153741,4257.435793,4312.820407,4253.84605,4265.128101,4252.307588,4269.230665,4238.461435,4253.84605,4267.692203,4276.922972,4262.051178,4249.230665
4,0,4210.769128,4243.58964,4220.512717,4289.230664,4198.461436,4213.846051,4217.948615,4234.871691,4215.384512,4221.025538,4226.153743,4236.410153,4219.487076,4205.128102
5,0,4210.769128,4228.717845,4213.33323,4301.025536,4187.692205,4212.307589,4211.794769,4222.051179,4218.461435,4205.640923,4217.948615,4229.230666,4216.922974,4202.564
6,0,4251.281947,4259.487075,4239.487076,4341.025535,4224.615281,4253.333229,4245.640922,4257.435793,4238.461435,4241.538358,4259.999896,4268.717844,4255.384511,4245.128101
7,0,4270.256306,4269.743485,4248.205024,4342.051176,4225.640922,4252.307588,4252.307588,4267.692203,4234.358871,4251.281947,4267.692203,4277.948613,4256.922973,4254.871691
8,0,4271.794767,4254.35887,4245.640922,4284.61528,4196.922974,4216.410153,4226.666563,4245.640922,4217.435794,4217.435794,4243.076819,4258.974255,4233.33323,4245.128101
9,0,4272.820408,4239.999896,4239.999896,4244.615281,4179.999898,4189.230667,4206.666564,4223.58964,4209.230666,4188.717846,4219.487076,4243.076819,4220.512717,4239.487076
10,0,4290.769126,4247.179383,4245.128101,4294.87169,4198.974256,4208.717846,4219.999897,4231.794768,4221.538358,4195.384513,4222.051179,4252.307588,4228.717845,4249.743486
11,0,4336.41015,4276.410152,4271.281947,4359.999893,4231.281948,4252.307588,4253.84605,4269.230665,4235.897332,4229.230666,4267.692203,4289.743485,4259.487075,4287.179382
12,0,4365.640919,4289.230664,4288.717844,4356.92297,4225.128102,4252.820409,4257.948614,4288.717844,4229.230666,4246.153742,4296.922972,4310.256305,4274.35887,4309.743484
13,0,4359.999893,4271.794767,4276.410152,4325.64092,4186.666564,4211.281948,4227.179384,4265.640921,4214.358871,4223.58964,4272.307588,4290.256305,4253.333229,4295.38451
14,0,4359.999893,4259.487075,4270.769126,4319.487074,4180.512718,4193.846051,4206.153743,4246.666563,4215.384512,4206.153743,4253.333229,4275.897331,4241.025537,4287.692203
15,0,4369.230662,4261.025537,4275.897331,4323.589638,4199.487077,4207.179384,4207.692205,4248.205024,4215.897333,4213.33323,4257.435793,4282.051177,4244.10246,4291.794767
16,0,4382.051175,4272.820408,4279.487075,4348.717842,4210.256307,4230.256307,4225.640922,4262.051178,4218.974256,4224.615281,4268.205024,4295.38451,4249.743486,4296.922972
17,0,4391.794764,4283.076818,4280.512716,4392.307585,4189.230667,4228.717845,4228.205025,4269.230665,4221.025538,4218.461435,4275.384511,4299.999895,4250.256306,4302.051177
18,0,4382.563995,4269.743485,4273.333229,4390.769123,4154.358873,4193.846051,4198.974256,4247.692204,4206.666564,4186.666564,4256.922973,4279.999895,4236.922973,4293.333228
19,0,4383.589636,4266.666562,4278.974254,4361.025534,4179.999898,4204.102461,4205.128102,4247.692204,4213.33323,4187.692205,4254.871691,4278.974254,4242.563999,4294.87169
20,0,4394.358867,4281.025536,4286.666562,4345.128099,4223.07682,4234.871691,4234.358871,4275.384511,4231.281948,4228.205025,4277.948613,4298.461433,4263.076819,4302.563997
21,0,4384.102457,4275.384511,4275.897331,4343.076817,4208.717846,4222.563999,4229.743486,4274.87169,4225.128102,4232.820409,4274.35887,4291.794767,4258.461434,4291.281946
22,0,4362.051175,4259.487075,4261.538357,4352.820406,4172.820411,4202.051179,4212.82041,4255.897332,4212.307589,4207.179384,4253.84605,4273.333229,4241.025537,4275.897331
23,0,4354.358868,4257.948614,4259.487075,4374.358867,4166.666565,4210.256307,4219.999897,4254.35887,4215.897333,4220.512717,4253.84605,4273.333229,4242.051178,4275.384511
24,0,4367.692201,4267.692203,4270.256306,4407.179379,4187.179385,4238.974255,4243.58964,4275.384511,4231.281948,4252.820409,4275.897331,4292.820408,4262.051178,4289.743485
25,0,4367.692201,4266.666562,4273.333229,4404.102456,4194.871692,4242.051178,4245.640922,4282.051177,4229.743486,4238.461435,4284.61528,4296.410151,4265.128101,4293.846049
26,0,4344.102458,4252.820409,4263.589639,4358.461432,4184.615282,4220.512717,4226.153743,4263.589639,4219.999897,4213.846051,4264.10246,4278.461434,4251.281947,4277.948613
27,0,4343.589637,4252.307588,4270.256306,4333.846048,4195.897333,4225.128102,4227.179384,4263.076819,4226.666563,4225.128102,4264.10246,4283.076818,4262.563998,4283.076818
28,0,4359.999893,4259.999896,4281.538357,4334.358868,4215.897333,4238.974255,4234.871691,4275.897331,4229.230666,4235.384512,4287.692203,4302.051177,4279.999895,4299.999895
29,0,4345.128099,4241.025537,4266.153742,4311.794766,4201.025538,4212.307589,4211.281948,4256.410152,4214.358871,4229.230666,4274.35887,4285.1281,4265.128101,4284.61528
30,0,4334.871689,4224.102461,4262.051178,4287.692203,4194.871692,4199.487077,4206.666564,4244.10246,4221.538358,4236.410153,4253.84605,4271.281947,4254.35887,4274.35887
31,0,4354.358868,4234.358871,4279.487075,4321.025535,4209.230666,4224.102461,4235.897332,4266.666562,4235.897332,4242.051178,4268.717844,4294.87169,4267.692203,4295.897331
32,0,4353.333227,4238.974255,4271.794767,4368.205021,4192.30759,4224.615281,4234.358871,4272.307588,4223.58964,4236.410153,4274.87169,4302.563997,4266.666562,4298.461433
33,0,4336.922971,4234.358871,4258.461434,4324.102458,4181.538359,4209.743487,4213.846051,4253.84605,4214.871692,4223.07682,4257.435793,4281.025536,4256.410152,4277.435793
34,0,4344.615278,4245.128101,4272.307588,4272.307588,4208.205025,4214.871692,4215.384512,4247.692204,4218.974256,4203.07682,4257.435793,4277.435793,4261.538357,4280.512716
35,0,4356.41015,4255.897332,4283.589639,4197.435795,4248.717845,4224.102461,4225.128102,4255.384511,4221.538358,4222.563999,4272.820408,4293.333228,4271.794767,4298.461433
36,0,4337.435791,4239.999896,4270.256306,3813.33324,4349.230663,4208.717846,4208.205025,4235.897332,4214.358871,4245.128101,4250.769127,4281.025536,4259.487075,4282.051177
37,0,4315.38451,4217.948615,4257.435793,3324.615303,4505.640915,4178.974257,4176.410154,4185.128103,4200.512718,4209.230666,4202.051179,4243.58964,4237.435794,4251.794768
38,0,4329.230663,4223.07682,4268.205024,3257.435818,4599.999888,4179.487077,4178.974257,4172.30759,4204.615282,4195.897333,4194.358872,4237.948614,4248.205024,4267.179383
39,0,4349.230663,4239.999896,4283.076818,3478.974274,4590.256298,4209.230666,4202.564,4206.666564,4222.051179,4224.615281,4219.487076,4261.025537,4268.717844,4292.307587
40,0,4343.076817,4234.358871,4274.87169,3638.97427,4522.563992,4214.358871,4204.615282,4213.846051,4221.538358,4218.974256,4224.615281,4260.512716,4265.128101,4280.512716
41,0,4336.41015,4225.640922,4262.051178,3846.666573,4425.128097,4203.589641,4201.538359,4209.743487,4214.871692,4215.384512,4223.07682,4251.794768,4259.999896,4274.35887
42,0,4342.563996,4231.281948,4262.563998,4124.102463,4327.179381,4209.743487,4214.358871,4232.307589,4224.615281,4224.102461,4237.435794,4259.487075,4263.076819,4288.717844
43,0,4352.307586,4235.897332,4263.589639,4274.35887,4267.692203,4218.461435,4227.692204,4251.794768,4234.871691,4218.461435,4253.333229,4274.35887,4268.717844,4297.435792
44,0,4361.025534,4237.948614,4262.051178,4313.846048,4239.999896,4217.435794,4229.230666,4255.897332,4232.820409,4239.487076,4263.589639,4286.666562,4275.897331,4304.615279
45,0,4364.102457,4242.563999,4270.769126,4330.769125,4221.025538,4223.07682,4230.769127,4266.666562,4232.820409,4267.692203,4274.35887,4295.897331,4278.974254,4312.307587
46,0,4372.820406,4254.35887,4283.076818,4336.41015,4219.487076,4235.897332,4241.025537,4282.563998,4236.410153,4247.179383,4290.769126,4308.205023,4283.076818,4316.410151
47,0,4382.563995,4266.153742,4286.153741,4316.922971,4234.871691,4233.33323,4241.025537,4280.512716,4226.666563,4224.102461,4297.435792,4310.256305,4287.692203,4316.410151
48,0,4372.307585,4260.512716,4282.051177,4304.102459,4235.384512,4219.999897,4223.58964,4268.205024,4215.897333,4234.871691,4285.1281,4298.461433,4282.051177,4310.256305
49,0,4354.358868,4247.179383,4276.410152,4341.025535,4205.128102,4206.666564,4209.230666,4259.999896,4222.563999,4250.256306,4271.281947,4290.769126,4274.35887,4302.051177
50,0,4358.461432,4258.461434,4279.487075,4394.358867,4200.512718,4216.410153,4220.512717,4268.717844,4237.948614,4262.563998,4284.61528,4305.64092,4286.153741,4311.794766
51,0,4377.43579,4289.230664,4292.307587,4409.743482,4235.384512,4249.743486,4249.743486,4297.948613,4247.692204,4269.743485,4323.589638,4331.794766,4311.794766,4330.769125
52,0,4356.41015,4279.999895,4282.051177,4350.769124,4231.281948,4246.153742,4258.974255,4298.974254,4236.410153,4252.307588,4320.512715,4321.538356,4303.076818,4313.846048
53,0,4300.512715,4234.358871,4248.717845,4270.256306,4194.871692,4204.102461,4231.281948,4257.435793,4215.384512,4228.717845,4257.948614,4271.281947,4256.922973,4261.025537
54,0,4281.025536,4228.717845,4241.025537,4289.743485,4195.897333,4201.025538,4220.512717,4239.487076,4222.051179,4230.256307,4233.84605,4252.820409,4249.230665,4243.076819
55,0,4290.769126,4249.743486,4250.769127,4325.128099,4213.846051,4224.615281,4232.820409,4252.307588,4233.33323,4235.384512,4259.999896,4273.846049,4273.846049,4256.922973
56,0,4277.948613,4243.076819,4246.153742,4253.333229,4228.717845,4215.897333,4223.58964,4245.128101,4221.025538,4226.666563,4256.410152,4275.897331,4267.179383,4253.333229
57,0,4271.794767,4239.487076,4252.820409,4209.230666,4255.384511,4211.281948,4217.948615,4242.563999,4224.102461,4244.10246,4251.281947,4278.461434,4264.10246,4260.512716
58,0,4282.051177,4254.35887,4266.153742,4277.435793,4250.256306,4222.051179,4223.07682,4257.948614,4237.435794,4256.410152,4275.897331,4298.974254,4283.589639,4277.948613
59,0,4268.205024,4246.153742,4256.922973,4339.999894,4207.179384,4204.102461,4204.102461,4245.640922,4223.07682,4234.358871,4273.333229,4293.333228,4274.35887,4262.051178
60,0,4243.076819,4229.230666,4244.10246,4324.102458,4195.897333,4190.769128,4191.281949,4223.07682,4210.769128,4224.615281,4245.640922,4267.179383,4255.897332,4238.461435
61,0,4238.461435,4236.410153,4242.563999,4282.563998,4231.281948,4217.435794,4218.461435,4236.410153,4225.640922,4237.435794,4244.615281,4263.076819,4264.61528,4243.076819
62,0,4236.410153,4238.461435,4238.461435,4268.205024,4246.153742,4242.563999,4239.999896,4252.307588,4236.410153,4243.58964,4254.35887,4269.230665,4265.128101,4246.666563
63,0,4219.999897,4221.538358,4230.769127,4285.640921,4219.999897,4237.948614,4236.410153,4243.58964,4231.281948,4241.538358,4245.640922,4261.538357,4252.307588,4231.281948
64,0,4201.538359,4213.33323,4223.07682,4281.538357,4202.051179,4224.615281,4232.307589,4227.692204,4224.615281,4224.102461,4230.256307,4249.230665,4242.563999,4216.410153
65,0,4196.922974,4213.846051,4213.33323,4263.076819,4208.717846,4213.33323,4226.666563,4216.410153,4216.922974,4201.025538,4216.410153,4241.025537,4232.307589,4210.256307
66,0,4197.435795,4212.82041,4214.871692,4294.358869,4213.846051,4210.769128,4219.487076,4215.384512,4213.846051,4214.871692,4212.82041,4239.999896,4230.256307,4210.256307
67,0,4199.999897,4221.025538,4230.769127,4350.256304,4210.256307,4225.128102,4223.07682,4229.230666,4226.153743,4242.051178,4230.256307,4252.820409,4246.666563,4221.025538
68,0,4209.230666,4231.794768,4236.410153,4372.307585,4200.512718,4220.512717,4218.974256,4238.974255,4232.307589,4235.384512,4249.743486,4265.640921,4261.538357,4233.84605
69,0,4212.82041,4228.205025,4230.769127,4348.205022,4189.230667,4184.615282,4196.922974,4227.692204,4220.512717,4226.666563,4247.179383,4264.61528,4258.974255,4231.794768
70,0,4218.974256,4233.33323,4240.512717,4327.179381,4210.769128,4188.205026,4199.999897,4232.307589,4221.538358,4251.281947,4255.897332,4277.948613,4268.717844,4238.974255
71,0,4235.897332,4253.84605,4256.922973,4320.512715,4254.35887,4238.974255,4227.692204,4263.076819,4238.974255,4266.666562,4288.205023,4303.589638,4294.358869,4262.051178
72,0,4239.999896,4266.153742,4255.897332,4301.025536,4266.153742,4271.794767,4249.743486,4281.025536,4250.256306,4265.128101,4303.076818,4306.666561,4304.615279,4265.128101
73,0,4226.666563,4264.61528,4248.205024,4304.102459,4249.743486,4269.743485,4266.666562,4279.999895,4247.179383,4283.076818,4293.333228,4295.897331,4293.333228,4245.128101
74,0,4217.948615,4255.897332,4249.230665,4332.820407,4244.615281,4266.153742,4280.512716,4278.974254,4239.999896,4291.281946,4282.051177,4288.717844,4282.563998,4236.922973
75,0,4213.33323,4249.230665,4246.666563,4328.717843,4253.333229,4269.743485,4287.179382,4283.076818,4240.512717,4270.769126,4280.512716,4282.563998,4281.025536,4237.435794
76,0,4204.615282,4250.769127,4239.999896,4317.948612,4249.230665,4272.820408,4287.692203,4284.102459,4244.615281,4264.61528,4280.512716,4283.076818,4275.897331,4231.281948
77,0,4190.769128,4244.10246,4232.820409,4321.025535,4232.820409,4263.589639,4273.333229,4271.281947,4235.384512,4263.589639,4270.256306,4278.461434,4265.640921,4221.538358
78,0,4175.384513,4226.153743,4220.512717,4293.846049,4228.717845,4246.666563,4252.820409,4251.794768,4229.743486,4245.640922,4251.794768,4263.076819,4259.999896,4210.256307
79,0,4171.79477,4220.512717,4213.846051,4280.512716,4228.205025,4238.461435,4246.666563,4244.10246,4235.384512,4242.563999,4247.179383,4258.461434,4260.512716,4206.153743
80,0,4164.102462,4218.974256,4214.358871,4306.153741,4206.153743,4216.410153,4229.743486,4235.897332,4225.128102,4251.281947,4241.538358,4253.333229,4251.794768,4204.102461
81,0,4151.79477,4211.281948,4212.82041,4317.948612,4192.82041,4194.358872,4203.07682,4222.051179,4215.897333,4243.58964,4225.640922,4238.461435,4242.563999,4198.974256
82,0,4162.05118,4221.538358,4218.461435,4314.871689,4223.58964,4218.974256,4215.384512,4231.281948,4231.281948,4242.051178,4232.820409,4249.230665,4255.384511,4203.589641
83,0,4174.871693,4236.922973,4222.563999,4315.89733,4244.615281,4253.333229,4246.666563,4252.820409,4240.512717,4251.794768,4252.820409,4267.692203,4265.640921,4211.281948
84,0,4155.384514,4221.538358,4208.717846,4333.846048,4207.179384,4238.974255,4245.640922,4243.076819,4226.666563,4241.025537,4240.512717,4249.743486,4247.692204,4198.974256
85,0,4131.28195,4203.589641,4193.333231,4365.128098,4172.820411,4215.897333,4229.230666,4215.384512,4218.461435,4218.461435,4207.692205,4223.07682,4226.666563,4172.820411
86,0,4134.358873,4213.33323,4195.384513,4369.230662,4187.692205,4229.230666,4238.461435,4214.871692,4229.230666,4222.563999,4201.025538,4223.07682,4228.205025,4170.256308
87,0,4139.999899,4216.410153,4198.974256,4355.897329,4198.974256,4242.051178,4253.84605,4231.794768,4235.384512,4247.692204,4212.82041,4231.281948,4235.897332,4184.102462
88,0,4134.871694,4202.051179,4195.384513,4369.743483,4179.999898,4232.820409,4245.128101,4232.820409,4230.769127,4243.58964,4218.461435,4231.281948,4239.487076,4186.153744
89,0,4134.358873,4202.051179,4194.871692,4360.512714,4176.410154,4225.128102,4234.358871,4223.07682,4227.179384,4216.922974,4217.948615,4232.820409,4242.563999,4183.589641
90,0,4153.333232,4222.563999,4209.230666,4336.41015,4197.948615,4231.281948,4240.512717,4228.717845,4234.871691,4232.820409,4227.692204,4245.640922,4249.743486,4194.358872
91,0,4175.897334,4239.999896,4225.128102,4348.205022,4209.743487,4242.051178,4246.153742,4242.051178,4239.487076,4266.153742,4248.717845,4263.076819,4259.487075,4211.281948
92,0,4159.999898,4225.128102,4213.33323,4347.692201,4192.30759,4223.58964,4225.128102,4226.666563,4224.102461,4245.640922,4237.948614,4252.820409,4249.230665,4199.487077
93,0,4127.179386,4195.897333,4189.230667,4350.256304,4162.05118,4193.333231,4202.564,4198.461436,4213.846051,4217.948615,4195.897333,4220.512717,4223.07682,4172.820411
94,0,4143.076822,4211.794769,4204.102461,4397.43579,4173.333231,4222.051179,4231.281948,4219.487076,4235.384512,4249.230665,4205.640923,4232.307589,4233.84605,4187.692205
95,0,4164.615283,4233.84605,4220.512717,4412.307584,4186.666564,4246.153742,4252.820409,4244.10246,4239.487076,4259.487075,4236.410153,4252.820409,4250.256306,4202.564
96,0,4142.051181,4206.666564,4199.999897,4387.6922,4157.948616,4208.717846,4223.07682,4217.948615,4219.999897,4226.666563,4215.384512,4230.256307,4228.717845,4177.948616
97,0,4145.128104,4202.564,4199.487077,4392.820405,4158.974257,4211.281948,4226.666563,4214.871692,4230.256307,4236.410153,4212.307589,4229.230666,4231.794768,4182.05118
98,0,4171.281949,4230.769127,4223.58964,4389.230662,4190.256308,4251.281947,4258.974255,4246.153742,4245.128101,4261.025537,4243.076819,4256.410152,4255.897332,4211.281948
99,0,4165.128103,4227.692204,4222.051179,4375.384508,4186.666564,4244.615281,4248.717845,4243.076819,4231.794768,4244.10246,4239.999896,4255.384511,4247.692204,4207.179384
100,0,4149.230668,4209.743487,4205.640923,4394.358867,4162.564001,4219.487076,4227.692204,4216.410153,4219.487076,4212.82041,4225.128102,4241.538358,4233.33323,4191.794769
101,0,4143.076822,4201.538359,4199.487077,4386.153739,4152.307591,4205.128102,4218.461435,4201.538359,4217.435794,4210.256307,4218.974256,4233.84605,4232.820409,4185.128103
102,0,4145.128104,4202.051179,4201.538359,4363.076816,4158.461437,4202.564,4205.640923,4202.051179,4224.102461,4245.640922,4208.717846,4230.256307,4234.358871,4185.128103
103,0,4165.128103,4219.487076,4215.384512,4392.307585,4183.076821,4226.153743,4216.922974,4223.58964,4239.487076,4277.435793,4224.615281,4248.717845,4246.666563,4204.615282
104,0,4180.512718,4232.820409,4226.153743,4417.435789,4191.281949,4244.615281,4237.948614,4240.512717,4240.512717,4257.435793,4244.10246,4259.487075,4252.307588,4215.384512
105,0,4166.666565,4218.461435,4214.871692,4375.897329,4169.743488,4230.256307,4232.307589,4226.153743,4228.717845,4224.102461,4225.640922,4237.435794,4234.358871,4197.435795
106,0,4153.333232,4203.07682,4203.07682,4335.89733,4162.564001,4218.461435,4224.102461,4212.82041,4227.692204,4227.692204,4207.179384,4226.153743,4226.666563,4185.640923
107,0,4154.871693,4199.487077,4200.512718,4341.025535,4176.410154,4222.051179,4227.692204,4215.384512,4232.307589,4235.897332,4214.358871,4231.794768,4232.820409,4187.179385
108,0,4157.435796,4198.974256,4201.025538,4332.307586,4190.769128,4229.230666,4234.871691,4219.999897,4232.307589,4230.256307,4219.487076,4234.358871,4233.84605,4190.256308
109,0,4158.974257,4204.102461,4204.615282,4281.025536,4202.564,4233.84605,4237.948614,4218.461435,4229.230666,4232.307589,4212.307589,4233.84605,4231.281948,4190.769128
110,0,4152.307591,4202.051179,4202.564,4239.487076,4205.640923,4214.871692,4221.538358,4202.564,4224.102461,4228.205025,4198.974256,4222.051179,4224.615281,4183.076821
111,0,4148.205027,4192.82041,4196.410154,4266.153742,4195.384513,4195.897333,4204.615282,4187.692205,4224.102461,4207.692205,4189.743487,4211.281948,4220.512717,4175.897334
112,0,4167.179385,4204.102461,4211.281948,4333.846048,4189.743487,4215.384512,4216.410153,4204.615282,4234.358871,4220.512717,4207.692205,4233.84605,4238.974255,4194.358872
113,0,4188.205026,4221.538358,4230.256307,4357.948611,4193.333231,4237.435794,4230.769127,4229.230666,4236.922973,4258.974255,4232.307589,4257.948614,4255.384511,4212.82041
114,0,4172.820411,4206.666564,4217.948615,4339.999894,4175.384513,4216.922974,4219.999897,4216.410153,4223.07682,4246.153742,4218.461435,4236.922973,4233.84605,4194.358872
115,0,4148.205027,4183.589641,4195.384513,4355.897329,4148.205027,4196.922974,4205.640923,4191.281949,4215.897333,4208.717846,4191.794769,4210.256307,4207.692205,4168.205026
116,0,4160.512719,4194.358872,4199.487077,4388.717841,4165.640924,4225.640922,4222.563999,4203.589641,4230.256307,4217.435794,4199.999897,4222.051179,4221.025538,4179.487077
117,0,4171.281949,4205.640923,4209.743487,4373.846047,4192.30759,4245.640922,4241.538358,4222.563999,4237.435794,4235.897332,4214.871692,4240.512717,4236.922973,4194.871692
118,0,4152.307591,4184.102462,4200.512718,4339.999894,4165.128103,4214.871692,4225.640922,4205.640923,4221.025538,4218.974256,4198.461436,4228.205025,4221.025538,4175.897334
119,0,4145.640924,4175.384513,4195.384513,4334.358868,4140.512719,4194.871692,4209.743487,4185.640923,4213.846051,4198.461436,4182.564,4212.82041,4207.179384,4161.53836
120,0,4162.05118,4194.358872,4207.179384,4356.41015,4160.512719,4213.33323,4217.435794,4195.897333,4227.179384,4204.102461,4192.30759,4221.025538,4214.871692,4174.871693
121,0,4168.205026,4198.974256,4214.871692,4384.102457,4168.717847,4229.743486,4222.051179,4207.692205,4232.820409,4226.153743,4207.179384,4232.820409,4223.58964,4186.153744
122,0,4171.281949,4191.281949,4214.871692,4400.512713,4150.256309,4228.205025,4221.025538,4205.640923,4226.666563,4234.871691,4213.33323,4232.820409,4227.179384,4185.128103
123,0,4188.717846,4196.410154,4224.102461,4409.743482,4147.179386,4232.307589,4230.256307,4213.33323,4227.692204,4229.743486,4219.999897,4238.974255,4232.820409,4194.871692
124,0,4198.974256,4205.128102,4230.256307,4395.897328,4157.948616,4233.33323,4228.717845,4223.58964,4231.281948,4233.33323,4226.666563,4247.692204,4236.410153,4207.692205
125,0,4191.281949,4197.948615,4213.846051,4357.435791,4156.922975,4209.230666,4207.692205,4211.281948,4226.153743,4224.102461,4215.384512,4236.410153,4230.256307,4201.538359
126,0,4198.974256,4192.82041,4210.769128,4346.15374,4172.30759,4212.82041,4214.358871,4210.256307,4228.717845,4210.769128,4213.846051,4235.384512,4232.820409,4204.102461
127,0,4224.102461,4206.153743,4231.794768,4334.871689,4208.205025,4246.666563,4242.051178,4234.358871,4234.871691,4224.615281,4235.897332,4255.897332,4250.769127,4227.692204
128,0,4231.281948,4213.33323,4234.358871,4286.666562,4223.58964,4245.640922,4244.615281,4237.435794,4232.307589,4243.58964,4239.999896,4258.461434,4253.84605,4234.358871
0,0,4231.281948,4209.230666,4221.538358,4287.692203,4209.230666,4223.58964,4231.281948,4224.615281,4227.179384,4239.999896,4226.153743,4247.692204,4242.051178,4223.58964
1,0,4227.692204,4192.30759,4215.384512,4338.461432,4172.30759,4206.153743,4217.435794,4212.82041,4217.948615,4222.051179,4209.230666,4236.410153,4229.230666,4214.358871
2,0,4225.640922,4180.512718,4211.281948,4330.256304,4161.53836,4194.358872,4206.666564,4199.999897,4213.33323,4209.743487,4195.897333,4228.205025,4224.615281,4213.846051
3,0,4255.384511,4206.153743,4226.153743,4296.922972,4213.33323,4219.999897,4224.102461,4216.922974,4230.256307,4223.07682,4222.051179,4250.256306,4249.743486,4242.563999
4,0,4292.307587,4236.922973,4249.230665,4319.999894,4243.076819,4250.769127,4246.153742,4254.871691,4243.076819,4252.820409,4265.640921,4281.538357,4280.512716,4272.820408
5,0,4286.153741,4225.640922,4244.615281,4333.333227,4205.640923,4229.743486,4224.615281,4246.153742,4226.666563,4244.615281,4254.871691,4268.717844,4267.692203,4255.897332
6,0,4264.10246,4206.153743,4229.230666,4307.179382,4194.358872,4205.128102,4202.051179,4214.871692,4216.410153,4210.769128,4224.615281,4243.58964,4244.615281,4232.307589
7,0,4269.743485,4215.897333,4232.307589,4314.871689,4213.33323,4218.461435,4214.358871,4221.538358,4227.179384,4214.358871,4232.307589,4253.333229,4253.84605,4240.512717
8,0,4273.333229,4224.102461,4237.435794,4360.512714,4204.615282,4225.640922,4224.615281,4241.025537,4235.897332,4237.435794,4247.179383,4266.666562,4262.563998,4247.692204
9,0,4252.307588,4211.794769,4228.717845,4358.461432,4191.281949,4214.871692,4217.948615,4236.922973,4230.256307,4241.538358,4236.410153,4257.435793,4250.769127,4234.871691
10,0,4234.871691,4199.999897,4219.487076,4281.025536,4204.615282,4211.281948,4216.922974,4224.615281,4222.563999,4231.281948,4223.07682,4246.666563,4245.640922,4224.615281
11,0,4229.743486,4196.410154,4212.307589,4301.025536,4202.051179,4212.82041,4222.051179,4222.051179,4225.128102,4217.435794,4223.07682,4248.205024,4247.179383,4221.025538
12,0,4225.128102,4201.538359,4216.922974,4268.205024,4216.922974,4215.384512,4228.205025,4225.640922,4233.33323,4220.512717,4226.666563,4249.743486,4247.692204,4222.051179
13,0,4213.846051,4204.102461,4230.769127,3778.974267,4373.333226,4223.07682,4233.33323,4217.948615,4232.307589,4236.922973,4218.974256,4242.051178,4245.640922,4218.974256
14,0,4194.871692,4190.256308,4223.58964,3188.20505,4585.640914,4218.461435,4221.538358,4182.564,4216.410153,4222.563999,4190.769128,4222.051179,4236.922973,4201.025538
15,0,4167.692206,4163.076821,4202.051179,3101.538386,4654.358861,4191.281949,4190.769128,4137.435796,4200.512718,4190.769128,4153.846052,4194.358872,4216.410153,4176.410154
16,0,4150.769129,4147.692206,4193.846051,3269.230689,4616.922964,4171.79477,4165.640924,4115.897335,4200.512718,4191.281949,4129.743489,4178.974257,4199.487077,4165.640924
17,0,4152.820411,4157.435796,4201.025538,3277.948638,4620.512708,4181.538359,4166.153744,4122.564002,4211.794769,4206.666564,4131.28195,4180.512718,4203.07682,4171.281949
18,0,4161.53836,4173.846052,4207.179384,3261.025561,4647.179374,4197.948615,4177.435795,4138.974258,4218.974256,4212.82041,4145.128104,4190.256308,4221.025538,4179.487077
19,0,4150.256309,4165.640924,4199.999897,3284.615304,4629.743477,4183.076821,4169.743488,4132.820412,4209.230666,4193.846051,4134.871694,4182.05118,4212.82041,4164.615283
20,0,4132.307591,4149.230668,4190.769128,3248.717869,4625.640913,4166.153744,4162.05118,4115.897335,4205.128102,4162.564001,4113.333233,4164.102462,4191.281949,4149.230668
21,0,4143.076822,4163.076821,4199.999897,3251.281972,4659.999886,4195.897333,4190.769128,4132.820412,4218.974256,4182.564,4128.205027,4174.871693,4207.179384,4163.076821
22,0,4151.79477,4175.384513,4206.666564,3334.871713,4652.820399,4222.051179,4219.999897,4156.922975,4221.538358,4216.410153,4149.230668,4189.230667,4219.999897,4172.820411
23,0,4137.948617,4161.025539,4195.897333,3466.666582,4584.102452,4210.769128,4216.410153,4153.333232,4215.384512,4206.666564,4140.512719,4184.102462,4205.128102,4165.128103
24,0,4146.153745,4168.205026,4205.128102,3594.358886,4544.615273,4218.974256,4223.07682,4166.666565,4228.205025,4215.384512,4153.846052,4198.461436,4215.897333,4177.435795
25,0,4160.512719,4191.281949,4218.974256,3671.281962,4536.410145,4234.358871,4234.871691,4191.281949,4238.461435,4238.461435,4187.179385,4219.487076,4237.948614,4191.281949
26,0,4147.179386,4187.692205,4205.128102,3722.051191,4494.871685,4217.948615,4222.051179,4186.153744,4227.179384,4217.948615,4189.230667,4213.33323,4231.281948,4179.999898
27,0,4141.02554,4176.410154,4200.512718,3776.410164,4457.435788,4212.307589,4215.384512,4177.435795,4221.025538,4205.640923,4179.999898,4208.717846,4224.615281,4177.948616
28,0,4158.461437,4186.666564,4217.435794,3856.922983,4446.153737,4225.640922,4225.128102,4190.256308,4228.717845,4236.410153,4189.743487,4224.615281,4235.897332,4192.30759
29,0,4163.589642,4195.897333,4219.487076,3979.487082,4407.6922,4222.051179,4222.051179,4196.410154,4228.717845,4241.025537,4194.871692,4230.256307,4232.307589,4189.230667
30,0,4159.999898,4197.948615,4208.205025,4151.28195,4336.41015,4223.07682,4222.563999,4202.564,4226.666563,4224.102461,4196.410154,4228.205025,4226.153743,4181.538359
31,0,4165.640924,4203.07682,4211.281948,4302.051177,4280.512716,4238.461435,4239.487076,4224.102461,4234.358871,4238.461435,4213.33323,4236.922973,4236.410153,4189.743487
32,0,4181.538359,4215.897333,4224.102461,4353.846047,4270.256306,4258.461434,4253.333229,4247.692204,4247.179383,4265.128101,4239.999896,4256.410152,4252.307588,4203.589641
33,0,4190.769128,4226.153743,4229.230666,4359.999893,4265.128101,4271.794767,4264.10246,4262.051178,4248.717845,4260.512716,4253.84605,4268.205024,4256.410152,4210.769128
34,0,4171.79477,4207.692205,4216.922974,4365.128098,4220.512717,4244.615281,4257.435793,4248.717845,4231.794768,4225.128102,4234.871691,4251.281947,4237.435794,4198.974256
35,0,4156.922975,4191.794769,4209.230666,4367.17938,4201.025538,4218.974256,4241.025537,4233.33323,4226.153743,4225.128102,4223.07682,4241.538358,4230.769127,4191.794769
36,0,4175.384513,4205.640923,4223.07682,4386.153739,4227.692204,4247.179383,4252.307588,4252.820409,4244.615281,4264.61528,4247.179383,4267.692203,4253.333229,4210.769128
37,0,4191.281949,4213.846051,4230.769127,4401.538354,4225.640922,4271.281947,4273.846049,4274.35887,4253.333229,4272.820408,4262.051178,4284.102459,4261.538357,4226.666563
38,0,4183.589641,4197.435795,4220.512717,4378.461431,4197.948615,4250.769127,4262.563998,4258.461434,4234.871691,4244.10246,4249.743486,4270.769126,4246.666563,4215.897333
39,0,4174.871693,4189.230667,4213.33323,4365.640919,4196.922974,4233.33323,4242.051178,4238.461435,4225.640922,4236.922973,4239.999896,4256.410152,4239.487076,4203.07682
40,0,4185.640923,4207.179384,4225.128102,4396.410149,4221.025538,4251.281947,4252.820409,4256.410152,4241.025537,4261.025537,4249.230665,4266.153742,4252.820409,4214.358871
41,0,4196.410154,4217.435794,4234.871691,4410.769123,4221.025538,4257.948614,4260.512716,4273.333229,4241.538358,4268.717844,4253.84605,4272.820408,4253.333229,4220.512717
42,0,4181.025539,4197.948615,4217.948615,4380.512713,4187.692205,4227.692204,4236.410153,4248.717845,4224.102461,4236.410153,4233.33323,4250.769127,4231.794768,4197.948615
43,0,4168.717847,4186.153744,4210.769128,4383.076816,4181.025539,4227.179384,4233.84605,4236.410153,4229.743486,4218.461435,4229.743486,4241.025537,4229.743486,4192.30759
44,0,4197.948615,4210.256307,4230.256307,4454.358865,4206.666564,4269.743485,4266.153742,4270.256306,4250.256306,4255.384511,4263.589639,4270.769126,4258.974255,4219.487076
45,0,4224.102461,4232.820409,4240.512717,4466.666557,4215.897333,4281.538357,4275.897331,4287.692203,4248.717845,4283.589639,4278.974254,4288.205023,4269.230665,4229.743486
46,0,4211.794769,4230.769127,4236.922973,4392.307585,4219.487076,4266.153742,4266.153742,4273.846049,4241.538358,4267.179383,4265.128101,4276.410152,4253.84605,4215.384512
47,0,4218.461435,4244.10246,4253.84605,4406.666559,4242.563999,4291.794767,4290.769126,4290.256305,4254.35887,4270.256306,4283.589639,4292.307587,4265.128101,4231.794768
48,0,4252.820409,4269.743485,4273.846049,4494.871685,4252.307588,4325.64092,4325.128099,4333.333227,4268.205024,4303.589638,4323.076817,4331.281945,4285.1281,4265.128101
49,0,4252.820409,4271.794767,4269.743485,4472.307583,4244.10246,4312.820407,4321.025535,4341.025535,4263.589639,4310.256305,4323.076817,4332.307586,4272.820408,4261.025537
50,0,4232.307589,4258.974255,4258.974255,4417.435789,4239.487076,4296.410151,4303.076818,4322.051176,4253.84605,4290.256305,4312.307587,4314.358869,4259.999896,4244.10246
51,0,4231.794768,4254.871691,4253.333229,4438.97425,4226.153743,4297.435792,4299.999895,4317.948612,4252.307588,4282.051177,4315.89733,4313.846048,4262.051178,4246.666563
52,0,4225.128102,4246.153742,4245.128101,4431.794763,4208.205025,4276.922972,4284.61528,4307.692202,4248.717845,4276.922972,4297.948613,4304.615279,4249.743486,4239.999896
53,0,4213.33323,4236.410153,4240.512717,4404.615277,4207.692205,4257.435793,4264.10246,4286.666562,4241.538358,4268.205024,4274.87169,4285.640921,4236.410153,4226.666563
54,0,4219.487076,4241.025537,4246.666563,4426.153738,4211.794769,4270.769126,4268.717844,4285.1281,4245.128101,4264.61528,4281.538357,4288.717844,4245.640922,4230.256307
55,0,4226.666563,4251.281947,4249.230665,4461.538352,4202.051179,4282.051177,4276.410152,4294.87169,4248.205024,4266.666562,4291.281946,4300.512715,4250.256306,4234.871691
56,0,4218.974256,4250.769127,4241.025537,4425.640917,4196.410154,4268.205024,4263.589639,4287.179382,4238.461435,4267.179383,4276.410152,4289.743485,4238.461435,4225.128102
57,0,4199.487077,4235.384512,4228.205025,4202.051179,4246.666563,4245.640922,4247.179383,4259.999896,4225.640922,4243.076819,4249.743486,4261.025537,4224.615281,4208.717846
58,0,4183.076821,4221.025538,4218.461435,3914.871699,4345.128099,4236.410153,4244.10246,4232.307589,4226.153743,4224.102461,4228.717845,4241.538358,4219.487076,4196.410154
59,0,4188.717846,4227.692204,4224.615281,3899.487084,4392.820405,4249.230665,4248.205024,4233.33323,4238.974255,4249.743486,4228.717845,4248.205024,4227.692204,4203.07682
60,0,4206.153743,4244.10246,4237.948614,4137.435796,4344.615278,4264.10246,4253.84605,4259.999896,4250.769127,4277.435793,4249.230665,4267.179383,4236.922973,4218.461435
61,0,4201.025538,4241.538358,4230.769127,4277.435793,4269.230665,4251.794768,4251.794768,4263.076819,4245.640922,4261.025537,4253.333229,4265.128101,4233.33323,4210.769128
62,0,4182.564,4228.205025,4213.846051,4280.512716,4236.410153,4232.820409,4243.58964,4242.051178,4230.769127,4238.461435,4237.435794,4252.820409,4224.615281,4195.384513
63,0,4185.640923,4235.897332,4219.999897,4324.102458,4233.84605,4240.512717,4244.10246,4245.128101,4233.33323,4250.769127,4240.512717,4256.922973,4231.794768,4204.615282
64,0,4199.487077,4249.230665,4232.820409,4389.743482,4223.07682,4252.307588,4248.717845,4261.025537,4243.076819,4264.10246,4255.384511,4264.61528,4241.025537,4218.974256
65,0,4202.051179,4251.281947,4230.256307,4406.666559,4207.179384,4255.897332,4250.769127,4265.128101,4241.025537,4257.435793,4255.897332,4267.179383,4238.461435,4215.384512
66,0,4192.82041,4247.179383,4218.974256,4383.589636,4195.384513,4257.435793,4248.717845,4262.563998,4233.33323,4248.205024,4245.128101,4262.563998,4228.205025,4204.615282
67,0,4182.05118,4237.435794,4209.743487,4376.410149,4181.025539,4243.076819,4244.10246,4255.384511,4231.281948,4241.025537,4237.435794,4250.769127,4221.538358,4199.487077
68,0,4187.692205,4235.384512,4217.948615,4398.974251,4178.461436,4235.384512,4246.666563,4255.897332,4239.999896,4245.128101,4247.179383,4255.897332,4231.794768,4207.692205
69,0,4210.769128,4256.410152,4234.871691,4424.102456,4186.153744,4255.897332,4262.563998,4275.384511,4249.743486,4265.640921,4270.769126,4278.974254,4251.281947,4228.205025
70,0,4215.897333,4267.179383,4236.410153,4432.820404,4172.820411,4261.538357,4264.61528,4282.051177,4246.666563,4274.87169,4273.333229,4283.076818,4252.307588,4234.358871
71,0,4207.692205,4261.538357,4231.281948,4435.384507,4165.128103,4249.743486,4253.84605,4272.820408,4237.948614,4267.179383,4262.051178,4274.87169,4245.128101,4223.07682
72,0,4207.692205,4262.563998,4233.33323,4420.512712,4187.179385,4249.743486,4249.743486,4271.281947,4233.33323,4258.974255,4262.563998,4276.410152,4244.10246,4217.948615
73,0,4206.666564,4257.948614,4231.281948,4388.205021,4191.794769,4245.640922,4242.051178,4266.666562,4232.307589,4251.281947,4256.922973,4269.230665,4237.948614,4218.974256
74,0,4208.717846,4251.794768,4228.717845,4397.43579,4176.922975,4243.58964,4240.512717,4259.999896,4235.897332,4251.794768,4246.666563,4261.025537,4232.307589,4219.487076
75,0,4227.179384,4267.692203,4238.461435,4425.128097,4192.82041,4269.230665,4264.10246,4275.384511,4246.666563,4264.61528,4264.61528,4277.435793,4247.692204,4231.794768
76,0,4245.640922,4284.61528,4251.794768,4431.794763,4209.230666,4288.205023,4283.589639,4297.948613,4251.794768,4268.717844,4291.794767,4298.974254,4266.666562,4251.281947
77,0,4241.538358,4273.333229,4249.743486,4439.487071,4176.922975,4269.743485,4269.230665,4294.358869,4244.10246,4264.61528,4285.1281,4293.333228,4259.487075,4250.256306
78,0,4224.102461,4247.179383,4232.820409,4430.256302,4136.410155,4239.999896,4239.999896,4263.076819,4230.769127,4256.410152,4254.35887,4267.179383,4233.33323,4225.128102
79,0,4228.205025,4244.615281,4227.692204,4425.640917,4131.28195,4228.717845,4227.692204,4244.10246,4230.256307,4247.692204,4239.487076,4254.871691,4224.615281,4218.974256
80,0,4268.717844,4271.281947,4250.769127,4433.846045,4157.435796,4244.10246,4242.563999,4268.717844,4244.615281,4248.717845,4258.974255,4275.384511,4251.281947,4252.307588
81,0,4306.153741,4288.205023,4270.769126,4373.846047,4196.410154,4259.999896,4258.461434,4294.358869,4245.128101,4240.512717,4284.61528,4298.974254,4272.820408,4283.076818
82,0,4305.1281,4271.794767,4256.922973,4287.179382,4209.230666,4244.615281,4241.025537,4275.897331,4229.743486,4230.769127,4275.384511,4286.153741,4256.922973,4272.820408
83,0,4298.974254,4253.84605,4239.999896,4294.358869,4186.153744,4218.461435,4215.897333,4248.717845,4226.666563,4250.769127,4243.076819,4261.025537,4236.922973,4254.871691
84,0,4322.563997,4262.051178,4252.820409,4341.538355,4178.974257,4219.999897,4219.487076,4253.333229,4232.820409,4255.897332,4241.025537,4270.256306,4245.128101,4269.743485
85,0,4357.948611,4281.538357,4275.384511,4360.512714,4192.30759,4239.999896,4234.871691,4273.333229,4234.358871,4228.205025,4270.256306,4295.38451,4263.076819,4295.897331
86,0,4375.384508,4289.230664,4281.025536,4390.256303,4181.538359,4238.461435,4233.84605,4277.435793,4233.33323,4237.435794,4281.025536,4300.512715,4264.10246,4305.64092
87,0,4395.384508,4296.922972,4288.205023,4432.307584,4165.128103,4229.230666,4226.666563,4279.999895,4234.871691,4265.128101,4282.563998,4307.692202,4267.692203,4313.333228
88,0,4417.435789,4310.256305,4300.512715,4451.281942,4166.153744,4243.076819,4235.384512,4294.87169,4235.897332,4258.461434,4297.948613,4326.666561,4275.384511,4324.102458
89,0,4405.128097,4302.563997,4290.769126,4452.307583,4150.769129,4241.025537,4236.410153,4295.38451,4231.794768,4244.615281,4294.358869,4318.974253,4266.153742,4316.922971
90,0,4385.128098,4290.256305,4276.410152,4448.205019,4130.256309,4216.922974,4222.563999,4279.487075,4228.205025,4233.84605,4277.948613,4302.563997,4257.948614,4302.563997
91,0,4391.281944,4303.589638,4282.051177,4429.743481,4146.153745,4214.871692,4222.051179,4275.897331,4230.769127,4225.640922,4282.051177,4307.179382,4264.61528,4299.999895
92,0,4387.6922,4311.281946,4284.61528,4411.281943,4164.102462,4225.640922,4228.717845,4282.051177,4227.692204,4237.948614,4283.076818,4306.666561,4264.61528,4296.922972
93,0,4372.307585,4306.666561,4278.974254,4441.538353,4156.410155,4232.820409,4237.948614,4286.153741,4232.307589,4262.563998,4277.948613,4304.102459,4258.974255,4295.897331
94,0,4366.66656,4310.256305,4279.999895,4462.051173,4157.435796,4244.615281,4248.717845,4297.948613,4244.615281,4271.794767,4290.769126,4312.820407,4266.666562,4296.922972
95,0,4349.230663,4305.64092,4275.897331,4397.94861,4174.871693,4248.205024,4245.640922,4297.948613,4241.025537,4257.948614,4294.87169,4308.205023,4264.10246,4282.563998
96,0,4321.025535,4290.256305,4260.512716,4353.846047,4173.846052,4242.563999,4239.487076,4281.538357,4230.256307,4237.435794,4277.948613,4287.692203,4248.717845,4262.051178
97,0,4309.743484,4283.589639,4251.794768,4394.358867,4158.461437,4249.230665,4245.128101,4276.922972,4234.358871,4240.512717,4267.692203,4280.512716,4247.179383,4252.307588
98,0,4300.512715,4285.640921,4249.230665,4428.20502,4152.307591,4253.84605,4245.128101,4277.435793,4237.948614,4256.410152,4265.128101,4278.974254,4251.281947,4250.769127
99,0,4275.897331,4277.948613,4236.922973,4428.71784,4142.051181,4238.974255,4228.717845,4259.487075,4230.256307,4237.435794,4251.794768,4265.128101,4239.999896,4235.384512
100,0,4255.384511,4264.61528,4226.666563,4426.153738,4125.640925,4224.102461,4219.487076,4239.999896,4226.153743,4221.025538,4230.769127,4253.84605,4222.563999,4212.82041
101,0,4255.384511,4265.640921,4234.358871,4416.922969,4131.794771,4224.102461,4220.512717,4244.615281,4231.794768,4242.563999,4231.794768,4259.999896,4227.179384,4217.435794
102,0,4264.10246,4278.461434,4248.205024,4409.743482,4161.025539,4237.435794,4231.281948,4260.512716,4236.410153,4252.307588,4256.922973,4277.948613,4246.666563,4241.538358
103,0,4262.563998,4284.61528,4251.281947,4388.717841,4183.589641,4244.615281,4241.538358,4265.640921,4234.358871,4240.512717,4265.128101,4282.051177,4249.230665,4243.076819
104,0,4249.230665,4277.435793,4244.615281,4356.41015,4184.615282,4236.410153,4237.948614,4258.974255,4230.769127,4232.820409,4250.256306,4270.256306,4235.384512,4226.153743
105,0,4234.358871,4270.769126,4235.897332,4366.66656,4168.717847,4232.820409,4232.307589,4252.820409,4233.33323,4230.769127,4241.025537,4262.563998,4230.256307,4217.948615
106,0,4217.435794,4262.051178,4223.58964,4386.666559,4149.743488,4231.794768,4233.33323,4246.153742,4231.794768,4237.948614,4233.33323,4254.35887,4231.281948,4207.179384
107,0,4212.307589,4263.589639,4223.07682,4375.384508,4153.333232,4232.820409,4238.974255,4243.58964,4232.307589,4245.128101,4228.717845,4251.281947,4229.743486,4204.102461
108,0,4227.179384,4278.974254,4232.820409,4364.102457,4171.281949,4244.10246,4249.230665,4255.897332,4236.410153,4234.358871,4244.615281,4268.717844,4241.025537,4224.615281
109,0,4235.384512,4281.025536,4236.410153,4291.794767,4197.948615,4243.58964,4252.307588,4259.999896,4233.84605,4233.84605,4255.897332,4279.999895,4248.717845,4233.84605
110,0,4228.205025,4278.974254,4239.487076,4182.564,4238.461435,4232.820409,4247.179383,4253.84605,4234.871691,4260.512716,4247.179383,4273.333229,4245.128101,4224.615281
111,0,4229.230666,4293.333228,4245.640922,4194.358872,4262.563998,4243.58964,4247.179383,4263.589639,4242.563999,4275.384511,4248.717845,4276.922972,4250.769127,4226.666563
112,0,4231.281948,4296.410151,4241.025537,4250.256306,4246.153742,4249.230665,4248.205024,4266.153742,4238.974255,4259.487075,4253.84605,4280.512716,4250.256306,4229.230666
113,0,4211.794769,4271.794767,4228.717845,4235.897332,4212.307589,4221.538358,4231.794768,4237.435794,4225.128102,4224.102461,4235.384512,4256.922973,4227.692204,4208.717846
114,0,4197.948615,4264.61528,4227.179384,4268.205024,4199.487077,4212.82041,4221.538358,4224.615281,4225.128102,4211.794769,4218.974256,4241.025537,4218.461435,4194.871692
115,0,4207.179384,4281.538357,4230.769127,4284.102459,4217.435794,4237.948614,4232.820409,4240.512717,4231.794768,4239.487076,4226.666563,4252.820409,4230.256307,4205.640923
116,0,4214.871692,4286.666562,4233.84605,4157.435796,4254.871691,4255.897332,4245.640922,4242.563999,4234.358871,4259.999896,4233.84605,4263.076819,4233.84605,4215.897333
117,0,4208.205025,4283.076818,4232.307589,4082.564003,4277.948613,4250.769127,4246.666563,4235.897332,4234.871691,4247.692204,4225.640922,4258.461434,4225.640922,4206.666564
118,0,4182.05118,4268.717844,4213.846051,4130.76913,4253.333229,4223.07682,4229.743486,4221.538358,4221.538358,4221.025538,4203.07682,4233.84605,4202.564,4179.999898
119,0,4165.640924,4259.999896,4206.666564,4152.820411,4229.743486,4207.179384,4215.384512,4204.102461,4214.871692,4210.256307,4187.179385,4215.384512,4193.333231,4171.79477
120,0,4191.794769,4288.205023,4227.179384,4190.256308,4246.666563,4238.974255,4236.922973,4225.128102,4237.948614,4229.743486,4215.897333,4242.563999,4228.205025,4204.102461
121,0,4223.58964,4321.538356,4243.58964,4297.435792,4251.794768,4275.897331,4269.230665,4269.743485,4256.410152,4263.076819,4261.538357,4283.076818,4262.563998,4235.897332
122,0,4216.922974,4313.846048,4236.922973,4343.076817,4209.743487,4262.051178,4261.538357,4271.281947,4240.512717,4272.307588,4263.589639,4279.487075,4253.333229,4226.153743
123,0,4193.846051,4293.846049,4224.102461,4290.256305,4182.564,4232.307589,4234.871691,4239.487076,4227.179384,4254.871691,4230.769127,4251.281947,4225.640922,4201.025538
124,0,4186.666564,4292.820408,4216.410153,4264.10246,4191.794769,4229.743486,4229.743486,4228.205025,4230.769127,4230.769127,4215.384512,4244.10246,4216.922974,4194.871692
125,0,4189.230667,4294.87169,4214.871692,4286.666562,4189.743487,4231.794768,4233.33323,4230.256307,4228.717845,4215.384512,4223.07682,4247.179383,4224.102461,4199.999897
126,0,4197.948615,4303.076818,4224.615281,4286.666562,4198.461436,4236.922973,4237.948614,4234.871691,4232.307589,4235.384512,4232.307589,4246.153742,4233.33323,4203.07682
127,0,4206.153743,4315.89733,4231.794768,4282.051177,4216.922974,4249.743486,4246.666563,4246.153742,4241.025537,4263.076819,4232.820409,4248.717845,4235.384512,4204.102461
128,0,4199.999897,4313.333228,4222.051179,4322.051176,4196.922974,4249.743486,4250.256306,4251.281947,4239.487076,4259.487075,4228.717845,4247.692204,4232.820409,4201.538359
0,0,4192.82041,4306.153741,4212.307589,4358.974252,4175.384513,4245.128101,4251.281947,4248.205024,4237.435794,4245.128101,4230.256307,4244.10246,4230.769127,4196.922974
1,0,4195.384513,4316.922971,4221.025538,4349.743483,4190.769128,4258.974255,4258.974255,4253.333229,4243.58964,4246.153742,4240.512717,4253.333229,4235.384512,4203.589641
2,0,4206.666564,4332.307586,4236.410153,4331.281945,4207.179384,4269.743485,4266.666562,4266.666562,4244.10246,4252.820409,4252.307588,4267.179383,4249.230665,4217.948615
3,0,4199.999897,4322.563997,4230.769127,4299.999895,4199.487077,4250.769127,4256.410152,4257.435793,4236.410153,4248.717845,4245.128101,4258.974255,4242.563999,4212.307589
4,0,4186.666564,4309.743484,4215.384512,4289.230664,4188.205026,4230.769127,4237.948614,4233.84605,4230.769127,4240.512717,4226.666563,4242.563999,4222.563999,4195.384513
5,0,4194.871692,4319.487074,4222.051179,4319.999894,4181.538359,4230.769127,4229.743486,4234.871691,4231.281948,4242.051178,4229.743486,4247.179383,4224.615281,4198.461436
6,0,4204.102461,4328.717843,4234.871691,4259.999896,4205.128102,4235.384512,4233.33323,4248.717845,4235.384512,4244.615281,4242.563999,4259.999896,4238.974255,4210.769128
7,0,4203.589641,4325.64092,4234.871691,4138.974258,4256.922973,4239.999896,4242.051178,4248.717845,4246.666563,4249.230665,4248.205024,4267.179383,4247.179383,4216.410153
8,0,4207.179384,4325.128099,4232.307589,4144.102463,4269.230665,4249.230665,4249.230665,4247.692204,4248.717845,4255.897332,4249.743486,4268.717844,4246.666563,4219.487076
9,0,4199.487077,4319.487074,4227.692204,4211.281948,4237.948614,4247.179383,4247.179383,4247.692204,4237.435794,4255.897332,4237.948614,4256.410152,4232.820409,4211.794769
10,0,4184.615282,4310.256305,4216.410153,4203.589641,4224.615281,4238.461435,4241.025537,4241.538358,4230.256307,4253.333229,4228.205025,4246.153742,4228.205025,4201.025538
11,0,4184.615282,4306.666561,4214.358871,4165.128103,4240.512717,4234.871691,4238.461435,4234.358871,4234.358871,4247.179383,4232.307589,4248.717845,4233.84605,4203.07682
12,0,4183.589641,4296.410151,4214.358871,4137.435796,4249.743486,4230.769127,4233.33323,4222.563999,4230.256307,4234.871691,4222.563999,4239.999896,4220.512717,4201.538359
13,0,4182.05118,4292.307587,4214.871692,4134.358873,4250.769127,4231.794768,4231.794768,4217.948615,4228.205025,4230.256307,4212.82041,4234.358871,4216.922974,4195.384513
14,0,4200.512718,4312.307587,4227.692204,4172.820411,4259.999896,4248.205024,4247.692204,4239.999896,4240.512717,4248.205024,4233.33323,4255.897332,4238.461435,4209.230666
15,0,4205.640923,4318.974253,4230.769127,4178.461436,4265.640921,4254.35887,4252.820409,4250.769127,4245.128101,4263.589639,4247.179383,4267.692203,4241.538358,4218.974256
16,0,4187.179385,4297.948613,4217.435794,4155.897334,4255.897332,4236.922973,4236.410153,4233.84605,4235.384512,4253.333229,4229.743486,4249.230665,4227.692204,4204.102461
17,0,4187.179385,4289.230664,4214.871692,4204.102461,4237.435794,4229.743486,4228.717845,4231.794768,4230.769127,4239.487076,4227.692204,4245.640922,4228.717845,4201.538359
18,0,4202.564,4300.512715,4223.07682,4273.333229,4225.640922,4245.640922,4242.051178,4245.640922,4237.435794,4243.076819,4243.58964,4260.512716,4237.948614,4214.871692
19,0,4209.743487,4308.717843,4230.256307,4286.666562,4228.205025,4262.563998,4255.384511,4255.897332,4246.153742,4265.128101,4248.205024,4265.640921,4240.512717,4218.974256
20,0,4211.281948,4306.666561,4231.794768,4277.435793,4235.384512,4268.717844,4259.999896,4262.051178,4243.58964,4274.35887,4250.256306,4264.10246,4239.487076,4215.897333
21,0,4203.589641,4295.38451,4220.512717,4268.205024,4218.461435,4252.307588,4252.820409,4252.820409,4232.307589,4250.769127,4246.153742,4253.84605,4232.307589,4208.205025
22,0,4194.358872,4286.666562,4214.358871,4269.743485,4197.948615,4235.897332,4240.512717,4238.974255,4234.871691,4238.461435,4231.794768,4245.128101,4226.666563,4198.461436
23,0,4204.615282,4294.358869,4228.205025,4261.025537,4218.974256,4250.769127,4247.179383,4249.230665,4249.743486,4263.076819,4235.384512,4255.897332,4234.871691,4206.666564
24,0,4216.922974,4303.589638,4234.358871,4229.743486,4249.743486,4267.179383,4258.461434,4263.076819,4248.717845,4278.974254,4255.384511,4268.717844,4244.10246,4221.538358
25,0,4225.128102,4308.717843,4234.871691,4268.205024,4243.58964,4268.205024,4260.512716,4268.205024,4249.230665,4274.87169,4267.179383,4274.87169,4252.307588,4230.256307
26,0,4247.692204,4329.743484,4256.922973,4374.358867,4227.179384,4286.666562,4276.410152,4293.333228,4263.589639,4286.666562,4288.717844,4297.435792,4273.333229,4246.153742
27,0,4264.10246,4342.563996,4271.281947,4406.666559,4227.179384,4305.1281,4294.358869,4317.435792,4262.051178,4296.410151,4316.922971,4320.512715,4286.153741,4256.410152
28,0,4249.230665,4319.999894,4253.333229,4377.948611,4209.230666,4285.1281,4283.076818,4306.666561,4244.10246,4276.922972,4307.179382,4310.256305,4271.794767,4247.692204
29,0,4241.025537,4304.102459,4243.076819,4396.922969,4183.589641,4266.153742,4266.666562,4290.769126,4244.615281,4273.846049,4282.051177,4294.87169,4259.999896,4243.076819
30,0,4255.897332,4314.871689,4251.281947,4401.538354,4190.769128,4270.769126,4264.61528,4290.769126,4251.281947,4289.230664,4281.538357,4296.410151,4265.128101,4247.692204
31,0,4255.897332,4306.153741,4242.051178,4352.307586,4196.410154,4256.410152,4250.256306,4272.307588,4237.435794,4252.820409,4270.769126,4284.61528,4250.256306,4236.922973
32,0,4247.692204,4278.461434,4225.640922,4341.025535,4173.846052,4234.871691,4230.256307,4245.128101,4226.153743,4210.256307,4244.10246,4264.10246,4229.743486,4225.640922
33,0,4258.461434,4273.333229,4231.794768,4330.256304,4167.179385,4240.512717,4228.717845,4243.58964,4230.256307,4233.84605,4239.999896,4263.076819,4234.358871,4236.922973
34,0,4277.435793,4281.538357,4246.666563,4285.640921,4192.82041,4248.717845,4231.281948,4248.717845,4233.33323,4261.025537,4247.179383,4272.820408,4244.615281,4253.84605
35,0,4291.281946,4279.999895,4247.692204,4294.358869,4203.589641,4241.538358,4229.743486,4243.58964,4230.769127,4238.461435,4244.615281,4276.410152,4244.10246,4258.461434
36,0,4309.743484,4276.410152,4247.179383,4329.230663,4195.384513,4235.897332,4226.153743,4248.205024,4231.281948,4222.051179,4250.256306,4280.512716,4247.179383,4266.153742
37,0,4331.794766,4272.820408,4256.410152,4312.307587,4194.358872,4234.358871,4222.051179,4256.410152,4233.33323,4233.84605,4264.61528,4286.666562,4255.897332,4281.025536
38,0,4339.487073,4263.076819,4261.025537,4302.051177,4177.435795,4216.410153,4210.769128,4245.640922,4227.179384,4231.794768,4255.897332,4281.025536,4252.820409,4282.563998
39,0,4346.66656,4257.435793,4258.461434,4332.820407,4155.384514,4201.025538,4201.025538,4237.948614,4223.07682,4227.179384,4242.051178,4275.384511,4247.179383,4278.974254
40,0,4370.256303,4261.538357,4266.666562,4351.794765,4168.205026,4212.82041,4206.666564,4251.281947,4229.230666,4232.820409,4254.871691,4285.1281,4256.410152,4294.358869
41,0,4391.794764,4264.61528,4276.410152,4362.563996,4183.589641,4228.205025,4217.948615,4263.589639,4236.922973,4238.461435,4267.179383,4297.948613,4266.666562,4309.743484
42,0,4389.743482,4264.61528,4272.307588,4367.692201,4170.256308,4226.666563,4219.999897,4264.61528,4233.84605,4238.461435,4265.128101,4297.435792,4265.640921,4305.64092
43,0,4378.974252,4255.384511,4263.589639,4335.89733,4158.461437,4216.410153,4211.794769,4254.871691,4221.538358,4214.358871,4261.025537,4286.153741,4254.871691,4296.410151
44,0,4367.692201,4235.384512,4256.922973,4286.666562,4165.640924,4203.07682,4200.512718,4236.410153,4214.871692,4189.743487,4249.230665,4277.948613,4246.153742,4288.717844
45,0,4358.974252,4232.307589,4256.922973,4270.256306,4178.974257,4199.999897,4195.897333,4229.743486,4223.58964,4215.897333,4239.487076,4278.974254,4253.84605,4283.076818
46,0,4360.512714,4246.666563,4263.589639,4293.846049,4192.30759,4216.922974,4201.025538,4245.128101,4235.897332,4250.769127,4248.717845,4282.563998,4265.640921,4285.1281
47,0,4352.820406,4245.128101,4256.410152,4295.897331,4186.666564,4221.538358,4205.640923,4252.820409,4233.33323,4240.512717,4255.384511,4281.538357,4258.974255,4283.589639
48,0,4325.128099,4225.128102,4236.410153,4249.230665,4170.256308,4203.07682,4198.461436,4236.410153,4219.999897,4223.07682,4240.512717,4271.794767,4248.205024,4267.179383
49,0,4299.999895,4211.281948,4229.743486,4206.666564,4175.384513,4194.871692,4186.666564,4218.461435,4214.358871,4225.128102,4221.025538,4254.871691,4244.10246,4251.794768
50,0,4290.769126,4208.717846,4233.84605,4199.487077,4191.794769,4204.102461,4186.153744,4213.33323,4223.58964,4217.948615,4212.307589,4246.153742,4235.384512,4244.10246
51,0,4288.717844,4214.358871,4232.820409,4205.128102,4202.564,4215.384512,4198.461436,4215.897333,4230.769127,4207.692205,4218.974256,4255.384511,4232.820409,4243.58964
52,0,4285.640921,4217.435794,4235.384512,4206.666564,4212.307589,4223.58964,4208.717846,4220.512717,4225.640922,4218.461435,4227.692204,4261.538357,4241.025537,4249.743486
53,0,4271.281947,4205.640923,4230.769127,4218.461435,4195.897333,4212.307589,4200.512718,4215.384512,4217.435794,4227.179384,4215.897333,4246.153742,4234.358871,4236.410153
54,0,4249.230665,4193.846051,4216.922974,4234.871691,4164.615283,4192.30759,4182.564,4199.487077,4215.384512,4218.461435,4195.897333,4226.666563,4217.435794,4214.871692
55,0,4246.666563,4195.384513,4221.025538,4219.999897,4183.076821,4198.974256,4183.589641,4195.384513,4221.025538,4211.281948,4196.922974,4232.820409,4222.051179,4218.974256
56,0,4261.538357,4205.128102,4237.435794,4213.846051,4227.179384,4225.128102,4204.615282,4212.82041,4234.358871,4220.512717,4217.948615,4255.897332,4243.076819,4238.461435
57,0,4260.512716,4205.640923,4232.307589,4262.051178,4202.564,4222.563999,4207.179384,4221.025538,4234.358871,4235.384512,4225.640922,4262.051178,4245.128101,4235.897332
58,0,4232.820409,4188.205026,4212.82041,4242.051178,4159.487078,4199.487077,4185.128103,4204.615282,4219.487076,4232.307589,4206.153743,4244.615281,4226.153743,4218.974256
59,0,4215.897333,4178.974257,4212.82041,4107.179387,4203.07682,4204.102461,4182.564,4193.846051,4220.512717,4218.974256,4194.871692,4233.33323,4223.07682,4211.794769
60,0,4215.384512,4183.589641,4218.974256,4055.897337,4265.128101,4217.948615,4199.487077,4201.538359,4235.384512,4218.461435,4198.974256,4232.307589,4230.769127,4207.692205
61,0,4206.153743,4178.461436,4208.205025,4138.461437,4248.717845,4208.717846,4199.999897,4201.538359,4231.281948,4231.281948,4192.30759,4225.128102,4222.051179,4201.025538
62,0,4187.179385,4167.692206,4196.922974,4195.384513,4198.461436,4196.922974,4188.205026,4187.179385,4214.358871,4220.512717,4179.999898,4214.358871,4211.281948,4193.846051
63,0,4180.512718,4166.666565,4197.435795,4193.846051,4187.179385,4206.153743,4191.281949,4180.512718,4215.384512,4195.384513,4181.538359,4213.33323,4214.358871,4193.333231
64,0,4186.666564,4170.256308,4201.025538,4202.564,4201.025538,4215.897333,4202.051179,4188.717846,4229.743486,4208.717846,4187.179385,4224.102461,4218.974256,4197.435795
65,0,4188.717846,4171.79477,4201.025538,4228.205025,4202.051179,4215.384512,4199.999897,4196.922974,4232.307589,4238.461435,4187.692205,4231.794768,4218.461435,4199.487077
66,0,4189.230667,4174.358872,4201.538359,4253.333229,4188.205026,4219.999897,4198.461436,4201.025538,4231.794768,4237.948614,4190.769128,4230.256307,4220.512717,4200.512718
67,0,4182.05118,4170.769129,4199.487077,4251.794768,4167.179385,4217.435794,4202.564,4196.410154,4232.307589,4217.948615,4189.743487,4224.102461,4218.974256,4194.871692
68,0,4174.358872,4167.692206,4197.948615,4206.153743,4170.256308,4209.230666,4199.999897,4185.128103,4229.743486,4213.33323,4182.05118,4217.435794,4213.33323,4186.153744
69,0,4181.025539,4174.871693,4202.564,4168.205026,4202.051179,4214.358871,4197.948615,4187.179385,4229.743486,4223.58964,4184.102462,4218.974256,4216.922974,4186.153744
70,0,4183.076821,4176.410154,4201.538359,4167.692206,4214.358871,4215.897333,4199.487077,4187.692205,4227.179384,4214.358871,4183.076821,4217.948615,4215.384512,4188.205026
71,0,4169.743488,4167.692206,4196.922974,4178.974257,4194.358872,4208.205025,4199.487077,4176.922975,4218.974256,4201.025538,4170.256308,4212.307589,4204.102461,4182.564
72,0,4167.179385,4167.692206,4198.974256,4191.794769,4184.102462,4211.281948,4201.025538,4173.846052,4217.948615,4208.717846,4167.179385,4213.33323,4204.615282,4182.05118
73,0,4169.743488,4169.230667,4196.410154,4208.205025,4185.128103,4207.179384,4201.538359,4174.358872,4221.025538,4207.692205,4171.79477,4212.82041,4210.256307,4181.538359
74,0,4164.102462,4165.128103,4190.769128,4235.384512,4179.999898,4204.615282,4204.102461,4177.435795,4224.615281,4209.230666,4177.435795,4215.384512,4215.897333,4185.128103
75,0,4175.384513,4177.948616,4201.538359,4264.61528,4184.615282,4231.281948,4216.922974,4196.410154,4235.897332,4241.025537,4196.922974,4232.820409,4226.666563,4200.512718
76,0,4182.05118,4188.205026,4209.743487,4265.128101,4177.948616,4237.435794,4213.33323,4204.615282,4232.820409,4239.487076,4204.615282,4236.922973,4229.230666,4201.538359
77,0,4156.922975,4170.256308,4194.871692,4254.35887,4148.205027,4200.512718,4187.179385,4179.999898,4213.846051,4196.410154,4178.974257,4209.743487,4211.281948,4175.384513
78,0,4149.230668,4158.461437,4188.717846,4252.820409,4147.692206,4192.30759,4182.564,4167.692206,4217.435794,4202.564,4164.615283,4201.025538,4203.07682,4167.179385
79,0,4171.281949,4176.410154,4202.051179,4242.563999,4183.589641,4217.948615,4200.512718,4190.256308,4237.435794,4239.999896,4187.179385,4225.640922,4223.07682,4192.82041
80,0,4179.999898,4189.230667,4206.666564,4254.35887,4189.743487,4225.640922,4208.205025,4204.615282,4237.435794,4239.999896,4206.153743,4237.948614,4239.487076,4204.615282
81,0,4168.717847,4175.384513,4195.897333,4290.256305,4149.230668,4212.82041,4201.025538,4193.333231,4221.538358,4226.153743,4196.410154,4222.563999,4227.692204,4187.179385
82,0,4164.102462,4166.666565,4187.179385,4283.076818,4131.794771,4204.102461,4192.30759,4179.999898,4216.410153,4219.999897,4183.076821,4213.846051,4213.33323,4180.512718
83,0,4161.53836,4168.717847,4186.153744,4224.102461,4152.820411,4203.589641,4188.205026,4175.384513,4218.974256,4207.179384,4179.999898,4214.871692,4216.922974,4184.615282
84,0,4151.79477,4157.948616,4185.128103,4172.30759,4165.640924,4196.922974,4183.076821,4164.102462,4213.33323,4194.871692,4170.769129,4204.102461,4212.82041,4175.384513
85,0,4163.076821,4156.922975,4191.281949,4169.743488,4174.358872,4197.948615,4184.615282,4161.025539,4217.435794,4207.692205,4168.205026,4206.666564,4211.794769,4181.025539
86,0,4185.640923,4182.564,4204.615282,4195.384513,4196.922974,4216.410153,4196.922974,4182.05118,4232.307589,4230.256307,4183.589641,4225.640922,4226.666563,4204.615282
87,0,4183.589641,4190.256308,4207.179384,4190.769128,4202.051179,4223.07682,4203.07682,4193.333231,4231.794768,4232.820409,4192.82041,4226.666563,4228.717845,4204.615282
88,0,4164.102462,4167.692206,4192.82041,4163.076821,4176.410154,4201.025538,4185.128103,4175.384513,4216.410153,4209.230666,4182.05118,4207.692205,4213.846051,4182.564
89,0,4153.846052,4156.922975,4182.05118,4167.179385,4156.922975,4184.615282,4166.666565,4151.79477,4211.281948,4186.153744,4165.640924,4196.922974,4206.666564,4170.769129
90,0,4159.999898,4165.640924,4189.230667,4191.281949,4171.281949,4196.922974,4174.358872,4152.820411,4216.922974,4189.743487,4165.128103,4206.666564,4215.384512,4182.05118
91,0,4172.820411,4178.974257,4200.512718,4216.410153,4191.281949,4214.871692,4191.794769,4172.820411,4219.999897,4206.666564,4182.564,4219.999897,4229.230666,4199.487077
92,0,4183.076821,4185.640923,4202.051179,4238.974255,4181.538359,4218.461435,4198.974256,4186.153744,4220.512717,4224.102461,4192.82041,4219.999897,4234.871691,4200.512718
93,0,4183.076821,4184.102462,4200.512718,4217.435794,4171.281949,4210.769128,4196.922974,4185.640923,4219.999897,4238.461435,4187.179385,4213.846051,4231.794768,4194.871692
94,0,4184.615282,4182.564,4205.640923,4168.717847,4196.410154,4213.846051,4202.051179,4183.076821,4218.974256,4233.33323,4187.179385,4218.974256,4229.230666,4196.922974
95,0,4182.564,4178.974257,4203.589641,4156.410155,4210.769128,4219.999897,4199.487077,4176.410154,4217.435794,4210.256307,4189.743487,4217.948615,4222.563999,4191.281949
96,0,4173.846052,4172.820411,4195.384513,4177.948616,4188.717846,4214.871692,4183.589641,4165.640924,4214.871692,4202.564,4177.948616,4203.589641,4215.897333,4182.05118
97,0,4170.256308,4167.692206,4196.922974,4173.333231,4182.564,4214.871692,4188.205026,4166.666565,4215.384512,4199.999897,4168.717847,4199.999897,4215.384512,4183.076821
98,0,4165.128103,4165.128103,4199.999897,4145.640924,4191.281949,4215.384512,4200.512718,4170.256308,4221.025538,4188.205026,4170.256308,4206.153743,4212.82041,4181.538359
99,0,4170.256308,4166.666565,4200.512718,4169.743488,4184.102462,4209.230666,4198.461436,4172.30759,4231.281948,4218.461435,4183.076821,4214.871692,4225.640922,4190.256308
100,0,4186.153744,4171.79477,4205.640923,4229.230666,4181.538359,4220.512717,4206.153743,4191.281949,4236.922973,4260.512716,4206.153743,4229.230666,4251.794768,4211.794769
101,0,4184.615282,4169.743488,4206.666564,4235.384512,4185.128103,4233.33323,4218.461435,4204.102461,4231.281948,4244.10246,4212.307589,4232.820409,4254.871691,4210.769128
102,0,4168.717847,4167.179385,4197.435795,4195.384513,4181.025539,4219.999897,4205.640923,4190.769128,4228.717845,4223.07682,4198.974256,4218.461435,4241.025537,4195.384513
103,0,4170.256308,4171.281949,4199.487077,4183.589641,4185.128103,4214.871692,4199.487077,4183.589641,4231.281948,4235.384512,4198.974256,4217.948615,4243.076819,4198.974256
104,0,4168.717847,4163.589642,4202.564,4199.999897,4176.410154,4217.435794,4204.102461,4184.615282,4222.051179,4218.461435,4202.051179,4222.051179,4241.025537,4197.435795
105,0,4147.179386,4144.615283,4185.128103,4188.205026,4156.922975,4196.410154,4185.640923,4167.179385,4210.256307,4191.281949,4173.846052,4201.025538,4217.948615,4173.333231
106,0,4151.79477,4149.230668,4181.025539,4168.717847,4177.435795,4197.435795,4186.666564,4163.076821,4218.974256,4215.384512,4164.102462,4196.922974,4216.922974,4175.897334
107,0,4183.076821,4175.384513,4210.256307,4190.256308,4214.871692,4235.897332,4221.025538,4193.333231,4238.461435,4245.640922,4204.102461,4230.769127,4245.640922,4209.230666
108,0,4194.871692,4182.564,4224.102461,4209.230666,4210.256307,4246.153742,4226.153743,4209.743487,4237.948614,4245.640922,4227.692204,4246.666563,4254.871691,4216.922974
109,0,4182.564,4167.179385,4207.179384,4191.281949,4185.640923,4219.999897,4205.128102,4198.461436,4223.07682,4235.384512,4206.153743,4231.281948,4237.948614,4202.051179
110,0,4173.846052,4156.410155,4198.974256,4179.487077,4174.871693,4199.999897,4194.358872,4183.076821,4215.384512,4214.871692,4184.102462,4219.487076,4227.692204,4196.410154
111,0,4171.79477,4155.897334,4205.128102,4182.564,4176.922975,4198.461436,4192.30759,4174.871693,4216.922974,4207.179384,4186.153744,4217.435794,4227.692204,4193.333231
112,0,4169.743488,4154.871693,4203.07682,4174.871693,4185.128103,4204.102461,4192.82041,4177.435795,4221.025538,4226.153743,4186.153744,4215.897333,4227.692204,4183.589641
113,0,4168.205026,4150.769129,4201.025538,4177.435795,4187.692205,4213.846051,4201.025538,4185.640923,4228.205025,4223.58964,4184.102462,4216.410153,4230.256307,4185.128103
114,0,4169.743488,4156.922975,4205.128102,4197.435795,4185.128103,4222.563999,4211.281948,4188.717846,4233.33323,4206.153743,4195.384513,4219.999897,4233.33323,4193.333231
115,0,4171.281949,4164.102462,4205.128102,4202.564,4184.615282,4221.538358,4211.794769,4189.230667,4228.717845,4223.58964,4199.999897,4221.538358,4234.358871,4189.743487
116,0,4162.564001,4154.871693,4200.512718,4167.179385,4185.640923,4214.871692,4204.615282,4187.692205,4220.512717,4242.051178,4183.589641,4215.384512,4228.205025,4183.076821
117,0,4153.333232,4147.692206,4196.922974,4113.333233,4196.922974,4215.384512,4201.025538,4178.461436,4219.487076,4225.640922,4170.769129,4207.692205,4219.487076,4182.05118
118,0,4152.820411,4153.333232,4189.230667,4095.897336,4208.205025,4212.307589,4196.410154,4169.743488,4219.487076,4210.256307,4173.333231,4202.051179,4216.410153,4177.435795
119,0,4149.743488,4150.256309,4182.564,4114.358874,4199.487077,4199.487077,4184.102462,4166.666565,4215.897333,4211.794769,4169.743488,4196.410154,4215.384512,4166.153744
120,0,4155.384514,4150.769129,4189.743487,4149.743488,4184.102462,4201.025538,4185.640923,4167.179385,4219.999897,4201.538359,4169.743488,4199.999897,4218.974256,4169.743488
121,0,4175.897334,4166.153744,4200.512718,4182.05118,4188.717846,4214.358871,4199.487077,4174.358872,4229.230666,4195.897333,4185.128103,4214.358871,4230.256307,4190.769128
122,0,4192.30759,4174.358872,4209.743487,4171.281949,4211.281948,4223.07682,4205.640923,4188.717846,4231.281948,4226.153743,4199.999897,4227.692204,4240.512717,4206.153743
123,0,4189.230667,4169.230667,4214.871692,4141.02554,4221.538358,4222.563999,4208.717846,4193.333231,4225.128102,4246.153742,4199.999897,4224.102461,4236.410153,4199.487077
124,0,4174.358872,4159.487078,4202.564,4136.922976,4203.07682,4211.281948,4205.128102,4178.461436,4216.410153,4218.974256,4183.589641,4206.666564,4221.025538,4178.974257
125,0,4164.615283,4150.256309,4185.128103,4153.846052,4183.589641,4207.692205,4199.487077,4167.179385,4214.871692,4201.025538,4170.256308,4196.410154,4212.307589,4167.179385
126,0,4165.128103,4147.179386,4184.102462,4163.589642,4177.948616,4213.33323,4199.487077,4166.666565,4217.948615,4206.666564,4166.666565,4195.384513,4210.769128,4165.128103
127,0,4168.205026,4149.743488,4194.358872,4159.487078,4187.179385,4214.358871,4200.512718,4169.230667,4217.948615,4190.256308,4169.230667,4197.435795,4211.794769,4171.281949
128,0,4169.743488,4152.820411,4199.999897,4157.435796,4194.871692,4211.281948,4200.512718,4174.358872,4216.410153,4183.076821,4173.846052,4202.564,4215.384512,4181.538359
0,0,4166.666565,4150.256309,4197.435795,4108.717848,4196.922974,4208.717846,4200.512718,4175.384513,4215.897333,4207.692205,4171.281949,4201.538359,4214.358871,4177.435795
1,0,4165.640924,4147.692206,4195.897333,4014.871697,4224.102461,4208.717846,4198.461436,4168.205026,4217.435794,4213.846051,4165.640924,4197.948615,4212.82041,4171.79477
2,0,4175.897334,4157.948616,4207.179384,3974.358877,4268.717844,4219.999897,4205.128102,4171.79477,4225.128102,4205.640923,4174.871693,4204.615282,4223.58964,4185.128103
3,0,4188.205026,4173.846052,4215.384512,4004.615287,4285.640921,4230.256307,4212.82041,4186.666564,4229.230666,4218.974256,4192.82041,4214.358871,4232.820409,4197.435795
4,0,4202.051179,4187.692205,4221.025538,4080.512721,4272.820408,4238.461435,4224.102461,4202.564,4235.384512,4249.743486,4212.82041,4231.281948,4244.615281,4204.102461
5,0,4221.025538,4206.153743,4237.948614,4182.05118,4258.974255,4259.487075,4250.769127,4230.769127,4248.205024,4274.87169,4242.051178,4258.974255,4264.61528,4224.615281
6,0,4219.487076,4208.717846,4237.948614,4202.051179,4246.666563,4263.076819,4261.538357,4241.025537,4243.076819,4257.948614,4246.666563,4262.051178,4260.512716,4224.615281
7,0,4198.461436,4189.743487,4217.948615,4155.384514,4239.487076,4246.153742,4245.128101,4223.07682,4228.205025,4213.846051,4224.102461,4243.58964,4239.487076,4201.025538
8,0,4195.384513,4184.615282,4215.384512,4203.07682,4232.307589,4246.153742,4242.051178,4219.999897,4231.794768,4222.051179,4222.051179,4244.10246,4242.051178,4203.07682
9,0,4205.640923,4195.897333,4223.58964,4271.281947,4214.358871,4257.435793,4254.35887,4234.871691,4238.461435,4267.692203,4237.435794,4255.384511,4254.871691,4221.025538
10,0,4205.128102,4201.538359,4222.051179,4222.051179,4210.769128,4251.794768,4246.666563,4235.897332,4232.820409,4265.128101,4236.922973,4252.307588,4251.794768,4218.461435
11,0,4199.487077,4197.435795,4220.512717,4161.53836,4226.153743,4237.948614,4231.281948,4223.07682,4229.743486,4236.922973,4226.666563,4245.640922,4245.640922,4208.717846
12,0,4201.025538,4191.794769,4222.563999,4164.102462,4235.384512,4234.358871,4231.281948,4218.461435,4232.820409,4244.10246,4228.205025,4247.692204,4246.666563,4213.33323
13,0,4203.589641,4188.205026,4218.974256,4179.999898,4225.128102,4234.871691,4231.281948,4218.974256,4229.743486,4247.179383,4231.794768,4250.769127,4247.179383,4216.410153
14,0,4194.358872,4181.025539,4214.358871,4181.025539,4215.897333,4223.07682,4218.974256,4210.256307,4220.512717,4213.33323,4224.102461,4241.538358,4239.487076,4206.666564
15,0,4187.692205,4172.30759,4211.281948,4183.076821,4217.435794,4213.846051,4211.281948,4198.974256,4220.512717,4208.205025,4209.743487,4228.717845,4228.717845,4197.435795
16,0,4197.435795,4171.281949,4213.846051,4193.846051,4210.769128,4223.07682,4217.435794,4203.589641,4231.794768,4240.512717,4207.179384,4232.307589,4228.205025,4199.487077
17,0,4203.589641,4174.358872,4217.948615,4208.717846,4199.487077,4228.205025,4219.999897,4217.948615,4232.820409,4248.205024,4215.384512,4238.974255,4234.871691,4205.128102
18,0,4190.256308,4169.743488,4209.230666,4233.84605,4197.948615,4219.999897,4217.948615,4214.358871,4224.102461,4228.205025,4213.33323,4232.820409,4229.230666,4202.564
