title:JTA                                                                             , recorded:03.07.20 14.50.13, sampling:128, subject:JTA                                                                             , labels:COUNTER INTERPOLATED AF3 F7 F3 FC5 T7 P7 O1 O2 P8 T8 FC6 F4 F8 AF4,, units:emotiv,,,,,,,,,
110,0,4220.512717,4202.564,4230.256307,4291.281946,4255.897332,4234.358871,4249.230665,4249.230665,4251.281947,4252.307588,4237.948614,4266.153742,4242.563999,4217.435794
111,0,4213.846051,4199.487077,4227.692204,4294.358869,4245.640922,4229.743486,4244.10246,4244.10246,4243.58964,4242.051178,4229.230666,4256.922973,4229.743486,4214.358871
112,0,4222.563999,4203.07682,4233.84605,4301.538356,4248.205024,4234.358871,4244.615281,4243.076819,4246.666563,4235.897332,4233.33323,4258.974255,4233.84605,4219.999897
113,0,4220.512717,4199.487077,4231.281948,4301.025536,4242.563999,4227.179384,4238.974255,4236.410153,4248.205024,4236.922973,4230.256307,4255.897332,4235.384512,4219.487076
114,0,4198.974256,4176.922975,4212.82041,4296.410151,4209.230666,4200.512718,4214.358871,4211.794769,4232.820409,4216.922974,4201.538359,4231.794768,4214.871692,4200.512718
115,0,4198.461436,4165.640924,4208.717846,4295.38451,4201.538359,4196.410154,4204.102461,4203.589641,4229.230666,4205.640923,4189.230667,4222.563999,4210.256307,4196.922974
116,0,4226.666563,4187.179385,4230.256307,4294.87169,4245.640922,4224.102461,4229.743486,4230.256307,4247.692204,4239.487076,4220.512717,4253.333229,4239.487076,4229.743486
117,0,4247.179383,4207.179384,4245.640922,4296.922972,4272.820408,4245.640922,4252.307588,4253.84605,4256.922973,4269.743485,4252.307588,4285.1281,4257.435793,4251.281947
118,0,4235.897332,4199.487077,4237.435794,4302.563997,4247.692204,4236.922973,4241.025537,4248.205024,4244.615281,4249.743486,4242.051178,4276.922972,4241.538358,4235.384512
119,0,4221.538358,4185.128103,4226.153743,4307.179382,4244.615281,4217.948615,4225.640922,4233.84605,4236.922973,4226.666563,4223.58964,4258.974255,4230.256307,4219.487076
120,0,4216.410153,4174.871693,4226.666563,4306.666561,4278.974254,4220.512717,4232.307589,4232.820409,4242.563999,4229.743486,4223.58964,4255.897332,4230.256307,4218.461435
121,0,4215.384512,4174.871693,4229.743486,4312.307587,4287.692203,4236.922973,4244.615281,4242.051178,4249.230665,4233.84605,4229.230666,4260.512716,4230.769127,4222.051179
122,0,4225.640922,4183.589641,4234.871691,4292.820408,4279.999895,4234.358871,4245.128101,4248.205024,4248.205024,4234.871691,4235.384512,4270.769126,4240.512717,4233.84605
123,0,4232.307589,4176.410154,4235.384512,4221.025538,4295.897331,4219.487076,4235.384512,4237.948614,4239.999896,4224.615281,4231.281948,4268.717844,4242.563999,4236.410153
124,0,4222.563999,4154.871693,4223.58964,4178.461436,4310.769125,4210.769128,4223.07682,4222.051179,4232.307589,4210.769128,4217.948615,4251.281947,4231.794768,4222.563999
125,0,4210.256307,4144.102463,4213.33323,4203.589641,4292.820408,4202.564,4214.358871,4216.410153,4229.743486,4213.33323,4207.692205,4239.999896,4227.692204,4212.82041
126,0,4222.051179,4152.820411,4220.512717,4234.871691,4284.102459,4209.230666,4222.563999,4225.640922,4238.974255,4227.179384,4215.384512,4250.769127,4240.512717,4227.692204
127,0,4246.153742,4168.717847,4238.461435,4239.487076,4303.076818,4233.84605,4244.10246,4244.615281,4253.333229,4244.10246,4239.487076,4270.769126,4259.999896,4250.769127
128,0,4244.615281,4172.820411,4240.512717,4229.743486,4295.897331,4233.84605,4246.153742,4247.179383,4248.717845,4253.84605,4247.692204,4271.281947,4262.563998,4245.128101
0,0,4214.871692,4154.358873,4218.461435,4228.717845,4244.10246,4209.743487,4223.07682,4227.179384,4233.84605,4235.384512,4223.07682,4248.205024,4241.538358,4219.487076
1,0,4198.974256,4141.02554,4202.051179,4242.563999,4210.769128,4200.512718,4212.307589,4213.846051,4232.820409,4216.922974,4201.538359,4232.820409,4231.281948,4213.33323
2,0,4201.025538,4144.615283,4205.640923,4251.281947,4212.307589,4201.538359,4215.897333,4214.358871,4237.948614,4223.58964,4201.538359,4233.84605,4234.358871,4217.435794
3,0,4203.07682,4149.230668,4213.33323,4259.999896,4214.871692,4204.102461,4217.948615,4213.846051,4234.358871,4226.153743,4204.615282,4237.435794,4231.794768,4217.435794
4,0,4218.461435,4160.512719,4222.051179,4294.358869,4221.025538,4220.512717,4227.692204,4223.07682,4241.538358,4223.07682,4218.974256,4253.84605,4242.563999,4231.281948
5,0,4233.33323,4172.820411,4225.128102,4310.256305,4222.563999,4230.256307,4237.435794,4237.435794,4251.281947,4234.358871,4233.33323,4265.128101,4256.410152,4243.076819
6,0,4220.512717,4171.281949,4216.922974,4281.538357,4216.922974,4216.922974,4229.230666,4233.84605,4239.999896,4237.948614,4223.07682,4251.281947,4245.640922,4230.256307
7,0,4204.615282,4166.153744,4212.307589,4258.461434,4215.384512,4204.615282,4219.487076,4217.948615,4228.205025,4219.487076,4207.692205,4237.435794,4231.281948,4217.435794
8,0,4202.564,4161.025539,4209.230666,4243.58964,4215.384512,4202.564,4212.82041,4206.153743,4233.84605,4205.640923,4197.435795,4234.358871,4230.769127,4216.410153
9,0,4195.384513,4149.230668,4197.948615,4223.07682,4211.794769,4192.30759,4198.461436,4199.487077,4235.384512,4208.205025,4184.615282,4225.640922,4227.692204,4211.281948
10,0,4198.974256,4154.871693,4202.564,4235.897332,4215.384512,4193.333231,4206.153743,4205.640923,4237.948614,4226.153743,4191.794769,4230.769127,4234.358871,4217.435794
11,0,4217.435794,4178.974257,4218.461435,4261.538357,4222.051179,4213.33323,4230.256307,4219.999897,4247.692204,4239.487076,4214.871692,4248.717845,4248.717845,4230.769127
12,0,4212.82041,4178.461436,4209.743487,4253.84605,4211.281948,4211.794769,4224.615281,4219.487076,4241.025537,4224.102461,4210.256307,4243.076819,4242.051178,4222.051179
13,0,4196.410154,4165.128103,4196.922974,4247.692204,4199.487077,4196.922974,4209.743487,4208.717846,4229.230666,4210.769128,4195.384513,4228.205025,4229.743486,4208.717846
14,0,4198.974256,4169.230667,4201.025538,4261.025537,4196.922974,4202.564,4215.384512,4203.07682,4232.307589,4215.384512,4196.922974,4230.256307,4231.281948,4212.307589
15,0,4200.512718,4172.30759,4202.564,4265.640921,4186.666564,4203.07682,4211.794769,4198.974256,4234.358871,4211.281948,4191.794769,4231.794768,4230.769127,4213.846051
16,0,4194.358872,4165.128103,4197.435795,4261.538357,4177.948616,4186.666564,4197.435795,4193.846051,4229.230666,4197.435795,4181.025539,4224.102461,4226.153743,4208.717846
17,0,4204.615282,4173.846052,4204.615282,4243.58964,4202.564,4191.281949,4205.640923,4198.974256,4232.820409,4206.666564,4189.743487,4230.769127,4229.743486,4217.435794
18,0,4216.922974,4194.358872,4221.025538,4223.58964,4234.871691,4202.564,4216.410153,4210.256307,4238.974255,4224.615281,4202.051179,4243.58964,4234.358871,4227.179384
19,0,4222.563999,4203.589641,4230.769127,4257.948614,4227.179384,4207.179384,4215.897333,4216.410153,4238.461435,4223.58964,4209.743487,4251.281947,4243.58964,4231.794768
20,0,4229.230666,4204.102461,4228.205025,4308.717843,4202.051179,4214.871692,4220.512717,4220.512717,4236.410153,4217.435794,4219.487076,4256.922973,4251.281947,4236.410153
21,0,4222.563999,4199.487077,4215.897333,4297.435792,4195.897333,4207.179384,4215.897333,4215.897333,4231.794768,4217.435794,4213.846051,4251.281947,4242.563999,4225.640922
22,0,4216.410153,4198.461436,4212.307589,4270.769126,4203.07682,4199.487077,4204.615282,4213.846051,4234.358871,4224.615281,4203.589641,4243.58964,4238.974255,4219.999897
23,0,4227.179384,4203.589641,4219.487076,4286.666562,4199.999897,4212.82041,4214.358871,4225.128102,4242.563999,4231.794768,4213.846051,4248.717845,4248.205024,4231.281948
24,0,4230.769127,4202.564,4216.410153,4301.025536,4188.717846,4212.307589,4223.07682,4227.692204,4238.974255,4224.102461,4221.025538,4252.820409,4249.743486,4233.84605
25,0,4231.281948,4197.948615,4209.230666,4286.153741,4179.487077,4194.871692,4205.640923,4213.33323,4230.769127,4218.974256,4208.205025,4245.640922,4243.076819,4232.307589
26,0,4251.794768,4201.025538,4216.410153,4273.846049,4172.30759,4196.922974,4197.435795,4212.307589,4232.820409,4220.512717,4209.230666,4247.179383,4247.692204,4245.640922
27,0,4269.743485,4203.589641,4221.025538,4279.999895,4171.281949,4193.846051,4205.128102,4217.948615,4234.358871,4207.692205,4216.410153,4250.256306,4251.281947,4252.820409
28,0,4277.948613,4204.615282,4216.410153,4290.256305,4182.05118,4178.461436,4197.948615,4210.769128,4229.743486,4198.461436,4206.666564,4244.615281,4244.615281,4251.794768
29,0,4302.051177,4217.435794,4225.640922,4311.281946,4184.102462,4190.769128,4195.384513,4217.948615,4231.794768,4216.922974,4214.871692,4255.384511,4251.281947,4270.256306
30,0,4327.179381,4232.307589,4237.435794,4328.717843,4170.256308,4202.564,4203.589641,4231.794768,4234.358871,4222.563999,4234.871691,4270.256306,4262.563998,4288.205023
31,0,4330.769125,4233.33323,4237.948614,4320.512715,4167.179385,4186.666564,4194.358872,4223.58964,4230.256307,4202.564,4226.153743,4262.563998,4255.384511,4284.102459
32,0,4332.307586,4228.205025,4239.487076,4314.871689,4168.205026,4178.974257,4186.666564,4216.922974,4230.769127,4201.025538,4210.256307,4254.871691,4245.640922,4279.487075
33,0,4336.41015,4230.769127,4239.999896,4323.589638,4157.948616,4185.640923,4196.922974,4222.563999,4230.769127,4209.230666,4214.358871,4264.10246,4247.179383,4280.512716
34,0,4334.871689,4235.384512,4235.384512,4320.512715,4165.640924,4190.256308,4203.07682,4228.205025,4230.256307,4204.102461,4228.717845,4267.692203,4253.333229,4281.025536
35,0,4330.256304,4235.384512,4234.871691,4303.589638,4184.102462,4197.435795,4200.512718,4232.307589,4231.794768,4207.692205,4232.820409,4263.076819,4256.922973,4277.948613
36,0,4317.948612,4233.84605,4235.897332,4292.820408,4186.666564,4202.564,4200.512718,4233.84605,4232.307589,4218.974256,4224.615281,4261.538357,4253.84605,4270.769126
37,0,4299.487074,4233.84605,4231.281948,4296.922972,4182.564,4202.051179,4200.512718,4230.769127,4232.820409,4217.948615,4221.025538,4262.051178,4249.230665,4263.076819
38,0,4285.1281,4235.384512,4224.615281,4299.999895,4179.487077,4203.589641,4201.538359,4228.205025,4233.84605,4216.922974,4227.179384,4262.051178,4251.281947,4258.461434
39,0,4272.307588,4232.307589,4221.025538,4277.435793,4177.435795,4197.435795,4201.025538,4225.640922,4231.794768,4218.974256,4219.999897,4255.384511,4247.692204,4248.205024
40,0,4252.307588,4219.487076,4213.846051,4250.769127,4178.974257,4181.538359,4188.717846,4212.307589,4226.153743,4206.153743,4199.999897,4236.410153,4231.281948,4232.307589
41,0,4241.538358,4210.769128,4203.589641,4248.205024,4184.102462,4181.538359,4182.05118,4203.07682,4228.205025,4200.512718,4196.410154,4227.179384,4225.640922,4227.692204
42,0,4241.025537,4213.846051,4204.615282,4241.538358,4191.281949,4194.358872,4190.769128,4206.153743,4233.84605,4215.897333,4201.538359,4238.461435,4239.487076,4230.769127
43,0,4237.948614,4221.025538,4216.410153,4231.794768,4202.564,4205.128102,4201.025538,4215.897333,4236.410153,4223.07682,4205.640923,4249.230665,4249.230665,4233.84605
44,0,4231.794768,4219.487076,4215.897333,4225.128102,4204.102461,4204.102461,4199.999897,4216.410153,4233.33323,4210.769128,4206.666564,4244.615281,4241.538358,4233.84605
45,0,4219.999897,4206.153743,4202.564,4183.589641,4200.512718,4190.256308,4190.256308,4198.974256,4226.666563,4201.025538,4191.281949,4226.153743,4225.640922,4216.410153
46,0,4206.153743,4198.974256,4197.948615,4130.76913,4210.256307,4184.615282,4184.102462,4185.640923,4227.179384,4204.615282,4175.897334,4215.897333,4225.640922,4199.487077
47,0,4199.999897,4197.435795,4200.512718,4113.846053,4218.974256,4184.615282,4179.999898,4183.589641,4228.205025,4201.025538,4170.769129,4213.846051,4229.230666,4201.025538
48,0,4201.538359,4188.717846,4197.948615,4117.435797,4224.102461,4179.487077,4177.948616,4183.589641,4225.128102,4187.692205,4167.692206,4204.102461,4221.538358,4202.564
49,0,4201.025538,4187.179385,4195.897333,4135.897335,4229.743486,4182.05118,4183.589641,4184.615282,4226.666563,4189.230667,4165.640924,4199.999897,4223.07682,4196.922974
50,0,4200.512718,4198.974256,4200.512718,4172.820411,4221.025538,4188.717846,4188.717846,4186.666564,4231.281948,4199.487077,4168.205026,4209.230666,4231.794768,4198.461436
51,0,4200.512718,4198.461436,4199.487077,4202.564,4205.128102,4188.205026,4187.179385,4190.256308,4231.281948,4202.051179,4172.30759,4213.846051,4226.666563,4203.07682
52,0,4191.281949,4188.205026,4187.179385,4216.922974,4195.897333,4186.153744,4182.05118,4188.205026,4227.179384,4198.974256,4172.30759,4210.256307,4217.948615,4199.487077
53,0,4170.769129,4180.512718,4179.487077,4206.666564,4193.333231,4179.999898,4171.281949,4173.846052,4219.999897,4191.281949,4158.974257,4199.999897,4215.384512,4187.179385
54,0,4166.153744,4178.461436,4184.102462,4174.358872,4198.974256,4177.948616,4166.666565,4166.666565,4216.922974,4184.615282,4146.666565,4190.769128,4215.384512,4184.102462
55,0,4177.435795,4182.05118,4185.640923,4153.846052,4203.589641,4185.128103,4179.487077,4170.769129,4223.07682,4185.128103,4152.307591,4193.846051,4215.897333,4190.256308
56,0,4179.999898,4185.640923,4184.102462,4152.307591,4204.615282,4184.102462,4186.666564,4172.30759,4226.666563,4190.256308,4156.410155,4197.435795,4216.410153,4189.230667
57,0,4186.153744,4190.769128,4195.897333,4155.384514,4223.58964,4189.743487,4186.153744,4178.461436,4229.743486,4197.948615,4159.487078,4204.102461,4223.07682,4193.846051
58,0,4199.999897,4195.384513,4209.230666,4151.79477,4233.33323,4200.512718,4189.230667,4190.769128,4233.84605,4206.666564,4173.333231,4216.922974,4231.281948,4205.640923
59,0,4194.871692,4190.769128,4203.589641,4124.102463,4219.487076,4187.179385,4186.666564,4185.640923,4227.692204,4198.974256,4172.30759,4213.33323,4224.102461,4199.487077
60,0,4173.846052,4176.922975,4187.179385,4092.820413,4221.025538,4171.281949,4179.487077,4169.743488,4220.512717,4183.076821,4154.358873,4197.435795,4211.281948,4183.589641
61,0,4166.666565,4166.153744,4181.538359,4093.333233,4235.897332,4181.025539,4178.461436,4166.666565,4223.58964,4185.128103,4148.717847,4196.410154,4212.307589,4184.102462
62,0,4179.487077,4174.358872,4196.410154,4113.333233,4237.435794,4196.410154,4184.615282,4178.461436,4230.769127,4201.025538,4159.999898,4204.615282,4219.487076,4196.922974
63,0,4186.666564,4183.076821,4204.615282,4133.846053,4222.051179,4190.256308,4187.692205,4184.615282,4231.794768,4204.615282,4166.666565,4204.615282,4216.922974,4197.948615
64,0,4173.333231,4171.79477,4189.230667,4142.051181,4203.589641,4173.846052,4180.512718,4172.30759,4226.666563,4185.128103,4155.384514,4198.461436,4208.205025,4185.640923
65,0,4168.717847,4168.717847,4184.615282,4134.871694,4204.102461,4177.948616,4179.999898,4171.281949,4227.179384,4178.974257,4148.717847,4195.897333,4211.794769,4188.717846
66,0,4186.153744,4183.076821,4199.999897,4123.076822,4218.461435,4187.179385,4185.640923,4182.564,4231.281948,4196.410154,4156.410155,4202.051179,4219.999897,4201.025538
67,0,4189.230667,4180.512718,4202.051179,4092.307592,4230.256307,4177.435795,4179.487077,4174.358872,4228.205025,4202.564,4153.333232,4202.051179,4214.871692,4194.871692
68,0,4180.512718,4174.871693,4195.897333,4051.281952,4250.769127,4182.564,4179.487077,4170.256308,4227.179384,4198.461436,4153.846052,4198.974256,4211.794769,4191.794769
69,0,4189.743487,4188.205026,4204.102461,4041.025542,4273.333229,4204.102461,4195.384513,4188.717846,4234.871691,4202.051179,4170.256308,4206.153743,4222.563999,4206.666564
70,0,4189.230667,4189.230667,4204.615282,4037.435799,4267.692203,4195.897333,4192.30759,4187.179385,4232.820409,4198.461436,4168.205026,4205.128102,4223.07682,4202.564
71,0,4169.743488,4172.30759,4188.205026,4019.487081,4251.794768,4174.358872,4170.769129,4167.692206,4222.051179,4183.589641,4147.692206,4187.692205,4207.179384,4183.589641
72,0,4169.743488,4171.281949,4186.666564,4036.922978,4250.769127,4174.871693,4167.179385,4165.640924,4225.128102,4188.717846,4146.666565,4181.025539,4202.051179,4183.076821
73,0,4185.640923,4181.025539,4198.974256,4069.23067,4253.84605,4184.102462,4180.512718,4173.333231,4231.281948,4201.538359,4155.897334,4193.333231,4211.281948,4191.794769
74,0,4184.102462,4178.461436,4201.025538,4053.333234,4252.307588,4187.179385,4186.153744,4171.79477,4222.563999,4196.410154,4154.358873,4196.922974,4211.794769,4190.256308
75,0,4175.384513,4174.358872,4194.871692,4031.281953,4249.743486,4183.076821,4182.05118,4166.153744,4219.487076,4186.666564,4148.205027,4192.30759,4205.128102,4184.615282
76,0,4181.538359,4182.05118,4198.461436,4056.410157,4249.743486,4183.589641,4182.564,4173.846052,4230.256307,4187.692205,4153.333232,4196.922974,4211.794769,4192.30759
77,0,4189.743487,4187.179385,4204.615282,4086.666567,4249.230665,4189.230667,4189.230667,4184.615282,4233.33323,4193.333231,4165.128103,4204.615282,4218.974256,4201.538359
78,0,4187.692205,4183.076821,4203.07682,4085.128105,4252.307588,4192.30759,4186.666564,4183.076821,4227.179384,4198.461436,4169.230667,4207.179384,4213.33323,4198.974256
79,0,4189.743487,4189.230667,4204.102461,4077.948618,4261.538357,4199.999897,4187.179385,4186.666564,4231.794768,4208.205025,4171.79477,4210.256307,4216.410153,4201.025538
80,0,4190.769128,4189.230667,4206.666564,4075.384516,4255.384511,4198.974256,4191.794769,4190.769128,4231.794768,4205.640923,4172.820411,4208.205025,4218.461435,4202.564
81,0,4175.897334,4172.30759,4197.948615,4066.153747,4234.871691,4176.922975,4179.487077,4172.30759,4216.922974,4182.564,4154.871693,4190.769128,4201.538359,4183.076821
82,0,4169.743488,4167.179385,4192.30759,4059.48708,4231.281948,4170.256308,4169.743488,4162.564001,4217.948615,4176.410154,4141.53836,4185.640923,4195.384513,4172.820411
83,0,4182.564,4172.820411,4200.512718,4044.615286,4251.794768,4182.564,4179.999898,4173.846052,4230.256307,4197.948615,4151.28195,4196.922974,4207.179384,4185.128103
84,0,4182.05118,4170.256308,4203.07682,4034.871696,4266.666562,4185.640923,4186.153744,4171.79477,4229.230666,4205.128102,4155.384514,4199.487077,4210.256307,4186.666564
85,0,4171.79477,4169.230667,4198.461436,4068.205029,4262.563998,4192.82041,4185.640923,4172.30759,4227.179384,4194.358872,4156.922975,4198.974256,4212.82041,4185.640923
86,0,4177.435795,4178.461436,4196.922974,4102.564002,4247.692204,4199.999897,4188.205026,4187.692205,4232.820409,4200.512718,4170.769129,4205.128102,4223.58964,4193.333231
87,0,4169.230667,4166.666565,4187.179385,4078.974259,4227.692204,4171.281949,4169.743488,4174.358872,4222.051179,4197.435795,4156.410155,4192.82041,4210.769128,4180.512718
88,0,4154.358873,4148.717847,4179.487077,4058.461439,4222.563999,4155.897334,4155.384514,4153.333232,4213.33323,4178.461436,4135.384514,4177.948616,4197.948615,4168.717847
89,0,4174.358872,4163.589642,4193.333231,4100.51272,4232.307589,4187.692205,4177.435795,4172.820411,4229.230666,4188.717846,4157.948616,4198.974256,4218.974256,4192.30759
90,0,4193.333231,4182.05118,4203.589641,4133.333232,4231.794768,4201.025538,4193.846051,4193.333231,4236.922973,4211.794769,4179.999898,4218.974256,4228.205025,4209.743487
91,0,4188.205026,4173.846052,4201.025538,4118.461438,4228.205025,4183.589641,4185.640923,4185.640923,4227.692204,4204.102461,4167.692206,4211.281948,4214.871692,4196.410154
92,0,4187.179385,4167.692206,4201.538359,4104.615284,4234.358871,4183.589641,4185.128103,4183.589641,4222.051179,4187.179385,4157.948616,4202.051179,4211.281948,4185.640923
93,0,4182.564,4168.717847,4194.871692,4107.692207,4235.897332,4194.358872,4189.230667,4187.692205,4224.615281,4186.666564,4156.922975,4201.025538,4207.179384,4184.615282
94,0,4170.256308,4161.025539,4184.102462,4116.922976,4230.769127,4191.281949,4186.153744,4183.589641,4231.281948,4192.82041,4155.897334,4201.025538,4203.589641,4184.102462
95,0,4171.79477,4157.948616,4187.179385,4120.51272,4228.717845,4184.102462,4182.564,4183.076821,4234.358871,4204.102461,4161.53836,4199.999897,4213.33323,4183.589641
96,0,4183.589641,4167.692206,4198.461436,4117.948617,4226.666563,4191.794769,4184.102462,4185.640923,4233.33323,4216.410153,4169.230667,4206.666564,4218.461435,4189.743487
97,0,4190.769128,4175.384513,4203.589641,4109.230669,4230.769127,4202.564,4189.743487,4190.256308,4231.794768,4214.871692,4174.871693,4216.922974,4217.948615,4199.999897
98,0,4181.025539,4167.179385,4195.384513,4086.153746,4233.33323,4189.743487,4187.179385,4182.05118,4222.563999,4195.897333,4167.179385,4209.230666,4215.384512,4194.871692
99,0,4166.153744,4152.307591,4187.179385,4069.74349,4229.230666,4175.384513,4177.948616,4168.717847,4218.974256,4183.076821,4150.769129,4191.281949,4204.102461,4182.05118
100,0,4174.358872,4155.384514,4195.384513,4080.512721,4237.435794,4193.333231,4184.615282,4178.461436,4229.230666,4192.82041,4153.846052,4197.435795,4204.615282,4186.153744
101,0,4194.871692,4175.384513,4208.717846,4105.128105,4251.794768,4212.82041,4205.640923,4200.512718,4236.410153,4204.615282,4172.30759,4217.948615,4221.538358,4200.512718
102,0,4209.743487,4193.846051,4221.025538,4134.358873,4253.333229,4221.025538,4224.102461,4216.922974,4241.538358,4220.512717,4197.435795,4239.487076,4237.435794,4218.461435
103,0,4226.153743,4203.07682,4233.84605,4169.743488,4249.230665,4233.33323,4234.358871,4232.307589,4248.205024,4239.999896,4222.051179,4261.025537,4247.692204,4234.358871
104,0,4234.871691,4205.640923,4236.922973,4187.692205,4249.230665,4238.974255,4238.461435,4239.487076,4246.666563,4242.051178,4227.692204,4267.179383,4249.743486,4235.384512
105,0,4225.128102,4204.615282,4233.84605,4186.666564,4251.281947,4233.33323,4236.922973,4234.358871,4238.974255,4233.33323,4223.58964,4261.538357,4247.692204,4230.256307
106,0,4222.563999,4207.179384,4234.358871,4190.769128,4252.307588,4233.84605,4234.871691,4238.461435,4236.922973,4237.435794,4232.307589,4262.563998,4251.281947,4231.794768
107,0,4223.58964,4202.564,4227.179384,4183.589641,4239.999896,4229.743486,4229.230666,4236.922973,4233.33323,4233.33323,4229.743486,4256.410152,4246.666563,4224.615281
108,0,4205.128102,4184.615282,4210.769128,4162.05118,4212.307589,4204.102461,4208.717846,4208.717846,4228.205025,4203.589641,4195.384513,4229.230666,4223.58964,4200.512718
109,0,4192.82041,4178.461436,4207.692205,4150.256309,4214.871692,4192.82041,4197.948615,4192.82041,4228.205025,4190.256308,4177.435795,4214.358871,4214.871692,4194.871692
110,0,4202.564,4188.717846,4215.897333,4155.897334,4244.615281,4216.410153,4213.33323,4209.743487,4233.84605,4209.743487,4198.974256,4229.743486,4230.256307,4210.769128
111,0,4206.153743,4190.256308,4218.974256,4159.999898,4244.10246,4221.538358,4216.410153,4218.461435,4235.384512,4219.487076,4205.128102,4233.84605,4235.897332,4211.281948
112,0,4195.897333,4179.999898,4210.256307,4142.051181,4226.153743,4199.487077,4199.487077,4203.07682,4232.307589,4211.794769,4184.615282,4219.999897,4224.615281,4197.435795
113,0,4195.384513,4182.564,4210.769128,4135.897335,4230.256307,4202.564,4201.538359,4200.512718,4232.307589,4218.461435,4186.666564,4222.563999,4229.230666,4201.025538
114,0,4201.538359,4189.743487,4217.948615,4150.769129,4229.230666,4213.33323,4212.307589,4208.717846,4231.794768,4215.897333,4201.025538,4228.717845,4234.871691,4208.205025
115,0,4196.922974,4178.974257,4210.256307,4142.051181,4215.897333,4197.435795,4202.564,4199.999897,4227.692204,4195.384513,4188.205026,4214.358871,4218.461435,4197.435795
116,0,4196.922974,4174.358872,4205.640923,4132.307591,4227.692204,4198.461436,4199.487077,4197.435795,4230.769127,4204.102461,4183.076821,4214.871692,4218.461435,4197.435795
117,0,4204.102461,4188.205026,4218.974256,4171.79477,4232.820409,4215.384512,4208.717846,4210.769128,4235.384512,4224.102461,4198.461436,4234.871691,4234.871691,4210.256307
118,0,4204.615282,4189.743487,4216.410153,4205.640923,4205.128102,4207.179384,4204.615282,4208.717846,4231.794768,4210.769128,4193.333231,4228.717845,4227.179384,4205.640923
119,0,4199.999897,4175.384513,4201.538359,4189.743487,4193.333231,4194.871692,4198.461436,4196.410154,4230.256307,4194.871692,4181.025539,4212.82041,4210.256307,4196.410154
120,0,4199.487077,4168.717847,4204.102461,4175.384513,4204.615282,4199.487077,4199.999897,4193.846051,4230.769127,4199.999897,4184.102462,4214.871692,4215.384512,4199.487077
121,0,4199.999897,4170.769129,4215.897333,4191.281949,4207.179384,4204.615282,4203.07682,4197.948615,4229.230666,4208.717846,4186.153744,4223.07682,4221.025538,4203.07682
122,0,4195.897333,4172.30759,4214.871692,4205.640923,4197.948615,4207.179384,4204.615282,4203.07682,4232.820409,4213.33323,4184.615282,4223.07682,4217.948615,4203.07682
123,0,4190.256308,4171.281949,4205.640923,4204.102461,4190.256308,4206.666564,4201.538359,4201.538359,4230.256307,4202.564,4185.640923,4218.461435,4218.974256,4202.564
124,0,4185.640923,4163.076821,4200.512718,4206.666564,4184.102462,4199.487077,4199.999897,4191.281949,4221.538358,4191.281949,4184.102462,4217.948615,4219.487076,4197.948615
125,0,4178.974257,4150.769129,4197.948615,4197.435795,4177.435795,4186.153744,4194.871692,4182.564,4222.051179,4190.256308,4173.333231,4211.794769,4214.871692,4187.179385
126,0,4179.487077,4152.307591,4197.435795,4158.974257,4189.743487,4186.153744,4187.692205,4182.05118,4228.717845,4193.846051,4165.128103,4205.128102,4212.307589,4184.102462
127,0,4195.384513,4173.333231,4206.666564,4151.28195,4221.025538,4208.205025,4196.922974,4192.30759,4232.307589,4202.051179,4176.922975,4218.461435,4217.435794,4195.384513
128,0,4208.717846,4190.256308,4219.487076,4191.794769,4235.384512,4223.58964,4215.897333,4204.615282,4232.307589,4208.205025,4192.30759,4234.358871,4222.051179,4204.615282
0,0,4206.153743,4190.769128,4218.461435,4206.153743,4222.563999,4218.974256,4216.410153,4206.666564,4231.794768,4204.102461,4190.256308,4226.666563,4218.974256,4203.07682
1,0,4201.538359,4183.076821,4205.640923,4193.846051,4210.769128,4210.769128,4203.589641,4201.538359,4230.769127,4204.102461,4186.666564,4215.384512,4214.358871,4196.922974
2,0,4195.384513,4174.871693,4199.487077,4203.07682,4201.025538,4204.102461,4199.487077,4197.435795,4230.769127,4205.640923,4184.102462,4214.871692,4212.307589,4189.743487
3,0,4187.179385,4169.743488,4201.025538,4217.948615,4187.179385,4199.999897,4203.589641,4192.30759,4228.205025,4193.846051,4176.922975,4215.384512,4213.846051,4185.640923
4,0,4185.640923,4168.717847,4202.051179,4217.948615,4182.564,4195.897333,4197.435795,4187.179385,4222.563999,4186.153744,4171.281949,4212.82041,4209.743487,4188.717846
5,0,4183.589641,4166.666565,4197.948615,4217.435794,4181.538359,4187.692205,4185.128103,4182.564,4215.897333,4183.589641,4165.128103,4202.564,4199.487077,4185.128103
6,0,4180.512718,4165.640924,4195.897333,4229.230666,4182.05118,4193.846051,4189.743487,4181.538359,4216.410153,4186.666564,4159.487078,4199.999897,4195.897333,4179.999898
7,0,4186.666564,4171.281949,4202.051179,4254.35887,4183.076821,4207.692205,4204.615282,4190.256308,4226.153743,4197.948615,4166.153744,4212.307589,4202.564,4191.794769
8,0,4191.281949,4172.30759,4204.102461,4277.435793,4173.846052,4202.564,4201.025538,4196.410154,4231.794768,4204.102461,4177.948616,4217.948615,4209.743487,4201.025538
9,0,4190.256308,4170.769129,4201.538359,4278.461434,4162.564001,4199.487077,4195.897333,4194.871692,4231.794768,4201.025538,4181.538359,4217.948615,4211.794769,4198.974256
10,0,4187.692205,4166.153744,4199.487077,4243.076819,4165.128103,4199.487077,4197.948615,4188.717846,4223.58964,4188.717846,4174.871693,4214.358871,4204.102461,4191.794769
11,0,4181.025539,4154.358873,4196.922974,4208.717846,4179.487077,4187.692205,4191.281949,4180.512718,4216.922974,4187.692205,4165.128103,4201.025538,4194.871692,4183.589641
12,0,4188.205026,4159.999898,4201.025538,4228.717845,4190.769128,4199.999897,4199.999897,4189.230667,4227.179384,4208.717846,4175.897334,4206.153743,4208.717846,4191.794769
13,0,4199.487077,4169.743488,4201.025538,4250.769127,4187.179385,4217.435794,4214.358871,4202.564,4234.871691,4213.846051,4192.82041,4223.07682,4219.487076,4202.564
14,0,4188.717846,4158.974257,4188.205026,4232.820409,4179.487077,4203.589641,4204.102461,4196.922974,4227.179384,4196.922974,4183.589641,4216.410153,4205.128102,4192.30759
15,0,4178.974257,4150.769129,4187.692205,4243.076819,4185.640923,4202.564,4203.07682,4194.358872,4228.205025,4204.102461,4177.435795,4209.230666,4202.564,4186.153744
16,0,4187.179385,4158.461437,4200.512718,4282.563998,4186.666564,4219.487076,4217.435794,4205.128102,4235.897332,4220.512717,4189.743487,4217.948615,4216.922974,4195.897333
17,0,4187.179385,4156.410155,4198.461436,4281.025536,4168.205026,4208.717846,4208.717846,4202.564,4230.256307,4205.128102,4190.256308,4216.410153,4214.871692,4191.281949
18,0,4180.512718,4150.769129,4195.384513,4255.384511,4167.179385,4196.410154,4200.512718,4194.871692,4227.692204,4193.333231,4182.05118,4211.794769,4207.692205,4183.076821
19,0,4189.743487,4159.999898,4202.051179,4260.512716,4185.640923,4210.769128,4213.846051,4201.025538,4234.358871,4209.230666,4187.692205,4219.487076,4213.846051,4192.82041
20,0,4185.128103,4152.820411,4191.281949,4271.281947,4177.435795,4203.589641,4206.153743,4195.384513,4225.640922,4211.794769,4181.538359,4210.256307,4205.640923,4190.256308
21,0,4171.79477,4136.410155,4178.461436,4271.281947,4157.948616,4186.153744,4189.743487,4182.05118,4217.435794,4198.974256,4168.717847,4195.384513,4195.897333,4177.948616
22,0,4185.128103,4145.640924,4192.30759,4288.205023,4166.153744,4197.948615,4201.538359,4192.30759,4229.743486,4207.179384,4180.512718,4208.717846,4211.794769,4191.281949
23,0,4202.564,4161.025539,4207.692205,4310.769125,4174.871693,4212.307589,4211.794769,4208.205025,4234.871691,4213.846051,4194.871692,4226.153743,4219.999897,4204.102461
24,0,4184.102462,4139.999899,4196.410154,4296.410151,4162.05118,4202.051179,4201.025538,4197.948615,4221.538358,4197.948615,4180.512718,4214.871692,4202.564,4186.153744
25,0,4159.999898,4114.358874,4181.025539,4258.974255,4160.512719,4192.30759,4193.333231,4181.025539,4221.538358,4192.82041,4163.589642,4198.461436,4194.358872,4171.281949
26,0,4171.79477,4131.794771,4189.230667,4258.461434,4178.974257,4204.102461,4199.999897,4187.179385,4231.794768,4205.128102,4171.79477,4201.538359,4205.640923,4183.076821
27,0,4188.717846,4156.410155,4201.538359,4277.948613,4190.769128,4219.999897,4207.692205,4201.025538,4231.794768,4207.692205,4187.179385,4208.717846,4208.205025,4190.256308
28,0,4185.640923,4155.384514,4199.999897,4271.281947,4189.743487,4218.974256,4212.307589,4203.07682,4228.717845,4197.435795,4186.153744,4205.640923,4202.051179,4179.999898
29,0,4176.922975,4147.692206,4194.871692,4265.128101,4183.076821,4204.102461,4205.640923,4191.281949,4225.128102,4193.846051,4171.79477,4195.384513,4196.922974,4170.256308
30,0,4183.076821,4149.230668,4197.435795,4288.205023,4179.999898,4201.025538,4197.435795,4185.128103,4224.615281,4205.640923,4170.769129,4195.897333,4197.435795,4174.358872
31,0,4201.538359,4157.948616,4204.102461,4317.435792,4184.102462,4218.461435,4209.230666,4203.07682,4232.820409,4211.794769,4194.358872,4215.897333,4211.794769,4191.281949
32,0,4204.102461,4158.461437,4204.102461,4311.281946,4186.666564,4222.051179,4219.487076,4218.461435,4236.922973,4206.666564,4207.692205,4224.615281,4220.512717,4195.897333
33,0,4184.615282,4141.02554,4196.410154,4277.948613,4177.948616,4202.564,4204.615282,4202.564,4229.743486,4209.230666,4188.717846,4205.128102,4202.564,4181.538359
34,0,4182.564,4133.333232,4198.461436,4267.179383,4181.538359,4202.051179,4198.461436,4194.358872,4229.230666,4222.563999,4176.922975,4204.102461,4195.897333,4178.974257
35,0,4212.307589,4153.846052,4220.512717,4295.38451,4208.717846,4232.307589,4224.102461,4222.563999,4243.076819,4233.33323,4206.153743,4237.948614,4222.563999,4204.615282
36,0,4223.58964,4162.564001,4230.769127,4312.820407,4219.999897,4241.025537,4236.410153,4239.487076,4246.153742,4238.461435,4234.871691,4252.820409,4239.487076,4222.051179
37,0,4214.871692,4153.846052,4221.025538,4288.205023,4212.82041,4229.230666,4222.051179,4231.281948,4236.410153,4234.871691,4229.230666,4246.666563,4229.230666,4212.82041
38,0,4216.922974,4152.307591,4218.974256,4265.640921,4212.82041,4228.205025,4216.922974,4229.230666,4232.307589,4224.102461,4218.461435,4246.666563,4219.999897,4202.564
39,0,4213.33323,4145.640924,4219.999897,4268.717844,4203.589641,4217.948615,4217.435794,4224.615281,4231.794768,4214.871692,4213.33323,4239.487076,4216.922974,4200.512718
40,0,4204.102461,4131.28195,4215.897333,4268.717844,4189.743487,4198.974256,4212.307589,4211.794769,4230.769127,4208.717846,4205.128102,4229.230666,4211.794769,4199.487077
41,0,4213.33323,4139.487078,4224.615281,4263.589639,4213.33323,4221.025538,4226.153743,4222.563999,4235.384512,4218.974256,4210.769128,4249.230665,4212.82041,4208.717846
42,0,4226.153743,4156.410155,4239.487076,4271.281947,4245.640922,4256.410152,4254.871691,4245.640922,4237.948614,4241.025537,4232.307589,4271.281947,4221.025538,4223.58964
43,0,4217.948615,4146.153745,4231.281948,4273.846049,4227.179384,4243.076819,4248.717845,4239.487076,4232.307589,4233.84605,4230.256307,4256.410152,4212.307589,4214.871692
44,0,4210.256307,4129.743489,4219.999897,4260.512716,4208.717846,4221.538358,4227.179384,4226.666563,4235.897332,4214.871692,4215.897333,4241.025537,4198.974256,4202.051179
45,0,4225.128102,4143.589642,4236.410153,4265.128101,4241.025537,4248.717845,4242.051178,4242.563999,4248.717845,4235.384512,4232.820409,4259.487075,4216.922974,4221.025538
46,0,4239.487076,4163.589642,4250.256306,4289.743485,4258.461434,4272.307588,4262.051178,4261.538357,4253.333229,4259.999896,4257.435793,4278.461434,4237.948614,4236.922973
47,0,4234.358871,4153.846052,4239.487076,4299.999895,4228.717845,4250.256306,4247.692204,4254.35887,4246.153742,4244.10246,4250.769127,4268.205024,4225.640922,4222.563999
48,0,4219.999897,4137.435796,4227.692204,4291.281946,4207.179384,4225.640922,4228.717845,4233.84605,4232.307589,4224.102461,4231.281948,4249.743486,4209.743487,4208.205025
49,0,4216.922974,4138.974258,4230.256307,4287.692203,4216.410153,4230.256307,4231.281948,4227.692204,4230.256307,4231.794768,4229.743486,4248.205024,4215.897333,4213.33323
50,0,4226.666563,4143.076822,4235.384512,4293.333228,4228.205025,4242.051178,4233.84605,4239.999896,4242.563999,4249.230665,4241.025537,4259.487075,4228.205025,4221.025538
51,0,4232.820409,4139.487078,4232.820409,4285.1281,4231.794768,4243.58964,4230.769127,4247.179383,4246.153742,4245.128101,4244.10246,4262.563998,4229.743486,4218.974256
52,0,4231.794768,4143.076822,4233.84605,4277.948613,4235.897332,4247.692204,4243.58964,4246.153742,4244.10246,4236.922973,4242.563999,4264.10246,4227.179384,4221.025538
53,0,4231.794768,4154.358873,4239.999896,4292.820408,4236.922973,4251.794768,4251.794768,4249.743486,4243.58964,4243.076819,4248.717845,4274.87169,4232.307589,4232.307589
54,0,4232.307589,4149.743488,4239.487076,4308.717843,4225.640922,4240.512717,4237.435794,4248.205024,4238.974255,4241.025537,4251.794768,4275.897331,4234.358871,4234.358871
55,0,4231.794768,4136.410155,4233.33323,4309.743484,4215.384512,4232.820409,4235.384512,4242.563999,4238.461435,4233.33323,4244.615281,4263.589639,4222.563999,4222.563999
56,0,4232.307589,4138.974258,4232.820409,4305.1281,4213.846051,4235.897332,4242.563999,4244.615281,4239.999896,4241.538358,4241.025537,4263.589639,4216.410153,4218.974256
57,0,4223.07682,4137.948617,4230.769127,4298.461433,4202.564,4222.563999,4226.153743,4237.435794,4234.358871,4242.051178,4235.897332,4263.076819,4216.410153,4217.435794
58,0,4216.922974,4131.794771,4226.153743,4302.563997,4193.333231,4215.384512,4215.384512,4228.205025,4235.384512,4225.640922,4227.179384,4253.84605,4216.922974,4212.82041
59,0,4231.794768,4145.128104,4231.281948,4325.128099,4208.717846,4241.025537,4232.820409,4238.974255,4247.692204,4235.384512,4235.897332,4263.589639,4225.640922,4224.102461
60,0,4240.512717,4159.999898,4238.974255,4337.948612,4217.435794,4255.384511,4243.58964,4253.84605,4248.205024,4253.84605,4257.948614,4281.538357,4236.410153,4235.384512
61,0,4234.358871,4154.871693,4239.487076,4319.487074,4215.897333,4247.692204,4244.10246,4257.948614,4245.128101,4249.230665,4268.205024,4282.563998,4239.999896,4234.358871
62,0,4232.307589,4151.79477,4235.897332,4281.538357,4224.615281,4244.615281,4246.666563,4255.897332,4246.153742,4245.640922,4259.487075,4272.307588,4238.974255,4230.769127
63,0,4232.820409,4154.871693,4232.820409,4253.84605,4227.692204,4242.051178,4241.025537,4247.692204,4237.435794,4245.640922,4249.230665,4264.61528,4235.897332,4225.128102
64,0,4226.153743,4148.205027,4230.769127,4253.84605,4219.487076,4232.307589,4235.384512,4243.076819,4231.794768,4240.512717,4246.666563,4261.538357,4232.307589,4218.461435
65,0,4218.974256,4141.53836,4226.666563,4268.205024,4214.358871,4228.717845,4232.307589,4243.58964,4236.922973,4231.794768,4240.512717,4256.922973,4231.281948,4216.922974
66,0,4223.58964,4147.179386,4226.666563,4274.87169,4222.051179,4236.922973,4232.820409,4243.076819,4243.58964,4230.256307,4241.025537,4257.435793,4236.410153,4222.051179
67,0,4237.435794,4163.076821,4237.948614,4282.563998,4236.922973,4254.35887,4247.179383,4250.256306,4249.743486,4239.487076,4260.512716,4269.743485,4249.230665,4229.743486
68,0,4236.410153,4168.205026,4242.051178,4284.61528,4231.794768,4253.84605,4251.794768,4255.384511,4247.692204,4240.512717,4262.051178,4273.846049,4248.205024,4222.051179
69,0,4224.102461,4153.333232,4231.794768,4257.948614,4217.435794,4231.794768,4235.897332,4245.128101,4235.384512,4232.820409,4236.922973,4257.948614,4230.256307,4201.025538
70,0,4226.153743,4149.230668,4231.794768,4237.948614,4229.230666,4229.230666,4231.794768,4243.076819,4235.897332,4239.999896,4232.820409,4256.410152,4230.256307,4202.051179
71,0,4234.871691,4166.153744,4245.640922,4253.84605,4253.333229,4248.717845,4247.692204,4249.230665,4248.717845,4248.717845,4248.717845,4272.307588,4245.640922,4215.897333
72,0,4236.922973,4173.333231,4248.205024,4270.256306,4249.230665,4255.384511,4253.333229,4250.769127,4247.179383,4238.974255,4252.820409,4276.922972,4245.640922,4212.307589
73,0,4229.743486,4160.512719,4235.897332,4249.743486,4235.384512,4242.051178,4239.999896,4246.153742,4234.871691,4231.794768,4245.640922,4262.563998,4233.84605,4201.538359
74,0,4217.948615,4150.256309,4227.692204,4231.281948,4231.794768,4226.153743,4225.640922,4236.410153,4230.256307,4230.769127,4233.84605,4248.205024,4228.205025,4194.358872
75,0,4219.487076,4152.820411,4229.743486,4246.153742,4227.179384,4227.179384,4229.743486,4232.820409,4234.871691,4226.666563,4230.256307,4251.794768,4232.820409,4193.333231
76,0,4233.84605,4166.153744,4235.384512,4266.153742,4232.307589,4245.640922,4242.051178,4245.128101,4246.666563,4235.384512,4245.128101,4265.640921,4242.563999,4201.025538
77,0,4235.384512,4172.820411,4234.358871,4247.179383,4244.10246,4249.230665,4239.999896,4248.717845,4247.179383,4244.10246,4251.281947,4265.128101,4248.205024,4205.128102
78,0,4227.179384,4166.153744,4230.769127,4205.640923,4246.666563,4231.794768,4228.205025,4234.358871,4235.384512,4235.897332,4240.512717,4256.410152,4245.640922,4197.435795
79,0,4228.717845,4163.589642,4234.358871,4215.897333,4245.640922,4235.384512,4229.743486,4237.435794,4236.410153,4232.307589,4243.58964,4262.051178,4247.179383,4197.435795
80,0,4225.640922,4166.666565,4234.871691,4245.640922,4245.640922,4246.153742,4237.948614,4247.692204,4241.538358,4236.410153,4248.717845,4265.128101,4250.256306,4202.051179
81,0,4219.487076,4165.128103,4226.153743,4208.205025,4250.769127,4233.33323,4232.307589,4235.384512,4232.820409,4229.743486,4235.384512,4250.769127,4243.58964,4195.384513
82,0,4231.281948,4169.230667,4235.897332,4156.922975,4268.205024,4235.384512,4230.256307,4234.871691,4232.820409,4229.743486,4234.358871,4252.820409,4245.640922,4197.435795
83,0,4247.179383,4177.948616,4252.307588,4170.769129,4277.948613,4250.769127,4238.461435,4250.256306,4242.563999,4243.58964,4250.769127,4270.769126,4257.948614,4210.769128
84,0,4239.487076,4171.281949,4242.051178,4198.461436,4259.487075,4239.999896,4237.948614,4244.10246,4235.897332,4242.563999,4249.743486,4267.179383,4252.820409,4208.205025
85,0,4232.307589,4165.640924,4236.410153,4203.589641,4254.35887,4232.307589,4236.410153,4236.410153,4236.410153,4239.487076,4243.076819,4257.948614,4245.640922,4201.025538
86,0,4241.025537,4173.333231,4246.666563,4227.179384,4262.051178,4244.615281,4241.025537,4250.769127,4245.640922,4247.692204,4249.743486,4266.153742,4251.281947,4206.666564
87,0,4236.410153,4170.769129,4237.948614,4245.640922,4239.487076,4236.922973,4235.897332,4247.179383,4236.410153,4242.563999,4248.717845,4266.666562,4249.230665,4203.07682
88,0,4225.128102,4162.564001,4226.153743,4236.922973,4223.58964,4224.615281,4226.666563,4234.871691,4227.692204,4231.281948,4243.076819,4261.025537,4243.58964,4197.435795
89,0,4231.794768,4169.743488,4236.410153,4238.461435,4240.512717,4236.410153,4235.384512,4244.615281,4236.410153,4234.871691,4249.743486,4264.10246,4249.743486,4204.615282
90,0,4233.33323,4168.205026,4235.384512,4244.10246,4242.563999,4234.358871,4234.358871,4241.025537,4236.410153,4231.281948,4241.025537,4255.384511,4248.717845,4201.538359
91,0,4228.205025,4156.922975,4227.179384,4243.58964,4225.128102,4219.999897,4218.974256,4225.128102,4228.717845,4226.153743,4228.717845,4247.692204,4240.512717,4193.846051
92,0,4238.974255,4165.128103,4236.922973,4246.666563,4226.666563,4228.717845,4224.102461,4236.922973,4233.33323,4244.10246,4241.025537,4260.512716,4246.153742,4202.051179
93,0,4241.025537,4172.30759,4238.461435,4234.871691,4244.10246,4235.384512,4234.358871,4248.205024,4235.384512,4247.692204,4250.256306,4265.128101,4250.256306,4203.07682
94,0,4237.435794,4168.205026,4234.871691,4227.179384,4251.281947,4230.769127,4232.307589,4244.10246,4239.487076,4237.948614,4245.640922,4261.025537,4249.230665,4199.999897
95,0,4249.743486,4174.871693,4242.563999,4255.384511,4236.922973,4234.871691,4237.948614,4251.281947,4247.179383,4249.230665,4253.333229,4271.794767,4257.948614,4213.846051
96,0,4259.999896,4183.076821,4253.333229,4281.025536,4230.256307,4246.666563,4254.35887,4263.589639,4247.692204,4265.128101,4271.281947,4288.205023,4271.794767,4229.230666
97,0,4270.769126,4193.333231,4266.666562,4283.589639,4251.794768,4265.128101,4272.820408,4279.487075,4255.897332,4276.410152,4291.794767,4308.205023,4287.692203,4244.615281
98,0,4287.179382,4211.794769,4284.102459,4292.820408,4270.256306,4283.589639,4288.717844,4301.025536,4265.640921,4285.1281,4313.333228,4329.230663,4298.461433,4257.948614
99,0,4288.717844,4214.358871,4283.589639,4290.256305,4264.61528,4276.922972,4289.230664,4304.102459,4256.410152,4286.666562,4317.948612,4327.692202,4293.333228,4254.871691
100,0,4275.384511,4199.999897,4268.717844,4268.205024,4257.948614,4263.076819,4281.025536,4294.87169,4245.640922,4281.025536,4306.153741,4314.358869,4280.512716,4243.076819
101,0,4264.61528,4193.333231,4261.538357,4269.230665,4255.897332,4269.743485,4282.563998,4290.769126,4251.794768,4275.897331,4296.410151,4307.692202,4274.35887,4234.871691
102,0,4252.307588,4186.666564,4252.820409,4282.051177,4243.58964,4266.153742,4275.384511,4277.435793,4246.153742,4261.538357,4281.025536,4294.358869,4263.589639,4220.512717
103,0,4245.640922,4177.948616,4245.640922,4276.922972,4233.33323,4247.179383,4255.384511,4258.974255,4232.820409,4246.153742,4261.538357,4275.897331,4249.743486,4209.230666
104,0,4250.256306,4183.589641,4249.230665,4275.384511,4233.84605,4248.717845,4248.717845,4262.051178,4236.410153,4251.794768,4261.025537,4276.410152,4253.84605,4214.871692
105,0,4249.743486,4181.025539,4250.256306,4270.769126,4229.230666,4248.205024,4248.205024,4262.563998,4237.948614,4252.307588,4262.563998,4277.435793,4258.461434,4213.846051
106,0,4245.128101,4167.692206,4246.153742,4230.769127,4233.33323,4235.897332,4242.563999,4249.230665,4230.769127,4238.974255,4251.794768,4269.230665,4249.743486,4207.692205
107,0,4246.666563,4173.333231,4247.179383,4187.692205,4260.512716,4239.999896,4242.563999,4243.076819,4231.281948,4233.84605,4252.307588,4270.769126,4247.179383,4213.846051
108,0,4247.692204,4184.615282,4248.205024,4189.743487,4274.35887,4251.794768,4246.666563,4245.640922,4234.358871,4235.897332,4261.025537,4272.307588,4251.281947,4216.410153
109,0,4247.692204,4177.948616,4246.666563,4227.692204,4258.461434,4252.820409,4245.640922,4249.743486,4235.384512,4240.512717,4261.538357,4273.333229,4254.35887,4216.922974
110,0,4250.769127,4168.205026,4248.717845,4256.922973,4250.256306,4254.35887,4250.256306,4261.538357,4245.128101,4263.076819,4267.179383,4285.1281,4261.025537,4226.153743
111,0,4249.230665,4168.205026,4249.230665,4257.948614,4245.128101,4256.922973,4255.897332,4267.692203,4251.281947,4278.974254,4272.307588,4290.769126,4263.076819,4224.615281
112,0,4243.58964,4167.179385,4246.153742,4250.256306,4224.615281,4245.640922,4245.128101,4254.871691,4242.051178,4254.871691,4262.051178,4276.922972,4257.948614,4216.922974
113,0,4247.179383,4164.615283,4245.128101,4264.61528,4210.256307,4234.358871,4238.974255,4251.281947,4241.538358,4247.179383,4260.512716,4275.384511,4269.230665,4227.179384
114,0,4252.820409,4158.461437,4244.615281,4291.281946,4203.07682,4231.794768,4246.153742,4263.076819,4247.179383,4267.692203,4275.897331,4289.743485,4282.051177,4240.512717
115,0,4255.384511,4150.256309,4244.615281,4303.589638,4194.358872,4237.948614,4251.794768,4265.640921,4246.153742,4258.974255,4279.487075,4296.922972,4279.487075,4245.640922
116,0,4261.025537,4152.820411,4249.743486,4306.666561,4199.487077,4249.743486,4257.435793,4265.640921,4245.128101,4252.307588,4281.025536,4298.974254,4283.589639,4248.717845
117,0,4255.384511,4150.769129,4246.153742,4310.256305,4205.640923,4249.743486,4257.948614,4267.179383,4247.179383,4267.692203,4283.076818,4292.307587,4283.589639,4241.025537
118,0,4240.512717,4139.487078,4233.33323,4314.358869,4190.769128,4241.538358,4248.717845,4259.487075,4245.128101,4257.948614,4272.307588,4279.487075,4271.794767,4228.717845
119,0,4226.153743,4134.358873,4225.128102,4307.692202,4167.692206,4231.281948,4235.384512,4244.615281,4235.384512,4230.256307,4253.333229,4268.717844,4259.999896,4220.512717
120,0,4220.512717,4133.333232,4224.615281,4295.897331,4163.589642,4219.999897,4225.640922,4235.384512,4230.256307,4228.205025,4239.487076,4258.461434,4251.794768,4211.794769
121,0,4233.84605,4138.974258,4230.256307,4302.051177,4186.153744,4229.230666,4232.820409,4241.025537,4240.512717,4238.461435,4245.640922,4262.051178,4254.35887,4216.922974
122,0,4251.281947,4152.820411,4239.487076,4322.563997,4205.640923,4250.256306,4249.230665,4258.461434,4249.743486,4251.794768,4265.128101,4281.538357,4269.743485,4234.358871
123,0,4251.281947,4159.487078,4247.179383,4337.435791,4198.461436,4251.281947,4252.307588,4266.153742,4247.692204,4264.61528,4279.999895,4296.410151,4281.025536,4242.563999
124,0,4249.743486,4156.410155,4248.205024,4339.487073,4183.076821,4242.051178,4245.128101,4263.589639,4247.692204,4256.410152,4280.512716,4296.410151,4276.410152,4238.461435
125,0,4251.794768,4154.871693,4242.563999,4338.974253,4173.846052,4244.615281,4248.205024,4264.10246,4251.794768,4248.717845,4274.87169,4291.281946,4268.205024,4236.410153
126,0,4239.999896,4147.692206,4232.820409,4338.461432,4160.512719,4242.051178,4247.692204,4258.974255,4244.10246,4254.35887,4265.128101,4281.025536,4264.61528,4232.307589
127,0,4230.769127,4139.487078,4227.692204,4338.461432,4151.79477,4228.205025,4237.435794,4245.640922,4231.794768,4242.563999,4250.769127,4268.205024,4259.999896,4221.025538
128,0,4236.922973,4148.205027,4232.820409,4347.179381,4164.615283,4232.820409,4232.820409,4247.179383,4238.461435,4226.666563,4252.820409,4265.640921,4261.025537,4216.922974
0,0,4237.948614,4156.922975,4234.358871,4350.769124,4169.743488,4242.563999,4235.384512,4253.333229,4247.179383,4229.743486,4258.974255,4266.153742,4260.512716,4221.025538
1,0,4229.230666,4150.769129,4229.230666,4335.89733,4159.487078,4235.384512,4232.307589,4244.10246,4238.461435,4234.871691,4249.743486,4262.051178,4251.281947,4215.384512
2,0,4230.769127,4151.79477,4227.179384,4319.999894,4167.692206,4237.948614,4233.84605,4237.948614,4236.922973,4237.948614,4243.076819,4258.461434,4246.666563,4211.794769
3,0,4229.743486,4154.358873,4225.128102,4317.948612,4175.384513,4243.58964,4237.435794,4239.999896,4241.538358,4238.974255,4243.58964,4254.871691,4249.743486,4214.871692
4,0,4215.384512,4139.487078,4214.358871,4309.230664,4149.743488,4219.487076,4223.07682,4226.666563,4232.307589,4223.07682,4229.743486,4241.538358,4242.563999,4204.615282
5,0,4217.435794,4137.435796,4217.435794,4308.717843,4145.640924,4212.307589,4216.922974,4219.999897,4234.358871,4215.384512,4225.640922,4242.563999,4243.076819,4205.128102
6,0,4236.410153,4155.897334,4232.820409,4327.692202,4180.512718,4242.563999,4234.358871,4239.999896,4248.205024,4227.179384,4251.794768,4266.153742,4259.487075,4223.58964
7,0,4237.435794,4159.999898,4228.717845,4333.333227,4183.076821,4245.640922,4236.410153,4245.128101,4242.563999,4232.820409,4255.897332,4264.10246,4257.435793,4222.563999
8,0,4228.205025,4151.28195,4220.512717,4329.743484,4161.53836,4225.128102,4228.205025,4230.769127,4233.33323,4232.307589,4232.820409,4246.153742,4244.10246,4209.743487
9,0,4231.281948,4152.307591,4227.179384,4343.589637,4164.102462,4230.769127,4234.358871,4231.794768,4237.948614,4235.897332,4230.256307,4252.820409,4243.58964,4213.33323
10,0,4238.974255,4163.589642,4234.871691,4348.205022,4170.256308,4241.538358,4238.974255,4238.461435,4241.538358,4232.307589,4242.563999,4267.692203,4250.769127,4219.999897
11,0,4236.922973,4167.179385,4231.794768,4314.871689,4170.769129,4231.281948,4233.84605,4234.871691,4237.435794,4218.461435,4241.025537,4262.051178,4250.256306,4218.461435
12,0,4223.07682,4150.769129,4222.051179,4276.410152,4180.512718,4218.461435,4228.717845,4228.205025,4232.820409,4210.769128,4229.743486,4249.743486,4238.461435,4211.794769
13,0,4214.358871,4137.435796,4221.025538,4270.769126,4182.05118,4217.948615,4222.563999,4220.512717,4231.794768,4215.897333,4222.051179,4248.205024,4232.820409,4206.666564
14,0,4220.512717,4143.589642,4228.205025,4285.1281,4168.717847,4213.846051,4215.897333,4215.384512,4232.820409,4217.948615,4218.461435,4243.58964,4238.974255,4210.256307
15,0,4230.769127,4154.358873,4232.307589,4304.102459,4170.256308,4214.871692,4223.07682,4227.179384,4238.974255,4216.922974,4229.230666,4248.717845,4249.743486,4222.051179
16,0,4244.10246,4166.666565,4237.948614,4318.461433,4186.666564,4238.974255,4240.512717,4246.153742,4249.230665,4228.205025,4248.717845,4274.35887,4258.974255,4235.384512
17,0,4251.281947,4177.948616,4245.128101,4314.871689,4192.82041,4251.794768,4246.153742,4250.769127,4250.769127,4236.922973,4253.333229,4283.589639,4261.025537,4236.922973
18,0,4232.307589,4165.640924,4230.769127,4292.307587,4178.461436,4225.640922,4231.281948,4237.948614,4236.410153,4223.58964,4234.358871,4255.897332,4246.153742,4214.871692
19,0,4209.230666,4148.205027,4212.307589,4277.948613,4166.153744,4206.666564,4216.922974,4223.07682,4230.769127,4205.128102,4214.358871,4236.922973,4231.794768,4195.384513
20,0,4215.384512,4155.897334,4217.435794,4284.102459,4171.281949,4220.512717,4221.025538,4221.025538,4236.410153,4208.717846,4218.461435,4246.666563,4235.897332,4208.205025
21,0,4215.897333,4158.974257,4218.461435,4287.179382,4165.640924,4216.410153,4219.999897,4218.974256,4233.84605,4221.538358,4221.025538,4239.487076,4236.410153,4213.846051
22,0,4198.974256,4150.769129,4211.281948,4275.897331,4164.615283,4201.538359,4210.769128,4212.307589,4231.794768,4217.435794,4210.769128,4227.692204,4233.33323,4201.025538
23,0,4210.769128,4166.153744,4222.051179,4271.794767,4196.922974,4221.538358,4222.563999,4224.615281,4245.640922,4217.435794,4227.179384,4251.281947,4251.281947,4215.384512
24,0,4234.871691,4189.230667,4236.410153,4281.025536,4221.025538,4248.205024,4238.974255,4243.58964,4251.281947,4243.076819,4254.35887,4272.820408,4267.179383,4238.974255
25,0,4224.615281,4188.717846,4233.84605,4281.025536,4204.102461,4237.435794,4229.230666,4240.512717,4237.435794,4251.281947,4246.153742,4256.922973,4250.256306,4226.153743
26,0,4210.769128,4179.487077,4227.179384,4274.87169,4181.538359,4215.897333,4213.846051,4224.102461,4231.794768,4224.615281,4225.128102,4242.051178,4230.769127,4210.256307
27,0,4217.435794,4177.435795,4224.615281,4281.538357,4173.846052,4210.256307,4216.410153,4218.974256,4236.410153,4210.769128,4223.07682,4246.666563,4235.897332,4216.410153
28,0,4208.717846,4170.256308,4216.922974,4282.563998,4167.692206,4205.640923,4216.410153,4218.461435,4234.358871,4215.897333,4218.974256,4237.948614,4236.410153,4209.230666
29,0,4201.025538,4169.743488,4216.410153,4276.410152,4172.30759,4206.666564,4213.846051,4215.384512,4231.281948,4214.358871,4214.358871,4230.256307,4234.871691,4199.999897
30,0,4216.410153,4182.05118,4226.153743,4280.512716,4184.102462,4214.871692,4216.410153,4216.410153,4234.358871,4213.33323,4220.512717,4244.615281,4244.10246,4212.82041
31,0,4221.025538,4185.128103,4227.179384,4281.538357,4184.102462,4213.846051,4215.384512,4221.538358,4239.487076,4215.384512,4218.974256,4249.743486,4244.10246,4219.487076
32,0,4219.999897,4185.640923,4228.205025,4281.025536,4184.615282,4215.897333,4218.461435,4227.692204,4247.692204,4221.538358,4217.435794,4244.10246,4241.025537,4216.922974
33,0,4227.179384,4189.743487,4230.256307,4287.692203,4181.025539,4215.897333,4216.410153,4225.128102,4245.640922,4231.281948,4221.538358,4246.666563,4245.128101,4218.974256
34,0,4222.051179,4187.179385,4221.538358,4287.692203,4170.256308,4201.025538,4204.615282,4214.871692,4232.307589,4222.051179,4216.922974,4244.615281,4235.384512,4213.33323
35,0,4212.82041,4185.640923,4216.922974,4287.692203,4173.846052,4204.102461,4207.692205,4217.948615,4233.84605,4214.871692,4215.384512,4243.076819,4230.769127,4208.717846
36,0,4214.871692,4188.717846,4218.461435,4289.743485,4186.153744,4219.999897,4220.512717,4225.640922,4238.974255,4224.615281,4221.538358,4247.179383,4241.538358,4215.384512
37,0,4212.307589,4186.666564,4216.922974,4267.179383,4189.743487,4214.358871,4217.435794,4217.435794,4232.307589,4220.512717,4215.897333,4239.487076,4238.974255,4214.358871
38,0,4215.384512,4190.769128,4223.58964,4252.820409,4195.897333,4211.281948,4213.33323,4214.358871,4236.410153,4208.717846,4219.487076,4237.435794,4237.948614,4212.307589
39,0,4226.153743,4203.07682,4234.358871,4273.846049,4204.102461,4221.538358,4219.999897,4226.153743,4244.615281,4214.358871,4233.84605,4250.256306,4248.205024,4219.487076
40,0,4222.051179,4204.102461,4229.743486,4284.102459,4198.974256,4219.487076,4221.538358,4228.205025,4241.025537,4225.128102,4227.179384,4248.205024,4246.153742,4218.974256
41,0,4215.384512,4197.948615,4224.102461,4274.87169,4194.358872,4217.435794,4224.615281,4226.153743,4241.538358,4235.897332,4219.487076,4243.076819,4241.538358,4214.871692
42,0,4222.051179,4204.615282,4232.307589,4277.435793,4202.564,4232.307589,4233.84605,4239.487076,4249.230665,4244.615281,4234.358871,4255.897332,4249.230665,4223.58964
43,0,4226.666563,4210.769128,4231.281948,4282.563998,4207.179384,4236.410153,4236.410153,4244.615281,4248.717845,4240.512717,4242.563999,4261.025537,4251.794768,4229.743486
44,0,4217.435794,4206.666564,4218.461435,4277.435793,4197.948615,4223.58964,4228.205025,4234.358871,4242.563999,4231.794768,4233.33323,4250.769127,4243.076819,4220.512717
45,0,4202.564,4196.410154,4210.256307,4269.230665,4180.512718,4211.794769,4216.410153,4226.666563,4236.410153,4218.974256,4219.999897,4238.461435,4232.307589,4206.666564
46,0,4201.025538,4193.333231,4212.307589,4265.128101,4179.487077,4212.82041,4219.487076,4226.153743,4238.461435,4217.435794,4216.410153,4237.435794,4234.358871,4208.205025
47,0,4215.897333,4209.230666,4218.974256,4261.538357,4205.640923,4228.205025,4233.33323,4237.435794,4248.717845,4236.922973,4240.512717,4257.435793,4251.794768,4227.692204
48,0,4219.487076,4215.897333,4217.948615,4255.897332,4218.974256,4234.358871,4232.307589,4243.58964,4247.179383,4243.076819,4252.307588,4264.10246,4254.871691,4234.358871
49,0,4213.33323,4205.640923,4221.538358,4242.563999,4214.358871,4230.256307,4228.205025,4234.358871,4244.615281,4236.410153,4234.871691,4255.384511,4247.692204,4226.666563
50,0,4219.487076,4207.692205,4232.820409,4219.487076,4225.640922,4230.256307,4231.794768,4232.307589,4245.640922,4239.487076,4236.922973,4260.512716,4251.794768,4231.794768
51,0,4220.512717,4211.794769,4229.743486,4207.179384,4229.230666,4222.051179,4223.07682,4234.871691,4236.922973,4234.871691,4241.538358,4259.999896,4250.769127,4232.307589
52,0,4216.410153,4202.564,4222.051179,4227.692204,4212.307589,4211.281948,4218.974256,4231.281948,4236.922973,4228.717845,4231.794768,4247.179383,4243.076819,4222.051179
53,0,4224.615281,4204.102461,4229.743486,4256.410152,4211.794769,4224.102461,4234.358871,4239.999896,4249.230665,4241.025537,4238.461435,4256.410152,4250.769127,4228.717845
54,0,4224.102461,4214.871692,4235.897332,4262.563998,4221.025538,4232.820409,4239.487076,4252.307588,4250.256306,4242.563999,4251.281947,4269.743485,4258.974255,4237.435794
55,0,4215.384512,4213.33323,4226.153743,4253.84605,4213.33323,4219.999897,4232.307589,4247.692204,4244.10246,4234.871691,4246.153742,4262.051178,4251.281947,4229.230666
56,0,4215.897333,4212.307589,4221.538358,4244.10246,4215.384512,4223.07682,4233.33323,4243.58964,4246.666563,4235.384512,4243.58964,4256.922973,4247.179383,4227.692204
57,0,4215.897333,4216.410153,4226.153743,4243.076819,4231.281948,4236.410153,4234.871691,4246.153742,4247.692204,4242.051178,4248.717845,4261.025537,4251.794768,4233.84605
58,0,4219.487076,4217.435794,4232.820409,4256.410152,4230.256307,4236.922973,4233.33323,4247.692204,4245.640922,4247.179383,4247.179383,4263.589639,4251.794768,4234.871691
59,0,4229.743486,4219.999897,4238.461435,4259.999896,4218.461435,4231.794768,4236.410153,4248.205024,4246.666563,4242.563999,4248.717845,4265.640921,4250.256306,4233.84605
60,0,4225.128102,4215.897333,4231.281948,4236.922973,4214.871692,4224.615281,4229.743486,4242.051178,4241.538358,4236.410153,4245.640922,4257.948614,4247.692204,4226.666563
61,0,4207.692205,4203.589641,4216.410153,4207.179384,4214.871692,4212.82041,4214.358871,4226.666563,4233.84605,4221.538358,4228.717845,4238.974255,4237.948614,4211.281948
62,0,4199.487077,4195.897333,4212.82041,4209.230666,4204.102461,4207.179384,4211.281948,4214.871692,4229.743486,4205.640923,4213.33323,4228.205025,4231.281948,4200.512718
63,0,4197.435795,4197.435795,4217.435794,4236.922973,4193.333231,4207.179384,4213.846051,4212.82041,4229.743486,4209.743487,4208.205025,4229.743486,4229.743486,4203.07682
64,0,4204.102461,4205.640923,4216.410153,4246.153742,4206.666564,4211.794769,4213.846051,4221.025538,4238.974255,4228.717845,4217.435794,4234.871691,4230.769127,4212.307589
65,0,4215.897333,4213.33323,4221.025538,4236.410153,4227.692204,4225.640922,4224.102461,4234.871691,4247.692204,4234.871691,4235.384512,4245.640922,4238.974255,4221.025538
66,0,4218.974256,4216.410153,4234.358871,4214.871692,4237.948614,4233.84605,4234.871691,4244.615281,4244.10246,4227.692204,4246.153742,4258.974255,4249.743486,4229.230666
67,0,4217.435794,4215.897333,4232.820409,4188.205026,4247.692204,4233.33323,4235.384512,4248.717845,4241.025537,4232.307589,4248.717845,4265.128101,4251.794768,4235.897332
68,0,4212.307589,4213.33323,4217.948615,4183.589641,4248.717845,4232.307589,4235.384512,4244.10246,4245.640922,4243.58964,4244.615281,4258.974255,4246.153742,4229.743486
69,0,4211.281948,4219.487076,4219.999897,4219.999897,4243.076819,4238.974255,4244.615281,4246.666563,4248.205024,4249.743486,4246.666563,4261.025537,4252.307588,4230.256307
70,0,4234.871691,4239.999896,4242.051178,4264.10246,4255.384511,4256.922973,4262.563998,4269.743485,4250.769127,4258.461434,4273.846049,4286.666562,4270.769126,4254.871691
71,0,4255.897332,4254.35887,4254.871691,4270.256306,4265.128101,4267.692203,4268.717844,4283.076818,4251.281947,4269.230665,4295.38451,4301.538356,4275.897331,4264.61528
72,0,4243.58964,4246.666563,4244.615281,4253.333229,4242.051178,4250.769127,4253.84605,4265.128101,4245.640922,4264.10246,4275.384511,4283.589639,4262.051178,4247.179383
73,0,4230.256307,4234.358871,4233.33323,4251.794768,4225.128102,4230.769127,4240.512717,4253.84605,4243.58964,4241.538358,4256.410152,4272.307588,4250.256306,4242.563999
74,0,4235.897332,4232.307589,4233.84605,4255.384511,4234.358871,4235.897332,4248.205024,4262.563998,4244.10246,4233.84605,4264.61528,4279.487075,4250.256306,4248.205024
75,0,4237.435794,4234.871691,4236.922973,4242.563999,4239.999896,4244.10246,4250.769127,4260.512716,4243.58964,4243.58964,4265.640921,4275.384511,4251.281947,4241.538358
76,0,4228.717845,4228.717845,4231.794768,4237.435794,4230.256307,4232.307589,4234.871691,4247.179383,4243.076819,4238.974255,4250.769127,4262.051178,4247.179383,4230.769127
77,0,4225.128102,4221.538358,4229.230666,4247.692204,4226.666563,4226.666563,4227.692204,4242.563999,4242.563999,4228.205025,4244.615281,4260.512716,4245.128101,4228.717845
78,0,4233.33323,4231.281948,4242.563999,4250.256306,4238.974255,4245.640922,4242.563999,4253.84605,4246.666563,4241.538358,4258.974255,4274.35887,4257.435793,4240.512717
79,0,4239.999896,4239.999896,4251.794768,4232.307589,4248.205024,4252.820409,4249.743486,4263.076819,4246.666563,4249.230665,4267.692203,4283.589639,4261.025537,4249.743486
80,0,4219.999897,4219.999897,4234.358871,4190.256308,4241.538358,4224.615281,4231.794768,4246.153742,4233.84605,4223.58964,4245.640922,4263.076819,4237.435794,4230.769127
81,0,4193.333231,4194.358872,4210.256307,4167.179385,4235.384512,4207.179384,4219.999897,4225.128102,4228.205025,4212.307589,4219.999897,4237.948614,4223.58964,4207.179384
82,0,4206.153743,4205.640923,4218.974256,4205.640923,4246.666563,4233.84605,4241.025537,4235.897332,4245.640922,4240.512717,4234.871691,4252.307588,4244.10246,4221.025538
83,0,4230.769127,4228.717845,4234.358871,4249.743486,4249.230665,4253.84605,4253.333229,4256.410152,4250.256306,4252.820409,4259.487075,4274.35887,4262.563998,4242.563999
84,0,4228.205025,4221.025538,4223.58964,4254.35887,4220.512717,4232.820409,4235.384512,4247.692204,4236.922973,4236.922973,4253.333229,4263.589639,4251.281947,4233.84605
85,0,4225.128102,4212.307589,4218.974256,4263.076819,4199.999897,4217.435794,4222.051179,4233.84605,4237.435794,4233.84605,4242.563999,4253.84605,4247.692204,4228.717845
86,0,4234.358871,4221.538358,4232.820409,4271.281947,4209.230666,4228.717845,4225.640922,4234.871691,4242.563999,4229.230666,4247.692204,4263.076819,4256.922973,4243.58964
87,0,4236.410153,4219.487076,4235.897332,4249.743486,4222.051179,4230.769127,4225.640922,4235.384512,4234.871691,4211.281948,4248.717845,4264.61528,4254.35887,4246.666563
88,0,4237.435794,4217.435794,4229.743486,4245.128101,4224.102461,4228.205025,4226.666563,4236.410153,4236.922973,4222.051179,4242.051178,4258.461434,4249.230665,4238.461435
89,0,4251.281947,4230.256307,4233.84605,4264.61528,4229.743486,4241.025537,4242.051178,4249.230665,4248.717845,4248.717845,4244.10246,4262.563998,4253.333229,4244.10246
90,0,4263.076819,4229.230666,4235.897332,4259.999896,4229.743486,4245.128101,4247.179383,4254.871691,4243.58964,4239.487076,4249.230665,4265.640921,4252.307588,4248.717845
91,0,4264.10246,4215.384512,4230.256307,4240.512717,4208.205025,4223.58964,4231.281948,4242.563999,4231.794768,4220.512717,4245.128101,4259.999896,4244.10246,4246.666563
92,0,4268.717844,4210.769128,4232.307589,4243.58964,4182.564,4199.487077,4214.358871,4233.84605,4233.84605,4229.743486,4243.076819,4260.512716,4245.640922,4256.410152
93,0,4293.846049,4218.461435,4252.307588,4270.769126,4192.82041,4207.179384,4216.410153,4245.128101,4243.58964,4237.435794,4258.461434,4283.589639,4263.589639,4286.666562
94,0,4322.563997,4229.743486,4270.769126,4290.769126,4218.461435,4229.230666,4232.307589,4263.589639,4249.230665,4232.820409,4281.538357,4308.717843,4281.538357,4312.820407
95,0,4327.692202,4233.33323,4260.512716,4287.692203,4211.794769,4227.179384,4235.897332,4265.640921,4243.076819,4233.84605,4284.61528,4302.563997,4277.435793,4309.230664
96,0,4324.102458,4232.307589,4246.153742,4284.102459,4195.384513,4214.871692,4223.58964,4251.794768,4232.307589,4233.84605,4268.717844,4283.076818,4266.153742,4296.410151
97,0,4330.769125,4235.897332,4247.692204,4293.333228,4193.333231,4215.384512,4215.384512,4237.948614,4230.769127,4216.922974,4254.871691,4272.307588,4260.512716,4297.435792
98,0,4334.871689,4237.435794,4248.205024,4280.512716,4190.256308,4215.897333,4212.307589,4229.743486,4232.307589,4199.487077,4245.640922,4261.538357,4248.205024,4295.897331
99,0,4340.512714,4239.487076,4251.794768,4254.871691,4195.384513,4212.82041,4206.666564,4235.384512,4230.769127,4204.615282,4245.128101,4260.512716,4245.640922,4293.846049
100,0,4355.897329,4250.256306,4265.128101,4239.487076,4213.846051,4213.846051,4207.692205,4248.205024,4238.461435,4223.58964,4259.999896,4276.410152,4264.61528,4308.717843
101,0,4359.487073,4256.410152,4269.743485,4222.563999,4222.563999,4213.846051,4216.410153,4253.84605,4250.256306,4242.563999,4275.897331,4286.666562,4276.922972,4318.461433
102,0,4337.948612,4248.205024,4260.512716,4217.435794,4213.33323,4208.205025,4213.33323,4252.820409,4246.666563,4244.615281,4275.384511,4281.538357,4270.769126,4305.64092
103,0,4308.205023,4234.871691,4249.230665,4230.256307,4198.974256,4204.615282,4201.538359,4246.666563,4233.84605,4223.58964,4260.512716,4272.307588,4258.974255,4286.666562
104,0,4290.769126,4229.230666,4237.948614,4226.153743,4197.948615,4208.717846,4208.717846,4236.922973,4231.281948,4214.871692,4244.10246,4264.10246,4247.692204,4273.333229
105,0,4276.922972,4229.743486,4230.256307,4212.307589,4203.07682,4208.205025,4214.871692,4223.07682,4232.820409,4215.897333,4231.794768,4253.333229,4234.871691,4259.999896
106,0,4266.666562,4231.794768,4232.820409,4223.07682,4199.487077,4201.538359,4204.615282,4215.384512,4230.256307,4203.07682,4225.640922,4245.640922,4228.205025,4250.769127
107,0,4266.666562,4233.84605,4237.435794,4221.538358,4209.230666,4199.999897,4198.974256,4217.435794,4230.769127,4201.025538,4231.281948,4247.692204,4232.820409,4249.230665
108,0,4258.974255,4230.769127,4233.33323,4172.30759,4230.256307,4198.461436,4199.999897,4216.410153,4229.743486,4212.307589,4229.743486,4248.717845,4233.33323,4247.692204
109,0,4248.717845,4229.743486,4231.794768,4126.666566,4244.10246,4204.102461,4205.640923,4216.410153,4232.820409,4223.07682,4221.025538,4248.717845,4234.358871,4247.179383
110,0,4249.230665,4231.281948,4231.794768,4117.435797,4251.794768,4218.974256,4217.435794,4226.153743,4242.051178,4232.307589,4227.692204,4249.743486,4241.538358,4247.179383
111,0,4236.922973,4222.563999,4222.051179,4129.230668,4249.743486,4221.538358,4220.512717,4230.256307,4241.538358,4221.538358,4233.84605,4248.717845,4241.025537,4238.461435
112,0,4212.82041,4212.307589,4210.769128,4108.205028,4246.666563,4213.846051,4210.769128,4215.897333,4233.33323,4207.179384,4222.051179,4243.076819,4231.281948,4228.717845
113,0,4211.281948,4209.230666,4214.871692,4029.743491,4264.61528,4213.33323,4208.205025,4202.051179,4231.794768,4211.794769,4207.692205,4237.435794,4229.230666,4228.717845
114,0,4218.461435,4210.256307,4226.666563,3968.205031,4298.461433,4206.666564,4205.640923,4197.948615,4232.820409,4208.205025,4203.07682,4231.794768,4232.307589,4230.256307
115,0,4217.435794,4215.384512,4234.358871,3983.076826,4316.410151,4197.948615,4198.974256,4198.974256,4228.717845,4201.025538,4206.666564,4235.384512,4231.794768,4229.743486
116,0,4224.615281,4220.512717,4236.922973,4022.564004,4305.64092,4201.025538,4204.615282,4208.205025,4229.743486,4215.897333,4213.846051,4246.153742,4232.307589,4232.820409
117,0,4229.230666,4217.948615,4235.384512,4033.846055,4294.358869,4207.692205,4215.384512,4220.512717,4237.948614,4228.717845,4221.025538,4249.230665,4237.948614,4232.820409
118,0,4223.58964,4218.461435,4234.871691,4038.46144,4299.487074,4217.948615,4218.461435,4231.281948,4248.205024,4234.358871,4232.820409,4253.333229,4250.256306,4235.384512
119,0,4215.384512,4215.384512,4229.743486,4041.025542,4287.179382,4216.922974,4215.384512,4231.281948,4247.692204,4239.999896,4237.948614,4254.35887,4253.333229,4236.922973
120,0,4202.564,4200.512718,4218.461435,4038.97426,4263.589639,4202.564,4213.33323,4218.974256,4236.922973,4226.153743,4223.58964,4239.487076,4239.487076,4224.102461
121,0,4195.897333,4196.922974,4215.384512,4056.922978,4257.948614,4205.640923,4217.948615,4209.743487,4231.794768,4212.82041,4207.692205,4228.717845,4230.256307,4214.358871
122,0,4199.999897,4205.640923,4217.435794,4087.692208,4254.35887,4216.410153,4218.974256,4203.589641,4232.307589,4211.794769,4201.025538,4228.205025,4229.230666,4214.358871
123,0,4207.692205,4212.82041,4222.051179,4125.128104,4249.230665,4215.384512,4215.384512,4203.07682,4234.871691,4213.846051,4203.07682,4229.230666,4229.230666,4214.871692
124,0,4218.461435,4223.58964,4232.820409,4148.205027,4260.512716,4224.615281,4226.666563,4215.384512,4237.948614,4222.563999,4219.487076,4241.538358,4234.358871,4225.128102
125,0,4216.922974,4227.179384,4233.84605,4115.897335,4269.743485,4233.33323,4235.897332,4224.102461,4236.410153,4224.102461,4228.717845,4253.333229,4238.461435,4231.281948
126,0,4189.230667,4205.640923,4212.307589,4049.743491,4262.563998,4209.743487,4215.384512,4203.589641,4229.230666,4205.640923,4209.743487,4232.820409,4223.07682,4209.230666
127,0,4173.333231,4190.256308,4203.589641,4038.97426,4259.999896,4191.281949,4201.025538,4186.153744,4227.692204,4193.333231,4190.256308,4212.82041,4209.230666,4194.358872
128,0,4190.769128,4207.179384,4217.435794,4087.692208,4268.717844,4210.769128,4214.871692,4203.07682,4234.871691,4210.256307,4201.538359,4228.717845,4224.102461,4212.307589
0,0,4204.615282,4222.563999,4223.07682,4109.743489,4274.87169,4229.230666,4227.179384,4221.025538,4241.538358,4230.256307,4218.461435,4240.512717,4236.922973,4224.615281
1,0,4204.615282,4221.025538,4222.051179,4111.281951,4273.333229,4230.769127,4230.256307,4222.051179,4243.076819,4230.256307,4220.512717,4235.384512,4234.871691,4220.512717
2,0,4199.487077,4214.871692,4223.07682,4118.461438,4255.384511,4224.102461,4231.281948,4221.025538,4238.461435,4221.538358,4215.384512,4232.820409,4227.179384,4216.922974
3,0,4188.205026,4203.589641,4211.794769,4109.743489,4235.384512,4206.666564,4219.999897,4213.33323,4233.84605,4208.717846,4207.692205,4225.640922,4217.435794,4212.82041
4,0,4183.076821,4199.487077,4201.025538,4111.794771,4235.384512,4203.07682,4212.307589,4202.051179,4233.84605,4207.179384,4203.589641,4219.999897,4222.051179,4213.846051
5,0,4181.538359,4208.717846,4202.564,4124.102463,4249.230665,4214.871692,4213.846051,4202.564,4233.84605,4214.358871,4202.564,4222.051179,4232.307589,4212.307589
6,0,4174.871693,4211.794769,4200.512718,4114.871694,4256.410152,4216.410153,4211.281948,4203.589641,4230.769127,4218.974256,4201.538359,4217.435794,4226.153743,4203.07682
7,0,4175.384513,4211.794769,4196.922974,4105.128105,4259.487075,4211.281948,4209.743487,4199.487077,4230.769127,4215.897333,4199.487077,4211.794769,4218.461435,4202.051179
8,0,4184.102462,4218.461435,4201.025538,4114.358874,4259.487075,4212.82041,4211.281948,4199.999897,4234.358871,4202.564,4196.922974,4214.358871,4221.025538,4205.128102
9,0,4185.640923,4218.974256,4204.615282,4124.102463,4251.794768,4218.461435,4215.384512,4204.615282,4235.384512,4203.07682,4196.410154,4216.922974,4219.999897,4200.512718
10,0,4183.076821,4213.33323,4202.564,4125.640925,4243.076819,4212.82041,4217.435794,4206.153743,4232.820409,4212.307589,4199.487077,4212.82041,4215.384512,4197.948615
11,0,4182.564,4211.794769,4198.461436,4105.128105,4249.230665,4206.666564,4215.897333,4203.589641,4231.794768,4208.717846,4200.512718,4212.82041,4214.871692,4203.07682
12,0,4183.589641,4216.922974,4205.640923,4078.461439,4268.205024,4217.435794,4221.538358,4207.179384,4238.461435,4208.205025,4205.128102,4224.615281,4225.640922,4211.794769
13,0,4189.230667,4221.538358,4218.461435,4076.410157,4282.563998,4228.205025,4232.307589,4219.487076,4244.615281,4225.128102,4218.461435,4236.922973,4240.512717,4221.025538
14,0,4189.230667,4219.487076,4216.922974,4071.794772,4280.512716,4218.974256,4224.615281,4219.999897,4239.487076,4229.230666,4219.999897,4235.384512,4237.435794,4220.512717
15,0,4183.589641,4222.051179,4210.769128,4059.999901,4281.025536,4206.666564,4205.640923,4205.640923,4231.281948,4209.743487,4208.205025,4224.615281,4229.230666,4211.794769
16,0,4187.692205,4236.922973,4218.461435,4076.922977,4286.153741,4208.717846,4202.051179,4202.564,4231.794768,4203.589641,4206.153743,4224.102461,4232.820409,4210.256307
17,0,4184.615282,4232.820409,4212.82041,4076.410157,4273.333229,4193.333231,4195.897333,4197.948615,4227.692204,4198.461436,4196.922974,4214.871692,4220.512717,4201.538359
18,0,4176.410154,4215.897333,4200.512718,4051.794773,4272.820408,4182.05118,4185.128103,4186.666564,4226.666563,4197.435795,4184.102462,4203.07682,4209.230666,4196.410154
19,0,4187.692205,4229.743486,4212.307589,4073.846054,4304.102459,4210.256307,4200.512718,4199.999897,4236.922973,4213.846051,4199.999897,4217.948615,4233.84605,4214.871692
20,0,4207.692205,4251.794768,4224.102461,4117.435797,4315.89733,4235.384512,4226.153743,4223.58964,4241.025537,4222.563999,4225.128102,4239.487076,4253.84605,4229.230666
21,0,4203.07682,4243.076819,4217.948615,4108.717848,4286.666562,4223.58964,4225.128102,4224.102461,4233.84605,4218.461435,4223.58964,4237.948614,4237.948614,4218.974256
22,0,4187.179385,4226.666563,4213.846051,4078.974259,4273.333229,4208.205025,4212.82041,4211.794769,4231.794768,4217.948615,4211.794769,4226.666563,4225.128102,4210.256307
23,0,4193.333231,4231.281948,4217.948615,4076.922977,4295.38451,4217.948615,4215.897333,4212.307589,4238.974255,4219.999897,4216.410153,4231.281948,4239.487076,4217.435794
24,0,4197.948615,4236.410153,4216.410153,4074.871695,4303.076818,4218.461435,4215.384512,4218.974256,4240.512717,4217.948615,4221.538358,4238.461435,4244.615281,4223.58964
25,0,4189.230667,4230.256307,4216.410153,4069.74349,4291.281946,4207.179384,4205.128102,4217.435794,4235.897332,4218.974256,4214.871692,4232.820409,4232.820409,4218.461435
26,0,4182.564,4226.153743,4216.922974,4074.358875,4285.640921,4199.487077,4197.948615,4203.07682,4231.281948,4212.307589,4200.512718,4218.461435,4226.153743,4204.615282
27,0,4187.179385,4225.128102,4214.871692,4077.435798,4290.256305,4199.999897,4196.410154,4197.948615,4231.794768,4205.128102,4196.922974,4216.410153,4226.666563,4203.589641
28,0,4199.487077,4232.307589,4216.922974,4077.435798,4307.179382,4217.948615,4210.769128,4217.435794,4237.948614,4216.410153,4214.358871,4233.84605,4233.84605,4223.58964
29,0,4202.051179,4233.33323,4219.487076,4074.358875,4318.461433,4226.666563,4221.538358,4225.128102,4235.897332,4222.563999,4223.58964,4239.487076,4236.410153,4228.717845
30,0,4190.256308,4218.461435,4216.922974,4055.897337,4310.256305,4207.692205,4209.230666,4212.82041,4231.281948,4215.384512,4215.384512,4231.794768,4231.281948,4217.435794
31,0,4183.076821,4210.769128,4215.384512,4026.666568,4304.615279,4196.410154,4200.512718,4211.281948,4232.820409,4215.897333,4212.307589,4230.256307,4230.769127,4217.435794
32,0,4188.717846,4216.410153,4216.922974,4013.846056,4319.487074,4210.769128,4210.769128,4214.358871,4235.384512,4220.512717,4216.410153,4231.281948,4233.84605,4221.538358
33,0,4188.205026,4217.435794,4217.435794,4019.487081,4332.307586,4221.025538,4217.435794,4211.281948,4233.84605,4220.512717,4216.410153,4231.794768,4232.820409,4218.974256
34,0,4186.666564,4214.358871,4216.922974,4028.20503,4330.769125,4219.999897,4213.33323,4216.410153,4233.33323,4222.051179,4216.410153,4236.922973,4232.307589,4221.025538
35,0,4188.717846,4212.307589,4215.897333,4029.230671,4321.538356,4211.794769,4207.692205,4213.846051,4231.794768,4210.769128,4210.769128,4234.358871,4225.640922,4216.410153
36,0,4182.05118,4210.256307,4213.33323,4018.974261,4318.974253,4198.461436,4199.999897,4198.974256,4227.692204,4195.384513,4197.948615,4224.102461,4214.358871,4205.640923
37,0,4186.666564,4214.358871,4216.410153,4024.615286,4329.743484,4205.640923,4199.999897,4204.102461,4230.256307,4204.102461,4203.589641,4226.666563,4224.102461,4209.230666
38,0,4198.974256,4212.82041,4218.974256,4037.435799,4334.871689,4216.410153,4204.102461,4215.384512,4232.307589,4216.922974,4218.974256,4235.897332,4233.33323,4219.999897
39,0,4192.30759,4198.974256,4215.384512,4027.179389,4325.128099,4206.153743,4200.512718,4205.640923,4228.205025,4212.82041,4212.307589,4231.281948,4219.999897,4216.922974
40,0,4182.564,4196.410154,4215.384512,4016.410158,4319.487074,4198.974256,4198.974256,4196.922974,4227.692204,4207.692205,4198.461436,4219.487076,4212.82041,4207.692205
41,0,4183.589641,4198.974256,4214.871692,4025.128107,4324.102458,4202.564,4197.948615,4197.948615,4227.692204,4199.487077,4196.410154,4215.384512,4217.435794,4201.025538
42,0,4187.179385,4195.384513,4216.922974,4033.846055,4332.820407,4206.153743,4202.564,4199.487077,4228.717845,4196.922974,4201.025538,4219.999897,4221.025538,4204.102461
43,0,4206.666564,4216.922974,4239.999896,4054.358875,4352.307586,4232.307589,4228.205025,4220.512717,4242.051178,4232.307589,4228.205025,4245.128101,4241.538358,4231.794768
44,0,4226.666563,4241.025537,4254.871691,4080.512721,4363.589637,4254.871691,4245.640922,4244.10246,4248.717845,4261.538357,4253.84605,4264.10246,4257.435793,4247.692204
45,0,4217.948615,4228.205025,4238.461435,4067.692208,4350.769124,4237.435794,4231.794768,4235.897332,4235.384512,4234.358871,4241.025537,4247.692204,4240.512717,4227.179384
46,0,4212.307589,4219.487076,4229.230666,4046.153747,4347.692201,4226.666563,4223.07682,4228.717845,4229.743486,4215.384512,4234.358871,4238.461435,4234.871691,4221.025538
47,0,4222.563999,4231.794768,4239.487076,4043.589645,4357.948611,4238.974255,4233.84605,4237.948614,4237.948614,4235.897332,4247.692204,4254.35887,4246.666563,4237.435794
48,0,4211.794769,4224.615281,4235.897332,4026.153748,4358.461432,4232.820409,4232.307589,4233.84605,4235.897332,4236.410153,4237.948614,4249.230665,4235.384512,4228.205025
49,0,4197.435795,4211.794769,4226.153743,4014.871697,4355.384509,4227.179384,4227.692204,4227.692204,4232.307589,4222.051179,4224.102461,4230.769127,4226.666563,4213.33323
50,0,4204.102461,4217.948615,4228.205025,4031.281953,4353.333227,4239.487076,4234.871691,4230.769127,4237.435794,4230.769127,4232.307589,4237.435794,4235.384512,4222.563999
51,0,4197.948615,4208.717846,4219.487076,4021.538363,4339.487073,4224.102461,4225.640922,4219.999897,4232.307589,4225.128102,4220.512717,4233.84605,4223.58964,4217.948615
52,0,4189.743487,4196.410154,4211.794769,4007.69221,4335.89733,4210.256307,4219.487076,4209.230666,4228.205025,4207.692205,4205.640923,4222.563999,4215.897333,4212.307589
53,0,4202.564,4209.743487,4222.563999,4034.871696,4342.051176,4228.717845,4230.256307,4219.487076,4236.410153,4221.025538,4225.128102,4234.871691,4233.33323,4229.230666
54,0,4199.487077,4209.230666,4223.07682,4047.179388,4329.230663,4224.102461,4221.025538,4219.999897,4236.922973,4229.230666,4230.769127,4237.948614,4229.743486,4227.179384
55,0,4186.666564,4194.358872,4211.281948,4029.743491,4318.461433,4202.051179,4204.615282,4209.743487,4230.769127,4211.281948,4210.769128,4223.58964,4211.794769,4209.743487
56,0,4197.435795,4199.487077,4215.384512,4039.487081,4326.15374,4211.794769,4210.769128,4209.230666,4231.794768,4211.794769,4208.717846,4225.128102,4217.948615,4214.871692
57,0,4198.461436,4206.666564,4217.435794,4053.333234,4327.692202,4219.487076,4210.769128,4208.205025,4229.743486,4218.974256,4212.82041,4224.102461,4221.538358,4217.435794
58,0,4182.564,4198.461436,4204.615282,4028.71785,4319.487074,4202.564,4196.410154,4197.435795,4224.102461,4203.589641,4196.410154,4205.640923,4205.128102,4202.564
59,0,4182.564,4196.410154,4204.102461,4006.666569,4318.974253,4198.974256,4196.410154,4188.205026,4228.205025,4196.922974,4183.076821,4203.589641,4197.435795,4196.922974
60,0,4186.666564,4199.999897,4211.794769,4001.025543,4325.128099,4202.051179,4198.974256,4189.230667,4231.794768,4201.538359,4189.230667,4213.33323,4204.615282,4202.051179
61,0,4189.230667,4202.051179,4215.897333,3996.922979,4337.435791,4207.179384,4197.948615,4198.461436,4231.794768,4201.025538,4198.974256,4214.871692,4216.410153,4210.256307
62,0,4197.435795,4205.640923,4216.922974,4007.179389,4338.974253,4216.410153,4204.615282,4207.692205,4233.33323,4209.230666,4205.640923,4217.435794,4221.025538,4216.922974
63,0,4191.281949,4202.051179,4207.692205,4013.333235,4318.974253,4203.589641,4198.461436,4200.512718,4228.205025,4211.794769,4199.487077,4217.948615,4210.256307,4207.692205
64,0,4179.999898,4196.922974,4203.07682,3996.922979,4313.333228,4185.640923,4186.153744,4186.153744,4223.58964,4201.025538,4186.153744,4212.82041,4204.102461,4197.435795
65,0,4184.102462,4197.948615,4213.846051,3986.153749,4330.256304,4191.794769,4190.256308,4187.692205,4229.743486,4203.07682,4186.666564,4211.281948,4212.82041,4205.128102
66,0,4193.846051,4201.025538,4221.025538,3993.846056,4343.076817,4209.743487,4201.538359,4201.025538,4233.84605,4216.922974,4206.153743,4222.563999,4227.179384,4216.922974
67,0,4202.564,4207.692205,4218.974256,4000.512723,4347.692201,4216.410153,4201.538359,4207.692205,4233.84605,4219.999897,4219.487076,4233.84605,4233.33323,4224.102461
68,0,4198.974256,4206.153743,4213.846051,4003.076825,4334.358868,4203.07682,4189.743487,4199.999897,4228.717845,4205.640923,4208.717846,4226.153743,4223.58964,4219.487076
69,0,4175.897334,4185.640923,4200.512718,4004.102466,4302.563997,4177.948616,4178.974257,4184.102462,4218.461435,4186.666564,4184.102462,4199.999897,4201.025538,4201.025538
70,0,4169.743488,4181.538359,4194.871692,4012.307594,4296.410151,4182.05118,4183.589641,4178.461436,4223.58964,4193.846051,4175.384513,4190.769128,4196.410154,4194.871692
71,0,4186.666564,4199.999897,4203.07682,4031.794773,4316.410151,4211.281948,4199.487077,4193.333231,4235.897332,4219.487076,4192.30759,4207.692205,4211.281948,4207.179384
72,0,4188.717846,4203.589641,4203.07682,4041.538363,4312.820407,4216.410153,4205.640923,4202.051179,4232.307589,4220.512717,4198.974256,4212.307589,4210.769128,4207.692205
73,0,4178.974257,4194.871692,4197.435795,4046.666568,4290.769126,4198.974256,4196.922974,4188.205026,4225.640922,4199.487077,4184.615282,4196.922974,4199.999897,4195.384513
74,0,4183.076821,4198.461436,4197.948615,4060.512721,4290.769126,4193.846051,4188.205026,4183.076821,4229.230666,4192.82041,4185.640923,4196.410154,4206.153743,4198.461436
75,0,4191.281949,4204.615282,4205.128102,4066.666567,4304.615279,4205.640923,4188.717846,4196.410154,4231.281948,4208.717846,4206.153743,4214.871692,4220.512717,4216.922974
76,0,4190.769128,4204.615282,4208.717846,4061.025542,4299.999895,4202.051179,4187.692205,4195.897333,4227.692204,4213.33323,4204.102461,4215.384512,4214.358871,4215.897333
77,0,4186.153744,4200.512718,4205.128102,4058.461439,4281.538357,4185.128103,4181.025539,4187.179385,4226.666563,4199.999897,4187.179385,4201.538359,4201.538359,4202.564
78,0,4181.538359,4193.846051,4200.512718,4059.999901,4277.435793,4188.205026,4182.564,4196.410154,4229.743486,4203.589641,4193.333231,4205.128102,4208.205025,4207.179384
79,0,4190.769128,4201.538359,4204.102461,4076.410157,4282.563998,4201.538359,4189.230667,4204.615282,4232.820409,4215.384512,4205.128102,4217.948615,4219.999897,4221.538358
80,0,4203.07682,4217.435794,4208.205025,4095.384515,4279.999895,4202.564,4188.205026,4201.538359,4232.307589,4209.230666,4203.07682,4216.922974,4215.897333,4218.461435
81,0,4197.948615,4219.999897,4205.640923,4086.666567,4282.563998,4207.692205,4191.794769,4202.051179,4230.256307,4208.205025,4201.538359,4210.256307,4210.256307,4210.256307
82,0,4193.846051,4225.128102,4208.717846,4076.922977,4287.179382,4216.410153,4201.538359,4207.692205,4230.769127,4220.512717,4204.615282,4217.435794,4215.897333,4216.410153
83,0,4197.948615,4231.794768,4211.281948,4081.538362,4282.563998,4207.692205,4200.512718,4205.128102,4230.256307,4215.384512,4200.512718,4215.384512,4212.307589,4216.410153
84,0,4191.281949,4225.640922,4204.615282,4077.435798,4280.512716,4201.025538,4193.333231,4201.025538,4230.256307,4204.102461,4198.974256,4204.102461,4200.512718,4205.128102
85,0,4182.564,4218.461435,4200.512718,4071.794772,4284.102459,4204.102461,4187.179385,4200.512718,4229.230666,4203.589641,4200.512718,4205.640923,4199.487077,4202.051179
86,0,4183.076821,4213.846051,4202.564,4076.410157,4281.538357,4198.461436,4183.076821,4200.512718,4227.179384,4199.999897,4191.794769,4206.153743,4201.025538,4200.512718
87,0,4182.05118,4204.615282,4198.974256,4077.948618,4275.897331,4200.512718,4188.717846,4198.461436,4228.717845,4201.538359,4187.179385,4202.051179,4196.410154,4196.922974
88,0,4182.564,4209.743487,4205.640923,4086.666567,4280.512716,4213.846051,4201.025538,4202.051179,4231.281948,4209.230666,4197.435795,4210.769128,4199.999897,4210.256307
89,0,4191.281949,4219.999897,4217.948615,4107.692207,4282.563998,4210.769128,4202.051179,4210.256307,4233.33323,4210.256307,4208.717846,4224.102461,4208.205025,4223.07682
90,0,4185.640923,4207.692205,4207.179384,4110.25631,4265.640921,4190.769128,4186.153744,4205.128102,4230.256307,4199.487077,4197.948615,4213.33323,4198.974256,4207.179384
91,0,4182.05118,4202.051179,4201.025538,4102.564002,4258.974255,4190.256308,4179.487077,4196.922974,4227.179384,4193.333231,4186.666564,4205.640923,4192.30759,4196.922974
92,0,4193.333231,4216.922974,4214.358871,4106.153746,4274.35887,4204.102461,4196.410154,4202.051179,4230.769127,4203.589641,4197.435795,4217.948615,4199.999897,4211.794769
93,0,4191.281949,4216.410153,4215.897333,4102.051182,4280.512716,4203.589641,4204.102461,4205.128102,4231.794768,4213.846051,4205.128102,4221.538358,4204.615282,4217.435794
94,0,4188.717846,4209.230666,4211.281948,4092.307592,4275.897331,4205.640923,4199.999897,4204.102461,4230.256307,4215.897333,4198.974256,4215.897333,4202.564,4212.307589
95,0,4195.384513,4209.743487,4215.384512,4093.846054,4278.974254,4215.384512,4207.692205,4207.179384,4230.769127,4211.281948,4198.974256,4214.358871,4202.051179,4211.794769
96,0,4193.846051,4208.717846,4215.384512,4097.435797,4281.025536,4217.435794,4212.82041,4207.692205,4232.307589,4199.999897,4202.051179,4216.922974,4201.538359,4215.384512
97,0,4193.333231,4206.153743,4213.33323,4094.358874,4275.384511,4214.871692,4203.589641,4204.102461,4232.307589,4198.974256,4202.564,4218.974256,4203.589641,4216.410153
98,0,4195.384513,4203.07682,4215.384512,4069.23067,4273.333229,4210.769128,4196.922974,4201.025538,4230.256307,4208.717846,4202.051179,4214.871692,4203.589641,4214.358871
99,0,4194.358872,4202.051179,4216.922974,4023.076825,4290.256305,4207.692205,4199.487077,4199.487077,4227.179384,4205.128102,4193.846051,4211.281948,4200.512718,4214.871692
100,0,4193.846051,4200.512718,4218.974256,3988.205031,4316.410151,4212.82041,4201.025538,4203.07682,4229.230666,4196.410154,4186.153744,4211.794769,4196.922974,4215.384512
101,0,4189.743487,4191.794769,4213.846051,3970.769134,4323.589638,4208.205025,4190.769128,4197.948615,4230.256307,4199.999897,4186.666564,4207.692205,4186.666564,4206.666564
102,0,4180.512718,4191.794769,4208.717846,3968.717852,4314.871689,4196.410154,4182.05118,4186.666564,4226.666563,4199.999897,4187.179385,4199.487077,4183.589641,4199.999897
103,0,4186.153744,4206.666564,4213.33323,3991.281954,4313.846048,4199.487077,4184.615282,4185.128103,4228.205025,4196.410154,4186.153744,4201.025538,4195.897333,4204.615282
104,0,4189.743487,4205.640923,4210.769128,4014.358876,4311.281946,4202.051179,4186.153744,4188.717846,4232.307589,4197.948615,4186.153744,4204.102461,4193.846051,4205.128102
105,0,4180.512718,4193.333231,4200.512718,4022.564004,4304.615279,4204.102461,4188.205026,4190.769128,4230.769127,4197.948615,4189.230667,4200.512718,4184.102462,4199.999897
106,0,4182.564,4199.999897,4201.025538,4042.051183,4301.538356,4214.871692,4197.948615,4199.999897,4230.769127,4202.051179,4198.974256,4204.102461,4196.922974,4203.589641
107,0,4185.640923,4206.153743,4201.538359,4058.461439,4293.846049,4210.256307,4195.384513,4199.487077,4231.794768,4204.102461,4196.410154,4203.589641,4203.07682,4205.128102
108,0,4182.05118,4199.487077,4195.897333,4054.358875,4290.769126,4197.948615,4184.102462,4191.281949,4230.769127,4196.922974,4183.589641,4196.922974,4190.256308,4201.025538
109,0,4186.666564,4199.999897,4202.564,4058.97426,4294.358869,4206.666564,4190.769128,4196.922974,4231.794768,4205.640923,4187.179385,4200.512718,4192.30759,4206.153743
110,0,4197.948615,4207.179384,4211.281948,4066.666567,4296.410151,4221.025538,4204.102461,4203.589641,4231.281948,4217.435794,4197.948615,4206.666564,4202.564,4215.897333
111,0,4202.051179,4209.230666,4209.743487,4059.48708,4300.512715,4222.563999,4204.102461,4205.128102,4232.307589,4211.281948,4201.025538,4208.205025,4198.974256,4216.922974
112,0,4189.230667,4195.897333,4200.512718,4059.48708,4289.743485,4207.692205,4191.794769,4197.948615,4228.717845,4195.384513,4190.256308,4198.974256,4188.205026,4203.07682
113,0,4175.897334,4181.538359,4194.358872,4073.333234,4268.717844,4194.358872,4182.564,4185.128103,4220.512717,4179.999898,4174.358872,4187.692205,4179.487077,4192.82041
114,0,4186.153744,4186.153744,4205.128102,4079.9999,4272.820408,4205.128102,4190.256308,4189.230667,4224.102461,4185.640923,4182.05118,4193.333231,4186.666564,4204.102461
115,0,4204.615282,4201.538359,4216.410153,4082.051182,4288.205023,4220.512717,4198.974256,4207.692205,4234.358871,4208.717846,4200.512718,4206.666564,4201.538359,4218.974256
116,0,4196.922974,4198.461436,4207.692205,4095.897336,4272.307588,4212.82041,4191.794769,4206.666564,4231.794768,4212.82041,4194.358872,4205.128102,4193.333231,4212.82041
117,0,4181.025539,4184.615282,4194.871692,4114.871694,4250.256306,4199.999897,4183.589641,4194.358872,4226.666563,4196.922974,4182.05118,4197.948615,4182.564,4202.051179
118,0,4189.230667,4189.743487,4199.999897,4127.179386,4252.307588,4206.153743,4190.769128,4204.102461,4233.33323,4198.974256,4192.30759,4200.512718,4194.358872,4209.230666
119,0,4202.051179,4202.564,4206.153743,4136.410155,4260.512716,4218.974256,4201.538359,4216.922974,4236.410153,4215.897333,4207.692205,4207.692205,4202.564,4218.461435
120,0,4200.512718,4200.512718,4202.051179,4149.230668,4263.589639,4222.563999,4204.615282,4216.410153,4231.794768,4221.025538,4213.846051,4216.410153,4204.615282,4219.999897
121,0,4199.487077,4198.461436,4205.640923,4155.897334,4257.948614,4218.974256,4203.07682,4214.871692,4233.33323,4216.410153,4214.871692,4219.487076,4209.743487,4221.025538
122,0,4204.615282,4203.589641,4214.871692,4153.846052,4249.230665,4218.461435,4202.051179,4217.435794,4235.897332,4220.512717,4215.384512,4219.487076,4210.256307,4225.128102
123,0,4203.589641,4202.051179,4215.384512,4151.79477,4248.205024,4219.999897,4202.051179,4218.974256,4233.84605,4220.512717,4218.461435,4225.128102,4207.692205,4225.128102
124,0,4199.487077,4198.974256,4210.769128,4155.384514,4250.769127,4216.922974,4201.025538,4216.410153,4230.769127,4207.692205,4218.974256,4225.640922,4212.307589,4219.999897
125,0,4208.205025,4203.589641,4214.358871,4157.948616,4249.230665,4217.435794,4202.564,4217.948615,4232.307589,4213.846051,4221.538358,4227.179384,4218.974256,4224.102461
126,0,4215.897333,4205.640923,4218.974256,4167.179385,4248.717845,4221.025538,4203.07682,4221.025538,4232.820409,4232.820409,4227.179384,4234.871691,4221.025538,4233.84605
127,0,4204.102461,4204.615282,4214.871692,4181.538359,4244.615281,4217.948615,4200.512718,4217.435794,4230.256307,4228.717845,4220.512717,4226.666563,4217.435794,4226.666563
128,0,4203.07682,4212.307589,4214.871692,4186.153744,4238.461435,4213.846051,4197.948615,4214.871692,4230.256307,4209.230666,4213.33323,4217.435794,4216.410153,4218.461435
0,0,4215.384512,4219.999897,4218.974256,4188.205026,4239.999896,4215.897333,4197.435795,4217.948615,4231.281948,4201.025538,4217.435794,4224.615281,4214.871692,4225.128102
1,0,4206.666564,4212.307589,4213.846051,4187.179385,4236.410153,4215.897333,4196.922974,4215.897333,4229.230666,4205.640923,4215.897333,4225.640922,4205.128102,4223.07682
2,0,4196.922974,4206.153743,4210.256307,4175.384513,4236.410153,4214.358871,4197.948615,4216.922974,4230.769127,4225.128102,4214.358871,4221.025538,4204.615282,4216.410153
3,0,4211.794769,4213.33323,4218.461435,4182.564,4243.58964,4218.974256,4204.102461,4231.281948,4237.435794,4238.974255,4229.230666,4232.820409,4222.051179,4230.256307
4,0,4215.384512,4216.922974,4218.461435,4199.999897,4228.205025,4212.82041,4203.07682,4231.281948,4235.384512,4224.102461,4236.410153,4236.922973,4224.102461,4235.897332
5,0,4198.974256,4210.769128,4204.102461,4198.974256,4202.564,4196.922974,4192.82041,4214.358871,4227.692204,4210.256307,4216.922974,4218.461435,4204.615282,4217.948615
6,0,4199.999897,4213.846051,4201.538359,4218.461435,4208.205025,4205.640923,4195.897333,4214.871692,4232.307589,4219.999897,4210.769128,4216.410153,4204.102461,4213.846051
7,0,4220.512717,4233.84605,4220.512717,4272.307588,4221.538358,4236.922973,4222.051179,4239.999896,4243.58964,4238.974255,4237.948614,4245.640922,4225.128102,4238.974255
8,0,4241.025537,4258.461434,4240.512717,4310.769125,4216.922974,4258.461434,4248.205024,4266.153742,4248.205024,4252.820409,4271.794767,4275.897331,4241.538358,4261.538357
9,0,4251.281947,4271.281947,4248.205024,4323.076817,4215.897333,4260.512716,4255.384511,4278.974254,4249.743486,4261.538357,4287.692203,4288.205023,4248.717845,4265.640921
10,0,4254.871691,4271.794767,4251.281947,4323.076817,4218.461435,4260.512716,4254.35887,4283.589639,4251.281947,4267.179383,4291.794767,4290.769126,4249.230665,4265.640921
11,0,4245.640922,4261.025537,4243.076819,4291.281946,4213.33323,4248.205024,4247.179383,4274.35887,4243.076819,4250.256306,4279.999895,4279.999895,4233.84605,4259.487075
12,0,4242.051178,4260.512716,4238.974255,4271.281947,4227.179384,4246.666563,4249.230665,4271.281947,4244.10246,4245.128101,4273.846049,4274.35887,4230.256307,4257.435793
13,0,4264.61528,4284.102459,4256.922973,4314.358869,4254.871691,4275.897331,4274.35887,4296.410151,4258.461434,4277.948613,4301.025536,4299.487074,4256.922973,4275.897331
14,0,4272.820408,4288.205023,4262.051178,4343.076817,4238.461435,4280.512716,4276.922972,4306.666561,4255.897332,4285.1281,4315.89733,4311.794766,4264.61528,4281.025536
15,0,4252.307588,4265.128101,4244.615281,4305.64092,4214.871692,4257.435793,4252.307588,4285.640921,4243.58964,4255.897332,4298.461433,4295.897331,4246.666563,4263.076819
16,0,4245.640922,4264.61528,4242.563999,4276.410152,4228.717845,4256.410152,4249.230665,4274.35887,4245.640922,4252.307588,4289.743485,4287.179382,4241.025537,4257.948614
17,0,4254.35887,4282.051177,4251.281947,4307.692202,4231.281948,4270.769126,4264.61528,4283.076818,4250.769127,4269.230665,4297.435792,4287.179382,4246.666563,4265.128101
18,0,4251.281947,4276.410152,4242.051178,4322.563997,4211.281948,4267.179383,4259.487075,4286.153741,4246.153742,4265.128101,4296.410151,4282.051177,4245.640922,4260.512716
19,0,4234.871691,4257.948614,4230.769127,4259.487075,4209.743487,4247.179383,4241.025537,4272.820408,4238.974255,4251.281947,4281.538357,4270.256306,4234.871691,4246.666563
20,0,4219.999897,4247.692204,4228.205025,4205.128102,4213.846051,4231.281948,4228.717845,4250.769127,4233.33323,4231.794768,4262.051178,4255.384511,4222.563999,4236.922973
21,0,4218.974256,4247.179383,4225.640922,4246.153742,4198.461436,4228.717845,4225.128102,4244.615281,4230.256307,4222.051179,4251.794768,4250.256306,4221.025538,4238.461435
22,0,4231.794768,4260.512716,4230.256307,4315.89733,4189.743487,4242.563999,4234.358871,4263.076819,4236.922973,4240.512717,4262.563998,4264.10246,4231.794768,4251.281947
23,0,4234.871691,4265.640921,4231.281948,4327.692202,4187.692205,4243.58964,4237.435794,4266.666562,4239.999896,4244.10246,4268.717844,4268.205024,4235.384512,4251.794768
24,0,4226.153743,4251.794768,4224.615281,4307.179382,4182.05118,4229.743486,4227.179384,4251.794768,4234.358871,4226.666563,4261.538357,4257.948614,4228.205025,4242.051178
25,0,4228.205025,4252.820409,4226.153743,4310.769125,4190.256308,4234.871691,4231.281948,4254.871691,4237.435794,4235.384512,4264.61528,4262.563998,4228.717845,4246.153742
26,0,4241.025537,4276.410152,4238.974255,4338.974253,4206.153743,4257.435793,4248.205024,4270.769126,4248.717845,4262.563998,4281.025536,4280.512716,4243.58964,4257.948614
27,0,4240.512717,4275.384511,4235.384512,4345.640919,4189.230667,4251.794768,4244.615281,4269.743485,4242.051178,4254.35887,4279.999895,4278.461434,4240.512717,4254.35887
28,0,4227.692204,4247.692204,4215.897333,4331.794766,4152.307591,4223.58964,4225.128102,4258.461434,4227.692204,4223.58964,4259.487075,4258.461434,4215.384512,4241.538358
29,0,4227.692204,4248.717845,4221.538358,4351.794765,4156.922975,4232.307589,4230.256307,4261.538357,4240.512717,4233.84605,4259.999896,4261.025537,4220.512717,4245.128101
30,0,4236.922973,4266.666562,4234.871691,4389.230662,4173.846052,4253.84605,4249.743486,4268.205024,4249.230665,4254.35887,4272.820408,4272.820408,4236.410153,4249.230665
31,0,4233.84605,4263.076819,4227.692204,4389.230662,4157.435796,4248.717845,4248.205024,4266.153742,4233.84605,4235.384512,4267.692203,4266.666562,4223.58964,4238.974255
32,0,4228.717845,4251.794768,4217.948615,4371.794765,4142.051181,4238.461435,4233.84605,4259.487075,4228.205025,4221.025538,4257.948614,4257.948614,4214.871692,4234.358871
33,0,4230.256307,4251.281947,4221.025538,4369.230662,4149.230668,4237.948614,4229.743486,4252.307588,4235.384512,4235.384512,4256.922973,4255.384511,4224.102461,4235.384512
34,0,4232.307589,4253.333229,4226.153743,4362.563996,4163.589642,4242.563999,4234.871691,4254.871691,4236.922973,4238.974255,4258.974255,4258.461434,4227.692204,4233.33323
35,0,4228.205025,4246.666563,4223.07682,4342.051176,4165.640924,4234.871691,4229.743486,4254.871691,4232.820409,4226.153743,4251.794768,4259.487075,4219.999897,4229.743486
36,0,4238.974255,4252.307588,4228.717845,4335.384509,4171.281949,4235.897332,4229.230666,4253.84605,4238.461435,4231.794768,4253.333229,4263.076819,4224.102461,4240.512717
37,0,4264.10246,4274.87169,4246.666563,4353.846047,4194.358872,4259.999896,4249.230665,4273.333229,4249.230665,4251.281947,4277.435793,4277.948613,4243.58964,4258.974255
38,0,4266.666562,4278.974254,4249.230665,4359.999893,4197.435795,4269.743485,4258.974255,4286.153741,4247.692204,4248.205024,4290.769126,4288.205023,4251.281947,4258.974255
39,0,4249.230665,4265.640921,4235.897332,4338.974253,4173.846052,4250.769127,4248.205024,4272.820408,4235.384512,4234.871691,4281.025536,4281.538357,4240.512717,4247.692204
40,0,4232.307589,4250.769127,4226.153743,4329.230663,4167.692206,4235.384512,4237.435794,4261.025537,4230.256307,4233.33323,4263.589639,4266.153742,4225.640922,4236.922973
41,0,4219.487076,4238.461435,4221.025538,4334.871689,4167.179385,4230.256307,4231.281948,4252.820409,4231.281948,4227.179384,4246.666563,4250.256306,4214.871692,4228.205025
42,0,4230.769127,4239.999896,4221.538358,4334.871689,4161.025539,4227.179384,4228.205025,4246.666563,4233.33323,4222.563999,4247.692204,4252.820409,4221.538358,4235.897332
43,0,4254.35887,4251.794768,4234.871691,4342.563996,4165.128103,4231.794768,4231.794768,4257.435793,4239.487076,4231.281948,4265.640921,4269.743485,4244.10246,4257.435793
44,0,4255.384511,4248.717845,4235.897332,4356.92297,4159.487078,4230.256307,4230.256307,4260.512716,4242.563999,4238.461435,4267.179383,4269.743485,4247.179383,4262.051178
45,0,4254.871691,4244.615281,4230.769127,4356.41015,4157.435796,4236.410153,4234.358871,4259.487075,4243.58964,4242.051178,4267.692203,4268.717844,4246.666563,4261.025537
46,0,4265.640921,4250.769127,4242.563999,4345.128099,4180.512718,4250.769127,4248.717845,4270.769126,4247.179383,4243.58964,4284.61528,4282.051177,4265.128101,4268.205024
47,0,4260.512716,4250.256306,4247.692204,4339.487073,4191.281949,4248.205024,4244.10246,4274.87169,4245.640922,4241.025537,4286.153741,4283.076818,4267.692203,4268.205024
48,0,4249.230665,4250.256306,4237.948614,4330.256304,4182.564,4239.999896,4231.794768,4266.153742,4241.538358,4241.538358,4276.922972,4276.410152,4251.794768,4262.051178
49,0,4248.205024,4247.179383,4233.84605,4311.281946,4184.102462,4245.128101,4240.512717,4265.640921,4243.58964,4251.281947,4279.487075,4277.948613,4247.692204,4257.948614
50,0,4246.666563,4234.871691,4234.358871,4299.999895,4189.230667,4247.692204,4249.743486,4267.179383,4243.58964,4251.281947,4279.487075,4278.974254,4249.230665,4256.410152
51,0,4241.538358,4232.820409,4233.33323,4310.769125,4185.640923,4239.999896,4238.974255,4264.10246,4235.897332,4238.974255,4269.230665,4277.435793,4247.179383,4255.384511
52,0,4233.84605,4236.922973,4229.743486,4332.820407,4171.79477,4232.307589,4227.692204,4260.512716,4229.743486,4224.102461,4261.538357,4268.205024,4242.563999,4248.205024
53,0,4234.871691,4232.307589,4229.230666,4337.435791,4161.025539,4229.743486,4229.743486,4255.384511,4232.820409,4224.102461,4262.051178,4259.999896,4242.051178,4245.128101
54,0,4244.615281,4231.281948,4233.33323,4315.89733,4172.820411,4235.384512,4235.384512,4257.435793,4237.435794,4241.538358,4266.153742,4265.128101,4247.179383,4252.820409
55,0,4239.487076,4235.384512,4234.871691,4294.87169,4187.692205,4236.922973,4235.897332,4264.10246,4234.358871,4248.717845,4265.128101,4265.640921,4248.205024,4252.820409
56,0,4230.256307,4231.281948,4229.743486,4297.948613,4184.615282,4231.794768,4233.84605,4262.051178,4236.410153,4246.153742,4263.589639,4259.999896,4245.128101,4248.205024
57,0,4241.025537,4234.358871,4233.33323,4312.307587,4184.102462,4235.897332,4239.999896,4261.538357,4243.58964,4246.153742,4270.769126,4269.743485,4245.640922,4256.922973
58,0,4254.35887,4251.281947,4243.58964,4307.179382,4206.153743,4249.743486,4250.769127,4271.281947,4247.692204,4248.205024,4283.589639,4286.153741,4252.307588,4270.769126
59,0,4247.179383,4249.743486,4240.512717,4286.153741,4219.999897,4248.205024,4245.128101,4272.820408,4245.128101,4244.615281,4283.076818,4286.153741,4251.794768,4268.717844
60,0,4233.84605,4232.820409,4232.307589,4275.897331,4210.256307,4235.897332,4234.871691,4264.61528,4239.999896,4245.128101,4271.281947,4273.846049,4242.051178,4255.897332
61,0,4224.102461,4229.230666,4227.692204,4272.307588,4197.435795,4231.281948,4232.307589,4257.435793,4232.820409,4246.666563,4260.512716,4264.61528,4231.794768,4246.666563
62,0,4223.58964,4231.794768,4225.640922,4263.076819,4197.948615,4227.692204,4229.743486,4249.743486,4234.358871,4235.897332,4252.307588,4259.999896,4230.769127,4245.128101
63,0,4232.820409,4231.281948,4229.743486,4252.820409,4211.794769,4228.205025,4228.717845,4247.692204,4243.58964,4234.871691,4255.897332,4262.563998,4243.076819,4250.256306
64,0,4240.512717,4234.871691,4238.974255,4241.538358,4224.102461,4239.487076,4234.871691,4251.281947,4240.512717,4248.205024,4266.666562,4270.256306,4249.230665,4256.410152
65,0,4232.820409,4230.769127,4232.820409,4233.33323,4222.051179,4236.922973,4234.358871,4251.281947,4231.794768,4238.974255,4262.051178,4267.692203,4238.974255,4248.205024
66,0,4218.461435,4218.974256,4216.922974,4239.487076,4213.33323,4219.487076,4222.051179,4240.512717,4232.307589,4218.461435,4247.692204,4250.256306,4229.230666,4234.358871
67,0,4219.487076,4217.948615,4220.512717,4254.35887,4207.179384,4222.563999,4222.051179,4235.384512,4233.84605,4221.538358,4244.615281,4247.179383,4229.743486,4235.897332
68,0,4229.743486,4221.538358,4232.307589,4244.10246,4205.640923,4229.230666,4227.179384,4240.512717,4230.769127,4226.153743,4247.179383,4256.922973,4231.281948,4243.076819
69,0,4231.281948,4218.461435,4231.794768,4197.948615,4226.153743,4220.512717,4222.563999,4240.512717,4231.281948,4221.538358,4244.615281,4255.384511,4230.256307,4244.615281
70,0,4227.692204,4217.435794,4226.666563,4162.564001,4255.897332,4222.051179,4222.051179,4236.922973,4235.384512,4228.205025,4244.615281,4250.769127,4231.281948,4242.563999
71,0,4231.794768,4219.999897,4232.307589,4170.256308,4259.999896,4231.281948,4223.58964,4238.974255,4234.358871,4234.358871,4247.179383,4258.974255,4231.281948,4243.076819
72,0,4234.358871,4219.999897,4232.820409,4204.615282,4241.538358,4229.743486,4219.999897,4247.692204,4233.84605,4230.769127,4247.179383,4263.076819,4232.820409,4246.153742
73,0,4222.051179,4216.410153,4222.051179,4208.205025,4229.230666,4226.153743,4218.974256,4246.666563,4233.84605,4230.256307,4247.692204,4258.974255,4230.769127,4238.461435
74,0,4218.461435,4208.717846,4223.07682,4149.230668,4243.58964,4222.051179,4218.461435,4235.897332,4233.33323,4229.743486,4243.58964,4256.922973,4231.281948,4233.33323
75,0,4226.666563,4203.07682,4231.794768,4095.897336,4268.205024,4215.897333,4212.82041,4230.256307,4231.281948,4218.461435,4234.871691,4254.35887,4232.820409,4241.538358
76,0,4225.640922,4202.051179,4229.743486,4106.666566,4268.717844,4213.846051,4214.358871,4226.666563,4230.256307,4210.256307,4232.307589,4246.153742,4222.563999,4243.58964
77,0,4215.897333,4200.512718,4217.948615,4123.076822,4256.410152,4212.307589,4215.384512,4219.487076,4228.205025,4211.794769,4229.230666,4237.948614,4217.435794,4231.794768
78,0,4218.461435,4199.999897,4218.974256,4115.897335,4261.538357,4216.922974,4215.897333,4220.512717,4232.307589,4223.58964,4226.153743,4237.948614,4228.717845,4235.384512
79,0,4230.769127,4204.615282,4231.794768,4130.256309,4277.435793,4229.230666,4229.230666,4239.999896,4239.999896,4237.435794,4241.025537,4250.256306,4237.435794,4251.794768
80,0,4224.615281,4202.564,4229.230666,4144.615283,4268.205024,4222.051179,4226.666563,4242.563999,4236.410153,4229.743486,4249.743486,4254.35887,4232.307589,4246.666563
81,0,4211.281948,4195.897333,4214.358871,4136.410155,4246.666563,4207.179384,4210.769128,4226.666563,4229.230666,4215.384512,4231.794768,4244.615281,4227.692204,4231.794768
82,0,4219.487076,4200.512718,4223.58964,4147.692206,4255.897332,4223.07682,4219.999897,4231.794768,4235.384512,4228.717845,4231.794768,4246.153742,4235.384512,4238.461435
83,0,4230.256307,4204.102461,4234.871691,4172.30759,4266.666562,4237.435794,4228.205025,4239.487076,4237.948614,4242.563999,4248.205024,4253.84605,4235.384512,4246.666563
84,0,4218.974256,4198.461436,4221.538358,4184.615282,4243.58964,4218.461435,4206.153743,4225.128102,4228.717845,4224.615281,4237.435794,4248.205024,4223.58964,4237.435794
85,0,4214.358871,4198.461436,4218.974256,4185.640923,4232.307589,4208.717846,4195.897333,4215.384512,4226.666563,4209.230666,4226.666563,4246.153742,4221.025538,4234.871691
86,0,4222.051179,4197.948615,4228.205025,4181.538359,4243.076819,4217.435794,4205.128102,4218.974256,4230.769127,4215.897333,4232.820409,4248.717845,4224.102461,4242.051178
87,0,4214.358871,4187.179385,4219.999897,4180.512718,4234.871691,4210.769128,4202.564,4217.948615,4230.769127,4218.974256,4226.153743,4239.999896,4217.435794,4232.820409
88,0,4200.512718,4177.435795,4210.256307,4161.53836,4221.538358,4198.461436,4197.435795,4213.33323,4224.615281,4210.769128,4212.307589,4226.666563,4209.230666,4217.948615
89,0,4198.974256,4172.820411,4214.871692,4132.307591,4229.743486,4201.025538,4199.487077,4208.717846,4217.948615,4204.615282,4206.666564,4219.487076,4206.666564,4215.384512
90,0,4199.487077,4168.717847,4214.358871,4130.256309,4233.84605,4197.948615,4201.025538,4202.564,4219.487076,4202.051179,4199.999897,4215.897333,4199.487077,4214.871692
91,0,4198.974256,4170.256308,4211.281948,4091.281951,4252.307588,4199.999897,4203.589641,4202.051179,4230.769127,4201.538359,4198.974256,4217.435794,4202.564,4215.384512
92,0,4200.512718,4173.846052,4215.897333,3966.66657,4307.179382,4211.794769,4205.128102,4204.102461,4231.794768,4205.128102,4204.102461,4218.974256,4215.384512,4217.948615
93,0,4198.461436,4171.281949,4217.948615,3887.179392,4344.615278,4208.205025,4201.025538,4198.974256,4219.487076,4211.794769,4201.025538,4216.922974,4216.410153,4216.410153
94,0,4196.922974,4174.871693,4216.922974,3923.076827,4338.461432,4203.07682,4194.358872,4195.897333,4219.487076,4216.410153,4195.897333,4215.897333,4213.33323,4217.435794
95,0,4204.615282,4182.564,4216.410153,3961.025544,4333.333227,4210.769128,4190.769128,4198.974256,4229.743486,4216.922974,4199.999897,4216.922974,4215.897333,4225.128102
96,0,4214.871692,4186.666564,4222.051179,3961.025544,4345.128099,4215.384512,4196.922974,4205.128102,4234.358871,4219.487076,4214.358871,4227.179384,4222.051179,4234.871691
97,0,4212.307589,4184.102462,4222.051179,3978.974262,4335.384509,4214.358871,4202.564,4206.153743,4228.717845,4218.461435,4218.461435,4233.84605,4221.025538,4230.769127
98,0,4198.974256,4174.871693,4213.846051,4001.538364,4312.307587,4212.307589,4197.948615,4198.974256,4224.615281,4211.281948,4203.07682,4218.974256,4214.358871,4217.435794
99,0,4198.461436,4170.256308,4215.384512,4001.538364,4308.717843,4208.717846,4199.999897,4198.461436,4227.692204,4213.33323,4196.922974,4211.794769,4213.846051,4215.897333
100,0,4203.07682,4172.30759,4216.410153,3984.615287,4311.281946,4203.589641,4200.512718,4199.487077,4223.58964,4215.897333,4202.564,4221.025538,4212.82041,4219.999897
101,0,4193.846051,4168.717847,4204.102461,3959.999903,4311.794766,4198.974256,4187.692205,4188.205026,4216.410153,4200.512718,4191.794769,4210.769128,4202.564,4215.384512
102,0,4188.205026,4162.564001,4202.051179,3952.307596,4316.410151,4197.948615,4185.640923,4179.999898,4221.025538,4194.358872,4177.948616,4195.384513,4195.384513,4209.743487
103,0,4198.974256,4168.205026,4216.410153,3964.615288,4323.076817,4204.102461,4199.487077,4193.846051,4233.33323,4211.794769,4191.281949,4208.717846,4206.666564,4214.871692
104,0,4205.128102,4172.820411,4217.435794,3940.512724,4335.89733,4207.179384,4201.538359,4202.051179,4230.769127,4215.897333,4201.025538,4220.512717,4213.846051,4221.538358
105,0,4197.948615,4169.230667,4210.769128,3879.487085,4353.333227,4199.999897,4188.717846,4189.230667,4219.999897,4199.999897,4189.230667,4204.615282,4203.589641,4212.307589
106,0,4195.897333,4167.692206,4211.794769,3857.435803,4362.563996,4196.922974,4184.615282,4183.076821,4217.948615,4198.461436,4182.564,4192.82041,4196.922974,4202.051179
107,0,4201.025538,4172.30759,4212.82041,3885.640931,4366.66656,4206.666564,4192.30759,4188.717846,4222.563999,4207.179384,4187.179385,4200.512718,4203.07682,4207.692205
108,0,4203.589641,4176.410154,4213.33323,3904.102469,4367.17938,4217.435794,4197.948615,4188.717846,4228.717845,4203.589641,4191.281949,4204.615282,4209.743487,4216.410153
109,0,4204.102461,4175.384513,4218.461435,3912.307597,4359.999893,4214.358871,4201.025538,4188.205026,4230.256307,4199.999897,4195.384513,4205.128102,4214.871692,4215.384512
110,0,4205.128102,4172.820411,4221.025538,3926.15375,4352.307586,4207.179384,4200.512718,4192.30759,4223.07682,4205.640923,4197.948615,4210.769128,4218.974256,4216.410153
111,0,4202.051179,4168.717847,4216.922974,3907.179392,4347.179381,4197.435795,4189.743487,4184.102462,4212.82041,4201.025538,4187.692205,4205.640923,4207.179384,4213.846051
112,0,4196.410154,4165.640924,4215.384512,3869.230675,4356.92297,4192.82041,4185.640923,4179.487077,4221.025538,4197.948615,4178.974257,4197.435795,4195.897333,4211.794769
113,0,4200.512718,4168.205026,4219.487076,3871.794777,4379.999893,4203.589641,4195.897333,4191.794769,4231.281948,4210.256307,4190.769128,4208.717846,4209.230666,4224.102461
114,0,4204.102461,4170.769129,4221.025538,3911.794776,4375.384508,4210.769128,4195.897333,4196.410154,4222.563999,4211.281948,4203.07682,4218.461435,4221.025538,4227.692204
115,0,4201.025538,4169.743488,4216.922974,3946.15375,4336.922971,4194.871692,4183.076821,4186.666564,4213.33323,4195.897333,4196.410154,4212.82041,4207.692205,4217.435794
116,0,4199.487077,4167.692206,4213.846051,3970.769134,4310.769125,4182.564,4180.512718,4183.076821,4217.435794,4195.384513,4188.717846,4211.281948,4197.948615,4215.897333
117,0,4204.102461,4173.333231,4218.461435,4003.589646,4310.769125,4195.897333,4190.256308,4194.358872,4224.102461,4208.717846,4197.435795,4218.974256,4210.769128,4225.640922
118,0,4210.769128,4181.025539,4223.58964,4031.281953,4317.435792,4212.307589,4199.487077,4204.102461,4229.230666,4210.256307,4209.230666,4221.538358,4216.922974,4229.743486
119,0,4214.871692,4188.205026,4222.563999,4037.948619,4323.589638,4218.974256,4204.615282,4208.205025,4234.358871,4219.999897,4214.358871,4223.58964,4216.410153,4230.256307
120,0,4207.179384,4188.717846,4218.974256,4018.46144,4321.025535,4215.384512,4200.512718,4206.666564,4230.256307,4224.615281,4207.692205,4219.487076,4215.897333,4225.640922
121,0,4190.769128,4176.922975,4210.256307,3996.922979,4305.1281,4199.999897,4190.256308,4192.82041,4218.461435,4197.948615,4190.256308,4203.07682,4202.051179,4210.256307
122,0,4181.025539,4164.615283,4198.974256,3984.102467,4298.974254,4191.794769,4182.564,4179.999898,4214.358871,4182.564,4179.487077,4192.30759,4189.743487,4202.051179
123,0,4184.102462,4167.692206,4202.051179,3979.999903,4308.717843,4195.384513,4182.05118,4182.564,4222.051179,4195.384513,4183.589641,4194.358872,4200.512718,4210.256307
124,0,4193.333231,4185.128103,4215.384512,3993.333236,4314.871689,4202.564,4193.333231,4195.384513,4233.33323,4211.281948,4194.358872,4205.640923,4216.922974,4223.07682
125,0,4203.589641,4197.948615,4219.999897,3998.461441,4319.999894,4209.230666,4201.025538,4201.025538,4231.281948,4212.307589,4202.051179,4211.794769,4214.871692,4225.640922
126,0,4205.128102,4196.410154,4218.461435,3994.358877,4320.512715,4209.743487,4194.871692,4198.974256,4223.58964,4207.179384,4203.07682,4209.743487,4208.205025,4222.563999
127,0,4190.769128,4184.615282,4210.256307,4007.69221,4295.38451,4191.281949,4182.05118,4189.743487,4217.948615,4196.922974,4190.256308,4201.538359,4201.538359,4214.871692
128,0,4182.564,4182.05118,4204.102461,4020.512722,4283.076818,4183.589641,4178.974257,4178.461436,4214.358871,4182.05118,4176.922975,4194.871692,4193.846051,4209.230666
0,0,4199.487077,4197.948615,4214.871692,4012.820415,4312.820407,4201.538359,4186.666564,4187.692205,4220.512717,4190.769128,4187.692205,4206.666564,4205.128102,4222.563999
1,0,4213.33323,4208.205025,4224.102461,3998.974261,4327.692202,4207.692205,4189.230667,4200.512718,4231.794768,4216.922974,4204.615282,4215.897333,4218.974256,4233.84605
2,0,4204.102461,4203.589641,4216.410153,3973.846057,4316.922971,4198.461436,4185.128103,4193.846051,4228.205025,4214.358871,4198.461436,4206.153743,4209.743487,4224.615281
3,0,4192.30759,4200.512718,4212.82041,3930.769135,4322.563997,4202.051179,4185.640923,4185.128103,4216.410153,4187.692205,4187.692205,4199.487077,4198.974256,4215.384512
4,0,4188.717846,4199.487077,4215.384512,3883.589649,4337.435791,4202.051179,4183.589641,4178.974257,4215.897333,4189.743487,4181.025539,4201.025538,4202.051179,4216.410153
5,0,4185.640923,4196.410154,4211.794769,3869.743495,4342.051176,4186.153744,4171.281949,4169.230667,4217.435794,4204.102461,4174.358872,4192.82041,4201.025538,4214.358871
6,0,4188.205026,4202.051179,4213.846051,3876.922982,4352.307586,4189.230667,4174.358872,4175.897334,4215.897333,4198.974256,4180.512718,4194.358872,4201.538359,4214.358871
7,0,4187.179385,4210.256307,4219.487076,3750.256319,4396.410149,4203.589641,4185.640923,4185.128103,4217.435794,4195.897333,4183.076821,4202.051179,4204.102461,4214.871692
8,0,4174.358872,4204.102461,4216.922974,3488.205043,4475.897326,4194.358872,4176.410154,4161.025539,4212.82041,4183.076821,4154.871693,4181.538359,4191.281949,4194.871692
9,0,4161.53836,4194.358872,4213.33323,3349.230687,4538.974248,4176.410154,4159.999898,4133.846053,4208.205025,4156.922975,4129.230668,4158.974257,4178.461436,4178.461436
10,0,4159.999898,4193.333231,4215.897333,3383.07684,4548.717837,4174.358872,4154.358873,4134.358873,4212.82041,4162.05118,4134.871694,4163.589642,4183.589641,4189.230667
11,0,4166.666565,4203.07682,4220.512717,3415.897352,4543.076812,4181.025539,4161.025539,4139.999899,4216.922974,4182.05118,4139.487078,4170.769129,4193.846051,4202.564
12,0,4170.769129,4214.358871,4220.512717,3428.205044,4549.230658,4184.102462,4168.717847,4143.589642,4214.871692,4176.410154,4135.384514,4168.205026,4194.871692,4201.025538
13,0,4169.743488,4216.922974,4219.487076,3456.410172,4543.076812,4187.692205,4171.281949,4151.28195,4215.384512,4169.743488,4143.076822,4168.205026,4193.333231,4197.435795
14,0,4166.666565,4213.33323,4217.435794,3469.230684,4526.153735,4189.230667,4173.333231,4156.410155,4218.974256,4183.076821,4154.871693,4170.256308,4196.922974,4201.025538
15,0,4171.79477,4215.897333,4218.461435,3479.487094,4524.102453,4192.82041,4177.948616,4157.435796,4218.974256,4191.281949,4157.948616,4173.846052,4202.564,4204.615282
16,0,4177.435795,4218.974256,4219.487076,3498.974273,4521.02553,4185.640923,4171.79477,4155.897334,4216.410153,4183.076821,4156.410155,4176.410154,4201.025538,4203.589641
17,0,4176.922975,4221.025538,4218.974256,3513.333247,4502.051172,4169.230667,4161.025539,4152.307591,4213.846051,4182.05118,4154.358873,4174.358872,4197.435795,4200.512718
18,0,4181.025539,4229.743486,4217.948615,3530.769144,4494.358864,4173.333231,4158.461437,4152.307591,4216.410153,4191.281949,4155.384514,4174.871693,4201.538359,4202.051179
19,0,4181.538359,4233.84605,4217.948615,3556.92299,4492.307582,4181.538359,4156.410155,4152.820411,4216.410153,4188.717846,4155.384514,4171.79477,4194.871692,4203.589641
20,0,4173.846052,4230.769127,4218.974256,3602.051194,4472.307583,4177.948616,4159.999898,4152.820411,4214.871692,4180.512718,4154.358873,4169.230667,4186.153744,4202.564
21,0,4168.717847,4232.820409,4217.948615,3651.281962,4456.410147,4184.615282,4168.205026,4161.53836,4216.922974,4181.025539,4158.974257,4175.897334,4191.281949,4203.07682
22,0,4172.820411,4242.563999,4215.384512,3666.666577,4457.948609,4203.589641,4174.871693,4169.743488,4217.948615,4186.666564,4167.179385,4180.512718,4203.07682,4203.07682
23,0,4172.30759,4248.205024,4213.846051,3674.358885,4448.205019,4199.999897,4176.410154,4168.717847,4216.410153,4186.153744,4166.153744,4177.435795,4199.487077,4200.512718
24,0,4168.717847,4248.205024,4213.846051,3706.153756,4425.640917,4183.076821,4173.333231,4167.179385,4216.410153,4185.128103,4163.076821,4179.487077,4188.717846,4199.487077
25,0,4174.871693,4247.692204,4215.384512,3713.333243,4424.102456,4185.640923,4178.461436,4170.769129,4217.435794,4188.717846,4168.205026,4186.153744,4191.794769,4200.512718
26,0,4182.564,4251.281947,4216.922974,3685.128115,4439.999891,4190.256308,4183.076821,4172.820411,4216.410153,4186.666564,4170.769129,4185.640923,4199.487077,4198.974256
27,0,4183.076821,4256.922973,4216.410153,3696.410166,4439.487071,4187.179385,4181.025539,4171.281949,4212.82041,4183.076821,4173.846052,4188.205026,4202.051179,4205.128102
28,0,4182.564,4261.025537,4214.871692,3772.3076,4413.846046,4189.743487,4178.974257,4172.820411,4214.871692,4187.692205,4180.512718,4197.435795,4197.435795,4213.33323
29,0,4191.794769,4269.230665,4222.051179,3853.84606,4387.17938,4200.512718,4187.179385,4185.640923,4224.615281,4199.487077,4189.230667,4206.153743,4200.512718,4217.435794
30,0,4202.051179,4279.487075,4232.307589,3900.512725,4373.846047,4208.205025,4198.974256,4202.564,4226.666563,4207.179384,4204.102461,4216.410153,4211.281948,4225.128102
31,0,4201.538359,4282.563998,4229.230666,3925.64093,4358.974252,4205.128102,4199.999897,4203.589641,4215.897333,4199.999897,4212.82041,4219.999897,4209.743487,4226.153743
32,0,4199.487077,4279.487075,4221.025538,3971.794775,4333.333227,4201.538359,4197.948615,4198.461436,4216.922974,4194.871692,4211.281948,4216.922974,4201.025538,4217.435794
33,0,4202.564,4283.076818,4220.512717,4034.871696,4306.666561,4201.538359,4200.512718,4208.717846,4227.692204,4210.769128,4211.794769,4218.974256,4199.999897,4216.410153
