title:V                                                                               , recorded:06.07.20 12.18.26, sampling:128, subject:B                                                                               , labels:COUNTER INTERPOLATED AF3 F7 F3 FC5 T7 P7 O1 O2 P8 T8 FC6 F4 F8 AF4,, units:emotiv,,,,,,,,,
78,0,4189.743487,4201.538359,4199.999897,4186.153744,4215.897333,4199.999897,4221.538358,4213.846051,4214.358871,4211.281948,4237.435794,4172.30759,4138.461437,4186.153744
79,0,4188.205026,4205.128102,4205.128102,4185.640923,4213.846051,4197.948615,4215.897333,4207.179384,4207.692205,4214.871692,4232.307589,4167.692206,4135.384514,4184.102462
80,0,4202.564,4212.82041,4214.358871,4192.82041,4226.153743,4200.512718,4219.487076,4214.871692,4213.33323,4214.358871,4235.384512,4181.025539,4146.153745,4205.128102
81,0,4221.025538,4209.743487,4223.07682,4200.512718,4223.58964,4198.974256,4217.948615,4219.999897,4220.512717,4220.512717,4244.10246,4197.948615,4158.461437,4216.410153
82,0,4213.846051,4200.512718,4219.487076,4190.256308,4213.846051,4196.410154,4215.384512,4216.410153,4217.948615,4230.769127,4248.717845,4191.281949,4148.205027,4206.153743
83,0,4201.025538,4203.07682,4208.717846,4180.512718,4221.538358,4199.999897,4226.666563,4223.58964,4221.538358,4233.84605,4246.666563,4182.05118,4138.461437,4199.999897
84,0,4197.435795,4202.051179,4202.564,4182.564,4221.538358,4202.564,4230.256307,4232.820409,4230.256307,4223.58964,4242.563999,4175.384513,4143.076822,4192.82041
85,0,4190.769128,4189.743487,4199.487077,4178.461436,4212.82041,4196.922974,4216.410153,4224.102461,4225.128102,4211.794769,4234.871691,4166.153744,4141.02554,4185.640923
86,0,4191.794769,4193.846051,4201.025538,4169.230667,4229.230666,4200.512718,4218.461435,4216.922974,4216.410153,4221.025538,4232.820409,4170.256308,4144.102463,4192.82041
87,0,4206.666564,4211.281948,4209.230666,4175.384513,4243.58964,4209.743487,4231.281948,4217.948615,4217.948615,4229.230666,4245.128101,4184.615282,4157.948616,4202.051179
88,0,4213.33323,4212.82041,4215.897333,4190.769128,4225.128102,4207.692205,4225.128102,4218.461435,4221.538358,4221.025538,4249.743486,4187.692205,4156.410155,4202.564
89,0,4202.051179,4204.102461,4208.717846,4188.205026,4211.281948,4199.999897,4213.846051,4217.435794,4216.922974,4214.871692,4237.435794,4178.974257,4138.974258,4196.410154
90,0,4191.794769,4198.461436,4196.922974,4174.358872,4221.025538,4197.948615,4214.358871,4211.794769,4212.82041,4208.717846,4232.820409,4169.743488,4133.846053,4189.230667
91,0,4196.922974,4199.999897,4198.461436,4175.384513,4232.820409,4199.999897,4216.922974,4208.717846,4218.974256,4204.615282,4239.487076,4171.79477,4146.666565,4185.640923
92,0,4209.743487,4208.717846,4210.769128,4186.666564,4238.974255,4208.205025,4223.07682,4221.538358,4228.717845,4220.512717,4247.692204,4185.640923,4166.666565,4196.922974
93,0,4218.461435,4224.615281,4217.948615,4195.384513,4247.179383,4218.974256,4235.384512,4239.487076,4232.820409,4247.692204,4259.999896,4193.846051,4189.230667,4220.512717
94,0,4228.205025,4236.410153,4222.563999,4206.153743,4242.563999,4216.922974,4235.384512,4243.076819,4230.256307,4255.384511,4274.35887,4194.871692,4199.487077,4236.410153
95,0,4219.487076,4223.07682,4216.410153,4199.999897,4216.922974,4203.589641,4222.563999,4230.256307,4227.692204,4243.076819,4266.666562,4190.256308,4185.128103,4224.102461
96,0,4199.487077,4201.025538,4202.564,4176.410154,4207.692205,4196.922974,4212.307589,4216.410153,4226.666563,4231.794768,4238.974255,4181.538359,4165.128103,4207.692205
97,0,4199.487077,4204.102461,4198.461436,4174.358872,4225.640922,4199.487077,4212.82041,4214.871692,4225.640922,4232.307589,4230.769127,4179.487077,4167.179385,4209.743487
98,0,4210.256307,4219.487076,4206.153743,4183.589641,4237.948614,4202.051179,4219.487076,4217.948615,4221.025538,4230.769127,4248.205024,4179.999898,4174.871693,4209.743487
99,0,4202.051179,4211.281948,4204.615282,4173.333231,4224.615281,4196.410154,4220.512717,4215.384512,4216.922974,4217.435794,4251.794768,4175.897334,4163.589642,4201.025538
100,0,4194.358872,4194.871692,4198.461436,4167.179385,4214.358871,4191.281949,4215.897333,4213.33323,4217.948615,4216.922974,4243.076819,4175.897334,4150.769129,4199.999897
101,0,4207.692205,4204.102461,4204.615282,4179.487077,4228.205025,4199.487077,4215.384512,4216.922974,4221.538358,4227.179384,4243.58964,4184.615282,4156.922975,4206.666564
102,0,4221.025538,4220.512717,4215.897333,4194.358872,4243.58964,4210.769128,4223.07682,4228.717845,4228.205025,4230.256307,4247.179383,4197.435795,4170.769129,4222.563999
103,0,4222.051179,4220.512717,4222.563999,4203.589641,4243.58964,4208.205025,4226.666563,4235.384512,4229.230666,4228.717845,4245.640922,4204.615282,4179.487077,4233.33323
104,0,4219.487076,4214.871692,4220.512717,4200.512718,4236.410153,4198.461436,4221.538358,4223.58964,4222.051179,4228.717845,4243.58964,4196.922974,4179.999898,4221.538358
105,0,4216.922974,4217.948615,4214.871692,4185.640923,4223.58964,4196.922974,4224.102461,4215.384512,4217.435794,4235.384512,4245.128101,4186.666564,4176.410154,4212.82041
106,0,4206.666564,4214.871692,4209.743487,4181.025539,4207.179384,4199.487077,4226.666563,4219.487076,4217.435794,4236.410153,4245.640922,4183.589641,4173.333231,4221.538358
107,0,4197.435795,4203.07682,4205.640923,4188.205026,4208.717846,4199.999897,4219.487076,4216.922974,4214.358871,4215.384512,4237.435794,4179.487077,4164.615283,4214.358871
108,0,4203.07682,4200.512718,4205.128102,4184.615282,4224.615281,4199.999897,4218.974256,4213.33323,4215.897333,4201.025538,4233.84605,4172.30759,4153.846052,4193.333231
109,0,4205.640923,4203.07682,4207.692205,4175.897334,4225.128102,4201.538359,4230.256307,4214.871692,4217.948615,4211.281948,4236.410153,4174.358872,4156.410155,4193.333231
110,0,4201.538359,4204.102461,4212.307589,4178.974257,4219.999897,4204.102461,4232.307589,4219.487076,4217.435794,4219.487076,4233.84605,4187.179385,4168.205026,4209.230666
111,0,4206.666564,4207.692205,4217.435794,4178.974257,4224.102461,4204.102461,4228.717845,4226.666563,4218.461435,4216.922974,4232.820409,4192.82041,4174.871693,4214.358871
112,0,4202.564,4201.025538,4211.794769,4170.769129,4211.281948,4199.487077,4228.717845,4225.128102,4217.948615,4214.871692,4231.794768,4181.538359,4168.205026,4205.640923
113,0,4189.743487,4186.153744,4200.512718,4165.640924,4201.538359,4196.922974,4228.717845,4215.384512,4214.358871,4214.358871,4226.153743,4178.461436,4153.846052,4198.461436
114,0,4191.281949,4187.692205,4199.487077,4169.230667,4223.07682,4201.538359,4228.717845,4214.871692,4217.948615,4219.487076,4232.307589,4190.256308,4154.871693,4198.974256
115,0,4202.051179,4196.922974,4212.307589,4175.897334,4230.256307,4199.487077,4223.58964,4221.538358,4221.025538,4232.307589,4246.666563,4195.384513,4168.205026,4201.538359
116,0,4200.512718,4193.846051,4212.307589,4183.589641,4211.794769,4190.256308,4219.999897,4215.897333,4215.897333,4242.051178,4245.128101,4189.230667,4168.717847,4195.897333
117,0,4206.153743,4198.461436,4211.281948,4184.615282,4216.410153,4192.30759,4228.717845,4216.922974,4222.051179,4248.717845,4248.717845,4195.384513,4171.79477,4198.461436
118,0,4213.846051,4217.435794,4221.538358,4181.538359,4228.717845,4201.025538,4234.871691,4227.179384,4232.307589,4246.666563,4263.076819,4212.307589,4186.666564,4217.435794
119,0,4204.615282,4216.922974,4218.974256,4185.128103,4224.615281,4199.999897,4225.640922,4224.102461,4223.58964,4234.871691,4257.948614,4208.205025,4184.102462,4221.538358
120,0,4193.846051,4203.07682,4203.589641,4184.615282,4234.358871,4197.948615,4217.948615,4215.384512,4216.410153,4233.33323,4244.615281,4188.205026,4171.281949,4198.461436
121,0,4190.256308,4202.564,4196.922974,4172.820411,4236.922973,4201.025538,4220.512717,4214.871692,4220.512717,4231.281948,4248.717845,4177.948616,4168.717847,4181.025539
122,0,4187.692205,4204.615282,4197.948615,4173.846052,4217.948615,4198.974256,4216.922974,4215.384512,4217.435794,4227.179384,4253.333229,4176.410154,4168.717847,4187.179385
123,0,4187.179385,4203.589641,4201.538359,4185.640923,4219.487076,4195.384513,4214.358871,4213.33323,4219.487076,4234.871691,4251.794768,4177.435795,4173.333231,4193.333231
124,0,4199.487077,4215.897333,4209.230666,4187.692205,4233.33323,4201.025538,4223.07682,4218.461435,4230.769127,4242.051178,4266.153742,4190.256308,4184.102462,4200.512718
125,0,4206.153743,4223.58964,4205.640923,4183.076821,4232.307589,4204.102461,4225.640922,4221.538358,4226.153743,4235.384512,4269.230665,4197.948615,4179.487077,4211.281948
126,0,4194.871692,4206.153743,4198.974256,4185.128103,4229.743486,4194.358872,4215.897333,4210.769128,4213.846051,4229.743486,4253.84605,4188.717846,4166.666565,4208.717846
127,0,4191.794769,4202.051179,4210.256307,4193.846051,4236.922973,4190.256308,4213.33323,4207.692205,4215.897333,4233.33323,4257.948614,4189.743487,4175.897334,4207.692205
128,0,4205.640923,4221.538358,4218.974256,4198.461436,4239.487076,4198.461436,4220.512717,4216.410153,4221.025538,4231.281948,4273.846049,4198.974256,4192.30759,4217.435794
0,0,4206.666564,4218.974256,4209.743487,4193.333231,4230.769127,4201.538359,4219.999897,4220.512717,4221.025538,4234.871691,4271.281947,4194.871692,4191.794769,4214.871692
1,0,4195.897333,4200.512718,4207.179384,4184.615282,4222.051179,4197.948615,4217.435794,4214.871692,4219.487076,4241.538358,4264.10246,4189.743487,4183.589641,4208.205025
2,0,4197.948615,4208.205025,4214.871692,4185.128103,4219.487076,4199.999897,4225.640922,4214.358871,4218.974256,4239.487076,4262.051178,4196.922974,4183.589641,4215.384512
3,0,4211.794769,4221.538358,4216.922974,4189.743487,4211.794769,4201.538359,4234.358871,4218.974256,4223.07682,4241.538358,4266.153742,4203.07682,4189.230667,4215.384512
4,0,4208.717846,4207.179384,4208.717846,4184.615282,4203.589641,4196.922974,4231.281948,4217.435794,4221.025538,4236.922973,4271.794767,4192.30759,4182.05118,4205.128102
5,0,4196.410154,4203.589641,4209.230666,4184.615282,4226.153743,4199.487077,4227.692204,4212.82041,4214.871692,4221.025538,4270.256306,4182.564,4174.871693,4214.358871
6,0,4199.999897,4226.153743,4219.487076,4199.487077,4255.897332,4206.153743,4234.358871,4213.846051,4223.07682,4224.615281,4271.281947,4191.794769,4184.615282,4222.563999
7,0,4212.82041,4230.769127,4221.538358,4210.769128,4253.84605,4204.615282,4231.794768,4219.487076,4230.256307,4246.666563,4277.435793,4201.025538,4191.281949,4216.410153
8,0,4209.230666,4214.358871,4212.82041,4201.538359,4236.922973,4196.410154,4219.487076,4216.922974,4221.025538,4245.128101,4265.128101,4195.897333,4183.589641,4216.410153
9,0,4204.615282,4213.33323,4213.33323,4189.230667,4219.999897,4193.846051,4219.999897,4208.205025,4215.897333,4225.128102,4256.922973,4194.871692,4181.025539,4219.999897
10,0,4212.82041,4218.461435,4222.051179,4195.384513,4213.33323,4201.025538,4232.820409,4216.410153,4229.230666,4228.717845,4280.512716,4202.051179,4186.153744,4218.974256
11,0,4221.025538,4216.922974,4222.563999,4203.589641,4234.358871,4202.051179,4233.33323,4230.256307,4235.897332,4247.692204,4292.307587,4203.589641,4191.794769,4223.07682
12,0,4213.846051,4214.871692,4214.871692,4195.384513,4239.999896,4187.692205,4217.435794,4221.025538,4222.051179,4236.922973,4270.769126,4192.82041,4189.230667,4225.128102
13,0,4192.82041,4202.564,4203.07682,4172.820411,4204.615282,4173.846052,4208.717846,4198.461436,4210.256307,4200.512718,4251.281947,4176.410154,4168.717847,4208.717846
14,0,4185.128103,4187.179385,4195.897333,4165.640924,4197.948615,4180.512718,4216.922974,4198.461436,4213.846051,4201.025538,4249.230665,4169.743488,4157.435796,4195.897333
15,0,4193.333231,4189.230667,4198.974256,4177.435795,4231.281948,4190.769128,4221.025538,4211.281948,4216.922974,4228.205025,4256.410152,4177.435795,4172.30759,4208.205025
16,0,4202.564,4204.102461,4209.230666,4188.205026,4233.33323,4190.769128,4216.410153,4214.871692,4217.435794,4231.794768,4265.128101,4187.692205,4185.640923,4215.384512
17,0,4208.205025,4209.743487,4217.948615,4189.230667,4211.794769,4196.410154,4223.07682,4221.025538,4227.692204,4235.384512,4269.743485,4191.281949,4187.179385,4205.640923
18,0,4211.281948,4206.666564,4218.461435,4185.640923,4214.871692,4199.999897,4235.384512,4225.128102,4231.281948,4245.640922,4271.281947,4188.717846,4187.692205,4212.307589
19,0,4206.666564,4204.102461,4213.33323,4184.102462,4229.230666,4193.846051,4229.743486,4218.461435,4224.102461,4233.84605,4272.307588,4185.128103,4187.179385,4224.615281
20,0,4207.179384,4208.717846,4213.846051,4188.717846,4235.897332,4196.410154,4221.025538,4216.410153,4226.153743,4224.615281,4269.230665,4192.82041,4188.205026,4218.461435
21,0,4211.281948,4210.256307,4217.948615,4196.922974,4229.230666,4205.128102,4227.179384,4218.974256,4230.769127,4236.410153,4259.999896,4201.025538,4186.666564,4218.974256
22,0,4210.769128,4203.07682,4224.102461,4198.461436,4215.384512,4201.025538,4232.820409,4217.435794,4226.153743,4237.435794,4262.051178,4201.538359,4188.205026,4228.717845
23,0,4215.384512,4209.743487,4227.692204,4202.564,4220.512717,4199.999897,4232.820409,4225.128102,4229.230666,4232.307589,4280.512716,4205.640923,4200.512718,4221.025538
24,0,4220.512717,4217.435794,4223.58964,4202.564,4236.922973,4204.102461,4235.897332,4233.33323,4234.871691,4232.307589,4285.1281,4205.128102,4201.025538,4213.33323
25,0,4209.230666,4203.07682,4214.871692,4187.179385,4226.666563,4192.82041,4231.794768,4217.435794,4224.615281,4225.640922,4265.640921,4193.333231,4184.102462,4218.974256
26,0,4194.871692,4192.82041,4209.230666,4181.025539,4214.358871,4186.153744,4221.025538,4200.512718,4214.871692,4215.384512,4250.769127,4186.666564,4178.461436,4218.461435
27,0,4197.435795,4201.538359,4204.615282,4188.205026,4224.615281,4196.410154,4223.58964,4205.640923,4221.025538,4211.281948,4260.512716,4189.230667,4184.102462,4211.794769
28,0,4209.743487,4206.666564,4209.230666,4185.128103,4225.128102,4202.564,4233.84605,4217.435794,4231.794768,4225.640922,4273.846049,4191.794769,4185.640923,4216.410153
29,0,4209.743487,4198.461436,4214.871692,4179.487077,4216.410153,4196.410154,4232.820409,4217.948615,4230.769127,4239.487076,4269.230665,4195.384513,4187.692205,4215.897333
30,0,4206.153743,4196.922974,4212.307589,4186.153744,4228.205025,4194.358872,4225.128102,4215.897333,4223.58964,4242.051178,4263.589639,4195.384513,4188.717846,4209.743487
31,0,4210.256307,4200.512718,4212.82041,4186.153744,4234.358871,4201.025538,4219.999897,4217.948615,4225.128102,4247.692204,4262.051178,4190.769128,4185.128103,4216.410153
32,0,4211.281948,4204.102461,4214.358871,4184.615282,4213.846051,4197.948615,4219.999897,4219.487076,4230.769127,4236.410153,4258.461434,4194.871692,4189.230667,4231.794768
33,0,4208.205025,4205.128102,4215.384512,4194.358872,4210.769128,4191.281949,4226.153743,4216.922974,4228.205025,4215.384512,4269.743485,4204.615282,4198.974256,4236.410153
34,0,4209.230666,4201.538359,4215.897333,4192.82041,4235.384512,4196.410154,4231.794768,4221.538358,4226.153743,4230.769127,4289.743485,4206.153743,4202.051179,4226.666563
35,0,4213.33323,4202.051179,4217.435794,4184.102462,4236.922973,4204.615282,4233.33323,4230.256307,4231.794768,4255.897332,4287.179382,4204.102461,4201.538359,4228.205025
36,0,4214.358871,4214.358871,4218.461435,4191.794769,4222.051179,4203.07682,4230.256307,4228.205025,4232.820409,4237.948614,4274.35887,4204.102461,4206.153743,4239.999896
37,0,4216.922974,4220.512717,4218.974256,4199.487077,4228.205025,4200.512718,4227.179384,4219.999897,4229.743486,4221.538358,4274.35887,4198.974256,4207.692205,4238.461435
38,0,4212.82041,4208.205025,4214.358871,4188.205026,4234.871691,4200.512718,4224.102461,4217.435794,4229.743486,4237.435794,4262.563998,4192.30759,4198.461436,4222.563999
39,0,4207.179384,4198.974256,4212.307589,4184.102462,4215.897333,4198.461436,4219.999897,4218.461435,4225.640922,4240.512717,4255.384511,4193.333231,4191.794769,4217.948615
40,0,4212.307589,4210.769128,4216.922974,4195.897333,4211.281948,4200.512718,4221.025538,4219.487076,4223.58964,4231.794768,4272.820408,4196.922974,4196.922974,4229.230666
41,0,4223.07682,4224.615281,4221.538358,4204.102461,4227.692204,4203.07682,4224.615281,4220.512717,4231.281948,4241.025537,4281.025536,4201.538359,4209.230666,4235.897332
42,0,4221.025538,4219.999897,4220.512717,4196.922974,4229.743486,4198.974256,4218.461435,4217.435794,4233.33323,4250.256306,4270.769126,4202.051179,4216.410153,4232.820409
43,0,4215.897333,4207.692205,4218.461435,4182.564,4226.666563,4199.487077,4213.33323,4215.384512,4224.102461,4241.025537,4271.281947,4197.435795,4212.82041,4233.33323
44,0,4216.410153,4208.717846,4217.435794,4185.128103,4230.769127,4206.153743,4217.435794,4217.435794,4221.025538,4232.820409,4266.153742,4195.384513,4204.615282,4237.435794
45,0,4209.230666,4209.230666,4216.410153,4195.897333,4224.615281,4204.615282,4215.897333,4209.743487,4221.538358,4219.999897,4249.230665,4197.435795,4190.256308,4227.692204
46,0,4206.666564,4202.051179,4210.256307,4192.30759,4214.358871,4195.897333,4207.179384,4197.948615,4214.358871,4189.230667,4256.922973,4194.871692,4178.974257,4218.461435
47,0,4223.58964,4208.717846,4214.358871,4189.230667,4212.82041,4196.922974,4209.743487,4201.538359,4215.384512,4190.769128,4271.281947,4197.435795,4189.743487,4231.794768
48,0,4235.384512,4219.487076,4227.692204,4197.435795,4217.948615,4204.615282,4222.051179,4217.435794,4226.666563,4234.871691,4270.256306,4211.281948,4210.769128,4249.230665
49,0,4233.33323,4219.487076,4234.871691,4206.666564,4230.256307,4206.666564,4231.794768,4227.179384,4234.871691,4258.461434,4276.410152,4222.051179,4220.512717,4254.871691
50,0,4233.84605,4218.461435,4236.410153,4201.538359,4234.358871,4198.974256,4232.820409,4223.58964,4229.743486,4245.128101,4278.974254,4221.025538,4216.922974,4252.307588
51,0,4234.358871,4215.897333,4233.84605,4189.230667,4217.948615,4187.692205,4229.743486,4215.897333,4219.487076,4230.256307,4263.076819,4216.922974,4207.179384,4249.743486
52,0,4229.743486,4210.769128,4230.769127,4188.717846,4207.692205,4188.205026,4228.717845,4214.358871,4216.922974,4224.615281,4256.410152,4216.410153,4198.974256,4248.717845
53,0,4227.692204,4213.846051,4231.794768,4201.025538,4223.58964,4199.999897,4230.769127,4215.384512,4219.487076,4215.897333,4270.769126,4215.384512,4203.589641,4246.153742
54,0,4232.307589,4217.435794,4233.84605,4207.179384,4234.358871,4203.07682,4231.794768,4215.897333,4217.948615,4211.794769,4279.487075,4214.871692,4210.769128,4243.58964
55,0,4234.871691,4216.922974,4233.84605,4197.948615,4222.051179,4197.948615,4227.692204,4220.512717,4223.07682,4222.051179,4275.897331,4216.922974,4207.179384,4246.666563
56,0,4232.820409,4218.461435,4235.384512,4189.743487,4216.410153,4200.512718,4220.512717,4224.615281,4230.256307,4235.384512,4265.128101,4215.897333,4203.589641,4248.717845
57,0,4229.230666,4214.871692,4231.794768,4191.281949,4219.999897,4200.512718,4217.435794,4218.974256,4223.58964,4236.922973,4259.999896,4211.794769,4204.615282,4248.205024
58,0,4227.179384,4209.743487,4228.717845,4201.538359,4217.435794,4194.358872,4223.58964,4216.410153,4216.922974,4223.07682,4264.10246,4210.769128,4199.999897,4248.205024
59,0,4222.051179,4214.358871,4232.820409,4202.051179,4225.128102,4204.615282,4229.743486,4221.025538,4223.07682,4211.794769,4261.025537,4211.794769,4190.769128,4238.461435
60,0,4226.153743,4219.999897,4235.384512,4188.205026,4242.563999,4219.487076,4233.84605,4221.538358,4224.615281,4222.563999,4257.435793,4213.33323,4189.743487,4234.358871
61,0,4234.871691,4216.410153,4232.307589,4188.717846,4235.384512,4213.846051,4231.794768,4218.461435,4219.487076,4239.487076,4264.61528,4216.922974,4199.999897,4247.692204
62,0,4234.358871,4212.82041,4233.33323,4200.512718,4216.922974,4202.051179,4223.07682,4216.410153,4217.948615,4231.281948,4260.512716,4216.410153,4204.615282,4250.256306
63,0,4228.205025,4214.871692,4232.307589,4202.564,4214.871692,4197.435795,4215.384512,4212.82041,4216.922974,4209.230666,4245.128101,4207.692205,4199.999897,4235.897332
64,0,4225.128102,4216.410153,4228.205025,4196.922974,4217.948615,4188.205026,4215.897333,4214.358871,4216.410153,4211.794769,4251.281947,4201.025538,4199.999897,4232.307589
65,0,4218.461435,4212.82041,4226.153743,4190.256308,4219.487076,4183.589641,4218.461435,4219.999897,4219.487076,4234.358871,4265.640921,4200.512718,4201.025538,4235.384512
66,0,4210.769128,4203.07682,4221.025538,4181.538359,4219.487076,4191.281949,4213.846051,4211.794769,4218.461435,4230.769127,4252.820409,4193.846051,4190.769128,4227.179384
67,0,4213.33323,4203.07682,4216.410153,4181.025539,4218.974256,4198.974256,4214.358871,4205.640923,4215.897333,4209.230666,4242.051178,4186.666564,4187.179385,4223.07682
68,0,4221.538358,4213.33323,4220.512717,4190.769128,4215.897333,4199.999897,4222.563999,4215.897333,4217.948615,4219.487076,4250.256306,4185.640923,4198.461436,4233.33323
69,0,4221.025538,4210.769128,4219.999897,4184.615282,4204.615282,4200.512718,4223.58964,4213.33323,4219.999897,4229.230666,4246.153742,4184.102462,4196.922974,4232.820409
70,0,4205.128102,4192.82041,4205.640923,4169.230667,4197.948615,4198.974256,4218.974256,4198.461436,4217.435794,4204.102461,4229.743486,4173.846052,4175.897334,4210.256307
71,0,4195.384513,4183.076821,4199.999897,4171.281949,4210.256307,4196.410154,4222.563999,4206.153743,4216.922974,4197.435795,4231.794768,4167.179385,4170.256308,4195.384513
72,0,4205.640923,4194.358872,4212.82041,4183.589641,4229.743486,4197.948615,4231.794768,4223.07682,4220.512717,4203.589641,4246.666563,4175.384513,4183.076821,4209.230666
73,0,4218.974256,4211.281948,4227.179384,4190.256308,4233.84605,4201.538359,4231.794768,4218.974256,4219.487076,4184.102462,4249.230665,4188.205026,4189.743487,4230.769127
74,0,4219.999897,4216.922974,4225.640922,4192.82041,4221.538358,4202.564,4228.205025,4209.743487,4214.871692,4184.615282,4246.666563,4192.82041,4184.102462,4235.384512
75,0,4215.384512,4207.692205,4219.487076,4194.358872,4214.871692,4196.922974,4232.307589,4213.846051,4213.846051,4213.846051,4244.10246,4191.281949,4182.05118,4228.717845
76,0,4207.692205,4198.974256,4216.410153,4188.717846,4216.410153,4187.692205,4232.307589,4219.487076,4216.410153,4222.563999,4233.33323,4187.179385,4186.153744,4219.487076
77,0,4207.179384,4199.999897,4215.897333,4177.435795,4211.794769,4183.589641,4224.615281,4212.307589,4215.897333,4211.794769,4230.256307,4184.615282,4187.692205,4214.871692
78,0,4211.794769,4204.615282,4215.384512,4178.974257,4217.435794,4195.384513,4223.58964,4205.128102,4210.769128,4203.07682,4243.076819,4187.692205,4187.692205,4215.384512
79,0,4207.692205,4205.640923,4214.871692,4185.640923,4232.820409,4202.051179,4229.230666,4209.230666,4208.717846,4201.538359,4247.179383,4190.256308,4190.256308,4214.358871
80,0,4197.948615,4202.564,4212.82041,4183.589641,4225.128102,4189.743487,4229.743486,4216.922974,4215.384512,4212.82041,4243.58964,4183.589641,4194.871692,4218.974256
81,0,4202.564,4201.538359,4214.358871,4190.256308,4208.205025,4185.640923,4229.230666,4221.025538,4221.538358,4220.512717,4245.128101,4182.05118,4198.974256,4228.205025
82,0,4208.205025,4209.230666,4217.948615,4198.974256,4218.974256,4195.897333,4234.871691,4223.58964,4217.435794,4208.205025,4237.948614,4188.717846,4198.974256,4224.615281
83,0,4208.205025,4213.846051,4222.051179,4189.230667,4233.33323,4199.999897,4240.512717,4228.717845,4215.897333,4202.564,4233.84605,4196.922974,4199.487077,4216.922974
84,0,4207.179384,4207.692205,4223.58964,4184.615282,4231.794768,4200.512718,4244.10246,4232.820409,4220.512717,4213.33323,4252.820409,4202.564,4202.051179,4216.922974
85,0,4202.051179,4201.538359,4218.974256,4193.846051,4224.615281,4198.461436,4241.025537,4226.153743,4218.974256,4226.666563,4261.538357,4202.051179,4198.974256,4213.846051
86,0,4198.974256,4202.051179,4217.435794,4193.333231,4222.051179,4189.230667,4234.358871,4216.922974,4216.410153,4238.461435,4255.897332,4199.999897,4199.487077,4218.974256
87,0,4201.025538,4204.102461,4222.563999,4194.358872,4225.640922,4190.256308,4233.33323,4217.948615,4220.512717,4245.128101,4256.410152,4205.128102,4208.717846,4231.281948
88,0,4204.102461,4204.615282,4224.102461,4206.153743,4223.07682,4201.538359,4235.897332,4218.461435,4220.512717,4232.820409,4256.410152,4208.205025,4206.153743,4229.743486
89,0,4202.564,4204.102461,4215.897333,4198.974256,4214.871692,4199.999897,4238.461435,4213.846051,4212.82041,4211.794769,4248.717845,4198.461436,4196.922974,4216.922974
90,0,4195.384513,4199.999897,4210.769128,4180.512718,4221.025538,4196.922974,4243.58964,4219.999897,4216.410153,4215.897333,4254.871691,4191.281949,4195.384513,4206.153743
91,0,4187.179385,4197.435795,4211.794769,4187.692205,4234.871691,4207.179384,4246.666563,4230.769127,4227.692204,4237.435794,4266.153742,4193.333231,4198.461436,4202.051179
92,0,4191.794769,4203.589641,4217.948615,4210.769128,4231.281948,4211.794769,4240.512717,4230.769127,4227.179384,4232.307589,4271.281947,4199.999897,4201.025538,4213.33323
93,0,4199.487077,4207.692205,4224.102461,4215.897333,4220.512717,4204.102461,4233.33323,4222.563999,4217.435794,4215.897333,4273.333229,4206.153743,4204.102461,4225.128102
94,0,4194.871692,4203.589641,4226.666563,4209.230666,4216.922974,4194.871692,4229.230666,4219.487076,4217.435794,4229.230666,4267.179383,4212.82041,4200.512718,4221.538358
95,0,4193.846051,4205.640923,4222.051179,4214.358871,4214.871692,4193.846051,4228.205025,4219.999897,4224.615281,4241.538358,4268.717844,4212.82041,4198.461436,4218.974256
96,0,4209.743487,4218.974256,4218.974256,4227.692204,4219.999897,4200.512718,4231.281948,4221.025538,4227.692204,4230.256307,4282.563998,4208.205025,4209.743487,4223.07682
97,0,4213.846051,4221.538358,4218.461435,4231.794768,4226.666563,4206.153743,4232.307589,4223.07682,4225.640922,4239.487076,4284.102459,4206.666564,4212.307589,4219.999897
98,0,4201.025538,4211.794769,4217.435794,4232.307589,4234.871691,4208.205025,4228.717845,4221.538358,4222.051179,4253.333229,4274.87169,4208.717846,4202.051179,4213.846051
99,0,4199.487077,4211.794769,4216.922974,4231.794768,4238.974255,4213.846051,4228.717845,4216.922974,4222.051179,4232.307589,4276.922972,4206.666564,4197.948615,4212.82041
100,0,4208.717846,4216.922974,4218.974256,4231.281948,4222.563999,4216.410153,4232.820409,4216.410153,4221.538358,4216.922974,4281.025536,4202.564,4199.999897,4214.871692
101,0,4204.102461,4215.384512,4218.974256,4238.461435,4216.410153,4216.922974,4233.33323,4224.102461,4223.58964,4229.743486,4276.922972,4206.666564,4197.435795,4216.922974
102,0,4202.051179,4216.922974,4222.051179,4245.640922,4244.10246,4228.717845,4234.358871,4233.33323,4230.256307,4237.435794,4287.692203,4213.846051,4201.025538,4219.999897
103,0,4212.307589,4221.025538,4225.640922,4245.128101,4248.205024,4231.281948,4235.897332,4232.307589,4226.666563,4232.820409,4296.922972,4214.358871,4206.666564,4216.410153
104,0,4207.692205,4209.230666,4221.025538,4247.692204,4208.205025,4214.871692,4230.769127,4218.461435,4214.358871,4230.769127,4281.025536,4208.717846,4192.30759,4203.07682
105,0,4198.461436,4199.999897,4218.974256,4264.61528,4207.692205,4211.281948,4234.358871,4216.922974,4216.410153,4233.33323,4271.281947,4206.153743,4180.512718,4203.07682
106,0,4207.179384,4211.281948,4222.051179,4272.820408,4244.615281,4217.948615,4239.999896,4228.717845,4224.102461,4229.230666,4283.076818,4209.230666,4190.256308,4215.897333
107,0,4216.410153,4223.07682,4219.487076,4266.153742,4245.128101,4216.410153,4235.384512,4230.256307,4220.512717,4234.871691,4293.333228,4211.281948,4201.538359,4217.435794
108,0,4219.487076,4225.128102,4223.58964,4273.846049,4225.128102,4218.974256,4235.384512,4230.769127,4222.563999,4258.461434,4301.025536,4219.999897,4210.256307,4221.538358
109,0,4226.666563,4233.33323,4235.897332,4293.846049,4226.666563,4225.640922,4242.563999,4238.974255,4233.33323,4261.025537,4302.563997,4236.410153,4214.871692,4237.435794
110,0,4227.179384,4233.33323,4235.897332,4302.051177,4233.33323,4221.025538,4238.461435,4236.410153,4230.769127,4233.84605,4295.38451,4235.897332,4207.179384,4232.820409
111,0,4220.512717,4221.025538,4229.230666,4293.333228,4225.640922,4215.384512,4224.615281,4224.615281,4217.435794,4229.743486,4295.897331,4218.974256,4197.435795,4212.82041
112,0,4222.563999,4224.102461,4225.640922,4296.922972,4227.179384,4222.563999,4223.58964,4225.128102,4222.563999,4251.794768,4296.410151,4213.846051,4199.999897,4213.846051
113,0,4229.743486,4234.871691,4222.563999,4317.948612,4247.179383,4234.358871,4232.820409,4228.205025,4236.410153,4249.743486,4294.358869,4218.974256,4202.051179,4224.102461
114,0,4226.153743,4233.33323,4216.922974,4319.999894,4247.692204,4231.281948,4230.769127,4221.025538,4228.717845,4234.358871,4293.333228,4212.307589,4195.897333,4221.025538
115,0,4223.07682,4227.692204,4214.871692,4314.871689,4223.07682,4217.948615,4221.538358,4212.82041,4215.897333,4227.179384,4286.666562,4203.589641,4186.153744,4212.307589
116,0,4226.666563,4231.281948,4214.358871,4334.358868,4211.794769,4216.922974,4222.563999,4212.307589,4218.461435,4224.615281,4279.999895,4198.974256,4176.922975,4205.640923
117,0,4225.128102,4235.897332,4213.33323,4346.66656,4220.512717,4219.487076,4224.102461,4214.358871,4221.538358,4234.358871,4285.640921,4199.487077,4176.922975,4198.461436
118,0,4224.102461,4232.307589,4211.794769,4337.948612,4224.102461,4214.871692,4215.897333,4214.358871,4216.922974,4226.153743,4294.87169,4205.128102,4181.538359,4197.435795
119,0,4236.922973,4235.897332,4218.461435,4348.205022,4233.33323,4223.58964,4214.358871,4216.410153,4222.563999,4207.692205,4302.051177,4209.230666,4186.666564,4209.743487
120,0,4245.128101,4248.717845,4224.102461,4371.281944,4242.051178,4237.435794,4217.435794,4221.025538,4229.743486,4230.769127,4299.999895,4205.640923,4190.256308,4215.384512
121,0,4240.512717,4250.769127,4220.512717,4378.461431,4226.666563,4230.769127,4216.922974,4219.999897,4224.102461,4258.974255,4288.717844,4202.564,4183.589641,4204.615282
122,0,4237.435794,4235.384512,4215.384512,4376.92297,4209.743487,4220.512717,4214.358871,4213.33323,4215.384512,4230.256307,4288.205023,4202.564,4170.769129,4198.461436
123,0,4235.897332,4228.205025,4214.871692,4383.076816,4216.922974,4229.230666,4214.871692,4211.281948,4215.384512,4203.589641,4292.820408,4196.410154,4163.589642,4196.922974
124,0,4236.410153,4241.025537,4218.974256,4399.487072,4228.717845,4246.666563,4225.640922,4218.461435,4222.563999,4231.281948,4294.358869,4194.358872,4168.205026,4188.717846
125,0,4235.897332,4252.307588,4218.461435,4403.076815,4223.58964,4246.666563,4232.307589,4219.999897,4224.102461,4243.076819,4294.358869,4197.435795,4168.717847,4186.153744
126,0,4227.692204,4246.666563,4203.589641,4386.666559,4212.82041,4233.84605,4218.461435,4206.153743,4215.384512,4214.358871,4283.076818,4186.666564,4150.256309,4180.512718
127,0,4225.128102,4243.076819,4195.897333,4396.922969,4221.538358,4236.410153,4208.717846,4200.512718,4212.307589,4205.128102,4282.051177,4181.538359,4138.461437,4173.333231
128,0,4239.487076,4254.35887,4214.871692,4434.358866,4239.487076,4253.84605,4217.435794,4214.871692,4224.102461,4231.794768,4296.410151,4202.564,4152.307591,4190.769128
0,0,4237.435794,4251.281947,4217.435794,4436.922968,4230.769127,4251.281947,4219.999897,4220.512717,4226.153743,4242.563999,4289.230664,4207.179384,4160.512719,4198.461436
1,0,4224.615281,4241.025537,4199.999897,4424.102456,4216.922974,4245.640922,4213.33323,4211.281948,4217.435794,4219.487076,4282.051177,4188.717846,4150.769129,4171.79477
2,0,4231.281948,4251.281947,4202.564,4444.615276,4226.666563,4259.487075,4214.871692,4213.846051,4223.07682,4212.307589,4297.435792,4191.794769,4151.79477,4168.205026
3,0,4238.974255,4258.974255,4211.794769,4463.076814,4224.102461,4262.051178,4217.435794,4217.948615,4233.33323,4229.743486,4303.076818,4202.051179,4156.922975,4187.179385
4,0,4229.230666,4251.281947,4202.564,4462.051173,4211.794769,4248.205024,4214.871692,4211.794769,4226.666563,4230.769127,4296.410151,4193.333231,4152.307591,4176.922975
5,0,4232.307589,4256.922973,4204.102461,4475.897326,4229.743486,4253.84605,4214.871692,4215.384512,4219.487076,4212.307589,4307.692202,4193.846051,4151.28195,4168.717847
6,0,4247.179383,4274.35887,4217.435794,4495.384505,4256.410152,4272.307588,4218.461435,4223.07682,4223.58964,4212.307589,4314.358869,4205.640923,4155.897334,4185.640923
7,0,4249.230665,4271.281947,4219.999897,4493.846044,4248.205024,4273.333229,4218.974256,4218.461435,4223.07682,4233.33323,4299.487074,4206.153743,4156.410155,4186.666564
8,0,4243.58964,4266.153742,4215.384512,4496.922967,4227.692204,4265.128101,4218.974256,4217.948615,4223.07682,4239.487076,4291.794767,4203.07682,4151.28195,4170.769129
9,0,4241.538358,4270.769126,4211.794769,4512.307582,4213.33323,4263.076819,4218.461435,4223.07682,4225.128102,4222.051179,4295.38451,4199.487077,4142.051181,4161.53836
10,0,4239.999896,4265.640921,4204.615282,4517.435787,4208.717846,4268.717844,4219.999897,4221.538358,4224.615281,4209.743487,4300.512715,4189.230667,4133.846053,4159.999898
11,0,4242.051178,4265.128101,4208.205025,4524.615274,4230.256307,4284.102459,4227.692204,4223.58964,4228.205025,4216.922974,4306.153741,4194.871692,4134.871694,4164.102462
12,0,4245.640922,4274.87169,4219.999897,4542.051171,4253.333229,4297.435792,4230.769127,4231.794768,4231.794768,4231.794768,4317.435792,4211.281948,4147.179386,4172.30759
13,0,4250.769127,4281.025536,4221.025538,4555.384504,4252.307588,4298.461433,4227.692204,4232.307589,4230.769127,4242.051178,4322.563997,4212.307589,4158.974257,4172.30759
14,0,4250.769127,4278.974254,4214.871692,4562.563991,4234.871691,4288.717844,4229.743486,4228.205025,4229.743486,4230.256307,4310.256305,4202.564,4151.28195,4158.461437
15,0,4242.563999,4275.897331,4211.281948,4569.230657,4226.153743,4282.563998,4228.717845,4229.743486,4230.256307,4218.461435,4302.051177,4201.538359,4139.487078,4150.769129
16,0,4242.563999,4277.435793,4208.717846,4576.410145,4235.897332,4283.076818,4219.487076,4233.33323,4230.769127,4236.922973,4312.307587,4205.640923,4146.666565,4159.999898
17,0,4241.538358,4273.846049,4203.07682,4580.512709,4229.743486,4277.435793,4211.794769,4229.230666,4232.307589,4245.128101,4323.589638,4194.358872,4149.743488,4153.333232
18,0,4235.897332,4273.846049,4203.589641,4590.769119,4216.410153,4275.897331,4212.307589,4226.153743,4231.794768,4226.153743,4322.563997,4186.666564,4144.615283,4132.820412
19,0,4241.538358,4283.589639,4211.794769,4599.487067,4233.84605,4287.692203,4217.948615,4229.743486,4232.820409,4231.794768,4322.051176,4199.999897,4155.384514,4142.051181
20,0,4249.743486,4288.205023,4214.871692,4601.538349,4254.871691,4299.487074,4224.102461,4232.820409,4234.871691,4254.871691,4327.692202,4209.230666,4167.692206,4165.640924
21,0,4242.563999,4285.1281,4210.256307,4610.256298,4247.179383,4304.615279,4225.128102,4231.281948,4233.84605,4247.692204,4330.769125,4204.615282,4159.487078,4156.922975
22,0,4238.974255,4283.076818,4209.743487,4619.999887,4237.435794,4303.589638,4220.512717,4230.769127,4232.307589,4234.871691,4322.051176,4201.025538,4145.640924,4136.410155
23,0,4242.051178,4282.563998,4210.769128,4624.102451,4241.025537,4298.974254,4216.922974,4229.230666,4232.307589,4230.256307,4310.769125,4199.999897,4144.102463,4136.410155
24,0,4239.999896,4286.153741,4210.769128,4629.743477,4232.820409,4298.461433,4217.948615,4228.717845,4233.84605,4215.897333,4312.820407,4196.410154,4144.102463,4135.384514
25,0,4232.307589,4291.281946,4206.153743,4639.487066,4219.999897,4304.615279,4219.487076,4230.769127,4236.922973,4220.512717,4317.948612,4190.256308,4141.02554,4113.846053
26,0,4221.538358,4284.61528,4199.487077,4644.102451,4226.153743,4309.230664,4220.512717,4228.205025,4236.410153,4243.076819,4314.871689,4184.102462,4135.384514,4099.487079
27,0,4215.897333,4282.563998,4197.948615,4649.230656,4239.487076,4307.179382,4217.948615,4224.102461,4231.281948,4241.025537,4308.717843,4187.179385,4133.846053,4110.25631
28,0,4225.128102,4296.410151,4206.666564,4658.974245,4249.230665,4305.1281,4214.358871,4226.666563,4231.281948,4228.717845,4313.333228,4194.358872,4141.53836,4124.102463
29,0,4228.717845,4298.461433,4213.846051,4666.153732,4255.384511,4311.794766,4220.512717,4230.769127,4233.84605,4228.205025,4325.128099,4194.871692,4141.02554,4120.51272
30,0,4221.538358,4289.743485,4213.846051,4675.897322,4255.897332,4322.051176,4230.256307,4227.179384,4229.230666,4221.025538,4323.076817,4195.897333,4128.205027,4102.564002
31,0,4218.461435,4290.256305,4208.717846,4682.051168,4247.179383,4322.051176,4224.102461,4216.922974,4219.999897,4208.717846,4307.692202,4194.358872,4118.461438,4092.307592
32,0,4224.615281,4296.922972,4207.692205,4684.61527,4245.640922,4319.487074,4214.358871,4211.281948,4220.512717,4211.794769,4309.230664,4190.769128,4126.666566,4097.948618
33,0,4237.435794,4307.179382,4215.897333,4694.35886,4252.307588,4321.538356,4218.974256,4218.974256,4230.256307,4225.128102,4324.102458,4194.871692,4144.102463,4112.820412
34,0,4247.692204,4318.461433,4216.922974,4708.717834,4249.230665,4323.589638,4225.640922,4228.205025,4233.33323,4234.358871,4326.666561,4198.461436,4151.79477,4123.076822
35,0,4257.948614,4327.179381,4216.922974,4720.512705,4246.153742,4326.15374,4226.153743,4224.102461,4228.717845,4234.871691,4324.615279,4199.999897,4153.846052,4128.205027
36,0,4279.999895,4340.512714,4226.666563,4729.743474,4251.794768,4329.230663,4229.743486,4224.102461,4229.230666,4229.230666,4329.743484,4209.743487,4159.999898,4144.102463
37,0,4312.307587,4358.461432,4235.897332,4743.589628,4251.794768,4329.230663,4228.717845,4231.794768,4234.871691,4234.358871,4338.461432,4221.538358,4168.717847,4174.358872
38,0,4336.922971,4372.307585,4233.33323,4764.102448,4243.58964,4325.128099,4218.461435,4227.692204,4235.897332,4236.410153,4348.205022,4222.563999,4181.025539,4197.948615
39,0,4354.358868,4381.025534,4232.820409,4774.358858,4247.692204,4321.025535,4212.82041,4216.922974,4232.307589,4210.769128,4348.717842,4222.563999,4187.692205,4202.564
40,0,4366.153739,4384.615277,4241.025537,4769.743473,4262.051178,4324.102458,4215.384512,4216.410153,4229.230666,4195.897333,4338.974253,4228.717845,4179.487077,4211.281948
41,0,4370.256303,4384.615277,4245.640922,4769.230653,4267.179383,4328.205022,4216.922974,4215.384512,4222.563999,4217.435794,4336.922971,4227.692204,4173.333231,4222.563999
42,0,4366.153739,4375.384508,4240.512717,4773.333217,4250.769127,4324.102458,4221.025538,4204.615282,4215.897333,4230.256307,4337.948612,4222.051179,4184.102462,4212.307589
43,0,4363.589637,4360.512714,4240.512717,4776.41014,4245.128101,4326.15374,4232.307589,4206.153743,4222.563999,4222.563999,4339.999894,4229.230666,4186.666564,4202.564
44,0,4359.487073,4354.871688,4242.051178,4783.589627,4264.61528,4342.051176,4233.84605,4216.410153,4232.820409,4228.205025,4348.205022,4235.384512,4176.922975,4209.230666
45,0,4346.15374,4355.384509,4235.384512,4786.153729,4273.333229,4352.307586,4227.179384,4218.974256,4232.820409,4234.358871,4343.589637,4223.58964,4173.333231,4195.897333
46,0,4327.179381,4341.025535,4228.717845,4778.461422,4270.256306,4351.281945,4228.205025,4215.897333,4231.281948,4225.128102,4330.256304,4214.871692,4166.153744,4164.102462
47,0,4310.769125,4321.025535,4229.743486,4774.871678,4272.307588,4348.717842,4230.769127,4216.410153,4233.84605,4213.846051,4330.256304,4215.384512,4155.897334,4152.820411
48,0,4295.897331,4315.38451,4226.153743,4775.384499,4274.35887,4347.179381,4227.692204,4219.487076,4233.84605,4204.615282,4334.871689,4209.743487,4148.717847,4142.564001
49,0,4277.948613,4307.692202,4221.538358,4768.717832,4263.589639,4341.025535,4221.538358,4210.769128,4229.230666,4198.461436,4329.230663,4205.128102,4136.922976,4111.281951
50,0,4267.692203,4292.307587,4224.102461,4765.640909,4259.999896,4337.948612,4221.538358,4204.615282,4226.666563,4203.589641,4332.820407,4211.794769,4132.307591,4099.487079
51,0,4268.205024,4291.281946,4229.230666,4773.846037,4272.820408,4346.15374,4230.256307,4217.948615,4229.743486,4220.512717,4334.871689,4222.051179,4140.512719,4112.820412
52,0,4263.589639,4293.333228,4230.256307,4781.538345,4284.61528,4353.846047,4241.538358,4230.769127,4234.358871,4235.897332,4323.589638,4224.102461,4141.53836,4109.743489
53,0,4251.281947,4282.563998,4222.051179,4779.487063,4280.512716,4349.230663,4245.128101,4226.666563,4234.358871,4236.922973,4325.64092,4213.846051,4134.358873,4089.230669
54,0,4244.615281,4276.922972,4218.461435,4777.948601,4262.051178,4340.512714,4236.922973,4219.487076,4231.794768,4228.717845,4342.051176,4208.717846,4135.384514,4080.512721
55,0,4239.487076,4278.461434,4217.948615,4781.025524,4261.538357,4337.948612,4229.743486,4217.948615,4231.794768,4225.128102,4340.512714,4209.230666,4136.410155,4081.025541
56,0,4227.179384,4267.179383,4213.33323,4775.897319,4276.410152,4338.461432,4230.256307,4220.512717,4232.820409,4220.512717,4331.794766,4209.743487,4135.897335,4073.846054
57,0,4218.461435,4251.281947,4210.256307,4767.179371,4279.999895,4338.461432,4233.33323,4231.281948,4234.871691,4212.82041,4338.974253,4211.794769,4135.897335,4064.102465
58,0,4212.82041,4239.487076,4210.769128,4765.128089,4279.487075,4332.820407,4229.230666,4234.871691,4234.871691,4219.487076,4336.922971,4211.281948,4126.153745,4062.564003
59,0,4194.358872,4220.512717,4201.538359,4760.512704,4277.948613,4322.051176,4223.07682,4224.615281,4230.769127,4229.230666,4319.487074,4202.051179,4111.794771,4051.281952
60,0,4188.205026,4207.179384,4192.30759,4747.179371,4266.666562,4323.589638,4227.179384,4223.58964,4227.692204,4216.922974,4317.948612,4195.384513,4110.25631,4034.358876
61,0,4197.435795,4214.358871,4194.871692,4747.179371,4259.487075,4340.512714,4233.33323,4230.769127,4228.205025,4197.948615,4329.743484,4197.435795,4118.461438,4038.46144
62,0,4199.999897,4218.461435,4202.051179,4764.102448,4273.333229,4351.794765,4235.384512,4233.84605,4229.230666,4205.128102,4334.358868,4199.999897,4125.128104,4047.692209
63,0,4189.230667,4202.564,4198.974256,4768.205012,4287.692203,4349.743483,4238.461435,4233.33323,4229.743486,4227.179384,4332.820407,4197.435795,4121.538361,4040.512722
64,0,4177.948616,4192.82041,4191.281949,4758.461422,4286.153741,4347.692201,4244.10246,4233.84605,4231.794768,4232.307589,4330.256304,4200.512718,4111.794771,4030.256312
65,0,4177.948616,4201.538359,4189.230667,4757.435781,4282.051177,4350.769124,4244.10246,4234.871691,4230.769127,4214.358871,4328.205022,4204.102461,4112.820412,4025.640927
66,0,4181.538359,4200.512718,4191.281949,4758.461422,4282.563998,4349.743483,4236.922973,4233.84605,4228.717845,4207.179384,4332.820407,4199.999897,4122.051181,4021.025543
67,0,4171.79477,4186.666564,4187.692205,4751.281935,4275.897331,4342.051176,4228.717845,4233.84605,4232.307589,4215.384512,4332.307586,4196.922974,4122.051181,4025.640927
68,0,4160.512719,4182.564,4185.640923,4744.102448,4269.230665,4337.948612,4224.615281,4234.358871,4230.256307,4209.230666,4323.076817,4197.948615,4113.333233,4028.20503
69,0,4164.615283,4179.999898,4185.640923,4740.512705,4274.87169,4348.205022,4232.307589,4235.897332,4221.538358,4203.07682,4321.025535,4192.82041,4107.179387,4010.769133
70,0,4166.153744,4166.666565,4179.999898,4733.846038,4279.487075,4356.41015,4241.025537,4234.358871,4219.487076,4208.717846,4321.025535,4184.615282,4103.076823,4001.025543
71,0,4163.589642,4168.205026,4182.05118,4737.435782,4282.563998,4355.897329,4239.487076,4236.922973,4222.563999,4208.717846,4322.051176,4191.281949,4112.307592,4014.358876
72,0,4168.205026,4184.102462,4188.717846,4749.230653,4292.307587,4359.487073,4240.512717,4247.692204,4221.025538,4201.538359,4332.820407,4197.435795,4122.051181,4018.974261
73,0,4166.666565,4181.025539,4188.717846,4747.179371,4293.333228,4367.692201,4247.179383,4247.179383,4218.461435,4199.999897,4333.846048,4195.897333,4111.281951,4011.281953
74,0,4158.974257,4167.692206,4187.179385,4738.974243,4294.358869,4371.281944,4248.205024,4241.025537,4222.563999,4209.230666,4323.076817,4199.487077,4107.179387,4019.487081
75,0,4164.615283,4169.743488,4194.871692,4744.102448,4299.999895,4366.153739,4247.179383,4247.692204,4230.256307,4216.922974,4333.846048,4207.692205,4123.589643,4028.20503
76,0,4169.230667,4173.846052,4198.461436,4743.589628,4285.640921,4359.487073,4249.230665,4256.922973,4230.256307,4208.205025,4350.256304,4210.256307,4133.846053,4019.999902
77,0,4160.512719,4162.564001,4190.769128,4723.076808,4272.307588,4358.461432,4248.717845,4253.333229,4221.025538,4196.410154,4333.846048,4206.153743,4126.153745,4009.230671
78,0,4152.820411,4152.307591,4182.564,4719.999885,4295.38451,4366.153739,4247.179383,4247.692204,4216.922974,4208.717846,4315.38451,4199.999897,4121.02554,4005.640928
79,0,4156.410155,4153.333232,4184.102462,4738.974243,4308.205023,4372.307585,4248.717845,4247.692204,4219.999897,4221.538358,4326.666561,4191.281949,4121.538361,4005.128107
80,0,4157.435796,4153.846052,4183.076821,4741.025525,4292.820408,4374.358867,4246.666563,4247.179383,4215.384512,4207.179384,4329.230663,4184.102462,4118.461438,3998.974261
81,0,4157.948616,4157.948616,4181.025539,4733.333218,4301.538356,4381.538354,4247.179383,4247.179383,4214.871692,4191.281949,4322.051176,4191.281949,4119.999899,4002.051184
82,0,4159.999898,4159.999898,4182.564,4729.230654,4316.410151,4381.538354,4248.717845,4245.640922,4218.461435,4202.564,4330.769125,4200.512718,4123.076822,4015.384517
83,0,4162.05118,4155.897334,4184.615282,4727.692192,4305.1281,4375.384508,4245.640922,4245.128101,4216.922974,4223.07682,4340.512714,4200.512718,4126.666566,4012.307594
84,0,4161.025539,4154.358873,4179.999898,4721.538346,4290.256305,4368.717842,4244.615281,4244.615281,4213.33323,4214.358871,4330.256304,4196.410154,4130.256309,3996.922979
85,0,4156.410155,4150.256309,4178.974257,4709.743475,4287.179382,4368.717842,4243.58964,4243.58964,4214.871692,4199.999897,4316.922971,4195.384513,4128.717848,4001.025543
86,0,4155.384514,4143.076822,4186.153744,4704.61527,4297.948613,4376.410149,4247.179383,4247.179383,4217.948615,4207.692205,4326.15374,4203.589641,4129.743489,4019.487081
87,0,4167.179385,4148.717847,4193.333231,4709.230654,4317.435792,4380.512713,4258.974255,4252.820409,4217.435794,4207.692205,4340.512714,4213.33323,4138.461437,4025.640927
88,0,4171.281949,4151.28195,4193.846051,4709.743475,4315.38451,4372.820406,4265.128101,4255.897332,4214.871692,4206.666564,4333.846048,4210.256307,4141.02554,4021.538363
89,0,4162.564001,4138.974258,4190.769128,4709.230654,4295.38451,4366.153739,4260.512716,4259.999896,4215.897333,4222.563999,4324.615279,4203.07682,4139.999899,4015.897338
90,0,4162.05118,4135.897335,4190.769128,4714.358859,4293.846049,4367.17938,4259.999896,4260.512716,4219.999897,4222.051179,4331.794766,4205.128102,4139.999899,4010.256312
91,0,4160.512719,4142.051181,4188.205026,4703.589629,4296.410151,4361.538355,4261.538357,4251.794768,4214.358871,4199.999897,4322.051176,4203.07682,4127.179386,4005.640928
92,0,4146.153745,4132.820412,4185.128103,4689.743475,4290.769126,4354.871688,4260.512716,4246.153742,4205.640923,4191.281949,4303.589638,4193.846051,4115.897335,4004.615287
93,0,4136.922976,4118.461438,4187.692205,4696.410142,4293.846049,4357.948611,4260.512716,4251.281947,4206.666564,4201.025538,4314.871689,4195.897333,4122.564002,4004.615287
94,0,4144.102463,4119.487079,4192.30759,4702.563988,4303.589638,4365.640919,4259.999896,4252.307588,4208.205025,4209.743487,4324.102458,4202.051179,4124.102463,3997.94862
95,0,4153.846052,4127.179386,4193.846051,4698.461424,4316.410151,4371.794765,4258.461434,4254.871691,4208.717846,4215.384512,4316.410151,4206.153743,4125.128104,4005.640928
96,0,4162.564001,4128.717848,4199.487077,4701.538347,4314.871689,4366.153739,4256.922973,4262.563998,4214.871692,4224.615281,4327.179381,4214.358871,4142.564001,4026.666568
97,0,4164.615283,4129.743489,4203.07682,4707.692193,4292.307587,4355.897329,4249.743486,4257.435793,4217.948615,4229.230666,4335.89733,4218.461435,4148.717847,4024.615286
98,0,4162.05118,4137.435796,4200.512718,4701.538347,4295.897331,4361.538355,4247.692204,4246.666563,4214.358871,4211.281948,4328.205022,4218.461435,4137.948617,4021.538363
99,0,4162.05118,4141.02554,4197.948615,4696.410142,4326.15374,4369.230662,4254.871691,4250.256306,4215.897333,4191.281949,4325.64092,4218.461435,4136.410155,4031.281953
100,0,4165.640924,4133.846053,4202.051179,4696.410142,4324.102458,4363.076816,4256.922973,4253.333229,4216.410153,4205.128102,4323.076817,4217.948615,4144.102463,4022.564004
101,0,4158.974257,4126.666566,4198.461436,4691.281937,4299.487074,4353.846047,4248.717845,4244.10246,4204.615282,4224.615281,4312.307587,4208.717846,4145.640924,4014.871697
102,0,4148.717847,4119.999899,4187.179385,4686.666552,4285.1281,4345.128099,4237.948614,4238.461435,4196.922974,4212.82041,4310.769125,4197.948615,4136.410155,4025.128107
103,0,4154.871693,4122.564002,4188.205026,4689.230655,4279.487075,4342.563996,4242.563999,4245.128101,4205.128102,4214.358871,4321.538356,4207.692205,4138.974258,4026.666568
104,0,4163.076821,4130.256309,4194.358872,4682.563988,4287.692203,4351.281945,4252.307588,4250.256306,4214.871692,4233.84605,4322.563997,4220.512717,4155.384514,4027.179389
105,0,4158.461437,4128.717848,4187.179385,4669.743476,4307.179382,4356.92297,4251.794768,4251.794768,4212.82041,4223.58964,4318.974253,4209.230666,4152.307591,4032.820414
106,0,4154.358873,4125.128104,4186.666564,4674.871681,4315.89733,4359.999893,4255.897332,4260.512716,4213.33323,4212.307589,4322.563997,4197.948615,4139.999899,4019.999902
107,0,4156.410155,4126.153745,4196.410154,4685.128091,4308.205023,4362.563996,4268.205024,4268.717844,4221.538358,4226.666563,4314.871689,4212.307589,4149.230668,4018.46144
108,0,4151.28195,4124.615284,4190.769128,4675.897322,4299.999895,4353.846047,4267.179383,4260.512716,4218.974256,4226.666563,4301.025536,4216.410153,4156.410155,4030.256312
109,0,4139.487078,4116.410156,4180.512718,4664.615271,4288.717844,4339.487073,4253.84605,4246.153742,4205.640923,4207.179384,4304.615279,4200.512718,4135.384514,4018.46144
110,0,4136.410155,4115.897335,4186.153744,4664.615271,4277.948613,4334.871689,4248.205024,4243.076819,4198.974256,4195.384513,4309.230664,4197.948615,4118.974258,4007.179389
111,0,4146.153745,4123.076822,4192.30759,4658.974245,4286.153741,4335.89733,4253.333229,4248.717845,4202.051179,4192.82041,4304.615279,4209.743487,4132.820412,4018.974261
112,0,4149.743488,4122.051181,4188.717846,4654.358861,4307.692202,4342.051176,4263.076819,4252.307588,4203.07682,4202.051179,4310.769125,4213.33323,4149.743488,4025.640927
113,0,4138.974258,4115.384515,4187.692205,4655.897322,4312.820407,4339.487073,4265.128101,4247.692204,4199.999897,4214.871692,4313.846048,4208.717846,4146.153745,4017.435799
114,0,4130.256309,4104.615284,4185.640923,4647.692194,4297.948613,4327.179381,4252.307588,4241.025537,4196.922974,4211.794769,4293.333228,4206.153743,4132.820412,4015.897338
115,0,4138.974258,4099.9999,4190.769128,4646.153733,4289.230664,4328.205022,4247.179383,4241.538358,4197.948615,4198.461436,4288.205023,4214.871692,4134.871694,4028.71785
116,0,4143.076822,4103.589643,4199.999897,4661.538348,4279.487075,4337.435791,4256.922973,4248.717845,4202.564,4193.846051,4305.1281,4224.102461,4148.205027,4037.948619
117,0,4139.999899,4111.281951,4201.538359,4663.58963,4281.538357,4340.512714,4268.205024,4251.281947,4205.640923,4210.769128,4313.333228,4219.487076,4154.358873,4033.846055
118,0,4138.461437,4115.384515,4195.384513,4647.692194,4302.563997,4339.999894,4268.205024,4242.051178,4202.564,4215.897333,4306.666561,4210.256307,4150.256309,4031.794773
119,0,4134.358873,4112.307592,4190.769128,4646.666553,4305.64092,4338.974253,4262.051178,4232.820409,4197.435795,4198.974256,4302.563997,4211.794769,4150.256309,4036.922978
120,0,4127.179386,4109.230669,4187.692205,4652.307579,4293.333228,4337.435791,4262.563998,4233.33323,4195.384513,4201.538359,4305.64092,4215.897333,4155.897334,4035.897337
121,0,4128.717848,4116.922976,4190.256308,4641.538348,4297.435792,4332.820407,4262.051178,4234.871691,4196.922974,4214.871692,4297.435792,4218.974256,4155.897334,4040.512722
122,0,4129.230668,4132.307591,4191.794769,4629.743477,4301.025536,4324.615279,4255.384511,4232.820409,4199.999897,4208.205025,4291.794767,4218.974256,4153.846052,4052.820414
123,0,4121.538361,4135.384514,4186.153744,4628.205015,4293.846049,4323.076817,4256.410152,4239.487076,4203.07682,4211.794769,4307.692202,4213.846051,4157.948616,4052.307593
124,0,4122.564002,4130.76913,4183.076821,4632.8204,4296.410151,4330.256304,4262.051178,4246.153742,4205.128102,4231.281948,4310.769125,4211.794769,4155.897334,4044.615286
125,0,4126.666566,4134.358873,4186.153744,4631.281938,4299.999895,4324.615279,4259.487075,4238.974255,4201.025538,4225.640922,4294.358869,4212.307589,4156.922975,4049.743491
126,0,4119.999899,4139.487078,4185.640923,4623.589631,4292.820408,4316.410151,4257.948614,4231.794768,4196.410154,4211.281948,4294.358869,4206.666564,4166.666565,4055.384516
127,0,4107.692207,4132.307591,4179.999898,4617.948605,4294.87169,4323.076817,4261.538357,4232.820409,4198.461436,4210.769128,4294.87169,4204.102461,4166.666565,4047.179388
128,0,4097.435797,4125.640925,4177.948616,4607.179375,4302.563997,4323.076817,4258.974255,4231.794768,4198.461436,4202.564,4276.922972,4202.051179,4151.79477,4041.025542
0,0,4094.871695,4133.333232,4178.461436,4599.999888,4298.974254,4309.743484,4257.435793,4229.743486,4194.871692,4190.256308,4278.461434,4194.358872,4147.692206,4044.615286
1,0,4101.538361,4141.53836,4181.025539,4606.666554,4294.358869,4305.64092,4260.512716,4232.307589,4198.461436,4198.461436,4298.974254,4198.461436,4162.564001,4049.23067
2,0,4101.538361,4145.640924,4184.615282,4606.666554,4293.846049,4308.205023,4259.999896,4233.84605,4204.615282,4223.07682,4305.1281,4211.281948,4171.281949,4050.256311
3,0,4103.076823,4154.871693,4193.846051,4598.461426,4291.794767,4305.1281,4259.999896,4232.307589,4203.589641,4234.871691,4299.999895,4217.948615,4176.410154,4058.97426
4,0,4111.281951,4162.564001,4200.512718,4608.205016,4292.820408,4303.076818,4262.051178,4232.307589,4200.512718,4230.769127,4294.358869,4222.051179,4185.640923,4073.333234
5,0,4105.640925,4158.974257,4197.948615,4616.410144,4297.435792,4299.487074,4262.051178,4234.358871,4200.512718,4222.563999,4295.897331,4222.051179,4184.102462,4081.538362
6,0,4085.640926,4151.79477,4188.205026,4595.384503,4291.794767,4293.333228,4262.051178,4233.33323,4199.999897,4218.461435,4292.820408,4214.871692,4170.256308,4070.256311
7,0,4079.9999,4151.28195,4185.640923,4577.948606,4283.589639,4291.281946,4259.487075,4231.281948,4199.487077,4216.410153,4284.61528,4210.256307,4169.743488,4053.333234
8,0,4086.666567,4157.948616,4192.82041,4584.615273,4296.922972,4291.281946,4257.435793,4232.820409,4201.025538,4216.410153,4292.820408,4211.794769,4184.102462,4062.051183
9,0,4093.333233,4163.589642,4199.999897,4593.846042,4313.846048,4293.333228,4257.948614,4229.743486,4201.538359,4220.512717,4305.64092,4215.897333,4190.769128,4082.051182
10,0,4091.794772,4164.615283,4199.999897,4594.358862,4308.717843,4297.435792,4260.512716,4224.102461,4202.051179,4228.205025,4295.38451,4218.461435,4187.179385,4088.205028
11,0,4081.025541,4166.666565,4196.410154,4582.05117,4293.846049,4293.846049,4256.410152,4226.153743,4201.025538,4213.846051,4288.205023,4215.384512,4184.615282,4086.666567
12,0,4073.333234,4171.281949,4199.487077,4570.769119,4292.820408,4282.563998,4253.333229,4227.692204,4198.974256,4196.410154,4300.512715,4219.487076,4191.794769,4089.230669
13,0,4071.281952,4174.358872,4202.051179,4570.769119,4296.410151,4278.974254,4255.897332,4221.538358,4202.564,4217.435794,4295.897331,4226.666563,4201.538359,4086.666567
14,0,4057.948619,4171.281949,4192.30759,4567.179375,4290.256305,4278.974254,4254.35887,4216.922974,4204.615282,4231.281948,4282.051177,4216.410153,4194.871692,4077.948618
15,0,4030.256312,4166.153744,4181.538359,4554.871683,4294.358869,4278.461434,4253.333229,4214.871692,4198.461436,4212.82041,4282.051177,4201.025538,4181.538359,4075.897336
16,0,4011.281953,4166.666565,4183.589641,4551.28194,4306.666561,4284.102459,4258.974255,4217.435794,4204.102461,4215.897333,4284.61528,4205.640923,4185.640923,4083.589644
17,0,4006.153748,4172.30759,4190.256308,4557.948606,4301.538356,4289.230664,4264.10246,4229.230666,4215.384512,4241.538358,4285.640921,4218.461435,4201.538359,4095.897336
18,0,3985.640928,4177.435795,4192.30759,4553.846042,4294.87169,4286.666562,4265.640921,4234.871691,4209.230666,4234.358871,4291.794767,4221.538358,4205.640923,4096.922977
19,0,3945.128109,4177.435795,4193.333231,4544.102453,4292.307587,4276.922972,4262.563998,4226.153743,4197.948615,4208.717846,4291.794767,4216.410153,4201.538359,4090.769131
20,0,3917.948622,4167.692206,4192.82041,4532.820402,4278.974254,4267.179383,4253.84605,4219.487076,4198.461436,4211.794769,4283.589639,4210.256307,4201.025538,4090.25631
21,0,3918.974263,4161.025539,4185.640923,4523.589633,4282.051177,4267.692203,4255.384511,4225.640922,4202.051179,4227.179384,4279.487075,4208.205025,4201.025538,4088.717849
22,0,3919.999904,4165.640924,4179.999898,4523.076812,4295.38451,4272.820408,4262.051178,4231.794768,4202.564,4233.84605,4276.922972,4207.692205,4199.999897,4088.205028
23,0,3912.820417,4170.769129,4179.487077,4519.487069,4286.666562,4271.281947,4253.84605,4227.179384,4205.128102,4230.256307,4278.461434,4202.051179,4204.102461,4090.769131
24,0,3914.358879,4163.076821,4179.487077,4505.640915,4279.487075,4265.640921,4245.128101,4211.794769,4202.564,4219.999897,4277.948613,4198.974256,4205.640923,4090.25631
25,0,3915.89734,4151.79477,4173.846052,4490.769121,4286.153741,4262.563998,4245.640922,4197.948615,4189.743487,4211.794769,4273.333229,4200.512718,4196.410154,4084.102464
26,0,3916.922981,4154.871693,4172.820411,4489.74348,4280.512716,4261.025537,4247.692204,4196.922974,4183.589641,4208.717846,4276.922972,4203.07682,4195.384513,4084.615285
27,0,3920.512725,4164.615283,4174.358872,4492.307582,4274.87169,4262.051178,4248.205024,4203.589641,4192.82041,4217.435794,4271.794767,4206.153743,4205.128102,4089.230669
28,0,3922.051186,4157.948616,4172.30759,4483.589634,4281.025536,4257.435793,4245.640922,4201.025538,4201.538359,4232.820409,4256.922973,4208.205025,4203.589641,4090.769131
29,0,3931.281955,4154.358873,4174.871693,4477.435788,4282.051177,4250.256306,4243.076819,4196.922974,4198.974256,4244.615281,4268.205024,4211.794769,4202.051179,4098.974259
30,0,3950.256314,4169.230667,4186.666564,4479.48707,4276.922972,4252.820409,4245.640922,4206.153743,4198.974256,4246.666563,4292.307587,4219.487076,4213.846051,4112.307592
31,0,3956.41016,4174.871693,4189.743487,4475.897326,4272.820408,4253.333229,4246.666563,4206.666564,4202.051179,4237.948614,4287.692203,4220.512717,4217.948615,4110.76913
32,0,3949.743493,4169.230667,4185.640923,4469.23066,4279.487075,4249.743486,4246.153742,4199.999897,4200.512718,4231.281948,4275.897331,4218.974256,4212.307589,4102.564002
33,0,3948.205032,4166.666565,4187.692205,4468.717839,4281.538357,4249.230665,4248.717845,4206.666564,4198.461436,4230.256307,4273.333229,4220.512717,4210.256307,4110.25631
34,0,3943.589647,4158.461437,4183.589641,4450.256301,4268.717844,4247.692204,4251.281947,4211.794769,4199.487077,4223.58964,4259.999896,4212.82041,4202.564,4110.25631
35,0,3937.435801,4153.333232,4174.871693,4432.820404,4264.61528,4244.10246,4249.230665,4209.743487,4198.974256,4221.538358,4257.435793,4203.589641,4197.435795,4095.897336
36,0,3940.512724,4161.025539,4172.30759,4438.97425,4272.307588,4244.615281,4247.179383,4213.33323,4198.974256,4239.487076,4273.846049,4208.717846,4208.205025,4102.564002
37,0,3952.307596,4167.692206,4173.846052,4438.97425,4275.897331,4247.692204,4252.820409,4221.025538,4208.717846,4252.820409,4283.589639,4219.487076,4217.948615,4126.153745
38,0,3964.615288,4166.666565,4174.358872,4426.666558,4272.307588,4251.281947,4264.10246,4223.58964,4214.871692,4250.769127,4280.512716,4222.051179,4225.128102,4124.615284
39,0,3971.794775,4164.615283,4181.025539,4428.20502,4268.205024,4253.333229,4261.025537,4214.358871,4206.666564,4257.435793,4279.487075,4223.58964,4233.33323,4114.358874
40,0,3972.307595,4165.128103,4182.564,4431.281943,4264.10246,4244.615281,4248.717845,4203.07682,4197.948615,4256.922973,4275.384511,4221.538358,4227.692204,4125.640925
41,0,3979.487082,4166.666565,4175.384513,4414.358866,4265.128101,4238.461435,4248.717845,4205.128102,4198.461436,4232.820409,4266.153742,4219.487076,4217.435794,4134.358873
42,0,3993.846056,4164.615283,4172.820411,4402.563995,4263.589639,4243.58964,4253.84605,4214.871692,4199.999897,4227.692204,4268.205024,4223.58964,4224.102461,4131.28195
43,0,4007.69221,4173.846052,4179.999898,4407.6922,4264.10246,4249.230665,4249.743486,4213.846051,4202.051179,4248.205024,4279.487075,4228.205025,4234.871691,4131.28195
44,0,4016.922979,4187.179385,4183.076821,4416.410148,4273.846049,4248.717845,4247.692204,4214.871692,4207.179384,4248.717845,4283.076818,4229.743486,4235.897332,4134.358873
45,0,4026.666568,4185.640923,4184.102462,4413.333225,4273.333229,4243.58964,4248.205024,4218.461435,4204.615282,4243.58964,4278.461434,4230.256307,4236.410153,4136.922976
46,0,4031.794773,4177.435795,4180.512718,4395.384508,4261.538357,4232.820409,4236.922973,4207.692205,4200.512718,4257.948614,4269.230665,4223.07682,4232.820409,4139.487078
47,0,4026.666568,4168.717847,4172.820411,4383.076816,4257.948614,4226.666563,4227.692204,4197.948615,4198.974256,4255.897332,4252.820409,4208.717846,4218.461435,4134.358873
48,0,4019.999902,4154.871693,4165.128103,4375.384508,4261.538357,4230.256307,4238.974255,4198.461436,4194.358872,4225.640922,4242.051178,4201.025538,4206.153743,4124.615284
49,0,4025.128107,4147.179386,4157.948616,4351.794765,4262.051178,4228.717845,4246.666563,4191.281949,4187.179385,4215.384512,4247.179383,4198.974256,4203.589641,4116.922976
50,0,4028.20503,4150.769129,4150.256309,4330.769125,4261.025537,4227.179384,4240.512717,4180.512718,4184.102462,4221.538358,4246.153742,4194.358872,4202.051179,4103.589643
51,0,4024.102466,4150.256309,4152.307591,4332.820407,4254.871691,4230.256307,4239.999896,4188.205026,4191.281949,4211.794769,4241.538358,4195.384513,4201.538359,4098.974259
52,0,4040.512722,4149.743488,4165.640924,4345.128099,4245.128101,4230.256307,4246.666563,4203.589641,4198.974256,4223.58964,4255.384511,4205.128102,4212.307589,4123.076822
53,0,4073.333234,4162.05118,4174.871693,4358.461432,4250.256306,4233.33323,4253.333229,4206.153743,4202.564,4250.256306,4268.205024,4214.358871,4226.666563,4152.307591
54,0,4081.538362,4167.692206,4173.846052,4359.487073,4243.076819,4234.358871,4248.205024,4198.461436,4201.538359,4232.307589,4256.922973,4215.384512,4229.743486,4149.743488
55,0,4070.256311,4159.999898,4171.281949,4335.89733,4232.820409,4228.205025,4236.410153,4188.205026,4197.948615,4213.33323,4249.743486,4212.82041,4227.179384,4134.871694
56,0,4078.461439,4162.564001,4175.384513,4321.025535,4260.512716,4229.743486,4234.358871,4184.615282,4196.922974,4248.717845,4270.769126,4217.948615,4233.33323,4144.102463
57,0,4090.25631,4179.999898,4176.922975,4329.230663,4287.179382,4235.897332,4235.897332,4184.615282,4202.051179,4280.512716,4286.153741,4223.58964,4244.10246,4158.461437
58,0,4092.307592,4184.102462,4175.897334,4333.333227,4266.153742,4226.666563,4233.33323,4182.05118,4206.153743,4262.563998,4281.538357,4219.487076,4248.717845,4158.974257
59,0,4101.025541,4173.846052,4178.974257,4328.205022,4246.666563,4215.897333,4237.435794,4184.102462,4203.589641,4246.153742,4280.512716,4213.846051,4248.205024,4156.922975
60,0,4109.743489,4170.769129,4179.999898,4317.435792,4251.794768,4218.461435,4243.076819,4189.743487,4202.564,4259.487075,4282.563998,4216.922974,4246.153742,4156.410155
61,0,4102.051182,4169.230667,4175.897334,4297.948613,4247.692204,4219.999897,4238.461435,4185.640923,4202.564,4265.640921,4274.87169,4219.999897,4245.640922,4155.897334
62,0,4103.589643,4167.692206,4181.025539,4292.820408,4249.743486,4217.948615,4241.025537,4184.102462,4201.025538,4243.58964,4277.435793,4223.58964,4248.205024,4170.256308
63,0,4110.76913,4166.666565,4180.512718,4294.87169,4258.974255,4215.897333,4250.256306,4184.615282,4198.974256,4222.051179,4283.076818,4221.538358,4242.563999,4176.922975
64,0,4106.666566,4162.564001,4169.230667,4283.589639,4250.769127,4213.33323,4244.615281,4172.820411,4196.410154,4228.205025,4269.743485,4211.281948,4230.256307,4157.948616
65,0,4105.640925,4162.05118,4167.692206,4274.87169,4244.10246,4215.384512,4240.512717,4169.743488,4197.435795,4245.128101,4260.512716,4201.538359,4230.256307,4152.820411
66,0,4117.948617,4166.153744,4172.820411,4275.384511,4249.743486,4219.999897,4248.205024,4180.512718,4201.025538,4250.256306,4275.897331,4201.538359,4238.974255,4165.128103
67,0,4121.538361,4162.564001,4170.256308,4270.769126,4250.256306,4219.487076,4252.820409,4178.974257,4201.025538,4245.640922,4282.563998,4204.102461,4235.897332,4162.05118
68,0,4115.384515,4152.820411,4166.153744,4255.384511,4241.025537,4212.307589,4243.58964,4168.205026,4196.410154,4233.33323,4262.051178,4193.333231,4224.615281,4149.743488
69,0,4121.02554,4160.512719,4170.769129,4250.769127,4244.10246,4210.769128,4236.922973,4171.79477,4196.410154,4231.281948,4257.435793,4185.640923,4227.692204,4153.846052
70,0,4140.512719,4182.564,4183.076821,4263.589639,4263.076819,4225.640922,4246.153742,4185.128103,4208.717846,4257.435793,4286.153741,4204.102461,4250.769127,4176.922975
71,0,4157.435796,4193.333231,4193.333231,4267.692203,4267.179383,4234.358871,4255.384511,4192.30759,4214.871692,4265.640921,4303.076818,4224.615281,4269.230665,4194.358872
72,0,4152.820411,4183.076821,4184.615282,4253.84605,4247.179383,4214.358871,4245.128101,4183.076821,4204.102461,4229.230666,4284.61528,4215.384512,4255.384511,4187.692205
73,0,4142.051181,4169.230667,4171.79477,4244.10246,4247.179383,4204.102461,4233.33323,4169.743488,4196.922974,4214.871692,4265.640921,4201.025538,4233.33323,4172.30759
74,0,4136.410155,4164.615283,4168.717847,4241.538358,4253.333229,4214.871692,4240.512717,4168.205026,4200.512718,4245.128101,4263.076819,4198.461436,4237.435794,4167.692206
75,0,4135.897335,4167.179385,4169.230667,4226.153743,4234.871691,4211.794769,4248.717845,4175.384513,4201.025538,4254.35887,4263.076819,4195.897333,4247.692204,4165.640924
76,0,4146.666565,4175.384513,4171.281949,4215.384512,4231.794768,4201.538359,4248.205024,4184.102462,4201.538359,4238.974255,4268.717844,4200.512718,4245.640922,4176.410154
77,0,4162.05118,4186.666564,4179.999898,4221.538358,4247.179383,4203.07682,4247.179383,4182.564,4206.153743,4244.10246,4274.87169,4211.794769,4246.153742,4191.281949
78,0,4164.615283,4187.179385,4183.076821,4222.051179,4250.769127,4202.564,4238.461435,4172.820411,4204.615282,4252.820409,4271.794767,4210.256307,4246.666563,4185.640923
79,0,4164.102462,4175.384513,4181.538359,4211.281948,4258.974255,4203.07682,4231.281948,4175.384513,4202.564,4247.692204,4267.692203,4207.179384,4245.640922,4190.769128
80,0,4172.820411,4174.358872,4184.102462,4204.102461,4261.025537,4205.640923,4241.538358,4185.128103,4204.102461,4237.435794,4262.563998,4210.769128,4250.769127,4203.07682
81,0,4177.435795,4180.512718,4188.205026,4201.025538,4233.84605,4201.025538,4250.769127,4186.153744,4203.07682,4217.948615,4252.820409,4206.666564,4248.205024,4187.179385
82,0,4171.79477,4177.435795,4184.615282,4193.846051,4215.897333,4198.461436,4245.128101,4180.512718,4201.538359,4221.538358,4246.666563,4202.051179,4241.025537,4176.410154
83,0,4168.717847,4174.871693,4179.999898,4183.076821,4226.153743,4197.948615,4236.922973,4174.871693,4199.999897,4245.640922,4246.666563,4205.640923,4244.615281,4193.846051
84,0,4175.384513,4180.512718,4181.025539,4178.974257,4237.948614,4189.743487,4229.743486,4176.410154,4200.512718,4251.281947,4249.230665,4201.538359,4251.794768,4203.07682
85,0,4189.230667,4185.640923,4186.666564,4185.640923,4242.051178,4185.128103,4225.128102,4184.615282,4208.717846,4249.230665,4254.871691,4196.922974,4257.948614,4199.487077
86,0,4198.461436,4190.256308,4189.230667,4186.666564,4233.33323,4182.564,4225.640922,4184.615282,4211.281948,4249.743486,4259.999896,4203.07682,4265.640921,4199.999897
87,0,4198.461436,4197.948615,4189.743487,4171.281949,4229.743486,4183.589641,4229.743486,4182.05118,4203.589641,4236.922973,4256.410152,4210.769128,4271.281947,4205.640923
88,0,4199.487077,4201.025538,4190.256308,4167.179385,4240.512717,4193.846051,4233.84605,4185.128103,4202.051179,4229.743486,4243.076819,4206.666564,4262.563998,4214.871692
89,0,4204.102461,4197.948615,4188.717846,4175.384513,4247.692204,4205.640923,4233.33323,4175.897334,4203.589641,4236.922973,4230.256307,4195.384513,4250.256306,4212.307589
90,0,4199.999897,4188.205026,4185.128103,4165.640924,4241.538358,4201.538359,4229.230666,4164.102462,4198.974256,4221.538358,4231.281948,4189.743487,4245.128101,4198.974256
91,0,4190.769128,4179.487077,4181.538359,4148.205027,4230.769127,4187.179385,4227.179384,4170.769129,4197.948615,4207.692205,4237.948614,4190.769128,4245.128101,4194.871692
92,0,4203.589641,4191.794769,4188.205026,4152.820411,4231.794768,4189.743487,4230.769127,4184.102462,4205.640923,4230.256307,4244.10246,4191.794769,4259.487075,4201.025538
93,0,4223.07682,4209.743487,4191.794769,4158.461437,4248.205024,4202.564,4234.871691,4187.179385,4209.743487,4247.179383,4251.794768,4193.333231,4276.922972,4210.769128
94,0,4221.538358,4210.256307,4189.230667,4149.230668,4252.307588,4196.410154,4234.358871,4185.128103,4207.179384,4243.076819,4245.128101,4200.512718,4271.794767,4219.487076
95,0,4212.82041,4196.410154,4192.30759,4147.692206,4230.256307,4182.564,4231.794768,4184.615282,4203.07682,4248.205024,4227.692204,4199.999897,4257.435793,4217.435794
96,0,4217.948615,4195.897333,4198.461436,4151.28195,4222.563999,4186.666564,4228.205025,4184.102462,4204.102461,4255.384511,4232.307589,4193.333231,4262.051178,4215.897333
97,0,4221.538358,4209.230666,4198.974256,4146.666565,4234.358871,4190.256308,4225.128102,4185.128103,4203.589641,4245.128101,4246.666563,4196.410154,4267.692203,4215.384512
98,0,4222.051179,4211.281948,4198.461436,4138.974258,4234.871691,4183.589641,4222.051179,4186.666564,4202.564,4239.487076,4243.076819,4199.487077,4263.589639,4208.205025
99,0,4221.025538,4206.153743,4191.794769,4128.205027,4229.230666,4181.538359,4218.461435,4186.666564,4208.717846,4251.794768,4232.307589,4192.30759,4264.61528,4209.743487
100,0,4217.948615,4203.07682,4182.05118,4116.922976,4232.820409,4182.564,4214.358871,4181.538359,4208.717846,4237.435794,4222.051179,4186.153744,4263.589639,4215.384512
101,0,4225.128102,4202.051179,4184.615282,4121.02554,4238.974255,4183.076821,4219.487076,4178.461436,4201.538359,4216.410153,4214.871692,4189.743487,4264.61528,4219.487076
102,0,4238.461435,4210.256307,4196.922974,4126.666566,4230.769127,4184.102462,4228.205025,4178.974257,4204.102461,4232.307589,4226.666563,4196.410154,4275.384511,4230.256307
103,0,4234.358871,4219.487076,4200.512718,4114.871694,4222.051179,4182.05118,4226.666563,4178.461436,4204.102461,4253.84605,4243.076819,4195.384513,4279.487075,4235.384512
104,0,4233.33323,4214.358871,4199.999897,4113.846053,4231.794768,4182.564,4225.128102,4180.512718,4201.025538,4251.794768,4242.563999,4196.410154,4277.435793,4233.33323
105,0,4244.615281,4203.589641,4201.025538,4121.02554,4236.922973,4185.640923,4229.743486,4186.153744,4208.717846,4245.640922,4232.820409,4204.102461,4282.051177,4235.384512
106,0,4237.435794,4198.461436,4196.410154,4107.179387,4225.128102,4182.05118,4228.717845,4187.692205,4212.82041,4246.153742,4221.025538,4198.461436,4278.461434,4232.307589
107,0,4216.922974,4194.358872,4184.615282,4084.102464,4215.384512,4178.461436,4224.102461,4190.769128,4209.743487,4249.743486,4213.33323,4179.999898,4263.589639,4222.563999
108,0,4217.435794,4196.922974,4183.076821,4081.025541,4216.410153,4181.025539,4225.640922,4195.897333,4213.33323,4253.333229,4218.461435,4174.871693,4263.076819,4225.128102
109,0,4231.281948,4203.07682,4197.435795,4094.358874,4228.717845,4185.128103,4222.563999,4195.897333,4214.358871,4250.769127,4226.666563,4183.076821,4276.410152,4233.33323
110,0,4231.794768,4202.564,4194.358872,4089.74349,4234.358871,4181.025539,4215.384512,4184.102462,4204.615282,4237.948614,4217.435794,4181.025539,4275.384511,4230.769127
111,0,4228.717845,4199.999897,4185.128103,4068.205029,4217.435794,4170.256308,4214.358871,4168.717847,4197.948615,4221.025538,4205.128102,4175.384513,4264.61528,4229.743486
112,0,4233.33323,4201.538359,4196.922974,4065.128106,4206.666564,4167.179385,4216.922974,4176.410154,4201.025538,4223.07682,4210.769128,4181.025539,4269.230665,4238.974255
113,0,4233.84605,4202.051179,4192.82041,4076.410157,4212.82041,4169.743488,4217.435794,4196.410154,4206.153743,4245.640922,4222.051179,4190.256308,4274.87169,4245.128101
114,0,4223.58964,4201.025538,4153.333232,4072.307593,4219.999897,4171.79477,4216.922974,4193.333231,4205.640923,4257.435793,4212.307589,4186.153744,4269.743485,4235.897332
115,0,4220.512717,4197.435795,4128.205027,4058.97426,4225.640922,4171.281949,4214.871692,4182.05118,4202.564,4246.666563,4203.07682,4173.333231,4267.179383,4221.538358
116,0,4217.948615,4186.666564,4132.307591,4045.640927,4212.82041,4167.692206,4215.384512,4184.102462,4201.025538,4232.820409,4205.640923,4165.128103,4267.179383,4216.410153
117,0,4213.846051,4179.999898,4140.512719,4037.948619,4195.897333,4169.230667,4224.102461,4192.82041,4203.07682,4233.33323,4209.230666,4168.717847,4262.563998,4222.563999
118,0,4220.512717,4189.230667,4147.179386,4047.179388,4210.256307,4178.974257,4235.384512,4199.999897,4206.666564,4249.230665,4217.948615,4183.589641,4263.589639,4239.487076
119,0,4230.769127,4199.487077,4151.28195,4056.410157,4226.666563,4177.948616,4231.794768,4198.461436,4205.128102,4245.640922,4223.07682,4188.717846,4272.307588,4250.769127
120,0,4230.256307,4196.410154,4147.179386,4047.179388,4216.410153,4168.717847,4218.974256,4188.717846,4199.999897,4230.256307,4216.410153,4178.461436,4276.922972,4244.10246
121,0,4224.102461,4188.717846,4145.640924,4033.846055,4213.33323,4168.205026,4213.33323,4184.615282,4199.999897,4237.948614,4204.102461,4175.384513,4269.743485,4232.307589
122,0,4221.025538,4192.82041,4149.743488,4033.846055,4224.615281,4170.256308,4213.33323,4184.615282,4203.07682,4236.922973,4204.615282,4184.102462,4262.563998,4231.281948
123,0,4225.640922,4197.948615,4152.307591,4035.897337,4210.769128,4168.205026,4215.384512,4182.564,4201.025538,4222.563999,4212.307589,4184.102462,4266.666562,4244.615281
124,0,4228.717845,4189.743487,4149.230668,4026.666568,4195.384513,4166.666565,4217.435794,4182.564,4197.948615,4233.84605,4212.307589,4171.79477,4265.640921,4251.281947
125,0,4228.717845,4186.153744,4147.692206,4020.512722,4213.846051,4168.717847,4216.922974,4188.205026,4199.487077,4253.84605,4208.717846,4174.358872,4259.487075,4245.128101
126,0,4236.922973,4202.564,4155.897334,4027.179389,4228.717845,4170.256308,4219.999897,4199.999897,4203.589641,4257.435793,4215.897333,4188.205026,4272.307588,4248.717845
127,0,4241.538358,4208.205025,4156.922975,4028.71785,4215.897333,4167.692206,4222.563999,4203.589641,4205.640923,4256.410152,4218.974256,4185.128103,4285.1281,4257.435793
128,0,4234.358871,4198.974256,4152.307591,4018.974261,4208.717846,4166.666565,4221.538358,4201.025538,4205.128102,4264.10246,4201.538359,4180.512718,4277.948613,4252.820409
0,0,4231.281948,4199.487077,4159.999898,4009.743492,4208.717846,4172.30759,4222.051179,4206.666564,4205.128102,4255.384511,4203.07682,4194.871692,4275.897331,4255.384511
1,0,4235.897332,4199.487077,4168.205026,4007.179389,4198.461436,4173.846052,4223.07682,4202.564,4203.07682,4231.794768,4218.974256,4199.999897,4279.487075,4271.281947
2,0,4234.871691,4186.666564,4158.974257,4001.538364,4201.538359,4167.692206,4216.410153,4185.640923,4202.051179,4230.769127,4207.179384,4183.589641,4268.205024,4265.128101
3,0,4234.358871,4183.076821,4150.769129,3995.897338,4214.871692,4163.589642,4205.128102,4181.025539,4202.564,4243.58964,4193.846051,4172.30759,4259.999896,4249.230665
4,0,4238.461435,4196.410154,4158.974257,3994.358877,4212.82041,4162.05118,4204.615282,4183.589641,4198.974256,4234.358871,4198.974256,4176.410154,4263.589639,4254.871691
5,0,4245.128101,4202.051179,4169.230667,3993.333236,4206.153743,4160.512719,4214.358871,4184.102462,4197.435795,4226.666563,4195.897333,4188.205026,4263.076819,4265.128101
6,0,4239.999896,4194.871692,4164.102462,3987.69221,4196.410154,4159.487078,4216.922974,4190.769128,4201.025538,4247.692204,4187.692205,4186.666564,4264.10246,4266.666562
7,0,4237.435794,4195.897333,4161.025539,3988.717851,4196.410154,4165.128103,4214.871692,4200.512718,4203.589641,4267.692203,4198.974256,4173.333231,4276.922972,4275.897331
8,0,4251.794768,4204.615282,4168.717847,3989.230672,4212.82041,4170.769129,4215.897333,4201.538359,4209.743487,4255.897332,4210.256307,4174.871693,4284.102459,4285.1281
9,0,4264.61528,4213.33323,4177.435795,3985.128108,4217.948615,4167.692206,4215.897333,4201.025538,4214.358871,4230.256307,4213.33323,4189.743487,4278.974254,4282.563998
10,0,4262.051178,4218.974256,4177.948616,3995.897338,4212.82041,4167.692206,4214.358871,4203.589641,4212.307589,4238.461435,4215.384512,4190.256308,4282.563998,4279.487075
11,0,4255.897332,4212.82041,4173.333231,3997.4358,4215.897333,4171.79477,4214.358871,4200.512718,4210.769128,4262.051178,4204.615282,4178.974257,4284.102459,4275.384511
12,0,4248.205024,4201.538359,4166.153744,3978.461441,4215.384512,4168.205026,4212.82041,4200.512718,4214.871692,4255.897332,4194.871692,4176.410154,4271.281947,4269.230665
13,0,4244.615281,4200.512718,4164.615283,3964.102467,4209.230666,4166.666565,4214.358871,4203.589641,4214.871692,4244.615281,4199.487077,4181.538359,4266.153742,4277.435793
14,0,4244.10246,4194.358872,4167.179385,3953.333237,4202.564,4168.205026,4212.82041,4192.30759,4205.128102,4237.435794,4195.384513,4176.410154,4264.10246,4282.051177
15,0,4239.487076,4184.615282,4164.102462,3946.66657,4198.461436,4164.615283,4205.640923,4179.999898,4194.871692,4210.769128,4181.025539,4163.589642,4250.256306,4266.153742
16,0,4245.128101,4191.281949,4167.179385,3954.358878,4208.205025,4166.666565,4208.717846,4194.871692,4201.025538,4209.743487,4182.05118,4169.230667,4246.666563,4261.025537
17,0,4257.435793,4201.538359,4178.974257,3961.538365,4214.871692,4167.179385,4217.948615,4214.871692,4215.384512,4243.58964,4192.30759,4182.564,4261.025537,4274.35887
18,0,4255.384511,4197.948615,4182.564,3959.487083,4194.358872,4156.922975,4216.922974,4209.743487,4216.410153,4251.794768,4189.743487,4180.512718,4269.230665,4278.974254
19,0,4250.769127,4198.974256,4182.564,3961.538365,4178.461436,4156.410155,4212.307589,4195.897333,4211.281948,4243.076819,4189.743487,4181.025539,4271.794767,4280.512716
20,0,4259.999896,4203.07682,4193.333231,3951.794775,4193.333231,4169.743488,4211.794769,4192.82041,4211.281948,4240.512717,4201.538359,4194.871692,4277.948613,4295.38451
21,0,4265.128101,4201.025538,4196.922974,3943.076827,4203.589641,4170.256308,4208.205025,4196.410154,4211.281948,4235.384512,4202.051179,4198.461436,4278.974254,4305.1281
22,0,4265.640921,4210.769128,4194.358872,3950.256314,4202.564,4166.666565,4214.358871,4206.153743,4212.307589,4242.563999,4198.461436,4192.82041,4279.487075,4303.589638
23,0,4269.230665,4218.974256,4198.974256,3950.256314,4205.640923,4171.79477,4226.153743,4217.948615,4216.922974,4247.179383,4205.128102,4197.435795,4279.999895,4299.999895
24,0,4268.205024,4207.692205,4205.128102,3946.66657,4199.487077,4167.179385,4224.615281,4221.025538,4218.461435,4237.948614,4213.846051,4205.640923,4277.435793,4302.051177
25,0,4257.435793,4199.999897,4199.487077,3948.717852,4187.179385,4156.410155,4215.897333,4214.358871,4218.974256,4245.128101,4206.153743,4204.102461,4278.461434,4315.38451
26,0,4249.743486,4205.128102,4189.230667,3944.102468,4189.230667,4154.871693,4211.794769,4204.102461,4216.922974,4252.307588,4191.281949,4191.281949,4275.384511,4313.846048
27,0,4250.256306,4202.564,4184.102462,3933.333237,4202.564,4157.948616,4209.743487,4203.589641,4211.794769,4239.487076,4191.794769,4180.512718,4270.769126,4295.38451
28,0,4256.410152,4194.871692,4189.743487,3940.512724,4202.051179,4165.128103,4212.307589,4211.794769,4214.358871,4243.076819,4197.948615,4181.025539,4274.35887,4297.948613
29,0,4258.974255,4204.615282,4195.897333,3946.15375,4193.333231,4170.769129,4215.897333,4217.435794,4219.487076,4252.820409,4188.717846,4182.05118,4276.410152,4309.230664
30,0,4262.051178,4216.410153,4197.948615,3932.820417,4196.922974,4167.692206,4210.769128,4216.410153,4217.948615,4242.051178,4182.05118,4183.076821,4273.846049,4309.230664
31,0,4264.61528,4210.256307,4199.999897,3922.051186,4205.640923,4167.179385,4209.743487,4212.307589,4214.871692,4237.948614,4193.846051,4187.179385,4274.35887,4313.333228
32,0,4257.435793,4196.922974,4200.512718,3923.589648,4198.974256,4167.179385,4212.82041,4206.153743,4213.846051,4235.897332,4191.281949,4186.153744,4268.717844,4314.871689
33,0,4245.128101,4193.846051,4193.846051,3929.743494,4175.897334,4157.435796,4206.666564,4198.974256,4210.769128,4219.487076,4179.487077,4175.897334,4258.974255,4307.692202
34,0,4245.128101,4199.999897,4188.717846,3924.615289,4174.358872,4153.846052,4205.128102,4201.538359,4209.230666,4211.794769,4181.025539,4170.256308,4258.974255,4301.538356
35,0,4252.307588,4197.948615,4193.846051,3916.410161,4191.794769,4160.512719,4207.179384,4207.692205,4212.307589,4217.948615,4178.461436,4174.871693,4260.512716,4296.410151
36,0,4250.256306,4190.769128,4198.461436,3909.230674,4181.538359,4156.410155,4202.051179,4206.666564,4214.358871,4223.58964,4174.871693,4177.435795,4259.999896,4299.999895
37,0,4247.692204,4195.384513,4197.435795,3905.64093,4169.743488,4152.820411,4196.922974,4206.666564,4215.897333,4232.820409,4185.640923,4177.435795,4263.076819,4312.307587
38,0,4257.435793,4210.256307,4201.025538,3916.922981,4195.384513,4164.102462,4202.051179,4215.897333,4219.487076,4244.10246,4198.974256,4184.615282,4272.307588,4316.922971
39,0,4269.743485,4220.512717,4212.307589,3926.666571,4212.82041,4174.358872,4203.589641,4221.025538,4224.102461,4255.897332,4199.487077,4195.384513,4282.563998,4321.025535
40,0,4261.538357,4215.384512,4209.230666,3917.435802,4191.794769,4166.153744,4199.487077,4207.179384,4217.435794,4249.743486,4188.717846,4190.256308,4276.410152,4326.666561
41,0,4249.230665,4201.025538,4199.487077,3906.666571,4178.461436,4155.897334,4198.974256,4196.922974,4204.615282,4226.666563,4171.281949,4177.948616,4262.051178,4314.871689
42,0,4252.820409,4195.384513,4197.948615,3907.692212,4186.153744,4157.435796,4199.487077,4205.640923,4207.179384,4219.487076,4164.102462,4177.435795,4257.435793,4296.410151
43,0,4262.563998,4207.179384,4203.589641,3908.205033,4190.256308,4162.05118,4201.538359,4215.897333,4218.974256,4228.717845,4176.922975,4184.615282,4258.974255,4301.025536
44,0,4268.717844,4220.512717,4210.769128,3912.307597,4188.205026,4161.53836,4203.07682,4222.563999,4221.025538,4231.794768,4190.256308,4192.30759,4264.61528,4323.589638
45,0,4275.384511,4216.410153,4221.025538,3921.538366,4189.743487,4156.410155,4201.025538,4219.487076,4216.922974,4229.743486,4183.589641,4197.948615,4268.205024,4336.922971
46,0,4273.846049,4206.153743,4225.128102,3915.38452,4192.30759,4155.897334,4198.974256,4208.205025,4215.897333,4232.820409,4167.692206,4194.358872,4258.461434,4326.666561
47,0,4267.179383,4201.538359,4217.948615,3896.922982,4181.025539,4154.871693,4201.538359,4205.128102,4215.897333,4229.743486,4168.205026,4186.153744,4253.84605,4309.230664
48,0,4267.179383,4198.974256,4212.82041,3890.769136,4171.79477,4155.897334,4206.153743,4212.307589,4215.384512,4227.179384,4172.820411,4181.538359,4262.051178,4309.230664
49,0,4271.281947,4199.487077,4215.897333,3898.461443,4181.538359,4159.999898,4208.717846,4215.384512,4216.922974,4234.871691,4168.205026,4178.461436,4265.640921,4323.589638
50,0,4267.179383,4207.179384,4218.974256,3897.435802,4190.769128,4162.564001,4205.640923,4214.871692,4216.922974,4228.717845,4173.333231,4178.461436,4265.640921,4327.179381
51,0,4256.922973,4202.051179,4210.769128,3883.076828,4186.153744,4155.897334,4201.025538,4211.281948,4215.384512,4211.794769,4174.358872,4177.948616,4261.538357,4315.38451
52,0,4247.179383,4179.999898,4196.922974,3875.384521,4184.615282,4150.256309,4197.435795,4201.538359,4212.307589,4213.846051,4156.922975,4170.769129,4245.128101,4304.615279
53,0,4248.205024,4180.512718,4198.974256,3881.025546,4191.794769,4162.564001,4199.487077,4199.487077,4211.794769,4221.025538,4154.358873,4170.256308,4238.461435,4305.64092
54,0,4260.512716,4202.564,4216.410153,3895.38452,4181.538359,4168.205026,4207.179384,4203.589641,4211.281948,4203.07682,4164.615283,4181.025539,4244.10246,4313.846048
55,0,4272.307588,4207.179384,4227.179384,3903.589648,4167.179385,4156.410155,4211.281948,4202.564,4210.256307,4194.358872,4154.358873,4184.615282,4239.999896,4316.922971
56,0,4277.948613,4198.461436,4228.717845,3888.205033,4186.153744,4152.820411,4206.666564,4207.692205,4211.794769,4217.948615,4150.769129,4178.974257,4243.58964,4322.563997
57,0,4278.461434,4199.487077,4230.769127,3878.461444,4208.205025,4159.999898,4205.640923,4216.410153,4215.384512,4234.358871,4173.846052,4181.025539,4261.025537,4332.820407
58,0,4277.435793,4203.589641,4230.256307,3892.820418,4193.846051,4159.999898,4213.846051,4219.487076,4218.974256,4227.179384,4182.05118,4186.666564,4268.205024,4335.89733
59,0,4270.769126,4202.564,4223.58964,3895.38452,4175.897334,4155.384514,4216.410153,4218.461435,4218.974256,4226.153743,4168.205026,4185.128103,4264.61528,4330.769125
60,0,4269.743485,4199.999897,4225.640922,3887.179392,4178.461436,4156.410155,4211.281948,4218.461435,4217.948615,4238.461435,4169.230667,4185.128103,4270.256306,4331.281945
61,0,4271.281947,4191.794769,4228.205025,3887.692213,4169.230667,4147.692206,4205.128102,4213.846051,4217.948615,4231.281948,4171.79477,4182.564,4264.10246,4325.128099
62,0,4269.743485,4184.615282,4228.205025,3884.102469,4162.564001,4137.948617,4202.051179,4214.358871,4217.948615,4218.974256,4159.999898,4181.538359,4247.179383,4314.358869
63,0,4268.717844,4190.769128,4230.256307,3873.846059,4182.564,4147.179386,4207.179384,4224.615281,4219.487076,4229.743486,4160.512719,4187.179385,4250.769127,4327.692202
64,0,4274.35887,4202.051179,4230.769127,3877.948623,4193.846051,4155.384514,4210.769128,4228.717845,4221.025538,4237.435794,4168.717847,4188.717846,4261.025537,4338.461432
65,0,4270.256306,4193.333231,4220.512717,3880.512726,4174.871693,4144.102463,4203.589641,4218.461435,4217.948615,4218.974256,4155.897334,4177.435795,4251.794768,4326.666561
66,0,4259.999896,4173.846052,4213.846051,3868.717854,4158.974257,4133.846053,4196.410154,4205.640923,4214.358871,4205.128102,4145.128104,4169.743488,4243.58964,4319.487074
67,0,4258.974255,4175.384513,4219.487076,3862.051188,4170.256308,4136.922976,4197.948615,4204.615282,4215.897333,4216.922974,4154.871693,4175.384513,4248.717845,4323.589638
68,0,4266.153742,4186.666564,4227.179384,3864.61529,4171.281949,4136.410155,4196.410154,4202.564,4211.281948,4223.58964,4156.410155,4178.461436,4247.179383,4327.692202
69,0,4276.922972,4188.717846,4233.84605,3868.717854,4157.435796,4136.410155,4193.333231,4199.487077,4206.666564,4204.615282,4153.846052,4182.05118,4247.692204,4335.89733
70,0,4282.563998,4188.205026,4242.051178,3864.10247,4165.640924,4144.102463,4199.487077,4208.205025,4212.82041,4199.999897,4163.076821,4189.743487,4263.589639,4348.717842
71,0,4280.512716,4183.076821,4243.58964,3862.051188,4176.922975,4143.589642,4199.999897,4210.256307,4211.281948,4225.128102,4164.102462,4186.666564,4265.640921,4350.769124
72,0,4269.230665,4173.846052,4233.33323,3865.128111,4167.692206,4138.974258,4191.794769,4199.999897,4199.487077,4224.102461,4149.743488,4172.30759,4244.615281,4336.41015
73,0,4247.692204,4166.666565,4218.461435,3855.897342,4154.358873,4136.922976,4188.205026,4195.384513,4199.487077,4198.974256,4138.974258,4163.076821,4226.666563,4307.179382
74,0,4233.33323,4157.948616,4206.666564,3837.435804,4140.512719,4128.205027,4190.769128,4201.538359,4203.589641,4193.846051,4137.435796,4157.435796,4228.205025,4286.153741
75,0,4243.58964,4154.871693,4212.307589,3834.871701,4143.076822,4130.256309,4197.435795,4209.743487,4203.07682,4198.974256,4141.53836,4158.974257,4241.025537,4299.487074
76,0,4253.84605,4163.589642,4228.205025,3846.153752,4172.820411,4150.256309,4205.128102,4217.948615,4205.640923,4211.281948,4146.666565,4171.79477,4248.205024,4326.666561
77,0,4250.769127,4167.692206,4234.871691,3850.769137,4188.205026,4156.410155,4208.717846,4221.538358,4211.794769,4235.897332,4154.871693,4179.487077,4246.666563,4327.179381
78,0,4246.666563,4167.179385,4227.179384,3849.743496,4174.871693,4143.589642,4208.205025,4218.461435,4209.743487,4235.384512,4157.948616,4177.435795,4245.640922,4308.717843
79,0,4240.512717,4165.128103,4228.205025,3843.076829,4161.53836,4137.948617,4204.615282,4215.384512,4205.128102,4213.33323,4151.79477,4173.846052,4247.179383,4309.743484
80,0,4231.281948,4156.410155,4231.281948,3837.435804,4148.205027,4136.922976,4197.948615,4211.281948,4205.640923,4211.794769,4149.743488,4169.230667,4243.58964,4312.307587
81,0,4230.256307,4149.230668,4225.128102,3842.051188,4146.666565,4134.358873,4195.384513,4204.615282,4205.640923,4216.410153,4151.79477,4164.102462,4235.897332,4297.948613
82,0,4231.794768,4151.79477,4222.051179,3848.717855,4173.846052,4140.512719,4198.461436,4202.564,4201.538359,4213.846051,4146.153745,4162.564001,4233.33323,4302.051177
83,0,4233.33323,4157.435796,4230.769127,3853.333239,4186.666564,4145.128104,4200.512718,4202.564,4201.538359,4215.897333,4145.128104,4165.640924,4238.974255,4324.102458
84,0,4241.025537,4169.230667,4240.512717,3861.538367,4170.769129,4141.53836,4201.025538,4204.102461,4204.102461,4211.794769,4158.974257,4174.358872,4247.692204,4327.692202
85,0,4245.128101,4171.79477,4244.10246,3861.538367,4156.922975,4139.487078,4202.051179,4209.743487,4203.589641,4206.666564,4169.743488,4185.640923,4253.333229,4321.538356
86,0,4233.33323,4156.410155,4235.384512,3846.666573,4150.256309,4141.02554,4202.051179,4214.871692,4201.538359,4213.846051,4159.487078,4178.461436,4248.205024,4319.487074
87,0,4217.435794,4150.769129,4225.128102,3843.076829,4157.435796,4144.615283,4201.025538,4213.33323,4203.07682,4214.871692,4148.205027,4162.05118,4236.410153,4308.205023
88,0,4213.33323,4159.487078,4228.205025,3853.84606,4172.30759,4144.615283,4200.512718,4211.794769,4208.717846,4215.897333,4155.897334,4158.461437,4239.999896,4299.999895
89,0,4216.922974,4155.384514,4233.84605,3848.205034,4167.179385,4140.512719,4201.538359,4214.871692,4214.358871,4230.769127,4165.128103,4163.076821,4249.230665,4311.794766
90,0,4218.974256,4153.333232,4232.820409,3832.820419,4158.461437,4144.615283,4202.051179,4219.487076,4215.384512,4233.84605,4165.640924,4165.128103,4245.128101,4321.538356
91,0,4217.435794,4159.487078,4230.256307,3834.871701,4163.589642,4149.743488,4202.564,4213.846051,4211.794769,4212.82041,4162.05118,4163.076821,4238.461435,4306.666561
92,0,4216.410153,4156.922975,4230.256307,3849.743496,4158.974257,4142.564001,4200.512718,4202.051179,4203.07682,4209.743487,4155.897334,4161.53836,4237.435794,4297.948613
93,0,4216.922974,4159.999898,4235.384512,3854.35888,4155.897334,4142.564001,4196.922974,4202.564,4202.051179,4223.58964,4158.974257,4164.615283,4238.974255,4316.922971
94,0,4217.948615,4169.230667,4247.179383,3850.769137,4168.717847,4150.769129,4200.512718,4217.435794,4211.794769,4216.410153,4168.717847,4175.897334,4246.153742,4332.820407
95,0,4215.384512,4162.05118,4244.615281,3845.128111,4169.230667,4143.076822,4197.948615,4214.358871,4209.743487,4198.461436,4157.435796,4177.948616,4250.256306,4324.102458
96,0,4210.256307,4147.179386,4232.820409,3834.871701,4162.05118,4133.333232,4184.615282,4197.948615,4197.435795,4200.512718,4146.153745,4163.589642,4239.487076,4309.230664
97,0,4206.153743,4148.717847,4235.384512,3841.025547,4174.358872,4143.589642,4188.205026,4203.589641,4199.999897,4224.102461,4161.025539,4158.461437,4237.435794,4309.230664
98,0,4211.794769,4161.53836,4248.205024,3863.589649,4172.30759,4146.666565,4202.564,4214.871692,4203.589641,4237.435794,4176.410154,4172.820411,4246.666563,4328.717843
99,0,4217.948615,4169.743488,4249.230665,3865.640931,4151.28195,4137.948617,4201.025538,4212.82041,4204.102461,4233.84605,4169.230667,4182.564,4251.281947,4346.15374
100,0,4213.33323,4166.153744,4245.128101,3846.666573,4155.897334,4144.102463,4196.922974,4218.974256,4213.33323,4233.84605,4161.025539,4176.410154,4255.384511,4338.974253
101,0,4208.205025,4156.922975,4245.128101,3848.717855,4178.461436,4157.435796,4202.051179,4233.84605,4218.461435,4228.717845,4166.666565,4171.79477,4257.435793,4327.692202
102,0,4211.281948,4154.358873,4246.666563,3862.051188,4183.589641,4157.948616,4202.564,4230.769127,4215.384512,4216.410153,4174.358872,4178.974257,4252.820409,4330.256304
103,0,4208.205025,4158.461437,4245.640922,3852.820419,4174.871693,4151.79477,4200.512718,4216.922974,4212.307589,4222.051179,4171.281949,4182.05118,4244.615281,4330.256304
104,0,4202.051179,4157.948616,4247.692204,3842.564009,4164.102462,4154.358873,4201.025538,4215.384512,4210.256307,4235.384512,4164.102462,4178.974257,4241.025537,4330.769125
105,0,4203.589641,4153.333232,4243.58964,3848.717855,4158.974257,4158.974257,4203.07682,4214.358871,4205.128102,4216.922974,4162.05118,4178.461436,4243.58964,4334.358868
106,0,4205.128102,4154.871693,4239.487076,3851.794778,4165.640924,4156.922975,4208.205025,4212.82041,4204.102461,4196.410154,4157.948616,4180.512718,4246.153742,4334.871689
107,0,4199.487077,4162.05118,4244.10246,3844.615291,4167.179385,4154.358873,4207.179384,4223.07682,4210.256307,4216.410153,4161.53836,4177.948616,4243.58964,4330.256304
108,0,4186.666564,4155.897334,4243.076819,3839.999906,4164.102462,4151.79477,4198.461436,4229.230666,4213.33323,4235.897332,4165.128103,4169.230667,4233.33323,4323.076817
109,0,4179.487077,4144.615283,4233.33323,3846.666573,4174.358872,4147.179386,4197.435795,4221.538358,4207.179384,4224.615281,4154.358873,4161.53836,4232.307589,4318.974253
110,0,4186.153744,4148.717847,4236.410153,3854.871701,4170.769129,4146.153745,4202.564,4215.384512,4202.564,4213.846051,4153.846052,4165.128103,4242.051178,4325.64092
111,0,4195.897333,4156.410155,4253.333229,3852.307598,4149.743488,4150.769129,4201.538359,4216.410153,4202.564,4217.435794,4171.281949,4180.512718,4247.692204,4336.41015
112,0,4199.999897,4158.461437,4256.410152,3846.666573,4156.410155,4151.79477,4198.461436,4217.435794,4201.538359,4219.999897,4171.281949,4188.205026,4246.153742,4339.487073
113,0,4198.461436,4150.256309,4249.743486,3848.717855,4173.333231,4151.79477,4199.999897,4216.410153,4201.025538,4217.435794,4154.871693,4178.974257,4245.640922,4337.948612
114,0,4189.743487,4142.564001,4244.615281,3851.794778,4168.205026,4153.846052,4198.974256,4216.410153,4202.051179,4219.999897,4156.410155,4171.79477,4241.538358,4328.717843
115,0,4189.230667,4154.358873,4250.256306,3852.820419,4159.999898,4150.256309,4192.30759,4216.410153,4202.051179,4214.358871,4163.589642,4182.05118,4234.871691,4326.666561
116,0,4195.384513,4158.461437,4251.794768,3845.640932,4151.28195,4138.461437,4183.589641,4211.794769,4202.564,4197.948615,4153.333232,4183.076821,4234.871691,4331.794766
117,0,4191.794769,4143.076822,4248.205024,3841.025547,4153.333232,4132.820412,4188.205026,4206.153743,4199.487077,4200.512718,4147.179386,4172.30759,4228.717845,4328.717843
118,0,4189.743487,4140.512719,4250.256306,3853.84606,4177.948616,4147.179386,4205.640923,4212.82041,4201.538359,4226.153743,4158.974257,4176.922975,4228.205025,4329.743484
119,0,4198.974256,4151.28195,4252.820409,3862.051188,4181.025539,4157.948616,4212.82041,4223.07682,4210.769128,4235.384512,4167.692206,4181.025539,4245.128101,4340.512714
120,0,4193.333231,4149.230668,4250.769127,3854.35888,4152.820411,4148.717847,4202.051179,4218.974256,4208.717846,4218.974256,4162.05118,4173.333231,4243.58964,4332.820407
121,0,4188.717846,4148.717847,4257.948614,3857.948624,4152.307591,4145.640924,4194.871692,4215.897333,4202.564,4215.384512,4161.025539,4177.948616,4230.256307,4319.487074
122,0,4204.615282,4159.999898,4262.051178,3865.128111,4175.897334,4153.846052,4201.538359,4222.051179,4207.692205,4221.538358,4165.128103,4190.769128,4237.948614,4328.717843
123,0,4203.589641,4153.333232,4252.820409,3851.281957,4177.435795,4154.358873,4205.128102,4219.999897,4210.769128,4213.846051,4159.999898,4186.666564,4244.10246,4338.461432
124,0,4183.076821,4136.922976,4247.692204,3839.487086,4167.692206,4151.28195,4201.538359,4216.922974,4208.205025,4215.384512,4158.974257,4171.79477,4228.205025,4330.769125
125,0,4185.128103,4141.53836,4250.769127,3853.333239,4170.769129,4154.358873,4199.487077,4225.128102,4211.281948,4225.640922,4169.230667,4166.666565,4224.615281,4325.128099
126,0,4202.564,4157.435796,4251.794768,3866.153752,4169.743488,4156.410155,4201.025538,4232.820409,4211.281948,4219.487076,4173.333231,4175.384513,4242.563999,4324.615279
127,0,4204.102461,4158.974257,4255.384511,3863.589649,4154.358873,4154.358873,4202.051179,4225.640922,4204.615282,4218.461435,4167.692206,4186.153744,4248.717845,4330.769125
128,0,4196.410154,4145.128104,4256.922973,3860.512726,4154.871693,4153.333232,4202.564,4217.948615,4202.564,4234.358871,4158.974257,4181.025539,4238.974255,4339.487073
0,0,4190.769128,4139.487078,4251.281947,3857.948624,4172.820411,4155.897334,4202.051179,4218.461435,4202.564,4229.230666,4151.28195,4168.205026,4227.179384,4330.256304
1,0,4189.743487,4138.974258,4248.717845,3852.820419,4166.666565,4153.846052,4199.999897,4212.82041,4197.948615,4204.102461,4148.717847,4162.05118,4223.58964,4315.89733
2,0,4192.30759,4138.974258,4249.743486,3849.743496,4151.79477,4149.743488,4204.102461,4216.410153,4198.461436,4207.692205,4161.025539,4163.589642,4228.205025,4318.974253
3,0,4198.974256,4150.256309,4253.84605,3855.384521,4165.640924,4161.025539,4214.358871,4232.307589,4210.769128,4229.743486,4173.333231,4174.358872,4233.33323,4323.076817
4,0,4198.974256,4155.384514,4253.333229,3861.538367,4171.79477,4167.692206,4213.33323,4232.307589,4215.384512,4222.563999,4163.076821,4179.999898,4232.307589,4317.948612
5,0,4197.435795,4144.615283,4247.692204,3859.487085,4157.435796,4158.461437,4204.102461,4217.948615,4206.153743,4202.564,4143.589642,4175.384513,4224.615281,4322.563997
6,0,4197.435795,4135.897335,4243.076819,3855.384521,4151.28195,4154.358873,4202.051179,4214.871692,4199.999897,4198.974256,4141.02554,4168.717847,4219.999897,4330.256304
7,0,4195.897333,4137.948617,4244.10246,3848.717855,4143.076822,4150.256309,4197.948615,4217.435794,4202.051179,4201.025538,4149.230668,4159.999898,4218.461435,4321.025535
8,0,4194.871692,4136.922976,4244.615281,3842.564009,4136.922976,4143.076822,4193.333231,4212.307589,4202.051179,4208.205025,4154.358873,4154.358873,4221.025538,4308.205023
9,0,4199.999897,4134.871694,4246.666563,3851.794778,4161.53836,4150.256309,4198.974256,4215.897333,4200.512718,4227.692204,4156.410155,4161.53836,4224.615281,4311.281946
10,0,4195.384513,4136.922976,4239.999896,3862.051188,4178.461436,4158.461437,4201.025538,4219.999897,4201.025538,4217.948615,4147.692206,4164.102462,4217.435794,4309.230664
11,0,4184.102462,4138.461437,4235.384512,3851.281957,4156.922975,4147.179386,4197.948615,4214.871692,4202.051179,4189.743487,4135.897335,4159.487078,4211.794769,4297.948613
12,0,4188.205026,4138.974258,4241.025537,3843.58965,4143.076822,4137.948617,4202.564,4215.897333,4201.538359,4202.051179,4144.102463,4164.102462,4222.051179,4308.205023
13,0,4201.025538,4136.922976,4244.10246,3855.897342,4145.640924,4136.922976,4198.461436,4219.487076,4199.487077,4219.487076,4154.871693,4166.666565,4232.307589,4327.692202
14,0,4206.666564,4142.564001,4244.10246,3864.61529,4153.333232,4142.051181,4188.717846,4216.922974,4199.999897,4203.07682,4150.769129,4161.025539,4231.794768,4326.666561
15,0,4210.256307,4158.461437,4249.230665,3866.153752,4175.384513,4154.358873,4196.410154,4220.512717,4202.051179,4205.128102,4151.79477,4162.05118,4232.820409,4314.871689
16,0,4208.717846,4158.974257,4247.179383,3866.153752,4177.948616,4157.435796,4197.948615,4218.974256,4201.025538,4220.512717,4150.769129,4162.564001,4231.794768,4308.205023
17,0,4198.974256,4143.589642,4237.948614,3860.512726,4156.410155,4150.256309,4183.589641,4202.564,4196.922974,4201.538359,4137.435796,4151.79477,4227.179384,4309.230664
18,0,4205.128102,4146.666565,4245.640922,3868.205034,4158.974257,4152.307591,4188.205026,4203.07682,4197.435795,4186.153744,4146.666565,4157.435796,4232.820409,4323.589638
19,0,4218.461435,4158.461437,4256.410152,3882.564008,4159.999898,4154.871693,4197.948615,4217.948615,4199.487077,4202.564,4163.076821,4178.461436,4233.84605,4333.846048
20,0,4215.897333,4155.384514,4256.410152,3881.538367,4149.743488,4151.28195,4193.333231,4216.410153,4198.461436,4217.948615,4152.820411,4179.487077,4228.717845,4328.205022
21,0,4213.846051,4159.487078,4256.922973,3877.948623,4173.846052,4162.564001,4197.435795,4216.922974,4202.051179,4221.538358,4151.28195,4170.256308,4239.487076,4323.076817
22,0,4214.358871,4166.153744,4252.307588,3875.897341,4187.692205,4174.358872,4201.538359,4219.999897,4201.025538,4205.640923,4157.948616,4164.615283,4239.487076,4314.358869
23,0,4198.974256,4148.205027,4234.871691,3863.589649,4165.128103,4165.640924,4191.794769,4206.666564,4189.743487,4184.102462,4141.02554,4152.820411,4215.384512,4300.512715
24,0,4192.82041,4133.846053,4235.384512,3862.564008,4160.512719,4156.410155,4192.82041,4203.589641,4190.256308,4202.564,4142.051181,4155.897334,4212.307589,4307.692202
25,0,4212.307589,4153.333232,4255.384511,3879.999905,4167.179385,4157.435796,4200.512718,4221.538358,4203.589641,4242.051178,4167.179385,4178.974257,4237.435794,4330.769125
26,0,4227.692204,4168.717847,4258.461434,3882.051187,4152.820411,4155.897334,4192.82041,4224.102461,4206.153743,4242.051178,4158.461437,4182.05118,4244.10246,4332.820407
27,0,4214.358871,4152.307591,4240.512717,3863.589649,4146.153745,4149.230668,4182.564,4207.692205,4195.897333,4208.717846,4132.820412,4157.948616,4224.615281,4310.769125
28,0,4196.410154,4135.384514,4233.33323,3859.487085,4161.025539,4148.205027,4182.564,4198.974256,4190.769128,4187.692205,4135.384514,4144.615283,4215.897333,4297.435792
29,0,4198.461436,4142.051181,4234.358871,3874.8717,4175.384513,4157.948616,4189.230667,4203.07682,4194.358872,4193.333231,4146.153745,4149.743488,4225.128102,4306.666561
30,0,4213.846051,4159.487078,4237.948614,3879.999905,4175.897334,4166.153744,4198.461436,4210.256307,4201.025538,4214.358871,4150.256309,4162.564001,4233.84605,4319.487074
31,0,4217.435794,4162.05118,4245.128101,3871.794777,4159.487078,4158.974257,4204.102461,4215.897333,4201.538359,4221.538358,4154.871693,4177.435795,4234.871691,4322.051176
32,0,4211.281948,4148.717847,4247.692204,3875.897341,4145.640924,4149.230668,4200.512718,4216.410153,4201.538359,4208.717846,4153.846052,4178.461436,4234.871691,4316.410151
33,0,4206.153743,4138.974258,4241.538358,3882.051187,4151.28195,4151.28195,4188.717846,4207.692205,4197.435795,4195.897333,4139.487078,4165.128103,4221.538358,4303.589638
34,0,4197.435795,4134.871694,4234.358871,3864.61529,4165.640924,4151.28195,4182.564,4197.435795,4184.615282,4202.051179,4123.076822,4147.179386,4202.564,4291.281946
35,0,4195.897333,4143.589642,4233.33323,3863.589649,4170.769129,4152.820411,4191.281949,4206.153743,4187.179385,4210.769128,4127.179386,4139.487078,4206.666564,4299.487074
36,0,4211.794769,4163.076821,4241.025537,3891.281956,4169.743488,4167.179385,4202.564,4227.179384,4203.589641,4204.615282,4150.256309,4156.410155,4227.692204,4316.922971
37,0,4222.563999,4168.205026,4251.794768,3892.307597,4168.205026,4173.846052,4204.102461,4233.33323,4207.692205,4208.717846,4164.615283,4174.871693,4237.948614,4315.38451
38,0,4210.256307,4151.28195,4247.179383,3872.820418,4163.076821,4160.512719,4196.410154,4223.58964,4200.512718,4217.948615,4150.769129,4170.256308,4228.717845,4306.666561
39,0,4202.564,4140.512719,4235.384512,3874.35888,4163.589642,4153.846052,4188.717846,4212.82041,4193.846051,4210.256307,4127.692207,4157.435796,4209.230666,4299.999895
40,0,4207.179384,4138.974258,4230.256307,3883.076828,4168.205026,4158.974257,4188.717846,4203.589641,4188.717846,4196.922974,4121.02554,4152.820411,4204.102461,4294.87169
41,0,4208.717846,4135.384514,4235.897332,3876.410162,4169.743488,4158.974257,4196.410154,4198.461436,4187.692205,4184.102462,4133.846053,4156.410155,4215.384512,4304.615279
42,0,4210.769128,4142.051181,4244.10246,3873.846059,4167.692206,4156.410155,4200.512718,4204.102461,4191.794769,4181.025539,4146.153745,4164.102462,4219.487076,4316.922971
43,0,4217.948615,4148.205027,4247.692204,3887.692213,4158.461437,4156.922975,4194.871692,4210.256307,4195.897333,4201.538359,4145.640924,4168.205026,4216.922974,4307.692202
44,0,4212.307589,4139.999899,4246.666563,3895.38452,4147.179386,4152.307591,4186.666564,4208.717846,4197.948615,4221.025538,4138.461437,4164.615283,4221.025538,4291.281946
45,0,4204.102461,4135.897335,4245.640922,3883.076828,4152.820411,4149.230668,4183.589641,4208.717846,4197.948615,4212.307589,4138.974258,4164.102462,4221.025538,4293.333228
46,0,4209.230666,4139.487078,4241.025537,3871.281957,4167.692206,4152.307591,4189.743487,4214.358871,4199.999897,4210.256307,4143.076822,4163.076821,4217.948615,4302.563997
47,0,4214.871692,4140.512719,4241.025537,3881.538367,4171.281949,4156.410155,4197.948615,4216.922974,4202.051179,4222.051179,4136.922976,4164.615283,4224.615281,4299.487074
48,0,4210.256307,4145.128104,4245.640922,3891.794777,4173.333231,4159.487078,4200.512718,4216.410153,4202.051179,4229.743486,4137.435796,4172.820411,4233.33323,4295.38451
49,0,4206.666564,4149.743488,4247.692204,3891.281956,4170.769129,4155.897334,4199.487077,4218.461435,4204.102461,4236.922973,4155.897334,4177.435795,4231.794768,4300.512715
50,0,4211.281948,4151.28195,4251.794768,3901.538366,4164.102462,4151.28195,4198.974256,4221.025538,4206.666564,4231.281948,4167.179385,4183.589641,4231.281948,4302.563997
51,0,4217.948615,4156.922975,4263.076819,3915.89734,4178.461436,4163.589642,4203.589641,4222.563999,4206.153743,4213.846051,4162.05118,4193.846051,4241.538358,4304.102459
52,0,4216.922974,4152.820411,4265.128101,3910.769135,4191.281949,4170.256308,4204.615282,4217.948615,4203.589641,4218.461435,4155.384514,4191.281949,4239.999896,4313.846048
53,0,4207.179384,4141.53836,4251.281947,3893.846059,4174.871693,4156.922975,4193.846051,4207.179384,4199.487077,4229.743486,4149.743488,4175.897334,4222.563999,4306.153741
54,0,4200.512718,4139.999899,4243.58964,3888.717854,4159.999898,4148.717847,4185.128103,4197.435795,4189.743487,4209.230666,4146.666565,4171.79477,4211.281948,4284.61528
55,0,4200.512718,4138.974258,4245.128101,3899.999905,4171.281949,4153.846052,4192.82041,4197.435795,4182.05118,4187.692205,4144.615283,4174.358872,4209.743487,4279.999895
56,0,4202.564,4139.487078,4248.205024,3910.256315,4184.615282,4162.05118,4203.07682,4206.666564,4190.769128,4206.666564,4143.589642,4175.384513,4215.897333,4290.769126
57,0,4208.205025,4152.307591,4251.794768,3915.38452,4182.564,4167.692206,4203.07682,4216.410153,4202.051179,4226.153743,4151.28195,4181.538359,4228.205025,4308.205023
58,0,4214.358871,4152.820411,4254.35887,3913.333238,4170.769129,4162.564001,4201.025538,4218.461435,4199.999897,4216.922974,4159.487078,4187.179385,4229.743486,4316.410151
59,0,4209.743487,4143.076822,4253.84605,3909.230674,4164.615283,4151.28195,4201.025538,4216.410153,4198.461436,4211.794769,4161.025539,4185.640923,4226.666563,4304.615279
60,0,4214.871692,4156.410155,4261.538357,3917.435802,4175.384513,4155.384514,4204.615282,4219.487076,4204.102461,4228.717845,4171.79477,4194.871692,4242.563999,4309.743484
61,0,4229.743486,4167.179385,4268.205024,3930.256314,4178.461436,4159.487078,4204.615282,4223.58964,4203.07682,4241.538358,4176.922975,4205.640923,4252.307588,4327.179381
62,0,4226.666563,4150.769129,4261.025537,3930.256314,4175.384513,4153.846052,4195.897333,4217.435794,4198.461436,4226.666563,4156.922975,4190.769128,4233.33323,4309.743484
63,0,4210.256307,4141.02554,4249.743486,3922.564007,4183.076821,4155.897334,4190.769128,4211.281948,4196.922974,4204.615282,4151.28195,4174.358872,4217.435794,4288.717844
64,0,4209.230666,4151.28195,4250.769127,3919.999904,4188.205026,4169.230667,4199.999897,4217.435794,4199.487077,4209.743487,4171.281949,4185.128103,4225.128102,4305.1281
65,0,4215.384512,4155.384514,4253.84605,3922.051186,4185.640923,4175.384513,4205.128102,4219.487076,4199.487077,4218.461435,4173.333231,4189.743487,4233.33323,4314.358869
66,0,4213.33323,4148.717847,4250.769127,3924.102468,4182.05118,4169.230667,4196.922974,4206.153743,4190.256308,4204.615282,4158.461437,4177.948616,4226.666563,4304.102459
67,0,4207.692205,4148.205027,4244.615281,3924.615289,4177.435795,4168.205026,4193.333231,4202.564,4184.615282,4202.051179,4161.025539,4177.435795,4221.025538,4303.589638
68,0,4209.230666,4153.333232,4241.025537,3922.051186,4175.384513,4170.256308,4197.435795,4213.846051,4192.30759,4215.897333,4166.666565,4183.589641,4230.769127,4301.025536
69,0,4215.897333,4152.820411,4242.051178,3926.15375,4168.717847,4163.076821,4198.461436,4216.410153,4200.512718,4216.922974,4155.897334,4178.461436,4234.871691,4295.38451
70,0,4225.128102,4151.28195,4251.794768,3933.846058,4161.025539,4162.564001,4205.640923,4218.461435,4199.487077,4216.922974,4155.897334,4179.999898,4231.794768,4310.769125
71,0,4227.692204,4154.358873,4259.999896,3939.487083,4170.256308,4177.435795,4215.897333,4230.769127,4203.07682,4234.358871,4176.922975,4189.743487,4237.435794,4319.999894
72,0,4221.025538,4156.922975,4255.897332,3940.512724,4188.205026,4187.692205,4215.384512,4234.871691,4210.769128,4234.871691,4186.666564,4186.153744,4241.538358,4305.64092
73,0,4212.307589,4153.333232,4243.58964,3936.41016,4190.769128,4182.05118,4209.743487,4230.256307,4208.717846,4221.025538,4168.205026,4174.871693,4230.256307,4298.461433
74,0,4202.564,4145.640924,4235.897332,3929.743494,4178.974257,4173.333231,4208.205025,4226.666563,4200.512718,4218.974256,4152.820411,4169.230667,4218.974256,4295.897331
75,0,4203.07682,4148.717847,4241.538358,3928.717853,4170.256308,4171.79477,4205.640923,4219.999897,4196.410154,4211.281948,4155.897334,4170.256308,4216.922974,4281.025536
76,0,4211.281948,4154.358873,4245.640922,3934.358878,4172.820411,4172.820411,4199.999897,4211.794769,4193.846051,4203.589641,4154.358873,4170.769129,4211.794769,4280.512716
77,0,4217.948615,4156.922975,4249.743486,3941.538365,4178.461436,4171.79477,4202.051179,4217.435794,4194.871692,4213.846051,4153.333232,4179.487077,4213.846051,4302.051177
78,0,4219.487076,4159.487078,4255.897332,3947.179391,4169.230667,4167.692206,4207.179384,4227.692204,4201.025538,4212.82041,4164.615283,4186.666564,4224.102461,4307.179382
79,0,4216.922974,4153.333232,4253.333229,3947.692211,4165.640924,4169.743488,4207.179384,4230.256307,4203.07682,4197.435795,4167.692206,4178.461436,4223.58964,4294.87169
80,0,4206.153743,4144.615283,4237.948614,3943.076827,4176.922975,4174.358872,4205.640923,4230.256307,4198.974256,4208.717846,4159.999898,4168.717847,4214.358871,4293.333228
81,0,4202.051179,4146.666565,4235.384512,3931.281955,4175.897334,4172.30759,4205.128102,4227.692204,4198.974256,4229.230666,4163.589642,4171.79477,4214.871692,4292.820408
82,0,4216.922974,4157.435796,4248.717845,3922.051186,4175.384513,4171.281949,4200.512718,4222.563999,4199.487077,4222.563999,4167.692206,4176.922975,4229.230666,4294.87169
83,0,4232.820409,4167.179385,4257.435793,3938.974263,4187.179385,4181.538359,4197.435795,4226.153743,4200.512718,4229.743486,4168.717847,4185.640923,4239.487076,4312.307587
84,0,4228.205025,4171.79477,4253.333229,3962.051185,4186.666564,4187.692205,4202.564,4237.435794,4205.640923,4247.692204,4177.435795,4200.512718,4241.025537,4319.999894
85,0,4211.794769,4156.922975,4245.128101,3955.897339,4170.256308,4176.410154,4199.999897,4226.153743,4198.461436,4226.153743,4175.384513,4194.871692,4231.794768,4304.615279
86,0,4201.538359,4137.435796,4236.922973,3935.89734,4166.153744,4166.153744,4184.102462,4205.128102,4185.640923,4196.410154,4161.53836,4169.230667,4214.358871,4291.281946
87,0,4207.692205,4149.743488,4236.410153,3938.974263,4169.230667,4169.230667,4182.05118,4206.153743,4190.256308,4201.025538,4162.564001,4164.102462,4211.794769,4288.205023
88,0,4220.512717,4170.769129,4242.051178,3950.256314,4172.30759,4174.871693,4195.384513,4219.999897,4202.564,4221.025538,4170.256308,4178.974257,4228.205025,4291.794767
89,0,4225.640922,4167.692206,4246.666563,3950.769134,4182.05118,4173.846052,4199.487077,4225.128102,4201.025538,4233.33323,4166.666565,4185.640923,4237.948614,4298.461433
90,0,4224.102461,4155.384514,4247.179383,3951.794775,4184.615282,4171.281949,4194.871692,4219.999897,4196.922974,4222.051179,4165.128103,4185.128103,4228.717845,4296.922972
91,0,4219.999897,4154.871693,4245.640922,3954.871698,4182.564,4176.922975,4199.999897,4214.871692,4198.461436,4202.051179,4166.666565,4181.025539,4217.948615,4295.897331
92,0,4218.974256,4161.53836,4244.615281,3953.846057,4184.102462,4184.615282,4205.640923,4221.025538,4199.999897,4211.794769,4163.589642,4170.769129,4215.897333,4299.487074
93,0,4218.461435,4167.179385,4245.640922,3955.384519,4187.692205,4184.102462,4204.615282,4232.307589,4201.538359,4236.922973,4168.717847,4172.30759,4220.512717,4292.307587
94,0,4215.897333,4165.128103,4247.692204,3963.076826,4183.589641,4175.384513,4203.07682,4233.84605,4202.564,4237.948614,4179.999898,4190.769128,4229.230666,4289.230664
95,0,4213.33323,4151.79477,4244.10246,3956.92298,4169.743488,4167.692206,4201.025538,4224.615281,4198.974256,4219.487076,4182.564,4192.30759,4232.307589,4292.820408
96,0,4219.487076,4154.871693,4243.076819,3942.564006,4163.589642,4174.358872,4199.999897,4218.974256,4199.487077,4206.153743,4177.948616,4179.487077,4227.179384,4290.769126
97,0,4224.615281,4172.30759,4238.461435,3949.230673,4179.487077,4185.640923,4196.922974,4215.384512,4197.948615,4210.769128,4162.564001,4174.871693,4216.410153,4294.358869
98,0,4220.512717,4169.743488,4233.84605,3966.66657,4191.794769,4179.999898,4183.076821,4208.205025,4190.769128,4229.230666,4154.358873,4172.30759,4215.384512,4299.487074
99,0,4220.512717,4158.461437,4237.435794,3974.358877,4189.743487,4166.153744,4177.435795,4207.692205,4191.281949,4234.358871,4169.230667,4169.743488,4227.692204,4293.333228
100,0,4230.769127,4168.717847,4246.153742,3974.358877,4187.179385,4166.153744,4193.333231,4215.384512,4200.512718,4221.538358,4183.076821,4181.025539,4234.358871,4290.769126
101,0,4233.33323,4184.102462,4249.743486,3973.333236,4178.461436,4170.769129,4205.640923,4219.999897,4202.564,4223.58964,4183.076821,4193.846051,4232.307589,4296.410151
102,0,4228.205025,4177.435795,4249.230665,3973.846057,4167.179385,4170.769129,4202.051179,4218.974256,4198.461436,4228.717845,4181.025539,4186.666564,4229.743486,4296.410151
103,0,4222.563999,4162.05118,4242.563999,3973.846057,4177.435795,4177.435795,4197.948615,4218.461435,4198.461436,4218.461435,4171.79477,4171.79477,4222.051179,4290.769126
104,0,4222.051179,4162.564001,4230.769127,3970.769134,4201.538359,4186.153744,4199.999897,4216.410153,4198.974256,4211.794769,4157.948616,4168.717847,4209.743487,4283.076818
105,0,4226.666563,4177.948616,4232.307589,3973.846057,4201.538359,4185.128103,4202.051179,4217.948615,4198.461436,4218.461435,4157.948616,4170.769129,4209.230666,4282.051177
106,0,4231.794768,4187.179385,4247.692204,3982.051185,4185.128103,4183.589641,4201.025538,4228.205025,4201.538359,4221.025538,4168.717847,4177.435795,4216.922974,4292.820408
107,0,4233.33323,4182.564,4257.435793,3988.717851,4188.717846,4184.102462,4203.589641,4236.410153,4203.589641,4218.974256,4174.358872,4191.281949,4220.512717,4296.410151
108,0,4225.128102,4176.410154,4250.769127,3988.717851,4189.743487,4174.871693,4207.179384,4234.871691,4201.025538,4221.538358,4169.230667,4195.384513,4221.538358,4288.205023
109,0,4210.769128,4162.564001,4236.922973,3974.871698,4165.128103,4164.102462,4204.102461,4224.615281,4197.948615,4213.846051,4163.589642,4177.435795,4215.384512,4279.999895
110,0,4209.230666,4156.922975,4232.307589,3966.66657,4166.666565,4174.358872,4199.999897,4216.410153,4198.461436,4209.230666,4161.025539,4164.615283,4201.025538,4273.333229
111,0,4221.025538,4173.846052,4241.538358,3985.640928,4209.743487,4191.794769,4198.461436,4215.384512,4198.974256,4213.846051,4155.897334,4168.717847,4198.461436,4271.794767
112,0,4226.153743,4186.666564,4246.666563,3997.94862,4217.948615,4185.640923,4192.30759,4215.384512,4198.461436,4210.256307,4160.512719,4174.871693,4210.769128,4278.461434
113,0,4227.179384,4182.05118,4243.58964,3984.615287,4181.025539,4167.692206,4188.205026,4213.846051,4198.461436,4210.256307,4170.256308,4185.640923,4217.948615,4283.076818
114,0,4227.179384,4181.025539,4244.615281,3981.025544,4167.692206,4170.769129,4202.051179,4225.128102,4199.487077,4213.846051,4168.717847,4198.974256,4217.948615,4289.230664
115,0,4229.230666,4182.05118,4252.307588,3989.743492,4183.076821,4186.666564,4218.974256,4244.615281,4203.589641,4206.153743,4167.692206,4197.948615,4218.461435,4297.948613
116,0,4233.33323,4173.333231,4249.230665,3988.205031,4184.615282,4189.230667,4218.974256,4246.666563,4205.640923,4205.640923,4170.769129,4182.05118,4213.846051,4292.307587
117,0,4231.794768,4173.846052,4243.076819,3984.615287,4178.974257,4185.128103,4208.205025,4233.33323,4204.102461,4216.922974,4166.153744,4173.846052,4210.769128,4280.512716
118,0,4222.051179,4182.05118,4242.563999,3996.410159,4190.769128,4186.666564,4199.487077,4225.128102,4202.564,4218.974256,4163.076821,4175.897334,4215.897333,4276.410152
119,0,4223.58964,4183.076821,4244.615281,4006.153748,4206.666564,4187.179385,4198.974256,4228.717845,4203.07682,4227.692204,4168.717847,4173.333231,4228.205025,4276.922972
120,0,4231.281948,4185.128103,4244.615281,3996.410159,4205.640923,4183.076821,4199.999897,4231.281948,4202.051179,4236.922973,4176.922975,4172.820411,4230.256307,4281.538357
121,0,4233.33323,4187.692205,4247.179383,3989.230672,4196.410154,4179.487077,4197.435795,4231.281948,4199.999897,4220.512717,4182.05118,4190.769128,4221.025538,4287.179382
122,0,4231.794768,4184.102462,4246.666563,4002.051184,4188.205026,4182.05118,4205.128102,4235.897332,4202.564,4213.846051,4177.948616,4201.025538,4214.871692,4286.153741
123,0,4222.051179,4170.769129,4235.897332,4006.666569,4175.384513,4187.179385,4216.410153,4231.794768,4199.487077,4212.307589,4154.871693,4175.897334,4202.564,4268.717844
124,0,4206.666564,4155.384514,4222.051179,3987.69221,4168.205026,4183.589641,4207.692205,4210.256307,4184.615282,4171.281949,4124.615284,4142.564001,4177.435795,4237.948614
125,0,4211.794769,4164.102462,4223.58964,3989.230672,4182.564,4182.05118,4197.948615,4206.666564,4182.564,4151.28195,4127.692207,4142.051181,4177.948616,4235.897332
126,0,4231.281948,4185.640923,4239.999896,4009.743492,4205.640923,4186.153744,4209.230666,4232.820409,4198.974256,4200.512718,4159.487078,4167.692206,4210.256307,4268.717844
127,0,4240.512717,4188.717846,4249.743486,4006.666569,4208.205025,4184.102462,4214.871692,4247.692204,4206.666564,4253.333229,4179.999898,4185.640923,4230.256307,4287.692203
128,0,4242.051178,4181.538359,4249.230665,3998.461441,4183.076821,4181.025539,4204.615282,4243.58964,4203.589641,4253.333229,4186.666564,4191.281949,4234.358871,4286.666562
0,0,4241.538358,4183.076821,4248.205024,4015.384517,4172.30759,4183.076821,4203.07682,4238.461435,4204.615282,4230.769127,4191.281949,4195.897333,4238.974255,4291.794767
1,0,4238.974255,4186.153744,4246.153742,4030.256312,4187.692205,4178.461436,4203.589641,4226.153743,4198.461436,4224.102461,4173.333231,4194.358872,4233.33323,4289.230664
