title:V                                                                               , recorded:06.07.20 12.15.30, sampling:128, subject:B                                                                               , labels:COUNTER INTERPOLATED AF3 F7 F3 FC5 T7 P7 O1 O2 P8 T8 FC6 F4 F8 AF4,, units:emotiv,,,,,,,,,
92,0,4221.538358,4143.076822,4221.025538,4151.28195,4214.358871,4188.205026,4230.256307,4233.33323,4229.230666,4222.051179,4181.538359,4185.128103,4198.461436,4226.666563
93,0,4223.07682,4139.487078,4218.974256,4144.102463,4210.256307,4186.153744,4229.743486,4227.692204,4223.58964,4251.281947,4180.512718,4189.230667,4205.128102,4232.307589
94,0,4221.538358,4133.846053,4213.846051,4134.871694,4206.666564,4187.692205,4223.58964,4217.435794,4215.384512,4251.794768,4181.025539,4183.076821,4196.410154,4224.615281
95,0,4214.871692,4135.897335,4217.948615,4139.999899,4218.974256,4188.717846,4216.410153,4219.487076,4215.897333,4243.076819,4179.487077,4177.435795,4183.076821,4214.358871
96,0,4207.179384,4134.871694,4218.461435,4143.076822,4219.999897,4184.102462,4215.384512,4229.743486,4217.435794,4212.82041,4175.384513,4176.922975,4181.538359,4208.205025
97,0,4202.564,4123.076822,4208.205025,4134.871694,4189.230667,4178.974257,4217.435794,4225.128102,4215.384512,4189.743487,4181.025539,4173.333231,4185.128103,4198.461436
98,0,4201.538359,4117.948617,4203.07682,4131.28195,4176.922975,4179.487077,4214.871692,4213.846051,4216.410153,4214.871692,4182.564,4168.205026,4183.589641,4186.666564
99,0,4209.230666,4133.333232,4210.769128,4143.589642,4214.358871,4192.82041,4214.871692,4213.33323,4214.358871,4221.538358,4171.281949,4170.769129,4178.461436,4195.897333
100,0,4207.692205,4141.53836,4212.307589,4150.256309,4238.974255,4200.512718,4215.897333,4215.384512,4202.051179,4184.615282,4168.205026,4172.820411,4174.358872,4212.82041
101,0,4191.794769,4126.153745,4200.512718,4138.461437,4209.230666,4191.794769,4210.769128,4211.794769,4194.358872,4179.999898,4164.102462,4163.589642,4162.564001,4199.487077
102,0,4186.666564,4115.897335,4193.333231,4139.487078,4198.461436,4193.333231,4215.384512,4213.846051,4204.102461,4216.922974,4154.871693,4157.948616,4154.358873,4178.461436
103,0,4194.358872,4121.538361,4199.487077,4155.897334,4223.58964,4207.179384,4224.615281,4221.538358,4215.897333,4229.230666,4161.025539,4161.025539,4162.564001,4183.589641
104,0,4192.30759,4124.615284,4200.512718,4147.179386,4214.871692,4196.922974,4211.794769,4219.999897,4211.794769,4197.435795,4176.922975,4162.564001,4179.487077,4196.410154
105,0,4192.82041,4128.717848,4199.487077,4135.897335,4193.333231,4184.615282,4197.435795,4211.281948,4200.512718,4175.897334,4185.640923,4165.128103,4186.153744,4195.384513
106,0,4203.07682,4136.410155,4204.102461,4152.820411,4208.205025,4196.410154,4207.179384,4209.230666,4199.999897,4207.179384,4185.128103,4174.358872,4182.564,4193.846051
107,0,4204.615282,4140.512719,4213.846051,4160.512719,4224.615281,4202.564,4219.999897,4221.538358,4208.717846,4232.820409,4186.666564,4180.512718,4191.281949,4207.692205
108,0,4197.948615,4143.076822,4219.999897,4157.435796,4221.025538,4196.922974,4221.025538,4231.281948,4215.897333,4206.666564,4187.692205,4179.487077,4201.025538,4216.922974
109,0,4194.871692,4139.999899,4213.846051,4163.076821,4209.230666,4194.358872,4215.897333,4224.615281,4215.384512,4190.256308,4180.512718,4172.30759,4192.82041,4207.692205
110,0,4196.410154,4135.897335,4206.153743,4163.076821,4201.025538,4194.871692,4211.281948,4216.410153,4209.743487,4218.974256,4176.922975,4164.615283,4184.615282,4198.461436
111,0,4194.871692,4140.512719,4206.153743,4161.53836,4209.743487,4198.974256,4214.358871,4221.025538,4209.230666,4243.076819,4177.948616,4161.53836,4185.640923,4195.897333
112,0,4187.692205,4141.53836,4203.589641,4158.974257,4217.435794,4201.538359,4218.974256,4228.205025,4214.358871,4234.871691,4176.922975,4156.410155,4182.05118,4192.30759
113,0,4185.640923,4134.871694,4199.999897,4148.717847,4213.33323,4197.435795,4215.384512,4229.743486,4216.410153,4219.999897,4181.538359,4155.897334,4181.538359,4192.82041
114,0,4189.230667,4133.333232,4200.512718,4152.307591,4210.769128,4197.948615,4214.871692,4230.256307,4213.846051,4211.794769,4190.769128,4162.05118,4191.281949,4190.769128
115,0,4187.179385,4135.897335,4204.615282,4166.153744,4205.640923,4199.999897,4219.487076,4230.769127,4213.33323,4206.153743,4191.794769,4167.692206,4193.333231,4186.153744
116,0,4187.179385,4135.384514,4209.743487,4159.487078,4202.051179,4193.333231,4217.435794,4229.743486,4212.82041,4199.487077,4190.256308,4169.230667,4185.640923,4194.358872
117,0,4189.230667,4136.922976,4212.307589,4148.205027,4225.128102,4194.358872,4215.384512,4229.230666,4209.743487,4206.153743,4187.692205,4168.717847,4188.205026,4206.666564
118,0,4187.692205,4143.589642,4212.307589,4160.512719,4233.84605,4202.564,4219.999897,4231.281948,4213.33323,4216.410153,4185.640923,4170.769129,4201.538359,4204.615282
119,0,4184.102462,4145.128104,4207.179384,4170.769129,4194.871692,4197.948615,4217.948615,4231.281948,4218.461435,4216.410153,4185.640923,4168.717847,4201.025538,4189.743487
120,0,4186.153744,4139.487078,4202.564,4159.999898,4189.230667,4196.922974,4215.897333,4229.230666,4216.410153,4235.384512,4185.128103,4161.025539,4195.384513,4186.153744
121,0,4186.153744,4140.512719,4197.948615,4152.820411,4233.84605,4211.794769,4223.07682,4231.794768,4216.922974,4249.743486,4190.769128,4153.846052,4206.666564,4193.846051
122,0,4179.487077,4145.128104,4194.358872,4156.410155,4237.948614,4212.82041,4223.58964,4230.769127,4216.922974,4219.999897,4194.358872,4151.79477,4211.281948,4184.102462
123,0,4171.281949,4137.435796,4191.794769,4150.256309,4206.666564,4197.435795,4210.256307,4217.948615,4206.666564,4201.538359,4184.615282,4151.28195,4198.461436,4171.281949
124,0,4176.410154,4134.871694,4197.948615,4145.640924,4213.33323,4195.384513,4208.717846,4211.794769,4199.999897,4216.922974,4184.102462,4159.999898,4201.025538,4187.179385
125,0,4178.461436,4139.487078,4203.589641,4156.410155,4221.025538,4199.999897,4218.461435,4215.384512,4204.102461,4217.435794,4188.717846,4166.153744,4206.666564,4189.743487
126,0,4165.128103,4126.666566,4196.410154,4159.487078,4204.102461,4192.82041,4212.307589,4213.846051,4203.07682,4214.358871,4174.358872,4155.897334,4188.205026,4164.615283
127,0,4160.512719,4119.999899,4193.333231,4151.79477,4218.461435,4193.846051,4206.153743,4212.307589,4204.102461,4230.256307,4172.820411,4157.948616,4182.05118,4166.666565
128,0,4174.358872,4135.897335,4202.051179,4156.922975,4239.487076,4210.769128,4222.051179,4225.640922,4212.82041,4233.33323,4195.384513,4177.948616,4204.102461,4190.769128
0,0,4179.487077,4144.615283,4209.230666,4167.179385,4224.615281,4216.922974,4235.897332,4235.897332,4218.461435,4227.692204,4197.435795,4190.256308,4210.769128,4192.30759
1,0,4170.256308,4139.999899,4205.128102,4163.076821,4210.769128,4203.589641,4226.153743,4226.666563,4215.384512,4233.84605,4182.05118,4182.05118,4191.794769,4174.871693
2,0,4159.487078,4136.922976,4197.435795,4153.333232,4216.410153,4194.871692,4213.846051,4211.794769,4206.666564,4234.358871,4185.640923,4169.743488,4183.076821,4164.102462
3,0,4158.974257,4138.461437,4197.948615,4155.384514,4219.487076,4199.487077,4216.922974,4214.871692,4208.205025,4231.281948,4202.051179,4174.871693,4199.999897,4171.79477
4,0,4164.615283,4143.076822,4197.948615,4161.53836,4218.461435,4201.538359,4221.538358,4225.640922,4217.948615,4235.897332,4208.205025,4185.128103,4206.666564,4185.128103
5,0,4158.461437,4138.974258,4192.82041,4156.922975,4214.871692,4201.025538,4216.922974,4215.384512,4210.256307,4231.281948,4194.871692,4177.435795,4188.205026,4177.948616
6,0,4151.79477,4133.333232,4195.897333,4154.871693,4209.743487,4201.538359,4212.307589,4203.07682,4193.846051,4206.153743,4182.05118,4170.769129,4178.974257,4165.640924
7,0,4164.102462,4148.205027,4204.615282,4166.666565,4214.358871,4202.564,4222.051179,4211.794769,4202.564,4201.025538,4197.435795,4187.692205,4199.487077,4176.922975
8,0,4169.743488,4155.897334,4201.538359,4172.30759,4224.615281,4210.256307,4230.769127,4221.025538,4218.974256,4232.307589,4211.794769,4190.256308,4207.179384,4188.205026
9,0,4162.05118,4143.589642,4196.410154,4165.128103,4230.769127,4211.281948,4227.179384,4221.025538,4217.948615,4245.128101,4197.435795,4171.79477,4194.358872,4182.05118
10,0,4171.79477,4146.666565,4208.717846,4168.205026,4238.974255,4210.256307,4227.692204,4223.07682,4214.358871,4228.717845,4202.564,4182.05118,4205.128102,4182.05118
11,0,4180.512718,4161.025539,4216.410153,4174.871693,4234.871691,4213.33323,4225.128102,4225.128102,4217.435794,4232.307589,4226.153743,4205.640923,4222.563999,4192.30759
12,0,4171.281949,4157.435796,4212.82041,4168.717847,4205.128102,4206.153743,4217.948615,4229.743486,4221.538358,4244.615281,4218.974256,4199.999897,4210.256307,4193.846051
13,0,4164.102462,4150.769129,4208.717846,4163.076821,4194.871692,4195.384513,4219.999897,4232.820409,4216.410153,4228.717845,4196.410154,4185.640923,4195.384513,4184.615282
14,0,4167.179385,4152.307591,4205.640923,4165.128103,4221.538358,4202.051179,4224.615281,4222.051179,4208.205025,4228.205025,4196.410154,4185.128103,4198.461436,4177.948616
15,0,4170.256308,4152.820411,4203.07682,4170.769129,4233.84605,4212.82041,4224.615281,4220.512717,4208.717846,4254.871691,4210.769128,4184.615282,4202.564,4185.128103
16,0,4175.384513,4155.897334,4207.692205,4173.846052,4206.666564,4203.07682,4228.717845,4231.794768,4214.358871,4244.10246,4217.435794,4184.102462,4203.589641,4189.743487
17,0,4170.769129,4154.871693,4209.230666,4162.05118,4201.538359,4196.922974,4229.743486,4230.769127,4214.871692,4213.33323,4207.692205,4187.179385,4198.461436,4175.384513
18,0,4164.615283,4149.743488,4201.538359,4153.333232,4222.051179,4210.769128,4217.435794,4217.435794,4207.179384,4210.769128,4196.410154,4179.487077,4190.769128,4165.640924
19,0,4170.769129,4156.410155,4201.025538,4166.153744,4203.07682,4206.153743,4207.179384,4204.102461,4197.948615,4210.769128,4197.948615,4169.743488,4188.205026,4173.333231
20,0,4179.999898,4170.769129,4211.281948,4173.846052,4181.538359,4182.564,4211.794769,4203.589641,4194.871692,4195.897333,4201.025538,4177.948616,4183.589641,4174.871693
21,0,4187.692205,4177.948616,4222.051179,4168.717847,4220.512717,4189.743487,4218.974256,4218.461435,4201.025538,4199.999897,4200.512718,4188.717846,4180.512718,4173.846052
22,0,4185.640923,4173.333231,4218.974256,4177.948616,4248.205024,4210.256307,4218.461435,4223.07682,4205.640923,4231.281948,4198.974256,4186.666564,4185.128103,4183.589641
23,0,4174.358872,4167.692206,4210.256307,4186.153744,4215.384512,4198.974256,4212.307589,4212.82041,4201.538359,4241.538358,4202.564,4182.564,4184.102462,4189.743487
24,0,4175.897334,4166.666565,4208.717846,4177.435795,4210.769128,4193.333231,4214.358871,4217.948615,4204.615282,4218.974256,4211.281948,4186.153744,4188.205026,4188.717846
25,0,4183.076821,4168.205026,4208.205025,4167.179385,4233.84605,4208.205025,4216.410153,4225.128102,4211.794769,4213.33323,4212.307589,4187.179385,4198.974256,4185.128103
26,0,4174.358872,4166.666565,4199.487077,4158.974257,4215.897333,4201.025538,4211.281948,4215.384512,4207.692205,4231.281948,4202.564,4175.384513,4194.871692,4180.512718
27,0,4167.692206,4166.666565,4197.948615,4153.333232,4196.922974,4189.230667,4210.256307,4213.33323,4200.512718,4225.128102,4201.538359,4167.692206,4186.153744,4184.615282
28,0,4173.846052,4168.205026,4204.615282,4159.487078,4201.025538,4196.922974,4214.358871,4217.948615,4201.538359,4212.307589,4211.281948,4170.256308,4189.743487,4184.102462
29,0,4179.487077,4170.256308,4211.281948,4170.769129,4201.025538,4204.615282,4215.897333,4216.410153,4201.538359,4220.512717,4210.256307,4178.461436,4199.999897,4178.461436
30,0,4176.922975,4171.281949,4213.33323,4169.743488,4205.640923,4208.717846,4214.358871,4220.512717,4198.461436,4210.256307,4205.128102,4183.076821,4202.051179,4191.281949
31,0,4174.358872,4166.666565,4209.743487,4166.153744,4219.999897,4213.846051,4219.487076,4234.358871,4203.07682,4206.153743,4209.743487,4183.589641,4190.256308,4198.974256
32,0,4174.871693,4162.564001,4201.538359,4169.743488,4217.435794,4206.666564,4221.538358,4234.871691,4204.615282,4237.435794,4216.410153,4177.435795,4182.564,4178.461436
33,0,4174.871693,4162.05118,4199.999897,4166.666565,4209.743487,4195.897333,4216.922974,4226.666563,4199.999897,4247.692204,4215.384512,4167.692206,4190.256308,4170.256308
34,0,4170.769129,4164.102462,4208.717846,4162.05118,4218.974256,4205.640923,4219.487076,4228.205025,4201.025538,4229.230666,4212.307589,4177.435795,4199.487077,4190.256308
35,0,4178.461436,4170.256308,4219.999897,4168.205026,4218.974256,4212.82041,4230.256307,4235.897332,4205.640923,4226.153743,4218.974256,4197.435795,4206.666564,4199.999897
36,0,4189.230667,4172.30759,4222.051179,4171.79477,4202.564,4205.640923,4231.794768,4234.358871,4205.640923,4229.743486,4223.58964,4196.922974,4208.205025,4196.410154
37,0,4185.128103,4167.179385,4213.846051,4166.153744,4202.051179,4200.512718,4221.025538,4223.58964,4199.487077,4214.358871,4214.871692,4179.999898,4193.333231,4189.743487
38,0,4177.948616,4169.230667,4209.230666,4167.179385,4215.897333,4203.589641,4217.948615,4225.640922,4198.461436,4191.794769,4207.692205,4177.948616,4189.743487,4188.205026
39,0,4178.974257,4176.410154,4211.794769,4173.846052,4219.999897,4203.589641,4224.102461,4233.84605,4204.615282,4199.999897,4214.358871,4184.615282,4201.025538,4189.230667
40,0,4176.922975,4164.102462,4208.717846,4163.076821,4216.410153,4200.512718,4226.153743,4223.58964,4203.07682,4235.384512,4218.461435,4177.435795,4189.743487,4178.974257
41,0,4170.256308,4152.307591,4203.07682,4151.79477,4210.769128,4207.692205,4222.563999,4211.281948,4197.435795,4244.615281,4212.307589,4166.666565,4175.897334,4170.256308
42,0,4178.974257,4170.769129,4208.717846,4166.666565,4218.974256,4219.487076,4223.07682,4224.102461,4207.179384,4229.230666,4216.922974,4173.333231,4192.82041,4185.640923
43,0,4191.281949,4193.333231,4217.948615,4189.743487,4234.358871,4217.948615,4223.58964,4238.461435,4215.384512,4233.84605,4223.07682,4183.589641,4206.666564,4196.410154
44,0,4188.205026,4189.743487,4215.897333,4185.640923,4225.128102,4210.256307,4219.999897,4229.230666,4204.102461,4216.922974,4220.512717,4179.487077,4196.922974,4184.615282
45,0,4174.358872,4174.871693,4205.128102,4166.666565,4204.615282,4215.897333,4218.461435,4216.922974,4195.384513,4182.564,4216.410153,4170.769129,4188.205026,4182.564
46,0,4166.153744,4164.615283,4201.025538,4155.384514,4196.922974,4214.871692,4212.307589,4214.358871,4201.025538,4195.897333,4210.256307,4167.179385,4182.564,4184.615282
47,0,4167.179385,4159.487078,4199.999897,4152.307591,4201.538359,4202.564,4206.666564,4215.384512,4202.051179,4206.153743,4205.128102,4157.948616,4178.461436,4172.30759
48,0,4178.974257,4168.205026,4203.589641,4162.05118,4221.025538,4213.33323,4212.82041,4224.615281,4201.025538,4190.769128,4214.871692,4152.307591,4181.538359,4167.692206
49,0,4185.640923,4178.461436,4207.179384,4171.281949,4231.794768,4231.794768,4221.538358,4233.84605,4206.153743,4217.435794,4226.666563,4163.076821,4187.179385,4179.999898
50,0,4177.948616,4172.30759,4205.640923,4168.717847,4207.692205,4223.58964,4220.512717,4225.640922,4206.153743,4248.205024,4216.410153,4171.281949,4187.179385,4189.230667
51,0,4169.743488,4165.640924,4199.999897,4170.256308,4196.410154,4209.743487,4213.846051,4211.794769,4200.512718,4219.999897,4201.538359,4165.128103,4182.564,4179.487077
52,0,4171.79477,4171.281949,4197.435795,4167.692206,4211.794769,4216.410153,4213.846051,4212.307589,4202.564,4202.051179,4208.717846,4157.435796,4183.076821,4171.79477
53,0,4173.333231,4171.79477,4194.358872,4155.384514,4201.025538,4219.999897,4214.358871,4215.384512,4206.666564,4215.897333,4212.82041,4157.948616,4186.666564,4178.974257
54,0,4173.846052,4168.717847,4194.358872,4158.461437,4193.333231,4212.82041,4213.846051,4213.846051,4204.102461,4207.179384,4211.281948,4161.025539,4189.743487,4186.666564
55,0,4183.589641,4180.512718,4208.717846,4173.333231,4223.58964,4214.871692,4216.922974,4221.025538,4208.205025,4191.281949,4229.230666,4171.281949,4200.512718,4192.30759
56,0,4193.333231,4186.153744,4218.974256,4172.30759,4231.281948,4221.025538,4218.461435,4236.922973,4219.487076,4209.743487,4241.538358,4178.461436,4209.743487,4192.82041
57,0,4184.615282,4172.30759,4207.692205,4164.102462,4208.205025,4216.410153,4213.33323,4235.897332,4214.871692,4232.820409,4219.487076,4166.153744,4194.358872,4187.692205
58,0,4177.948616,4171.281949,4195.897333,4168.717847,4211.281948,4214.358871,4210.256307,4219.999897,4204.615282,4220.512717,4205.640923,4159.487078,4181.025539,4189.230667
59,0,4187.179385,4186.153744,4206.666564,4172.30759,4221.025538,4221.025538,4216.410153,4221.025538,4208.717846,4220.512717,4223.58964,4171.281949,4198.461436,4191.794769
60,0,4195.384513,4185.128103,4217.948615,4164.102462,4205.640923,4217.435794,4217.948615,4230.256307,4214.871692,4246.666563,4231.281948,4175.897334,4208.717846,4189.230667
61,0,4193.333231,4182.564,4217.435794,4166.666565,4209.230666,4217.435794,4218.974256,4224.615281,4215.384512,4230.769127,4221.025538,4168.205026,4193.846051,4202.051179
62,0,4190.769128,4194.871692,4212.82041,4181.025539,4227.692204,4225.640922,4222.563999,4217.435794,4212.82041,4179.999898,4223.58964,4166.666565,4189.743487,4208.717846
63,0,4196.922974,4197.435795,4216.410153,4179.487077,4209.230666,4221.025538,4219.999897,4219.999897,4208.717846,4191.281949,4234.871691,4172.30759,4201.025538,4198.461436
64,0,4202.051179,4186.666564,4218.974256,4170.256308,4181.025539,4211.281948,4211.281948,4217.948615,4203.589641,4232.820409,4231.794768,4173.846052,4203.589641,4202.564
65,0,4201.025538,4185.128103,4215.897333,4172.30759,4192.30759,4215.897333,4214.358871,4211.794769,4199.999897,4204.102461,4228.205025,4172.30759,4198.974256,4211.794769
66,0,4200.512718,4192.30759,4213.33323,4170.256308,4217.435794,4219.487076,4223.58964,4220.512717,4201.538359,4178.974257,4231.794768,4172.30759,4195.384513,4199.487077
67,0,4202.051179,4188.717846,4214.358871,4163.589642,4219.487076,4213.846051,4222.051179,4228.717845,4204.615282,4224.102461,4227.179384,4170.769129,4192.82041,4187.179385
68,0,4194.871692,4181.025539,4213.33323,4172.30759,4212.82041,4215.897333,4219.999897,4227.692204,4202.564,4244.10246,4226.153743,4164.102462,4192.30759,4193.333231
69,0,4191.281949,4189.743487,4212.82041,4184.102462,4214.871692,4222.051179,4222.563999,4225.128102,4200.512718,4215.897333,4229.230666,4161.53836,4196.922974,4202.051179
70,0,4198.461436,4201.538359,4215.384512,4179.487077,4218.974256,4218.461435,4219.487076,4221.538358,4204.102461,4220.512717,4224.615281,4164.615283,4202.564,4201.025538
71,0,4202.564,4199.999897,4215.897333,4168.717847,4216.410153,4214.358871,4215.897333,4218.461435,4204.615282,4229.743486,4228.205025,4166.666565,4204.615282,4198.974256
72,0,4198.461436,4192.82041,4211.794769,4167.692206,4210.256307,4222.051179,4218.461435,4218.974256,4202.564,4209.743487,4231.281948,4169.230667,4204.102461,4201.025538
73,0,4193.333231,4186.153744,4209.743487,4170.769129,4212.307589,4226.153743,4217.948615,4218.461435,4205.128102,4212.82041,4217.435794,4164.102462,4198.461436,4199.999897
74,0,4189.230667,4183.589641,4211.281948,4168.205026,4218.461435,4216.410153,4218.461435,4216.410153,4203.589641,4213.846051,4216.410153,4150.256309,4194.358872,4196.922974
75,0,4191.794769,4191.794769,4214.358871,4169.743488,4206.666564,4204.102461,4216.922974,4212.82041,4196.922974,4198.461436,4231.794768,4156.922975,4200.512718,4199.999897
76,0,4197.435795,4196.410154,4213.846051,4172.30759,4191.794769,4199.487077,4205.128102,4202.564,4193.846051,4209.230666,4228.717845,4171.281949,4199.999897,4201.025538
77,0,4198.974256,4192.82041,4215.897333,4169.230667,4202.051179,4210.256307,4205.128102,4200.512718,4197.435795,4228.717845,4221.538358,4171.281949,4193.333231,4200.512718
78,0,4202.051179,4194.358872,4223.07682,4172.820411,4217.435794,4221.025538,4219.999897,4216.410153,4201.538359,4223.07682,4229.743486,4169.230667,4195.897333,4203.589641
79,0,4201.538359,4198.461436,4221.538358,4176.410154,4216.922974,4221.025538,4225.128102,4229.230666,4202.564,4207.179384,4233.33323,4170.769129,4203.07682,4202.564
80,0,4197.948615,4201.025538,4215.897333,4169.230667,4214.358871,4223.07682,4219.487076,4234.358871,4203.07682,4200.512718,4228.205025,4167.692206,4208.205025,4204.615282
81,0,4196.922974,4201.025538,4213.33323,4171.79477,4216.922974,4226.666563,4216.922974,4229.230666,4203.589641,4209.743487,4223.07682,4158.974257,4207.179384,4210.769128
82,0,4198.461436,4194.358872,4212.307589,4180.512718,4219.487076,4218.974256,4214.871692,4217.435794,4203.07682,4233.33323,4219.999897,4154.871693,4199.999897,4208.205025
83,0,4201.538359,4193.846051,4209.743487,4175.897334,4218.461435,4213.33323,4213.33323,4221.025538,4204.102461,4235.384512,4226.153743,4157.435796,4206.666564,4199.999897
84,0,4206.153743,4201.025538,4212.307589,4173.846052,4199.487077,4217.435794,4215.384512,4228.717845,4206.666564,4217.948615,4229.743486,4161.025539,4218.974256,4201.538359
85,0,4200.512718,4195.897333,4212.307589,4172.30759,4178.461436,4214.358871,4211.281948,4217.435794,4201.538359,4212.307589,4219.487076,4151.28195,4209.230666,4202.564
86,0,4191.794769,4189.230667,4211.794769,4166.666565,4197.435795,4211.281948,4209.230666,4207.692205,4197.435795,4213.33323,4216.410153,4150.769129,4202.564,4199.487077
87,0,4201.538359,4200.512718,4218.974256,4178.974257,4234.358871,4218.974256,4217.948615,4217.948615,4207.179384,4213.846051,4228.205025,4165.640924,4217.435794,4208.717846
88,0,4211.794769,4210.256307,4220.512717,4189.230667,4233.33323,4222.051179,4223.58964,4225.640922,4209.230666,4214.358871,4230.769127,4163.589642,4219.999897,4214.358871
89,0,4201.025538,4201.538359,4206.153743,4176.410154,4209.230666,4217.435794,4214.871692,4216.410153,4201.538359,4224.615281,4219.487076,4151.28195,4210.256307,4206.153743
90,0,4198.974256,4196.922974,4203.07682,4174.358872,4210.769128,4222.563999,4211.794769,4210.769128,4207.179384,4242.051178,4224.615281,4160.512719,4222.051179,4206.666564
91,0,4217.435794,4211.794769,4220.512717,4196.410154,4235.384512,4233.84605,4224.615281,4224.102461,4218.974256,4259.487075,4238.461435,4188.205026,4244.615281,4219.999897
92,0,4221.025538,4222.563999,4227.692204,4202.051179,4242.563999,4235.897332,4230.769127,4233.33323,4218.461435,4249.230665,4229.743486,4199.999897,4240.512717,4223.07682
93,0,4205.128102,4209.743487,4217.948615,4183.589641,4224.102461,4232.307589,4220.512717,4221.538358,4213.846051,4212.82041,4213.846051,4187.179385,4214.358871,4206.153743
94,0,4195.897333,4195.897333,4213.33323,4177.435795,4212.82041,4231.794768,4212.307589,4207.692205,4206.666564,4210.256307,4221.025538,4177.435795,4210.256307,4192.82041
95,0,4201.025538,4202.564,4216.922974,4186.153744,4213.33323,4231.794768,4216.922974,4216.922974,4206.666564,4246.666563,4229.743486,4185.128103,4228.717845,4205.640923
96,0,4201.025538,4206.666564,4212.82041,4186.153744,4203.589641,4229.743486,4219.999897,4227.179384,4215.897333,4252.307588,4215.384512,4179.999898,4225.640922,4216.922974
97,0,4201.538359,4199.999897,4213.33323,4189.230667,4204.102461,4227.692204,4214.871692,4215.384512,4207.692205,4217.435794,4210.769128,4170.769129,4212.82041,4204.102461
98,0,4211.794769,4204.102461,4226.666563,4205.128102,4219.487076,4228.717845,4212.82041,4203.589641,4195.897333,4206.666564,4224.102461,4188.205026,4220.512717,4201.025538
99,0,4216.410153,4218.461435,4234.358871,4205.128102,4224.102461,4232.307589,4217.948615,4210.769128,4209.230666,4237.948614,4224.615281,4201.538359,4230.769127,4221.538358
100,0,4208.717846,4218.461435,4222.563999,4192.82041,4222.563999,4232.307589,4221.538358,4221.025538,4219.487076,4254.871691,4217.435794,4191.281949,4225.640922,4221.025538
101,0,4203.07682,4205.640923,4210.769128,4194.358872,4224.102461,4229.230666,4214.871692,4215.384512,4212.307589,4227.692204,4224.102461,4179.999898,4213.846051,4194.358872
102,0,4202.564,4204.102461,4211.794769,4206.666564,4217.948615,4229.743486,4208.717846,4211.794769,4213.33323,4213.846051,4229.230666,4177.435795,4213.846051,4187.692205
103,0,4206.153743,4211.281948,4221.538358,4213.33323,4215.384512,4232.820409,4215.384512,4227.179384,4217.948615,4246.666563,4230.256307,4186.666564,4231.281948,4214.358871
104,0,4209.230666,4216.410153,4227.179384,4208.205025,4223.07682,4236.410153,4222.051179,4234.358871,4215.384512,4271.281947,4241.025537,4198.461436,4238.974255,4232.820409
105,0,4203.589641,4213.33323,4221.538358,4198.461436,4213.846051,4229.230666,4214.871692,4221.025538,4212.82041,4252.307588,4242.051178,4190.256308,4222.051179,4215.384512
106,0,4196.410154,4201.538359,4212.307589,4195.384513,4193.333231,4216.922974,4205.128102,4212.82041,4212.307589,4228.717845,4218.461435,4181.538359,4211.281948,4195.897333
107,0,4201.025538,4196.922974,4219.487076,4197.948615,4203.07682,4218.461435,4202.564,4219.487076,4216.922974,4216.410153,4208.717846,4193.846051,4214.871692,4205.640923
108,0,4205.640923,4203.589641,4232.820409,4206.666564,4219.999897,4219.999897,4202.564,4215.897333,4213.846051,4198.974256,4225.128102,4202.564,4213.846051,4217.948615
109,0,4207.179384,4205.640923,4235.384512,4215.384512,4211.281948,4213.846051,4210.256307,4211.794769,4205.128102,4209.743487,4236.922973,4202.051179,4211.281948,4210.769128
110,0,4202.051179,4199.487077,4229.743486,4208.717846,4195.897333,4214.871692,4212.307589,4212.307589,4202.564,4249.743486,4221.538358,4193.333231,4204.615282,4204.102461
111,0,4193.333231,4196.922974,4226.153743,4197.948615,4196.410154,4217.948615,4203.589641,4205.640923,4203.589641,4246.153742,4208.205025,4180.512718,4199.999897,4210.769128
112,0,4200.512718,4199.999897,4229.230666,4202.564,4206.153743,4214.358871,4206.153743,4208.717846,4206.666564,4202.051179,4227.692204,4188.205026,4219.487076,4219.999897
113,0,4213.846051,4211.794769,4234.358871,4215.897333,4217.948615,4214.871692,4218.974256,4225.128102,4214.871692,4217.948615,4240.512717,4209.230666,4235.897332,4225.128102
114,0,4214.871692,4222.051179,4232.307589,4223.58964,4224.102461,4224.102461,4222.563999,4236.410153,4222.051179,4257.948614,4225.640922,4207.692205,4224.102461,4226.666563
115,0,4206.666564,4213.846051,4222.563999,4215.384512,4209.743487,4218.461435,4213.846051,4234.358871,4214.871692,4227.692204,4216.410153,4191.794769,4214.358871,4215.897333
116,0,4198.974256,4196.922974,4214.358871,4198.461436,4194.871692,4203.07682,4206.153743,4219.487076,4205.640923,4193.846051,4219.999897,4184.615282,4211.281948,4200.512718
117,0,4196.922974,4197.948615,4216.922974,4199.487077,4201.025538,4207.692205,4210.769128,4213.33323,4208.205025,4222.563999,4224.102461,4182.564,4202.564,4200.512718
118,0,4204.102461,4211.281948,4228.205025,4215.384512,4216.922974,4229.743486,4220.512717,4226.666563,4218.974256,4258.461434,4232.307589,4188.717846,4210.256307,4215.897333
119,0,4206.153743,4212.82041,4223.58964,4216.922974,4228.205025,4237.435794,4217.435794,4235.384512,4225.128102,4259.999896,4234.358871,4194.358872,4225.128102,4224.102461
120,0,4205.640923,4209.230666,4213.846051,4212.82041,4228.717845,4227.179384,4210.256307,4231.281948,4221.538358,4247.179383,4226.666563,4190.769128,4222.051179,4219.999897
121,0,4209.743487,4210.769128,4217.435794,4217.435794,4221.025538,4225.128102,4215.384512,4225.128102,4218.974256,4238.974255,4221.025538,4190.256308,4221.025538,4219.999897
122,0,4205.128102,4199.487077,4217.948615,4204.615282,4204.615282,4227.692204,4217.435794,4218.974256,4216.410153,4225.640922,4216.410153,4189.743487,4224.615281,4216.410153
123,0,4193.846051,4185.640923,4209.743487,4186.666564,4208.717846,4228.205025,4212.82041,4218.461435,4214.871692,4209.743487,4217.435794,4184.102462,4215.897333,4207.692205
124,0,4195.384513,4198.974256,4214.358871,4200.512718,4225.640922,4230.256307,4214.871692,4226.666563,4216.410153,4220.512717,4228.205025,4183.076821,4214.871692,4214.358871
125,0,4204.102461,4211.794769,4219.999897,4222.051179,4209.743487,4232.307589,4216.922974,4229.230666,4219.487076,4251.794768,4230.769127,4184.615282,4224.102461,4223.07682
126,0,4203.589641,4197.435795,4211.281948,4215.384512,4197.948615,4231.281948,4214.871692,4228.205025,4219.999897,4270.256306,4224.102461,4181.538359,4216.410153,4213.33323
127,0,4194.871692,4190.256308,4210.256307,4199.999897,4221.538358,4229.743486,4216.410153,4232.307589,4217.435794,4270.256306,4220.512717,4183.076821,4213.33323,4199.487077
128,0,4191.281949,4203.589641,4215.384512,4197.435795,4231.794768,4232.307589,4221.538358,4234.358871,4222.051179,4232.820409,4221.538358,4188.717846,4224.615281,4205.128102
0,0,4195.897333,4203.589641,4214.358871,4199.487077,4216.922974,4231.281948,4219.487076,4237.948614,4231.281948,4198.974256,4226.666563,4188.205026,4223.58964,4216.922974
1,0,4201.538359,4194.358872,4214.358871,4197.948615,4212.82041,4220.512717,4212.307589,4235.897332,4228.717845,4230.769127,4225.128102,4188.717846,4216.410153,4219.999897
2,0,4201.025538,4206.153743,4218.974256,4200.512718,4216.922974,4215.384512,4210.769128,4223.58964,4217.948615,4263.076819,4219.487076,4189.230667,4217.435794,4216.410153
3,0,4198.461436,4217.435794,4218.461435,4206.666564,4213.846051,4225.128102,4213.33323,4221.538358,4222.563999,4249.743486,4217.435794,4178.974257,4216.922974,4215.897333
4,0,4203.07682,4208.205025,4214.358871,4212.307589,4206.153743,4231.281948,4214.871692,4231.794768,4233.84605,4248.717845,4223.07682,4171.281949,4216.410153,4217.435794
5,0,4206.153743,4203.589641,4214.358871,4215.897333,4210.256307,4230.769127,4217.435794,4236.410153,4230.769127,4253.333229,4227.692204,4179.999898,4225.128102,4218.974256
6,0,4203.589641,4215.384512,4217.948615,4213.846051,4234.358871,4233.33323,4219.487076,4235.897332,4222.563999,4228.717845,4222.563999,4191.281949,4231.794768,4218.461435
7,0,4206.666564,4227.692204,4217.435794,4207.692205,4245.128101,4231.794768,4217.435794,4231.794768,4219.487076,4232.820409,4217.435794,4184.102462,4230.769127,4213.33323
8,0,4212.82041,4228.205025,4218.461435,4203.07682,4222.563999,4226.153743,4213.846051,4218.974256,4217.948615,4263.076819,4221.538358,4173.333231,4231.794768,4216.410153
9,0,4208.717846,4221.025538,4216.410153,4202.564,4204.102461,4228.717845,4212.82041,4214.871692,4216.410153,4256.922973,4221.025538,4174.358872,4231.281948,4220.512717
10,0,4202.051179,4216.410153,4215.897333,4208.205025,4199.487077,4233.84605,4215.384512,4228.205025,4217.948615,4231.794768,4216.410153,4177.435795,4223.58964,4211.281948
11,0,4196.410154,4216.922974,4214.358871,4216.922974,4198.461436,4230.769127,4214.358871,4232.307589,4216.410153,4219.487076,4213.33323,4171.79477,4211.794769,4207.179384
12,0,4196.410154,4216.922974,4211.281948,4214.358871,4218.461435,4232.307589,4213.33323,4220.512717,4214.358871,4219.999897,4215.384512,4168.205026,4207.179384,4215.384512
13,0,4203.589641,4220.512717,4209.743487,4204.102461,4236.410153,4233.33323,4220.512717,4213.33323,4215.897333,4222.563999,4218.461435,4172.820411,4213.846051,4216.922974
14,0,4210.769128,4227.692204,4214.358871,4206.153743,4230.769127,4232.820409,4223.58964,4221.538358,4219.487076,4231.794768,4221.025538,4174.358872,4226.153743,4214.358871
15,0,4207.179384,4229.230666,4218.461435,4216.410153,4223.07682,4243.58964,4223.58964,4234.358871,4224.102461,4246.666563,4217.948615,4175.384513,4229.230666,4218.461435
16,0,4208.205025,4229.743486,4217.948615,4217.948615,4218.974256,4246.666563,4224.615281,4236.922973,4230.769127,4255.384511,4217.435794,4177.948616,4226.666563,4218.461435
17,0,4216.922974,4232.307589,4219.487076,4214.358871,4216.410153,4232.307589,4222.563999,4234.358871,4229.743486,4249.743486,4229.230666,4178.974257,4237.948614,4222.563999
18,0,4216.410153,4231.281948,4221.538358,4215.384512,4217.435794,4223.07682,4216.410153,4230.769127,4217.948615,4237.435794,4236.922973,4182.05118,4243.076819,4235.897332
19,0,4214.871692,4229.230666,4224.102461,4216.922974,4219.999897,4232.307589,4217.435794,4229.230666,4215.897333,4240.512717,4235.384512,4188.717846,4232.820409,4243.076819
20,0,4224.615281,4239.999896,4231.281948,4219.487076,4213.846051,4246.153742,4227.179384,4231.794768,4227.692204,4241.538358,4236.922973,4195.897333,4236.410153,4246.666563
21,0,4235.384512,4251.281947,4236.922973,4230.256307,4214.871692,4252.820409,4236.410153,4235.384512,4233.33323,4231.794768,4235.384512,4197.948615,4246.153742,4251.794768
22,0,4231.794768,4241.538358,4233.33323,4232.820409,4225.128102,4245.128101,4229.743486,4231.794768,4235.897332,4240.512717,4227.692204,4192.82041,4243.076819,4251.794768
23,0,4225.128102,4229.230666,4225.640922,4218.974256,4233.33323,4238.974255,4216.922974,4230.769127,4239.999896,4267.692203,4232.820409,4190.256308,4244.615281,4246.153742
24,0,4227.692204,4240.512717,4221.025538,4216.410153,4240.512717,4247.179383,4224.615281,4245.128101,4239.487076,4265.640921,4243.58964,4191.794769,4252.820409,4242.051178
25,0,4223.07682,4245.128101,4215.384512,4217.948615,4229.230666,4243.58964,4228.717845,4249.743486,4232.307589,4235.384512,4230.769127,4178.461436,4237.435794,4227.179384
26,0,4206.153743,4226.666563,4213.846051,4203.07682,4212.82041,4226.666563,4217.435794,4234.358871,4229.230666,4227.692204,4213.33323,4167.179385,4209.743487,4210.769128
27,0,4210.769128,4224.102461,4223.58964,4205.128102,4215.384512,4231.794768,4225.640922,4229.743486,4232.307589,4237.948614,4221.538358,4181.025539,4206.153743,4221.025538
28,0,4222.563999,4228.205025,4225.128102,4217.435794,4214.871692,4246.153742,4234.358871,4236.922973,4233.33323,4237.435794,4225.640922,4188.205026,4214.358871,4235.897332
29,0,4214.871692,4219.487076,4216.410153,4207.692205,4214.871692,4238.974255,4221.025538,4233.33323,4229.230666,4230.769127,4214.871692,4179.487077,4217.435794,4228.717845
30,0,4215.897333,4222.051179,4219.487076,4202.564,4230.256307,4230.769127,4218.461435,4232.307589,4230.769127,4235.897332,4223.07682,4184.615282,4225.640922,4231.794768
31,0,4233.84605,4233.84605,4234.871691,4213.846051,4226.153743,4228.205025,4226.153743,4235.897332,4232.307589,4233.84605,4240.512717,4195.897333,4237.948614,4250.769127
32,0,4228.717845,4231.794768,4232.820409,4214.358871,4205.128102,4223.07682,4218.974256,4224.102461,4221.025538,4216.410153,4232.820409,4187.692205,4232.307589,4241.538358
33,0,4221.025538,4235.897332,4227.692204,4211.794769,4206.153743,4220.512717,4213.846051,4218.461435,4218.461435,4233.84605,4223.58964,4183.076821,4231.281948,4232.820409
34,0,4232.820409,4243.076819,4228.717845,4208.205025,4204.615282,4214.871692,4219.999897,4230.256307,4232.820409,4268.205024,4232.307589,4187.179385,4246.153742,4247.692204
35,0,4233.33323,4235.384512,4224.102461,4198.974256,4205.128102,4211.794769,4224.615281,4235.897332,4235.897332,4250.256306,4234.358871,4183.076821,4238.974255,4245.640922
36,0,4222.051179,4231.794768,4218.461435,4204.102461,4230.256307,4218.974256,4223.58964,4236.922973,4230.256307,4208.717846,4221.025538,4175.384513,4217.435794,4224.102461
37,0,4210.769128,4228.205025,4209.743487,4205.640923,4222.563999,4221.538358,4217.435794,4229.230666,4230.256307,4207.692205,4204.102461,4163.589642,4206.153743,4211.794769
38,0,4205.640923,4215.384512,4205.128102,4196.410154,4200.512718,4220.512717,4213.846051,4218.461435,4232.307589,4240.512717,4205.640923,4158.461437,4212.307589,4215.897333
39,0,4214.358871,4222.563999,4214.358871,4200.512718,4224.102461,4230.256307,4221.025538,4221.025538,4231.794768,4258.974255,4228.205025,4169.743488,4225.640922,4224.615281
40,0,4223.07682,4236.922973,4219.999897,4202.051179,4225.640922,4228.205025,4224.102461,4226.666563,4230.769127,4236.410153,4228.717845,4174.358872,4223.07682,4223.58964
41,0,4215.897333,4230.769127,4211.281948,4194.358872,4194.871692,4217.435794,4216.410153,4222.051179,4229.230666,4217.435794,4210.256307,4164.615283,4214.358871,4216.922974
42,0,4215.384512,4230.769127,4211.794769,4198.461436,4215.384512,4227.179384,4216.922974,4224.615281,4229.743486,4225.640922,4215.897333,4165.128103,4223.07682,4221.025538
43,0,4222.051179,4234.358871,4217.948615,4199.487077,4244.615281,4233.84605,4222.051179,4235.384512,4230.769127,4227.692204,4223.58964,4166.666565,4224.102461,4222.563999
44,0,4213.33323,4218.461435,4208.717846,4182.564,4223.58964,4222.563999,4219.999897,4230.256307,4226.666563,4222.563999,4208.205025,4156.922975,4203.589641,4212.82041
45,0,4203.589641,4217.948615,4201.538359,4178.974257,4207.692205,4213.846051,4214.358871,4215.384512,4218.974256,4221.025538,4196.922974,4153.333232,4197.435795,4214.871692
46,0,4210.256307,4232.307589,4209.230666,4197.435795,4210.769128,4214.871692,4213.846051,4210.769128,4216.410153,4207.179384,4198.461436,4157.948616,4201.025538,4220.512717
47,0,4215.384512,4222.051179,4212.307589,4203.589641,4208.717846,4225.640922,4221.025538,4219.487076,4220.512717,4212.82041,4203.589641,4160.512719,4202.051179,4213.33323
48,0,4214.871692,4213.846051,4210.769128,4200.512718,4223.58964,4229.743486,4230.256307,4232.820409,4224.102461,4239.487076,4213.846051,4163.589642,4215.897333,4214.871692
49,0,4215.897333,4224.102461,4212.307589,4204.615282,4235.384512,4220.512717,4230.256307,4232.820409,4220.512717,4228.205025,4217.948615,4165.128103,4225.640922,4221.025538
50,0,4215.897333,4223.07682,4214.358871,4201.538359,4216.922974,4215.384512,4224.615281,4229.230666,4218.461435,4204.102461,4211.794769,4169.230667,4217.435794,4215.897333
51,0,4214.358871,4219.999897,4213.846051,4186.666564,4212.307589,4218.974256,4226.153743,4231.794768,4225.640922,4223.07682,4210.256307,4177.948616,4215.897333,4218.974256
52,0,4218.974256,4228.717845,4215.384512,4188.205026,4235.897332,4222.563999,4234.871691,4237.435794,4236.410153,4250.769127,4216.410153,4188.717846,4232.307589,4238.461435
53,0,4222.051179,4229.230666,4216.922974,4203.07682,4238.461435,4228.717845,4236.922973,4237.948614,4239.487076,4258.974255,4216.410153,4194.358872,4236.922973,4244.10246
54,0,4215.384512,4224.615281,4213.846051,4205.640923,4224.102461,4227.179384,4231.794768,4228.717845,4227.692204,4255.897332,4207.179384,4185.640923,4219.487076,4230.256307
55,0,4207.692205,4223.07682,4207.179384,4198.974256,4216.922974,4215.384512,4228.717845,4215.897333,4215.384512,4221.538358,4196.410154,4171.281949,4208.717846,4218.974256
56,0,4209.743487,4218.974256,4205.128102,4194.871692,4199.999897,4213.846051,4227.179384,4214.871692,4215.897333,4198.461436,4192.82041,4169.230667,4213.846051,4210.256307
57,0,4209.743487,4214.358871,4206.666564,4196.922974,4190.769128,4215.897333,4222.563999,4219.999897,4222.051179,4227.692204,4199.999897,4176.922975,4217.435794,4201.538359
58,0,4197.948615,4211.794769,4204.102461,4197.435795,4216.922974,4212.82041,4219.999897,4217.948615,4226.666563,4225.128102,4204.615282,4183.076821,4215.897333,4204.102461
59,0,4196.922974,4213.33323,4202.051179,4193.846051,4238.461435,4214.871692,4226.153743,4219.999897,4229.230666,4199.487077,4204.615282,4186.153744,4216.410153,4218.461435
60,0,4209.230666,4221.025538,4205.640923,4195.897333,4221.025538,4218.461435,4226.153743,4225.640922,4229.743486,4233.84605,4208.717846,4185.640923,4216.410153,4220.512717
61,0,4213.33323,4225.128102,4212.307589,4209.230666,4198.974256,4215.897333,4219.999897,4227.179384,4228.205025,4264.10246,4205.640923,4185.128103,4216.922974,4210.769128
62,0,4208.717846,4218.974256,4215.384512,4214.358871,4205.128102,4213.33323,4223.07682,4230.256307,4230.256307,4244.10246,4203.07682,4187.692205,4225.640922,4217.948615
63,0,4214.358871,4222.051179,4213.846051,4210.256307,4219.487076,4217.435794,4232.307589,4232.307589,4231.281948,4239.487076,4216.410153,4188.717846,4236.922973,4236.922973
64,0,4221.538358,4234.871691,4211.281948,4213.846051,4223.07682,4221.538358,4240.512717,4235.897332,4231.794768,4249.743486,4223.07682,4187.692205,4239.487076,4235.897332
65,0,4218.461435,4231.281948,4214.871692,4218.461435,4213.846051,4219.487076,4239.487076,4238.974255,4233.33323,4248.717845,4216.410153,4191.281949,4234.871691,4221.538358
66,0,4211.794769,4216.410153,4216.410153,4215.384512,4212.82041,4216.922974,4231.794768,4235.384512,4235.897332,4241.025537,4217.435794,4193.846051,4233.84605,4222.051179
67,0,4215.384512,4223.07682,4219.487076,4219.999897,4233.84605,4220.512717,4230.769127,4235.384512,4236.410153,4228.205025,4225.128102,4193.333231,4237.435794,4234.358871
68,0,4218.461435,4233.33323,4219.999897,4229.230666,4241.025537,4218.461435,4231.794768,4231.794768,4229.743486,4236.410153,4216.922974,4188.205026,4234.358871,4232.307589
69,0,4209.230666,4221.538358,4211.281948,4217.435794,4222.051179,4217.948615,4228.205025,4216.922974,4225.640922,4249.743486,4195.384513,4171.281949,4223.58964,4217.435794
70,0,4201.025538,4217.948615,4203.589641,4202.051179,4215.384512,4225.640922,4228.717845,4217.948615,4230.256307,4233.33323,4195.897333,4164.615283,4219.487076,4209.230666
71,0,4208.717846,4231.794768,4205.128102,4212.82041,4223.07682,4226.153743,4235.897332,4235.384512,4232.820409,4226.153743,4211.794769,4182.564,4219.999897,4213.846051
72,0,4214.358871,4231.281948,4208.205025,4223.58964,4211.281948,4217.948615,4233.33323,4237.435794,4230.256307,4242.051178,4206.666564,4195.897333,4221.025538,4223.58964
73,0,4215.384512,4227.179384,4215.384512,4221.025538,4210.256307,4215.897333,4228.717845,4229.743486,4230.769127,4244.10246,4206.153743,4194.358872,4232.307589,4239.487076
74,0,4225.128102,4235.897332,4230.769127,4228.205025,4230.256307,4218.974256,4231.794768,4237.435794,4233.33323,4249.230665,4228.717845,4206.153743,4249.230665,4253.84605
75,0,4232.307589,4235.384512,4237.435794,4239.487076,4221.025538,4217.948615,4232.820409,4251.281947,4235.384512,4255.384511,4236.410153,4213.33323,4252.820409,4253.84605
76,0,4224.615281,4221.538358,4226.666563,4230.256307,4201.538359,4217.435794,4229.743486,4249.230665,4235.897332,4238.974255,4222.563999,4195.897333,4242.051178,4235.897332
77,0,4212.307589,4211.794769,4213.33323,4215.897333,4206.153743,4214.871692,4226.153743,4230.769127,4230.256307,4234.871691,4207.179384,4183.076821,4225.128102,4212.307589
78,0,4209.743487,4215.384512,4213.846051,4216.922974,4218.974256,4217.435794,4229.743486,4224.615281,4227.692204,4251.281947,4196.410154,4191.794769,4209.230666,4209.230666
79,0,4221.025538,4228.717845,4223.07682,4226.666563,4229.743486,4228.205025,4236.410153,4231.281948,4229.743486,4240.512717,4206.153743,4202.564,4219.999897,4233.84605
80,0,4228.717845,4226.666563,4224.615281,4230.769127,4225.640922,4225.640922,4235.384512,4231.281948,4226.153743,4209.230666,4221.538358,4197.435795,4243.076819,4253.333229
81,0,4219.999897,4212.307589,4215.384512,4230.256307,4197.435795,4212.82041,4227.692204,4228.205025,4223.07682,4216.410153,4214.358871,4190.256308,4246.153742,4248.717845
82,0,4223.58964,4221.025538,4217.435794,4232.820409,4202.051179,4218.461435,4228.205025,4230.769127,4230.256307,4243.58964,4216.410153,4196.410154,4246.153742,4246.153742
83,0,4237.948614,4234.358871,4226.666563,4234.871691,4240.512717,4231.794768,4231.281948,4232.307589,4234.358871,4238.974255,4230.256307,4203.07682,4250.769127,4249.743486
84,0,4235.897332,4222.563999,4228.205025,4231.794768,4225.128102,4220.512717,4231.281948,4235.384512,4234.871691,4233.33323,4223.07682,4203.589641,4251.794768,4250.769127
85,0,4229.230666,4211.794769,4227.692204,4230.256307,4187.179385,4209.230666,4238.461435,4245.128101,4241.538358,4263.589639,4217.435794,4209.230666,4267.179383,4255.384511
86,0,4235.384512,4219.487076,4236.410153,4231.794768,4201.538359,4225.640922,4249.230665,4248.717845,4245.640922,4284.61528,4231.794768,4219.487076,4284.61528,4263.076819
87,0,4238.974255,4223.07682,4243.076819,4230.256307,4222.563999,4236.922973,4250.769127,4248.205024,4241.538358,4253.84605,4237.435794,4223.07682,4273.333229,4269.230665
88,0,4234.871691,4218.461435,4243.076819,4228.717845,4217.948615,4226.153743,4247.179383,4248.717845,4239.487076,4228.717845,4233.33323,4223.58964,4256.922973,4267.692203
89,0,4226.153743,4215.897333,4239.487076,4232.307589,4214.871692,4217.435794,4245.640922,4242.051178,4235.897332,4248.717845,4231.281948,4214.871692,4250.769127,4254.871691
90,0,4219.487076,4217.435794,4233.33323,4232.307589,4207.179384,4215.384512,4241.025537,4231.281948,4226.153743,4262.051178,4223.07682,4204.102461,4234.871691,4242.563999
91,0,4221.538358,4213.846051,4228.205025,4233.33323,4201.538359,4215.897333,4233.33323,4230.256307,4224.102461,4231.281948,4213.33323,4199.487077,4227.179384,4234.358871
92,0,4227.692204,4215.384512,4227.179384,4231.794768,4217.948615,4223.07682,4235.897332,4240.512717,4230.769127,4215.384512,4214.871692,4201.538359,4241.025537,4233.33323
93,0,4228.717845,4225.128102,4231.794768,4222.563999,4224.102461,4222.563999,4243.58964,4246.153742,4234.358871,4248.205024,4217.948615,4205.640923,4247.179383,4244.615281
94,0,4222.051179,4223.58964,4229.743486,4216.410153,4208.205025,4215.384512,4237.948614,4236.410153,4228.205025,4243.58964,4214.358871,4197.948615,4235.897332,4249.743486
95,0,4216.410153,4213.33323,4222.051179,4219.999897,4212.82041,4224.102461,4228.717845,4228.205025,4224.102461,4202.051179,4214.358871,4189.743487,4235.897332,4242.563999
96,0,4221.025538,4213.846051,4223.07682,4218.461435,4227.179384,4229.743486,4234.358871,4240.512717,4230.256307,4233.33323,4215.897333,4197.435795,4248.717845,4242.051178
97,0,4225.640922,4218.461435,4229.743486,4213.33323,4211.794769,4215.897333,4238.461435,4253.333229,4235.897332,4288.205023,4215.384512,4204.615282,4250.769127,4248.717845
98,0,4224.615281,4216.922974,4232.307589,4222.051179,4201.025538,4216.410153,4231.281948,4246.666563,4233.33323,4262.051178,4221.538358,4202.051179,4247.179383,4250.769127
99,0,4229.230666,4214.871692,4234.871691,4233.33323,4211.281948,4234.358871,4233.84605,4242.051178,4231.281948,4231.794768,4228.717845,4205.640923,4249.743486,4251.281947
100,0,4229.743486,4215.384512,4230.256307,4227.692204,4216.922974,4234.358871,4242.563999,4250.256306,4233.33323,4250.769127,4220.512717,4210.256307,4249.743486,4247.179383
101,0,4225.128102,4219.487076,4224.615281,4216.922974,4218.974256,4228.205025,4238.461435,4256.922973,4232.307589,4244.615281,4212.307589,4203.589641,4244.615281,4245.640922
102,0,4225.640922,4221.025538,4226.153743,4216.922974,4222.051179,4232.307589,4231.794768,4247.692204,4227.692204,4220.512717,4219.487076,4196.922974,4241.538358,4242.563999
103,0,4229.230666,4216.922974,4227.692204,4219.999897,4224.102461,4234.358871,4231.281948,4234.358871,4226.666563,4234.358871,4220.512717,4197.948615,4243.58964,4232.307589
104,0,4229.230666,4222.563999,4226.153743,4219.487076,4219.487076,4231.281948,4235.384512,4237.435794,4228.205025,4256.922973,4219.487076,4202.564,4248.205024,4241.538358
105,0,4228.205025,4231.794768,4232.820409,4230.769127,4216.410153,4235.897332,4240.512717,4248.717845,4231.794768,4258.974255,4232.820409,4208.205025,4246.153742,4260.512716
106,0,4232.820409,4233.33323,4236.922973,4245.640922,4226.153743,4244.615281,4242.563999,4251.794768,4232.820409,4246.153742,4238.461435,4214.358871,4245.640922,4258.461434
107,0,4238.461435,4228.717845,4229.743486,4238.974255,4233.84605,4243.076819,4237.435794,4243.58964,4229.743486,4231.281948,4223.07682,4211.794769,4245.128101,4246.153742
108,0,4226.666563,4218.974256,4221.538358,4221.025538,4216.410153,4234.871691,4231.281948,4233.33323,4228.717845,4230.256307,4211.281948,4193.333231,4231.794768,4236.922973
109,0,4212.307589,4208.717846,4221.025538,4217.435794,4197.435795,4225.640922,4229.743486,4231.794768,4226.666563,4233.33323,4208.205025,4182.05118,4220.512717,4226.666563
110,0,4219.487076,4215.384512,4225.128102,4215.384512,4215.897333,4226.666563,4229.230666,4230.769127,4219.999897,4234.358871,4211.281948,4191.281949,4224.102461,4227.692204
111,0,4230.769127,4225.640922,4226.666563,4210.256307,4235.897332,4234.358871,4225.128102,4219.487076,4215.384512,4229.743486,4213.846051,4194.358872,4226.666563,4236.410153
112,0,4224.102461,4222.563999,4225.128102,4222.563999,4219.999897,4229.743486,4222.051179,4211.794769,4216.922974,4210.769128,4210.256307,4186.153744,4229.743486,4235.384512
113,0,4215.897333,4222.563999,4224.102461,4236.922973,4202.564,4222.051179,4221.538358,4221.025538,4216.922974,4195.897333,4208.717846,4187.179385,4234.358871,4232.820409
114,0,4222.563999,4233.33323,4226.153743,4231.281948,4220.512717,4229.743486,4219.487076,4228.717845,4216.922974,4219.999897,4215.897333,4190.256308,4231.794768,4238.461435
115,0,4233.84605,4236.410153,4228.717845,4229.230666,4241.538358,4238.461435,4221.538358,4228.205025,4224.615281,4259.487075,4223.58964,4193.846051,4239.487076,4239.487076
116,0,4235.384512,4230.769127,4228.205025,4233.33323,4227.692204,4229.743486,4226.153743,4231.794768,4231.794768,4265.128101,4223.07682,4201.025538,4247.179383,4240.512717
117,0,4228.717845,4228.205025,4226.666563,4222.563999,4220.512717,4231.794768,4230.769127,4237.948614,4231.281948,4243.58964,4216.410153,4201.538359,4239.487076,4247.179383
118,0,4225.640922,4230.256307,4226.153743,4216.922974,4235.384512,4239.999896,4228.717845,4234.358871,4224.102461,4229.230666,4213.33323,4190.769128,4238.974255,4245.128101
119,0,4223.07682,4232.307589,4220.512717,4226.666563,4235.897332,4235.897332,4218.974256,4222.051179,4217.948615,4232.820409,4215.384512,4181.025539,4239.487076,4231.281948
120,0,4225.128102,4234.871691,4224.102461,4233.84605,4218.461435,4238.461435,4215.384512,4218.461435,4219.999897,4222.563999,4215.897333,4181.538359,4233.33323,4232.307589
121,0,4229.743486,4233.33323,4228.717845,4230.256307,4205.640923,4241.025537,4217.435794,4219.999897,4220.512717,4201.538359,4210.769128,4185.128103,4233.84605,4242.051178
122,0,4227.692204,4230.256307,4222.051179,4220.512717,4217.435794,4231.281948,4214.871692,4218.974256,4217.435794,4221.025538,4205.640923,4182.564,4234.358871,4234.358871
123,0,4226.666563,4235.384512,4216.922974,4219.487076,4235.384512,4228.717845,4218.974256,4223.58964,4221.025538,4257.948614,4207.179384,4178.461436,4228.717845,4226.153743
124,0,4237.948614,4245.640922,4228.717845,4232.820409,4236.410153,4243.58964,4231.794768,4233.84605,4227.692204,4251.794768,4218.974256,4185.128103,4236.410153,4239.999896
125,0,4241.538358,4245.640922,4234.871691,4237.948614,4229.230666,4245.640922,4226.153743,4235.384512,4226.153743,4218.974256,4217.948615,4187.179385,4247.692204,4251.794768
126,0,4235.384512,4239.999896,4229.743486,4228.205025,4227.692204,4233.33323,4213.846051,4226.153743,4220.512717,4217.435794,4210.256307,4184.102462,4245.128101,4250.256306
127,0,4236.922973,4244.10246,4231.794768,4233.33323,4227.179384,4232.307589,4220.512717,4222.563999,4216.922974,4227.692204,4223.07682,4194.871692,4245.640922,4249.743486
128,0,4236.410153,4247.179383,4233.84605,4235.897332,4229.230666,4234.871691,4225.128102,4227.692204,4216.410153,4217.948615,4226.153743,4201.538359,4242.051178,4251.794768
0,0,4230.769127,4237.435794,4228.205025,4219.999897,4230.256307,4230.769127,4217.435794,4232.307589,4222.051179,4222.563999,4205.640923,4192.30759,4234.358871,4249.743486
1,0,4232.820409,4231.794768,4226.153743,4219.999897,4222.563999,4228.717845,4214.871692,4228.205025,4230.769127,4247.692204,4205.640923,4187.692205,4238.974255,4244.10246
2,0,4237.435794,4238.461435,4228.205025,4233.84605,4216.922974,4233.84605,4215.897333,4221.025538,4227.692204,4244.10246,4219.487076,4189.230667,4242.563999,4237.435794
3,0,4236.410153,4244.615281,4227.179384,4232.307589,4215.897333,4233.84605,4211.794769,4220.512717,4219.999897,4224.615281,4216.410153,4190.769128,4236.922973,4238.461435
4,0,4243.58964,4247.692204,4231.794768,4229.230666,4221.538358,4232.820409,4216.410153,4228.717845,4222.051179,4239.487076,4217.435794,4198.974256,4243.58964,4255.384511
5,0,4253.84605,4251.794768,4238.461435,4234.871691,4231.794768,4233.84605,4229.230666,4236.410153,4227.179384,4250.769127,4221.025538,4203.07682,4254.35887,4265.640921
6,0,4246.666563,4245.128101,4234.358871,4228.717845,4233.33323,4231.281948,4227.179384,4231.281948,4221.025538,4217.948615,4209.230666,4193.846051,4240.512717,4256.410152
7,0,4230.769127,4230.769127,4221.025538,4222.051179,4230.769127,4229.230666,4215.384512,4218.974256,4210.256307,4188.205026,4197.948615,4178.974257,4219.999897,4239.487076
8,0,4227.179384,4232.307589,4216.410153,4228.717845,4225.640922,4230.256307,4216.410153,4214.871692,4211.281948,4210.256307,4202.051179,4171.79477,4223.58964,4230.769127
9,0,4230.769127,4240.512717,4219.487076,4224.102461,4226.153743,4225.640922,4222.563999,4218.461435,4213.33323,4238.461435,4211.281948,4177.435795,4230.256307,4235.897332
10,0,4227.692204,4235.897332,4216.410153,4208.205025,4226.666563,4221.025538,4219.999897,4217.948615,4208.717846,4225.128102,4210.769128,4182.564,4221.025538,4238.974255
11,0,4216.922974,4228.205025,4203.07682,4197.435795,4201.025538,4225.640922,4213.846051,4213.846051,4206.153743,4206.666564,4200.512718,4168.205026,4211.281948,4228.205025
12,0,4219.999897,4228.205025,4202.564,4198.461436,4190.256308,4237.948614,4219.999897,4223.07682,4213.33323,4207.179384,4201.538359,4161.53836,4218.974256,4226.666563
13,0,4236.922973,4232.307589,4221.538358,4213.846051,4237.948614,4251.794768,4235.897332,4246.153742,4224.615281,4226.153743,4213.846051,4184.615282,4232.307589,4247.179383
14,0,4239.999896,4236.922973,4228.205025,4224.102461,4257.948614,4248.205024,4235.384512,4252.820409,4226.153743,4249.743486,4214.871692,4193.846051,4234.358871,4252.307588
15,0,4230.769127,4237.948614,4213.846051,4221.025538,4218.974256,4236.410153,4221.538358,4235.384512,4217.435794,4227.179384,4209.743487,4176.922975,4231.794768,4231.281948
16,0,4226.666563,4230.769127,4207.692205,4210.769128,4206.153743,4237.948614,4219.487076,4225.128102,4211.281948,4201.538359,4204.615282,4171.79477,4229.743486,4221.025538
17,0,4227.179384,4231.281948,4214.871692,4203.07682,4221.538358,4244.10246,4227.692204,4234.871691,4214.871692,4238.974255,4198.461436,4181.025539,4226.153743,4226.666563
18,0,4227.692204,4235.384512,4215.384512,4207.179384,4224.102461,4242.563999,4228.717845,4242.563999,4218.461435,4267.692203,4196.922974,4179.999898,4222.563999,4229.743486
19,0,4232.307589,4237.948614,4218.461435,4214.358871,4235.897332,4246.666563,4230.769127,4239.487076,4218.974256,4253.333229,4209.230666,4187.179385,4232.307589,4232.307589
20,0,4236.922973,4243.58964,4231.794768,4219.999897,4248.205024,4249.230665,4231.281948,4234.871691,4218.461435,4242.051178,4217.948615,4206.666564,4247.692204,4239.487076
21,0,4231.794768,4241.025537,4233.33323,4214.871692,4222.051179,4234.358871,4219.487076,4225.128102,4209.230666,4224.615281,4202.051179,4206.153743,4235.897332,4236.410153
22,0,4218.974256,4225.640922,4219.487076,4205.640923,4193.333231,4223.58964,4209.743487,4222.051179,4206.153743,4209.743487,4189.743487,4196.922974,4213.846051,4223.07682
23,0,4213.846051,4218.461435,4216.922974,4200.512718,4208.205025,4234.871691,4218.461435,4231.794768,4215.384512,4231.281948,4199.999897,4200.512718,4217.435794,4222.051179
24,0,4219.999897,4225.640922,4221.025538,4202.564,4241.025537,4244.615281,4229.230666,4235.384512,4218.461435,4256.922973,4206.153743,4207.692205,4230.256307,4230.256307
25,0,4226.666563,4229.743486,4217.435794,4207.179384,4242.563999,4235.897332,4224.102461,4231.281948,4214.358871,4250.256306,4200.512718,4212.307589,4230.256307,4232.820409
26,0,4227.692204,4228.205025,4217.435794,4209.230666,4224.615281,4227.179384,4215.384512,4227.692204,4212.307589,4236.410153,4206.153743,4221.025538,4230.256307,4236.922973
27,0,4235.384512,4231.281948,4229.230666,4210.769128,4222.563999,4233.33323,4217.948615,4231.794768,4215.897333,4233.84605,4222.051179,4224.615281,4237.435794,4249.743486
28,0,4235.897332,4233.84605,4226.153743,4206.153743,4214.358871,4231.794768,4218.974256,4228.717845,4213.846051,4239.487076,4218.974256,4214.871692,4235.897332,4249.230665
29,0,4229.230666,4228.717845,4214.358871,4214.871692,4193.846051,4221.538358,4213.33323,4217.948615,4204.102461,4239.487076,4203.589641,4208.205025,4229.230666,4233.84605
30,0,4232.307589,4232.820409,4220.512717,4227.179384,4206.153743,4227.692204,4214.871692,4219.487076,4204.102461,4235.384512,4201.538359,4210.769128,4235.384512,4234.871691
31,0,4243.58964,4246.666563,4232.307589,4222.051179,4240.512717,4247.692204,4230.769127,4234.871691,4216.410153,4249.743486,4215.897333,4216.410153,4247.179383,4249.230665
32,0,4238.974255,4241.025537,4225.128102,4218.461435,4241.025537,4251.281947,4236.410153,4236.922973,4218.461435,4260.512716,4218.461435,4214.871692,4239.487076,4252.307588
33,0,4221.538358,4229.743486,4212.82041,4215.384512,4219.487076,4232.307589,4224.102461,4230.256307,4211.794769,4238.461435,4207.179384,4208.717846,4228.205025,4243.076819
34,0,4214.871692,4228.717845,4213.33323,4212.307589,4213.846051,4216.410153,4213.846051,4240.512717,4212.307589,4215.897333,4207.179384,4207.692205,4240.512717,4232.820409
35,0,4225.640922,4226.153743,4221.025538,4222.051179,4207.179384,4215.384512,4214.871692,4245.128101,4212.82041,4239.487076,4217.948615,4210.256307,4250.769127,4232.307589
36,0,4240.512717,4231.281948,4228.205025,4231.794768,4203.07682,4226.666563,4218.974256,4239.999896,4219.999897,4283.589639,4225.640922,4219.999897,4246.666563,4242.563999
37,0,4242.051178,4247.692204,4233.84605,4231.281948,4218.461435,4235.897332,4221.025538,4244.615281,4232.820409,4286.153741,4226.153743,4229.743486,4250.256306,4250.769127
38,0,4235.897332,4251.794768,4231.794768,4231.794768,4231.281948,4236.922973,4218.974256,4242.051178,4226.666563,4270.769126,4221.538358,4219.999897,4250.256306,4248.717845
39,0,4232.820409,4242.051178,4221.538358,4232.307589,4235.384512,4239.999896,4217.435794,4229.743486,4213.33323,4243.076819,4213.33323,4203.589641,4238.461435,4242.563999
40,0,4228.717845,4235.384512,4216.922974,4227.692204,4225.640922,4237.435794,4219.487076,4229.230666,4214.871692,4189.230667,4202.051179,4199.999897,4226.666563,4238.461435
41,0,4219.487076,4230.769127,4218.461435,4228.717845,4204.615282,4227.692204,4216.410153,4226.153743,4213.846051,4180.512718,4202.051179,4201.538359,4218.974256,4233.33323
42,0,4222.051179,4226.666563,4217.948615,4228.717845,4206.666564,4225.640922,4210.769128,4213.33323,4208.717846,4233.84605,4211.794769,4198.974256,4216.922974,4227.179384
43,0,4235.384512,4231.794768,4213.33323,4226.666563,4231.794768,4233.33323,4213.846051,4225.640922,4224.102461,4272.307588,4217.948615,4198.461436,4230.769127,4234.358871
44,0,4235.384512,4244.10246,4215.897333,4231.281948,4236.922973,4241.538358,4218.974256,4248.717845,4238.461435,4264.61528,4217.948615,4202.051179,4240.512717,4242.563999
45,0,4222.563999,4248.717845,4218.461435,4233.33323,4231.281948,4246.153742,4217.435794,4242.563999,4225.128102,4245.640922,4216.410153,4200.512718,4231.794768,4233.33323
46,0,4224.102461,4242.051178,4218.461435,4231.281948,4234.358871,4243.58964,4218.461435,4228.717845,4212.307589,4233.33323,4212.307589,4197.435795,4224.615281,4226.153743
47,0,4226.666563,4234.871691,4217.435794,4232.307589,4212.82041,4228.717845,4218.461435,4232.820409,4216.922974,4215.384512,4209.230666,4192.30759,4220.512717,4232.820409
48,0,4217.948615,4232.307589,4216.410153,4231.794768,4191.281949,4221.538358,4217.435794,4236.410153,4220.512717,4200.512718,4211.281948,4187.692205,4219.999897,4233.33323
49,0,4217.435794,4237.948614,4215.897333,4232.307589,4220.512717,4235.384512,4225.128102,4230.769127,4217.948615,4217.435794,4217.435794,4189.743487,4231.794768,4232.820409
50,0,4225.640922,4240.512717,4215.384512,4234.871691,4254.35887,4251.281947,4233.84605,4230.769127,4221.025538,4257.435793,4216.410153,4189.743487,4233.84605,4237.435794
51,0,4220.512717,4232.307589,4213.33323,4231.794768,4235.384512,4246.666563,4233.84605,4231.794768,4220.512717,4246.666563,4202.564,4184.102462,4214.358871,4230.256307
52,0,4222.563999,4233.33323,4218.974256,4227.179384,4211.281948,4233.84605,4227.692204,4221.025538,4213.33323,4191.281949,4201.025538,4186.153744,4208.717846,4228.717845
53,0,4245.640922,4250.769127,4230.769127,4235.897332,4218.461435,4232.820409,4221.538358,4213.33323,4211.794769,4189.230667,4216.922974,4203.589641,4228.717845,4248.205024
54,0,4261.538357,4259.487075,4234.358871,4247.179383,4217.435794,4232.307589,4218.461435,4216.922974,4214.358871,4222.051179,4222.051179,4212.82041,4238.461435,4266.153742
55,0,4271.281947,4265.128101,4227.179384,4246.153742,4203.07682,4228.205025,4214.871692,4218.461435,4215.384512,4221.538358,4212.82041,4198.974256,4229.743486,4271.281947
56,0,4301.538356,4289.230664,4229.230666,4247.179383,4200.512718,4225.640922,4213.33323,4219.999897,4213.33323,4213.33323,4212.82041,4195.897333,4233.33323,4282.051177
57,0,4346.66656,4313.333228,4247.179383,4264.10246,4203.07682,4222.563999,4219.487076,4232.820409,4218.974256,4213.846051,4223.58964,4220.512717,4248.205024,4313.846048
58,0,4373.846047,4325.64092,4255.384511,4276.922972,4197.948615,4217.948615,4213.33323,4233.33323,4218.461435,4198.974256,4219.999897,4231.794768,4249.743486,4345.640919
59,0,4391.281944,4342.563996,4253.333229,4279.487075,4181.538359,4213.33323,4197.948615,4216.410153,4202.564,4175.897334,4217.435794,4223.58964,4250.256306,4358.461432
60,0,4403.589636,4359.999893,4259.487075,4285.640921,4181.538359,4211.281948,4203.07682,4212.307589,4202.051179,4184.615282,4228.717845,4231.281948,4257.948614,4366.153739
61,0,4401.025533,4357.948611,4266.666562,4290.256305,4214.358871,4217.435794,4216.410153,4224.102461,4217.948615,4217.435794,4230.256307,4239.487076,4258.974255,4373.846047
62,0,4388.205021,4341.538355,4255.384511,4282.051177,4222.051179,4221.538358,4209.230666,4219.487076,4213.846051,4222.563999,4216.922974,4220.512717,4251.281947,4365.640919
63,0,4380.512713,4329.743484,4245.640922,4266.153742,4193.846051,4210.256307,4198.974256,4199.487077,4197.435795,4190.769128,4206.666564,4205.128102,4241.025537,4346.15374
64,0,4374.358867,4327.179381,4247.692204,4266.153742,4197.948615,4200.512718,4199.487077,4193.846051,4198.461436,4179.999898,4198.461436,4211.281948,4235.384512,4339.999894
65,0,4357.948611,4323.589638,4245.128101,4273.333229,4213.33323,4200.512718,4199.487077,4194.871692,4205.128102,4182.05118,4197.435795,4210.769128,4229.230666,4337.948612
66,0,4335.384509,4308.717843,4234.358871,4264.10246,4191.281949,4203.07682,4196.410154,4189.230667,4201.538359,4176.922975,4206.666564,4199.487077,4217.435794,4312.820407
67,0,4318.974253,4292.307587,4231.281948,4247.692204,4178.974257,4207.179384,4196.410154,4195.384513,4204.102461,4199.999897,4207.692205,4191.794769,4209.230666,4284.61528
68,0,4303.076818,4281.538357,4225.640922,4241.538358,4191.281949,4206.666564,4196.922974,4203.589641,4211.794769,4210.256307,4195.384513,4182.05118,4210.769128,4275.897331
69,0,4290.256305,4278.461434,4217.948615,4244.10246,4199.487077,4204.615282,4197.435795,4198.974256,4212.82041,4199.487077,4199.487077,4176.410154,4212.307589,4272.307588
70,0,4289.743485,4277.435793,4224.615281,4246.666563,4212.307589,4211.794769,4198.974256,4204.615282,4212.307589,4221.538358,4215.897333,4186.153744,4213.33323,4265.128101
71,0,4292.307587,4268.717844,4235.897332,4251.794768,4210.769128,4216.922974,4202.051179,4222.051179,4218.974256,4234.871691,4213.846051,4203.589641,4221.538358,4267.692203
72,0,4282.563998,4263.076819,4232.820409,4250.256306,4198.461436,4217.948615,4206.666564,4222.563999,4219.487076,4217.948615,4207.179384,4201.538359,4224.102461,4265.640921
73,0,4271.281947,4262.051178,4223.07682,4239.487076,4214.871692,4223.58964,4215.897333,4211.794769,4212.307589,4208.205025,4213.846051,4187.179385,4214.358871,4249.743486
74,0,4262.563998,4251.281947,4217.948615,4231.794768,4217.948615,4224.615281,4216.922974,4209.230666,4212.307589,4201.025538,4210.256307,4178.974257,4201.025538,4243.58964
75,0,4251.281947,4243.58964,4216.922974,4233.33323,4192.82041,4211.281948,4204.615282,4204.102461,4213.33323,4195.897333,4196.410154,4178.461436,4196.922974,4243.58964
76,0,4248.717845,4249.230665,4218.974256,4236.410153,4204.102461,4201.538359,4197.435795,4192.30759,4205.640923,4207.179384,4198.461436,4182.564,4201.538359,4235.384512
77,0,4246.666563,4246.666563,4216.410153,4233.33323,4221.538358,4205.128102,4198.974256,4189.743487,4201.025538,4195.897333,4204.102461,4182.564,4201.538359,4225.128102
78,0,4237.948614,4238.461435,4213.33323,4232.820409,4205.640923,4216.410153,4198.974256,4195.384513,4207.179384,4170.769129,4199.999897,4174.358872,4197.948615,4217.948615
79,0,4236.922973,4243.076819,4216.410153,4235.384512,4200.512718,4226.666563,4204.102461,4204.102461,4213.846051,4184.102462,4197.435795,4175.384513,4202.051179,4221.538358
80,0,4245.128101,4249.230665,4221.538358,4233.84605,4206.666564,4223.58964,4212.82041,4216.410153,4219.999897,4226.666563,4198.974256,4186.666564,4206.666564,4232.820409
81,0,4239.999896,4247.692204,4220.512717,4230.256307,4205.128102,4213.846051,4214.358871,4221.025538,4226.153743,4244.615281,4205.640923,4186.666564,4207.692205,4234.358871
82,0,4229.743486,4243.58964,4219.487076,4229.743486,4212.307589,4213.846051,4213.846051,4222.563999,4232.307589,4225.128102,4220.512717,4183.589641,4213.33323,4229.230666
83,0,4230.256307,4239.999896,4222.051179,4235.897332,4222.563999,4222.563999,4218.461435,4234.358871,4237.435794,4213.846051,4223.07682,4193.333231,4217.948615,4234.358871
84,0,4231.794768,4237.948614,4222.051179,4243.58964,4220.512717,4226.153743,4220.512717,4238.461435,4232.820409,4218.974256,4208.205025,4188.717846,4208.205025,4225.640922
85,0,4219.999897,4232.820409,4208.205025,4235.384512,4212.82041,4218.461435,4215.384512,4216.922974,4217.435794,4213.33323,4195.897333,4157.435796,4194.871692,4197.435795
86,0,4211.281948,4231.794768,4198.974256,4216.922974,4212.82041,4212.82041,4207.692205,4199.999897,4214.358871,4207.179384,4193.333231,4145.128104,4195.897333,4194.358872
87,0,4217.435794,4242.563999,4204.615282,4217.435794,4218.461435,4215.384512,4207.692205,4207.692205,4225.128102,4206.666564,4196.410154,4168.205026,4201.538359,4213.846051
88,0,4224.615281,4247.692204,4216.922974,4230.769127,4213.846051,4218.974256,4213.33323,4217.435794,4229.230666,4208.717846,4201.025538,4188.205026,4204.102461,4222.563999
89,0,4215.897333,4236.410153,4214.871692,4225.128102,4204.615282,4218.974256,4208.717846,4206.666564,4219.999897,4214.871692,4201.025538,4177.948616,4200.512718,4218.461435
90,0,4204.102461,4225.640922,4198.974256,4213.846051,4210.256307,4215.384512,4197.435795,4192.82041,4214.358871,4209.743487,4196.410154,4156.410155,4188.717846,4205.128102
91,0,4205.128102,4231.794768,4196.410154,4221.025538,4215.384512,4211.794769,4202.564,4205.128102,4224.102461,4195.384513,4196.922974,4154.358873,4189.230667,4194.871692
92,0,4208.717846,4241.025537,4206.666564,4231.281948,4209.230666,4213.33323,4214.871692,4217.948615,4230.769127,4204.615282,4202.051179,4163.589642,4200.512718,4198.461436
93,0,4209.743487,4244.615281,4213.846051,4234.358871,4213.846051,4216.922974,4215.897333,4208.205025,4220.512717,4221.025538,4203.07682,4170.256308,4199.487077,4203.589641
94,0,4212.307589,4244.615281,4212.82041,4228.205025,4222.051179,4226.153743,4213.33323,4198.974256,4212.307589,4207.692205,4197.948615,4176.922975,4194.358872,4204.102461
95,0,4205.640923,4238.461435,4208.205025,4217.948615,4208.717846,4231.794768,4213.33323,4202.051179,4214.358871,4192.30759,4192.82041,4168.205026,4196.410154,4205.640923
96,0,4193.846051,4229.230666,4199.487077,4219.999897,4196.410154,4224.615281,4208.205025,4202.564,4215.384512,4203.589641,4189.743487,4149.230668,4193.333231,4196.922974
97,0,4199.999897,4228.205025,4199.487077,4227.692204,4210.769128,4221.538358,4201.538359,4201.025538,4214.871692,4210.769128,4187.179385,4150.256309,4186.153744,4188.717846
98,0,4212.82041,4234.358871,4208.717846,4218.974256,4236.410153,4227.179384,4205.640923,4203.589641,4214.871692,4198.974256,4187.179385,4163.076821,4188.717846,4204.615282
99,0,4213.33323,4241.025537,4212.82041,4214.358871,4235.897332,4225.128102,4213.33323,4204.102461,4213.846051,4197.435795,4193.333231,4163.076821,4193.846051,4214.871692
100,0,4199.999897,4234.871691,4201.025538,4217.435794,4205.128102,4213.846051,4206.153743,4197.948615,4212.82041,4195.897333,4190.256308,4153.333232,4186.153744,4190.769128
101,0,4190.256308,4221.538358,4192.30759,4206.666564,4183.076821,4213.33323,4199.487077,4196.922974,4213.846051,4176.922975,4184.615282,4151.79477,4184.102462,4177.435795
102,0,4198.461436,4227.692204,4204.102461,4209.743487,4204.102461,4228.717845,4213.33323,4211.794769,4223.07682,4191.794769,4193.846051,4166.666565,4196.410154,4201.538359
103,0,4218.461435,4249.230665,4221.538358,4231.794768,4238.974255,4233.84605,4219.999897,4216.922974,4231.281948,4238.974255,4199.487077,4179.487077,4205.128102,4221.538358
104,0,4221.538358,4252.820409,4220.512717,4235.384512,4228.205025,4217.435794,4205.128102,4203.589641,4228.717845,4246.153742,4197.435795,4174.871693,4210.256307,4217.948615
105,0,4211.281948,4241.538358,4215.384512,4223.58964,4196.410154,4206.153743,4195.897333,4202.564,4219.487076,4213.33323,4197.948615,4170.256308,4211.281948,4214.871692
106,0,4211.281948,4233.33323,4213.846051,4218.461435,4206.153743,4215.897333,4201.025538,4214.358871,4218.461435,4208.717846,4195.897333,4171.281949,4202.564,4219.999897
107,0,4214.871692,4233.33323,4209.230666,4214.871692,4221.538358,4228.205025,4208.205025,4219.487076,4225.128102,4227.179384,4196.410154,4168.717847,4198.974256,4216.410153
108,0,4204.615282,4230.256307,4203.589641,4207.179384,4205.640923,4224.615281,4205.640923,4211.281948,4224.102461,4199.999897,4196.922974,4162.564001,4198.974256,4199.487077
109,0,4188.717846,4221.538358,4197.948615,4200.512718,4201.538359,4213.33323,4196.410154,4195.384513,4213.33323,4158.461437,4185.640923,4149.230668,4185.640923,4186.153744
110,0,4185.128103,4215.384512,4190.769128,4196.922974,4214.358871,4214.358871,4195.384513,4192.30759,4210.256307,4185.640923,4182.05118,4139.999899,4177.435795,4191.794769
111,0,4186.666564,4215.384512,4188.717846,4203.07682,4206.666564,4217.435794,4203.07682,4207.179384,4215.384512,4232.820409,4191.794769,4148.717847,4190.256308,4198.974256
112,0,4186.153744,4218.461435,4195.384513,4215.384512,4203.589641,4208.717846,4201.538359,4213.846051,4214.871692,4225.640922,4193.846051,4159.487078,4196.410154,4199.487077
113,0,4189.743487,4229.743486,4200.512718,4217.435794,4216.922974,4210.769128,4196.922974,4210.256307,4221.538358,4218.461435,4194.871692,4160.512719,4193.333231,4205.128102
114,0,4197.435795,4234.871691,4202.564,4207.692205,4211.794769,4221.538358,4200.512718,4215.897333,4233.84605,4227.179384,4194.358872,4164.102462,4199.487077,4208.205025
115,0,4195.384513,4222.563999,4200.512718,4199.487077,4199.487077,4217.948615,4202.564,4218.974256,4228.205025,4208.205025,4186.153744,4165.128103,4199.999897,4198.461436
116,0,4183.589641,4210.769128,4190.769128,4201.025538,4193.333231,4212.307589,4202.051179,4207.179384,4217.948615,4192.30759,4182.564,4153.846052,4186.153744,4180.512718
117,0,4170.769129,4212.307589,4182.05118,4201.538359,4197.435795,4214.358871,4204.615282,4199.487077,4212.82041,4191.281949,4181.025539,4143.589642,4174.871693,4170.256308
118,0,4178.974257,4227.692204,4189.743487,4201.025538,4218.974256,4216.410153,4209.743487,4202.051179,4206.153743,4187.692205,4181.538359,4154.871693,4185.128103,4188.717846
119,0,4194.358872,4236.410153,4199.487077,4207.692205,4229.230666,4219.487076,4209.743487,4198.974256,4204.102461,4190.769128,4181.538359,4173.846052,4189.743487,4205.128102
120,0,4184.102462,4219.487076,4196.922974,4210.256307,4212.307589,4217.435794,4203.07682,4197.435795,4211.281948,4207.692205,4176.410154,4174.358872,4178.974257,4189.230667
121,0,4164.615283,4205.128102,4190.256308,4206.666564,4212.307589,4214.871692,4204.615282,4212.82041,4223.07682,4232.307589,4179.999898,4164.615283,4188.205026,4180.512718
122,0,4172.30759,4211.794769,4192.82041,4200.512718,4229.743486,4225.128102,4214.871692,4225.128102,4232.307589,4248.205024,4197.948615,4166.153744,4214.358871,4198.974256
123,0,4188.717846,4211.794769,4197.948615,4197.435795,4227.179384,4236.410153,4218.974256,4216.410153,4232.820409,4253.84605,4207.179384,4178.974257,4229.743486,4211.794769
124,0,4197.948615,4207.179384,4204.102461,4205.640923,4217.948615,4231.281948,4217.435794,4215.384512,4230.256307,4262.563998,4211.794769,4197.948615,4242.051178,4222.563999
125,0,4212.307589,4221.538358,4212.82041,4220.512717,4216.410153,4218.461435,4215.384512,4222.051179,4230.256307,4251.794768,4226.666563,4210.769128,4265.128101,4243.58964
126,0,4225.640922,4231.281948,4221.025538,4229.743486,4214.871692,4220.512717,4218.461435,4220.512717,4232.307589,4231.794768,4234.358871,4215.897333,4270.256306,4251.281947
127,0,4217.948615,4220.512717,4221.538358,4224.102461,4215.897333,4232.307589,4224.615281,4222.563999,4232.820409,4242.051178,4228.205025,4217.435794,4246.153742,4235.897332
128,0,4197.948615,4206.666564,4212.82041,4214.871692,4212.307589,4230.256307,4229.230666,4231.281948,4232.820409,4240.512717,4206.666564,4206.153743,4225.128102,4219.487076
0,0,4193.333231,4204.102461,4208.717846,4212.82041,4211.794769,4224.102461,4231.281948,4233.84605,4232.307589,4217.948615,4190.256308,4188.717846,4224.615281,4225.128102
1,0,4201.538359,4207.179384,4208.205025,4217.435794,4220.512717,4225.640922,4223.58964,4219.487076,4228.717845,4227.692204,4203.07682,4187.179385,4232.307589,4231.281948
2,0,4197.948615,4205.128102,4209.230666,4215.897333,4215.384512,4221.025538,4207.692205,4199.487077,4222.051179,4241.538358,4219.999897,4197.435795,4230.256307,4219.487076
3,0,4188.717846,4205.128102,4211.281948,4212.82041,4202.051179,4208.205025,4201.025538,4192.30759,4216.410153,4230.769127,4215.897333,4202.051179,4228.205025,4214.871692
4,0,4197.948615,4211.794769,4217.948615,4218.461435,4221.025538,4211.794769,4210.769128,4201.538359,4217.948615,4233.84605,4211.794769,4203.589641,4232.820409,4224.615281
5,0,4204.102461,4218.461435,4219.487076,4218.974256,4234.358871,4226.153743,4217.948615,4215.897333,4226.666563,4248.717845,4221.025538,4203.07682,4236.922973,4222.563999
6,0,4191.281949,4215.897333,4209.743487,4216.410153,4198.461436,4221.538358,4216.922974,4225.640922,4233.33323,4250.256306,4223.58964,4194.358872,4234.358871,4209.743487
7,0,4180.512718,4204.615282,4199.999897,4212.307589,4181.538359,4212.307589,4215.897333,4231.281948,4232.307589,4246.666563,4215.384512,4187.692205,4228.205025,4208.205025
8,0,4187.179385,4199.487077,4200.512718,4208.717846,4214.358871,4225.640922,4218.974256,4230.769127,4228.205025,4233.33323,4214.871692,4194.871692,4229.743486,4215.384512
9,0,4204.615282,4216.922974,4214.871692,4221.538358,4235.897332,4241.025537,4228.717845,4232.820409,4233.33323,4223.07682,4229.743486,4215.384512,4247.179383,4234.871691
10,0,4218.974256,4234.358871,4231.281948,4243.076819,4220.512717,4234.358871,4229.230666,4236.410153,4238.461435,4226.153743,4244.10246,4232.307589,4265.128101,4253.84605
11,0,4213.33323,4227.692204,4229.230666,4244.10246,4213.33323,4227.692204,4218.461435,4235.897332,4234.358871,4238.974255,4239.999896,4229.230666,4260.512716,4247.692204
12,0,4196.922974,4214.358871,4216.410153,4229.230666,4221.538358,4233.33323,4215.897333,4228.717845,4231.794768,4255.897332,4225.640922,4208.205025,4239.999896,4228.717845
13,0,4189.743487,4206.153743,4207.179384,4220.512717,4215.384512,4228.717845,4219.999897,4222.051179,4231.794768,4267.692203,4217.948615,4188.205026,4231.281948,4215.384512
14,0,4190.256308,4203.07682,4208.717846,4211.794769,4209.230666,4218.974256,4216.922974,4217.948615,4226.666563,4253.84605,4211.281948,4186.666564,4230.769127,4212.82041
15,0,4185.640923,4201.025538,4204.615282,4210.256307,4210.769128,4214.871692,4203.589641,4205.640923,4215.384512,4208.717846,4202.051179,4185.128103,4216.922974,4213.33323
16,0,4183.076821,4203.07682,4200.512718,4223.07682,4216.410153,4221.025538,4193.846051,4193.333231,4214.358871,4187.179385,4207.692205,4181.025539,4210.256307,4211.794769
17,0,4195.897333,4215.897333,4211.794769,4229.743486,4232.820409,4231.281948,4204.102461,4203.589641,4225.640922,4212.82041,4219.999897,4190.256308,4224.102461,4218.974256
18,0,4207.179384,4226.666563,4221.538358,4228.205025,4245.128101,4233.84605,4218.461435,4218.461435,4232.820409,4237.948614,4219.487076,4197.948615,4237.435794,4227.692204
19,0,4201.538359,4223.07682,4216.922974,4230.256307,4229.743486,4232.307589,4217.435794,4225.640922,4231.794768,4220.512717,4223.58964,4193.846051,4239.999896,4224.615281
20,0,4192.30759,4211.281948,4208.205025,4231.281948,4199.487077,4229.230666,4214.358871,4232.820409,4231.281948,4207.179384,4230.256307,4197.948615,4236.922973,4222.563999
21,0,4194.871692,4212.82041,4216.922974,4228.205025,4193.846051,4229.230666,4217.948615,4236.922973,4237.435794,4243.58964,4222.563999,4208.717846,4236.922973,4232.820409
22,0,4204.102461,4223.07682,4230.256307,4226.153743,4217.948615,4235.897332,4216.922974,4232.820409,4244.10246,4275.897331,4222.563999,4211.794769,4245.640922,4232.307589
23,0,4215.897333,4230.256307,4233.84605,4231.794768,4244.615281,4239.999896,4217.435794,4233.84605,4239.999896,4265.640921,4234.871691,4216.410153,4252.307588,4234.358871
24,0,4215.384512,4227.692204,4228.205025,4236.410153,4239.999896,4230.769127,4222.563999,4238.461435,4232.820409,4247.692204,4231.794768,4217.435794,4249.743486,4247.179383
25,0,4201.538359,4219.999897,4222.051179,4224.102461,4219.487076,4229.230666,4220.512717,4230.256307,4230.769127,4240.512717,4219.487076,4204.102461,4243.076819,4236.922973
26,0,4196.922974,4218.461435,4217.948615,4215.897333,4221.538358,4237.948614,4216.410153,4217.435794,4231.281948,4225.640922,4215.897333,4196.410154,4236.410153,4216.410153
27,0,4203.07682,4215.384512,4215.897333,4228.205025,4218.974256,4228.717845,4218.974256,4216.410153,4228.717845,4214.871692,4219.999897,4201.538359,4231.281948,4218.974256
28,0,4198.461436,4202.564,4213.846051,4228.717845,4196.922974,4208.717846,4215.384512,4215.897333,4226.666563,4216.922974,4221.538358,4201.025538,4229.743486,4220.512717
29,0,4193.846051,4199.487077,4213.846051,4211.281948,4201.538359,4211.794769,4214.358871,4212.307589,4229.230666,4219.999897,4219.999897,4197.948615,4229.230666,4214.358871
30,0,4199.487077,4208.205025,4214.358871,4212.307589,4236.922973,4229.230666,4226.666563,4225.128102,4234.871691,4217.435794,4221.538358,4206.666564,4232.307589,4222.563999
31,0,4201.025538,4209.743487,4215.897333,4221.538358,4234.358871,4225.640922,4228.205025,4233.33323,4234.871691,4210.769128,4225.640922,4211.794769,4233.84605,4228.717845
32,0,4191.281949,4200.512718,4216.410153,4213.33323,4203.589641,4212.82041,4215.384512,4218.461435,4226.153743,4223.07682,4219.999897,4203.07682,4229.230666,4222.051179
33,0,4185.128103,4197.435795,4217.435794,4214.871692,4209.230666,4218.461435,4217.435794,4219.487076,4227.692204,4248.717845,4214.871692,4193.333231,4227.692204,4218.461435
34,0,4193.333231,4205.640923,4214.871692,4229.230666,4229.743486,4225.128102,4226.666563,4236.922973,4234.871691,4257.948614,4220.512717,4192.82041,4229.743486,4222.051179
35,0,4201.538359,4215.897333,4209.743487,4224.102461,4216.922974,4220.512717,4225.640922,4233.84605,4228.717845,4237.948614,4217.435794,4193.846051,4219.487076,4220.512717
36,0,4197.948615,4214.358871,4210.256307,4213.846051,4198.974256,4217.435794,4218.461435,4219.487076,4219.999897,4206.153743,4201.025538,4188.717846,4195.897333,4209.230666
37,0,4196.922974,4211.794769,4211.794769,4225.640922,4215.384512,4219.487076,4215.384512,4218.461435,4223.07682,4200.512718,4196.410154,4180.512718,4186.666564,4201.025538
38,0,4199.999897,4220.512717,4215.897333,4238.461435,4234.871691,4219.487076,4216.410153,4217.948615,4224.102461,4230.256307,4204.615282,4181.538359,4199.999897,4207.179384
39,0,4190.769128,4223.07682,4215.897333,4226.153743,4217.948615,4217.435794,4209.743487,4204.102461,4214.358871,4224.102461,4203.589641,4181.538359,4199.999897,4205.128102
40,0,4184.615282,4214.358871,4210.256307,4216.410153,4201.538359,4217.435794,4202.051179,4196.410154,4213.33323,4171.281949,4197.948615,4173.333231,4184.102462,4190.769128
41,0,4190.256308,4213.33323,4210.769128,4220.512717,4202.564,4218.461435,4212.82041,4211.794769,4225.640922,4187.692205,4202.564,4175.384513,4184.615282,4195.897333
42,0,4186.153744,4214.358871,4214.358871,4219.999897,4190.769128,4218.974256,4217.948615,4218.461435,4225.128102,4230.256307,4203.589641,4179.487077,4189.230667,4201.538359
43,0,4181.538359,4211.794769,4208.205025,4221.025538,4199.487077,4224.102461,4209.743487,4203.589641,4214.871692,4209.230666,4195.897333,4176.410154,4186.153744,4192.30759
44,0,4197.948615,4216.410153,4211.794769,4233.84605,4245.640922,4233.84605,4211.794769,4205.640923,4217.435794,4199.487077,4199.487077,4183.589641,4196.922974,4200.512718
45,0,4205.128102,4221.538358,4218.461435,4232.820409,4253.84605,4233.33323,4218.461435,4217.948615,4222.051179,4229.743486,4206.153743,4187.179385,4205.128102,4214.358871
46,0,4188.717846,4216.922974,4207.692205,4216.922974,4219.487076,4223.07682,4213.846051,4206.666564,4217.435794,4212.82041,4200.512718,4169.230667,4189.230667,4203.07682
47,0,4178.974257,4213.846051,4194.871692,4211.281948,4209.230666,4221.538358,4214.358871,4197.948615,4213.33323,4179.487077,4193.846051,4155.897334,4178.974257,4191.281949
48,0,4190.769128,4218.461435,4204.102461,4219.487076,4211.794769,4228.717845,4221.538358,4212.307589,4216.922974,4198.461436,4198.974256,4167.692206,4193.846051,4199.999897
49,0,4203.589641,4218.974256,4218.461435,4225.128102,4206.153743,4233.33323,4218.461435,4221.538358,4224.615281,4214.358871,4211.794769,4179.487077,4202.051179,4204.615282
50,0,4203.07682,4217.435794,4223.58964,4223.07682,4215.384512,4232.307589,4215.384512,4219.487076,4230.769127,4203.07682,4215.897333,4182.05118,4197.435795,4203.07682
51,0,4193.333231,4216.922974,4217.435794,4216.922974,4209.743487,4226.153743,4218.461435,4219.999897,4224.615281,4193.846051,4204.615282,4181.025539,4194.871692,4205.640923
52,0,4185.128103,4216.922974,4207.179384,4212.82041,4190.256308,4217.435794,4218.461435,4217.435794,4213.846051,4196.410154,4189.743487,4174.871693,4190.769128,4205.128102
53,0,4185.640923,4214.871692,4202.564,4210.256307,4210.769128,4215.897333,4212.307589,4217.435794,4215.897333,4214.871692,4194.358872,4173.333231,4189.743487,4198.974256
54,0,4195.897333,4215.897333,4210.256307,4214.871692,4251.794768,4223.07682,4215.384512,4226.666563,4225.640922,4227.179384,4211.794769,4181.538359,4202.051179,4202.051179
55,0,4197.948615,4219.487076,4213.33323,4219.999897,4229.230666,4217.948615,4216.922974,4222.563999,4223.58964,4204.615282,4209.743487,4176.410154,4198.974256,4202.051179
56,0,4188.205026,4217.948615,4204.102461,4211.281948,4186.153744,4208.717846,4206.153743,4207.179384,4213.33323,4192.82041,4195.384513,4162.05118,4179.487077,4194.871692
57,0,4192.82041,4215.897333,4208.205025,4208.717846,4201.538359,4216.922974,4208.717846,4215.897333,4217.435794,4221.025538,4203.07682,4174.871693,4189.230667,4203.07682
58,0,4204.615282,4217.948615,4223.58964,4219.999897,4225.640922,4218.974256,4217.948615,4231.281948,4226.666563,4225.128102,4217.435794,4193.846051,4208.205025,4215.384512
59,0,4199.999897,4217.435794,4219.999897,4212.307589,4215.384512,4208.717846,4210.256307,4224.102461,4223.07682,4197.435795,4209.743487,4183.589641,4197.435795,4208.205025
60,0,4192.82041,4213.846051,4205.128102,4195.897333,4203.07682,4208.717846,4199.999897,4212.82041,4217.948615,4196.410154,4194.871692,4169.743488,4189.230667,4204.615282
61,0,4198.461436,4213.846051,4207.692205,4207.692205,4196.922974,4208.717846,4199.999897,4214.871692,4216.922974,4207.692205,4198.461436,4173.846052,4200.512718,4215.384512
62,0,4202.564,4221.538358,4216.410153,4226.153743,4202.051179,4211.281948,4211.794769,4222.563999,4219.487076,4209.743487,4211.794769,4181.538359,4204.615282,4221.538358
63,0,4204.102461,4227.692204,4221.025538,4218.974256,4229.743486,4231.281948,4227.692204,4232.820409,4232.307589,4219.999897,4216.922974,4186.153744,4200.512718,4221.538358
64,0,4204.615282,4226.153743,4220.512717,4211.281948,4241.025537,4238.974255,4226.153743,4235.384512,4234.358871,4228.205025,4213.33323,4185.640923,4202.051179,4213.33323
65,0,4192.30759,4212.82041,4209.743487,4217.435794,4216.410153,4228.205025,4213.846051,4223.58964,4221.538358,4232.820409,4210.769128,4174.871693,4198.974256,4199.487077
66,0,4178.974257,4204.615282,4201.025538,4213.846051,4207.179384,4228.717845,4213.846051,4213.846051,4219.999897,4236.410153,4210.769128,4162.564001,4194.358872,4194.871692
67,0,4187.179385,4214.358871,4207.692205,4206.666564,4218.461435,4234.358871,4218.974256,4214.871692,4227.692204,4208.717846,4211.281948,4166.666565,4197.948615,4200.512718
68,0,4200.512718,4222.051179,4211.794769,4213.33323,4213.33323,4229.230666,4215.897333,4214.358871,4221.025538,4186.666564,4210.769128,4175.897334,4203.589641,4208.717846
69,0,4201.538359,4214.871692,4208.205025,4219.999897,4210.769128,4220.512717,4211.281948,4212.82041,4213.33323,4213.33323,4203.07682,4170.256308,4201.025538,4213.33323
70,0,4200.512718,4212.82041,4212.307589,4217.948615,4216.410153,4215.384512,4213.33323,4216.922974,4223.07682,4236.922973,4194.358872,4163.589642,4198.461436,4206.153743
71,0,4202.564,4219.999897,4219.487076,4218.974256,4203.589641,4216.922974,4215.384512,4221.025538,4230.256307,4213.33323,4199.999897,4169.230667,4202.564,4195.897333
72,0,4198.974256,4219.487076,4216.410153,4218.461435,4195.897333,4219.999897,4210.769128,4216.922974,4217.948615,4193.846051,4210.256307,4171.281949,4201.538359,4202.564
73,0,4197.948615,4215.897333,4213.33323,4208.205025,4215.897333,4218.974256,4201.025538,4212.82041,4209.743487,4208.717846,4210.769128,4168.717847,4197.948615,4211.281948
74,0,4203.589641,4215.897333,4214.358871,4199.999897,4225.128102,4215.384512,4193.333231,4210.769128,4214.358871,4219.999897,4205.128102,4170.769129,4199.999897,4209.230666
75,0,4199.487077,4219.487076,4213.846051,4197.435795,4209.230666,4214.871692,4191.281949,4204.615282,4210.769128,4203.589641,4196.922974,4167.692206,4199.999897,4204.102461
76,0,4191.281949,4224.102461,4214.871692,4205.640923,4210.256307,4218.461435,4198.461436,4206.666564,4207.179384,4181.025539,4195.897333,4160.512719,4196.410154,4202.051179
77,0,4192.82041,4220.512717,4207.179384,4215.897333,4221.538358,4221.025538,4205.128102,4216.410153,4216.410153,4199.999897,4200.512718,4162.564001,4199.487077,4201.538359
78,0,4197.435795,4213.846051,4198.974256,4212.82041,4201.538359,4211.281948,4200.512718,4218.461435,4219.999897,4232.307589,4197.435795,4168.205026,4198.974256,4199.487077
79,0,4202.051179,4218.461435,4204.102461,4209.743487,4192.30759,4206.153743,4194.871692,4217.435794,4219.999897,4220.512717,4198.974256,4171.79477,4197.435795,4204.102461
80,0,4210.769128,4231.794768,4218.461435,4217.435794,4223.07682,4224.615281,4206.153743,4230.769127,4229.743486,4212.307589,4217.435794,4177.948616,4211.281948,4226.153743
81,0,4209.743487,4229.743486,4216.922974,4214.358871,4234.358871,4237.948614,4220.512717,4235.897332,4229.743486,4222.051179,4218.974256,4179.999898,4219.999897,4239.487076
82,0,4199.487077,4217.435794,4206.153743,4199.487077,4214.358871,4223.07682,4214.358871,4217.948615,4213.33323,4204.615282,4199.999897,4169.230667,4202.051179,4217.435794
83,0,4195.384513,4217.435794,4206.153743,4199.999897,4210.256307,4214.871692,4206.153743,4211.794769,4214.871692,4202.051179,4201.538359,4164.102462,4194.358872,4199.999897
84,0,4206.666564,4229.743486,4222.563999,4217.948615,4223.07682,4230.256307,4216.922974,4232.307589,4233.33323,4242.563999,4221.025538,4182.564,4223.07682,4225.640922
85,0,4214.358871,4236.410153,4228.717845,4224.615281,4215.897333,4234.871691,4221.538358,4237.435794,4235.897332,4251.794768,4222.563999,4194.871692,4239.487076,4239.487076
86,0,4210.256307,4227.692204,4214.871692,4203.589641,4197.435795,4227.692204,4210.769128,4219.487076,4227.692204,4222.563999,4208.205025,4179.999898,4222.563999,4208.717846
87,0,4202.051179,4218.974256,4206.666564,4188.717846,4202.051179,4232.307589,4209.743487,4214.871692,4229.743486,4213.846051,4197.948615,4173.333231,4210.769128,4194.358872
88,0,4200.512718,4214.871692,4214.358871,4203.589641,4227.179384,4237.948614,4213.846051,4220.512717,4230.256307,4214.358871,4197.948615,4190.256308,4214.871692,4216.922974
89,0,4206.153743,4215.384512,4222.051179,4217.435794,4244.10246,4236.410153,4213.846051,4221.538358,4222.563999,4219.487076,4207.692205,4197.948615,4216.922974,4227.179384
90,0,4207.692205,4224.102461,4219.999897,4211.794769,4232.307589,4234.358871,4214.871692,4217.435794,4218.461435,4234.358871,4210.769128,4189.743487,4218.974256,4216.410153
91,0,4203.07682,4226.666563,4216.922974,4214.871692,4210.256307,4231.794768,4213.846051,4203.07682,4213.846051,4235.897332,4201.025538,4189.743487,4214.871692,4212.82041
92,0,4196.922974,4224.615281,4221.025538,4218.461435,4208.205025,4230.769127,4211.794769,4203.07682,4215.384512,4234.871691,4195.384513,4200.512718,4204.102461,4212.307589
93,0,4196.922974,4227.179384,4223.07682,4205.640923,4218.461435,4230.769127,4213.33323,4222.563999,4225.640922,4226.153743,4205.128102,4204.102461,4205.128102,4204.102461
94,0,4197.435795,4227.179384,4216.922974,4206.666564,4215.897333,4224.102461,4216.410153,4225.128102,4231.281948,4219.487076,4207.692205,4198.974256,4213.846051,4196.410154
95,0,4193.333231,4219.487076,4214.871692,4221.025538,4211.281948,4223.07682,4214.358871,4211.794769,4231.281948,4230.769127,4199.487077,4199.999897,4214.358871,4198.974256
96,0,4191.281949,4214.871692,4219.487076,4219.999897,4218.461435,4225.128102,4207.692205,4212.82041,4223.58964,4219.487076,4205.128102,4205.128102,4215.897333,4209.230666
97,0,4198.461436,4221.538358,4224.615281,4216.922974,4218.974256,4223.58964,4209.230666,4217.435794,4217.948615,4198.974256,4217.948615,4206.153743,4216.410153,4219.999897
98,0,4201.025538,4225.640922,4224.615281,4221.538358,4214.358871,4229.743486,4215.384512,4214.871692,4225.128102,4232.307589,4217.435794,4208.717846,4215.384512,4221.025538
99,0,4193.333231,4223.07682,4219.487076,4217.435794,4216.410153,4236.922973,4207.692205,4208.717846,4226.153743,4267.692203,4212.82041,4208.205025,4221.538358,4214.358871
100,0,4189.230667,4217.435794,4213.846051,4216.922974,4224.615281,4230.769127,4199.999897,4207.692205,4216.410153,4242.563999,4214.358871,4199.999897,4222.563999,4208.717846
101,0,4197.435795,4217.435794,4215.897333,4227.692204,4238.461435,4223.07682,4209.230666,4217.435794,4224.102461,4219.999897,4215.384512,4197.948615,4217.948615,4213.33323
102,0,4202.051179,4219.999897,4215.897333,4229.743486,4230.256307,4217.435794,4207.692205,4220.512717,4233.33323,4227.692204,4211.794769,4199.999897,4222.563999,4221.538358
103,0,4202.051179,4217.948615,4218.461435,4226.666563,4202.564,4213.846051,4198.461436,4214.358871,4222.563999,4230.256307,4213.846051,4199.999897,4228.205025,4224.102461
104,0,4202.564,4217.948615,4225.128102,4223.58964,4198.974256,4223.58964,4207.692205,4217.948615,4216.410153,4222.051179,4217.948615,4205.128102,4224.615281,4219.999897
105,0,4196.922974,4215.897333,4221.538358,4212.82041,4204.102461,4226.666563,4210.256307,4218.974256,4217.435794,4212.307589,4210.256307,4201.025538,4213.33323,4208.205025
106,0,4192.82041,4216.410153,4212.82041,4214.871692,4204.102461,4221.025538,4199.487077,4210.769128,4217.948615,4222.051179,4205.128102,4188.205026,4208.717846,4206.153743
107,0,4208.717846,4224.615281,4215.384512,4236.922973,4221.025538,4231.281948,4201.025538,4213.846051,4226.666563,4247.179383,4220.512717,4192.30759,4216.922974,4220.512717
108,0,4215.384512,4225.640922,4221.025538,4239.999896,4231.794768,4234.358871,4208.205025,4223.07682,4235.384512,4257.435793,4226.666563,4201.025538,4221.025538,4221.025538
109,0,4196.922974,4217.435794,4218.974256,4226.153743,4214.358871,4222.051179,4207.179384,4219.999897,4229.230666,4239.487076,4210.769128,4193.333231,4210.256307,4209.230666
110,0,4190.769128,4213.846051,4216.922974,4229.743486,4195.384513,4221.538358,4204.615282,4214.871692,4219.999897,4216.410153,4204.102461,4189.230667,4205.128102,4211.794769
111,0,4204.615282,4221.025538,4216.922974,4233.33323,4195.897333,4227.692204,4203.07682,4212.82041,4223.07682,4200.512718,4213.846051,4194.358872,4214.358871,4217.435794
112,0,4207.692205,4229.743486,4215.384512,4218.974256,4213.846051,4223.07682,4201.538359,4213.846051,4229.230666,4209.743487,4217.435794,4192.82041,4218.974256,4213.846051
113,0,4202.051179,4231.281948,4214.358871,4219.487076,4228.717845,4226.666563,4203.07682,4223.07682,4230.256307,4230.769127,4215.897333,4189.230667,4218.974256,4221.025538
114,0,4205.640923,4226.153743,4217.435794,4235.897332,4221.538358,4229.230666,4202.564,4232.820409,4234.358871,4226.666563,4218.974256,4193.846051,4213.846051,4227.179384
115,0,4205.128102,4222.563999,4217.948615,4235.384512,4210.769128,4216.922974,4205.128102,4233.33323,4232.307589,4225.640922,4216.410153,4199.999897,4211.794769,4213.33323
116,0,4209.743487,4226.666563,4219.487076,4229.230666,4221.025538,4223.07682,4214.871692,4233.33323,4223.07682,4243.58964,4215.384512,4200.512718,4223.07682,4211.281948
117,0,4218.974256,4231.794768,4223.07682,4236.922973,4232.820409,4243.076819,4217.435794,4233.84605,4224.615281,4250.769127,4225.128102,4202.051179,4232.307589,4226.153743
118,0,4213.846051,4231.281948,4222.563999,4240.512717,4217.435794,4237.948614,4205.128102,4222.051179,4225.640922,4238.974255,4222.563999,4195.897333,4221.538358,4225.640922
119,0,4205.640923,4230.256307,4212.307589,4232.307589,4198.974256,4227.179384,4197.948615,4210.769128,4216.410153,4227.179384,4206.666564,4179.487077,4206.666564,4213.846051
120,0,4213.846051,4233.33323,4212.307589,4226.153743,4215.897333,4234.358871,4209.230666,4225.640922,4222.051179,4232.307589,4211.281948,4182.564,4208.205025,4216.410153
121,0,4216.922974,4233.33323,4217.948615,4228.717845,4233.84605,4238.461435,4213.33323,4233.33323,4230.769127,4234.358871,4224.615281,4202.051179,4216.410153,4224.615281
122,0,4207.179384,4232.820409,4219.999897,4242.051178,4228.717845,4230.256307,4204.102461,4216.922974,4219.487076,4209.743487,4213.33323,4201.025538,4219.487076,4223.07682
123,0,4207.179384,4234.871691,4221.025538,4248.205024,4207.692205,4229.743486,4201.538359,4213.33323,4212.307589,4193.333231,4200.512718,4183.076821,4216.922974,4213.33323
124,0,4211.794769,4231.281948,4217.435794,4233.33323,4186.153744,4233.84605,4202.564,4224.102461,4217.948615,4217.435794,4206.666564,4179.999898,4209.743487,4207.179384
125,0,4213.33323,4230.769127,4218.974256,4235.384512,4201.538359,4235.384512,4206.666564,4226.153743,4223.07682,4232.820409,4213.33323,4192.30759,4214.358871,4221.538358
126,0,4218.461435,4235.897332,4229.230666,4252.820409,4236.410153,4235.897332,4210.256307,4228.717845,4232.820409,4228.205025,4214.358871,4198.461436,4231.281948,4237.435794
127,0,4215.384512,4234.358871,4228.205025,4238.974255,4229.743486,4230.769127,4205.128102,4234.871691,4232.820409,4237.435794,4212.82041,4196.410154,4220.512717,4221.538358
128,0,4204.615282,4230.769127,4216.922974,4219.487076,4209.230666,4230.769127,4208.205025,4233.84605,4218.974256,4242.051178,4209.743487,4190.769128,4194.358872,4203.07682
0,0,4203.589641,4231.281948,4215.384512,4228.205025,4221.025538,4242.563999,4220.512717,4232.307589,4222.051179,4234.871691,4207.692205,4185.640923,4201.538359,4209.230666
1,0,4206.666564,4222.563999,4218.974256,4233.33323,4223.07682,4245.640922,4217.435794,4231.281948,4230.256307,4232.307589,4212.307589,4182.05118,4229.743486,4217.435794
2,0,4209.743487,4221.538358,4216.922974,4230.256307,4213.33323,4242.051178,4211.794769,4230.769127,4226.666563,4229.230666,4224.615281,4189.230667,4245.640922,4224.102461
3,0,4218.461435,4232.820409,4217.948615,4235.897332,4215.897333,4244.10246,4215.897333,4227.179384,4222.563999,4226.666563,4231.281948,4198.461436,4248.717845,4234.358871
4,0,4219.487076,4229.230666,4220.512717,4232.820409,4204.615282,4235.384512,4208.717846,4217.948615,4219.487076,4221.025538,4224.102461,4193.846051,4235.897332,4229.230666
5,0,4207.179384,4216.922974,4218.461435,4230.256307,4194.871692,4226.666563,4206.153743,4219.487076,4218.974256,4210.769128,4212.82041,4183.589641,4218.461435,4215.384512
6,0,4200.512718,4217.435794,4217.948615,4237.948614,4205.640923,4237.948614,4213.33323,4223.58964,4226.153743,4222.563999,4204.615282,4178.461436,4214.358871,4211.794769
7,0,4200.512718,4220.512717,4214.358871,4226.153743,4216.410153,4244.615281,4211.281948,4218.461435,4230.256307,4236.922973,4206.666564,4174.871693,4217.435794,4210.769128
8,0,4205.640923,4218.461435,4210.256307,4209.230666,4226.666563,4235.897332,4211.281948,4221.538358,4228.205025,4232.307589,4218.461435,4174.871693,4228.205025,4212.82041
9,0,4211.281948,4222.563999,4208.717846,4222.563999,4231.794768,4231.794768,4215.897333,4233.33323,4234.871691,4237.948614,4232.820409,4177.435795,4245.640922,4223.07682
10,0,4216.922974,4227.179384,4217.948615,4238.461435,4220.512717,4232.307589,4216.922974,4242.051178,4242.051178,4248.205024,4234.871691,4187.692205,4247.692204,4232.307589
11,0,4221.025538,4223.58964,4228.717845,4229.743486,4215.384512,4233.84605,4224.102461,4251.794768,4242.051178,4255.897332,4226.666563,4199.487077,4238.461435,4236.922973
12,0,4211.281948,4214.358871,4222.563999,4224.102461,4209.743487,4233.84605,4228.205025,4250.256306,4238.974255,4253.333229,4213.33323,4188.205026,4228.717845,4223.07682
13,0,4196.410154,4207.692205,4206.666564,4230.769127,4188.717846,4232.307589,4217.948615,4229.743486,4229.743486,4235.384512,4202.564,4162.564001,4218.974256,4199.487077
14,0,4200.512718,4215.897333,4209.743487,4235.384512,4206.666564,4242.563999,4216.922974,4226.666563,4228.205025,4236.410153,4206.666564,4166.153744,4222.563999,4202.564
15,0,4209.743487,4230.256307,4215.897333,4230.769127,4241.538358,4255.384511,4221.025538,4235.897332,4232.307589,4238.461435,4215.897333,4179.487077,4229.743486,4219.487076
16,0,4208.717846,4232.307589,4208.717846,4225.128102,4225.128102,4251.281947,4215.897333,4227.692204,4226.153743,4211.794769,4219.999897,4169.230667,4229.230666,4220.512717
17,0,4209.743487,4222.563999,4209.230666,4230.769127,4215.384512,4249.230665,4216.922974,4223.58964,4216.922974,4209.743487,4216.410153,4164.102462,4229.230666,4215.897333
18,0,4208.205025,4214.871692,4214.358871,4229.743486,4226.153743,4249.230665,4216.922974,4228.717845,4218.461435,4237.948614,4206.153743,4173.846052,4225.128102,4217.435794
19,0,4202.564,4217.435794,4209.743487,4212.307589,4208.205025,4238.974255,4208.717846,4223.58964,4220.512717,4228.717845,4201.538359,4173.333231,4214.358871,4217.435794
20,0,4204.615282,4222.051179,4207.179384,4209.230666,4202.564,4230.769127,4207.692205,4219.999897,4220.512717,4223.07682,4207.179384,4169.743488,4217.948615,4217.948615
21,0,4207.179384,4218.461435,4209.743487,4222.051179,4226.153743,4234.871691,4212.307589,4227.179384,4223.58964,4237.948614,4210.256307,4174.871693,4232.307589,4219.999897
22,0,4197.435795,4207.692205,4205.128102,4214.871692,4218.461435,4241.025537,4210.769128,4230.769127,4228.205025,4206.666564,4197.948615,4171.281949,4228.717845,4211.794769
23,0,4195.384513,4206.153743,4208.205025,4208.717846,4193.333231,4239.487076,4211.794769,4231.794768,4228.205025,4191.281949,4196.410154,4164.615283,4212.82041,4204.102461
24,0,4212.307589,4224.615281,4216.922974,4227.692204,4207.179384,4233.84605,4215.384512,4231.794768,4225.640922,4235.897332,4209.743487,4174.871693,4210.769128,4216.410153
25,0,4220.512717,4233.84605,4216.922974,4227.692204,4220.512717,4232.307589,4207.179384,4220.512717,4219.487076,4236.922973,4212.307589,4179.999898,4224.615281,4233.84605
26,0,4205.640923,4222.051179,4207.692205,4210.256307,4207.692205,4233.33323,4200.512718,4212.82041,4211.794769,4189.743487,4207.179384,4167.179385,4230.256307,4229.230666
27,0,4204.102461,4223.07682,4208.205025,4221.025538,4214.871692,4233.33323,4209.743487,4217.435794,4212.307589,4203.589641,4213.846051,4163.589642,4229.230666,4217.948615
28,0,4214.871692,4235.897332,4215.897333,4233.33323,4234.358871,4238.974255,4215.384512,4218.974256,4217.435794,4246.153742,4219.999897,4168.717847,4231.794768,4214.871692
29,0,4208.717846,4230.769127,4215.897333,4218.974256,4227.179384,4242.051178,4211.794769,4219.999897,4217.948615,4239.999896,4209.230666,4167.179385,4232.307589,4221.025538
30,0,4207.692205,4230.769127,4216.922974,4214.871692,4211.794769,4240.512717,4213.33323,4229.743486,4225.128102,4230.256307,4208.717846,4173.333231,4240.512717,4236.922973
31,0,4224.102461,4246.666563,4224.102461,4231.281948,4213.33323,4236.922973,4216.410153,4234.358871,4232.307589,4249.743486,4225.640922,4185.640923,4253.333229,4243.58964
32,0,4224.615281,4244.10246,4217.948615,4231.794768,4222.051179,4235.384512,4208.205025,4222.563999,4223.58964,4252.307588,4225.128102,4177.948616,4246.666563,4232.820409
33,0,4212.307589,4230.769127,4204.615282,4213.846051,4231.794768,4236.410153,4201.025538,4213.33323,4213.846051,4213.846051,4212.82041,4166.153744,4232.820409,4224.615281
34,0,4207.179384,4233.33323,4204.102461,4210.769128,4228.717845,4237.948614,4201.025538,4215.897333,4214.358871,4192.30759,4216.410153,4167.179385,4234.358871,4223.07682
35,0,4211.794769,4238.461435,4213.33323,4223.07682,4216.922974,4237.435794,4207.692205,4218.974256,4217.435794,4215.897333,4218.974256,4168.717847,4238.974255,4218.461435
36,0,4213.33323,4231.794768,4216.410153,4223.07682,4222.051179,4235.897332,4215.897333,4219.487076,4220.512717,4242.051178,4205.128102,4167.692206,4230.256307,4217.435794
37,0,4205.128102,4226.666563,4213.846051,4213.33323,4229.230666,4239.487076,4211.794769,4215.384512,4218.974256,4234.871691,4204.102461,4163.589642,4218.461435,4219.487076
38,0,4207.179384,4231.794768,4214.871692,4216.410153,4231.794768,4244.615281,4203.589641,4216.410153,4212.307589,4214.871692,4215.897333,4159.999898,4218.461435,4217.948615
39,0,4217.435794,4237.435794,4214.358871,4222.051179,4223.58964,4241.538358,4204.102461,4223.58964,4214.358871,4218.461435,4215.897333,4164.102462,4228.717845,4212.82041
40,0,4215.897333,4234.358871,4213.846051,4215.897333,4202.564,4235.384512,4207.179384,4224.615281,4222.051179,4241.538358,4213.846051,4167.179385,4229.743486,4217.948615
41,0,4210.769128,4229.230666,4214.871692,4214.358871,4205.640923,4236.410153,4204.615282,4218.461435,4218.974256,4230.256307,4219.487076,4164.102462,4221.025538,4224.615281
42,0,4216.922974,4232.307589,4219.487076,4219.487076,4237.435794,4241.025537,4208.205025,4220.512717,4214.871692,4193.846051,4221.538358,4170.256308,4224.102461,4217.435794
43,0,4222.563999,4241.025537,4223.58964,4224.615281,4244.615281,4243.58964,4215.384512,4224.615281,4222.563999,4206.153743,4215.897333,4178.974257,4233.33323,4221.025538
44,0,4226.666563,4246.666563,4227.692204,4231.794768,4222.563999,4243.58964,4216.922974,4225.640922,4233.33323,4238.974255,4215.384512,4179.487077,4239.487076,4238.461435
45,0,4223.58964,4237.435794,4227.692204,4230.256307,4217.948615,4242.563999,4218.974256,4229.743486,4230.769127,4237.435794,4219.487076,4179.999898,4243.076819,4241.538358
46,0,4211.794769,4225.640922,4223.07682,4219.999897,4228.717845,4245.640922,4215.384512,4225.640922,4220.512717,4227.179384,4215.384512,4177.435795,4234.871691,4226.153743
47,0,4211.794769,4231.281948,4216.410153,4214.871692,4225.128102,4247.179383,4203.07682,4212.82041,4215.897333,4219.999897,4203.07682,4165.128103,4218.974256,4217.948615
48,0,4223.58964,4249.743486,4215.384512,4218.974256,4215.384512,4244.10246,4204.102461,4211.281948,4215.384512,4218.461435,4199.999897,4158.974257,4211.281948,4223.07682
49,0,4222.563999,4257.435793,4219.487076,4224.102461,4222.563999,4248.205024,4213.33323,4218.974256,4213.846051,4213.33323,4204.615282,4163.589642,4205.640923,4216.922974
50,0,4212.82041,4253.84605,4218.974256,4227.692204,4234.358871,4245.128101,4206.153743,4220.512717,4213.33323,4194.358872,4199.999897,4164.615283,4192.82041,4199.487077
51,0,4213.33323,4259.487075,4215.897333,4232.307589,4227.692204,4232.307589,4201.538359,4225.640922,4215.897333,4190.769128,4194.871692,4162.564001,4194.358872,4202.051179
52,0,4217.435794,4264.10246,4215.897333,4230.769127,4216.922974,4237.435794,4210.256307,4232.820409,4217.435794,4213.33323,4201.538359,4163.076821,4202.051179,4220.512717
53,0,4212.82041,4249.230665,4217.948615,4221.025538,4208.205025,4243.076819,4208.717846,4223.07682,4216.922974,4222.563999,4203.589641,4164.102462,4196.922974,4221.538358
54,0,4214.871692,4240.512717,4224.615281,4217.435794,4212.82041,4247.692204,4208.717846,4217.435794,4222.051179,4227.179384,4196.410154,4167.692206,4199.487077,4216.922974
55,0,4224.102461,4253.84605,4227.179384,4226.153743,4236.410153,4260.512716,4222.051179,4228.717845,4225.128102,4233.84605,4203.07682,4172.820411,4213.33323,4217.435794
56,0,4225.128102,4263.589639,4220.512717,4233.84605,4247.692204,4259.487075,4223.07682,4229.743486,4217.948615,4225.640922,4215.384512,4174.871693,4217.948615,4219.487076
57,0,4225.640922,4263.589639,4219.487076,4230.769127,4241.538358,4246.666563,4215.897333,4219.999897,4213.846051,4210.769128,4213.846051,4173.846052,4215.384512,4233.33323
58,0,4227.179384,4266.666562,4222.051179,4229.230666,4233.33323,4248.717845,4215.384512,4221.025538,4217.948615,4213.33323,4199.999897,4173.333231,4217.435794,4237.948614
59,0,4212.307589,4258.461434,4213.846051,4226.666563,4217.435794,4250.769127,4207.692205,4221.025538,4218.974256,4233.33323,4190.769128,4167.692206,4212.82041,4212.82041
60,0,4196.922974,4243.076819,4205.128102,4220.512717,4213.846051,4239.999896,4203.07682,4221.025538,4217.948615,4234.871691,4194.358872,4162.05118,4205.640923,4197.435795
61,0,4207.692205,4245.128101,4213.33323,4217.435794,4233.33323,4244.10246,4213.846051,4233.84605,4221.025538,4225.640922,4196.410154,4170.256308,4213.846051,4211.281948
62,0,4211.281948,4248.205024,4213.846051,4217.948615,4223.58964,4251.794768,4218.461435,4236.922973,4219.999897,4232.307589,4190.256308,4177.948616,4221.538358,4213.33323
63,0,4199.487077,4242.563999,4205.640923,4215.384512,4194.871692,4240.512717,4214.358871,4228.205025,4218.974256,4229.743486,4195.897333,4177.435795,4218.461435,4203.589641
64,0,4195.897333,4242.563999,4205.128102,4209.743487,4212.307589,4235.384512,4214.358871,4228.717845,4219.999897,4210.769128,4204.615282,4175.384513,4210.769128,4206.153743
65,0,4203.589641,4241.025537,4216.410153,4213.33323,4246.153742,4248.717845,4217.435794,4233.33323,4221.025538,4216.410153,4195.384513,4182.05118,4203.07682,4212.307589
66,0,4199.999897,4235.897332,4218.974256,4218.974256,4238.461435,4248.717845,4216.410153,4223.07682,4222.051179,4229.230666,4187.692205,4194.358872,4201.538359,4208.717846
67,0,4193.846051,4235.384512,4215.384512,4215.897333,4212.307589,4232.307589,4211.281948,4213.846051,4220.512717,4224.615281,4195.384513,4199.999897,4205.640923,4203.589641
68,0,4203.07682,4236.922973,4219.999897,4217.948615,4215.384512,4236.922973,4211.281948,4222.051179,4225.128102,4228.717845,4207.179384,4204.102461,4211.281948,4204.102461
69,0,4209.230666,4237.435794,4225.128102,4221.025538,4229.230666,4254.871691,4218.974256,4233.33323,4235.897332,4240.512717,4211.794769,4212.307589,4211.794769,4210.769128
70,0,4202.051179,4235.897332,4222.563999,4212.82041,4222.563999,4249.743486,4220.512717,4226.666563,4233.84605,4244.10246,4202.051179,4210.769128,4205.640923,4216.410153
71,0,4195.897333,4232.307589,4218.974256,4215.384512,4211.794769,4233.33323,4216.922974,4214.358871,4220.512717,4240.512717,4197.435795,4200.512718,4203.589641,4214.358871
72,0,4202.051179,4233.84605,4218.974256,4233.33323,4214.358871,4228.717845,4217.948615,4217.435794,4222.563999,4237.948614,4206.153743,4196.410154,4206.153743,4216.410153
73,0,4203.07682,4233.33323,4219.487076,4235.384512,4222.051179,4234.871691,4213.846051,4220.512717,4229.230666,4230.256307,4201.538359,4198.461436,4199.999897,4213.33323
74,0,4201.538359,4230.769127,4222.563999,4231.281948,4233.33323,4241.538358,4210.256307,4218.974256,4225.640922,4221.538358,4202.051179,4201.025538,4202.564,4197.948615
75,0,4207.179384,4244.615281,4225.128102,4229.743486,4237.435794,4239.487076,4210.769128,4219.487076,4224.615281,4235.384512,4218.974256,4198.461436,4216.922974,4201.538359
76,0,4208.205025,4250.256306,4221.025538,4213.846051,4217.948615,4230.769127,4203.07682,4212.82041,4222.051179,4246.153742,4210.769128,4186.153744,4208.717846,4217.948615
77,0,4203.589641,4235.384512,4216.922974,4212.82041,4208.205025,4231.281948,4197.948615,4208.717846,4217.948615,4235.384512,4189.230667,4183.589641,4195.897333,4219.999897
78,0,4202.051179,4228.717845,4215.384512,4233.84605,4223.58964,4234.358871,4202.051179,4211.281948,4216.410153,4228.717845,4197.435795,4191.281949,4202.564,4212.307589
79,0,4199.999897,4232.307589,4215.897333,4235.897332,4227.179384,4230.769127,4202.051179,4206.153743,4217.435794,4224.102461,4214.358871,4189.230667,4204.615282,4206.666564
80,0,4196.922974,4233.84605,4222.051179,4229.743486,4213.33323,4230.769127,4202.564,4204.615282,4217.435794,4214.358871,4213.33323,4188.717846,4201.025538,4204.615282
81,0,4198.461436,4231.794768,4222.563999,4232.307589,4207.692205,4233.33323,4207.179384,4211.281948,4217.435794,4230.769127,4202.051179,4195.384513,4198.974256,4206.666564
82,0,4207.692205,4232.820409,4224.615281,4228.205025,4224.615281,4235.897332,4206.153743,4214.871692,4218.974256,4256.922973,4201.538359,4201.538359,4202.051179,4215.897333
83,0,4214.358871,4241.025537,4227.692204,4231.794768,4238.974255,4238.461435,4208.717846,4216.922974,4218.461435,4225.640922,4212.82041,4202.051179,4208.717846,4222.563999
84,0,4214.358871,4248.205024,4223.58964,4247.692204,4236.410153,4236.922973,4218.461435,4219.487076,4216.410153,4183.589641,4218.461435,4195.897333,4210.769128,4218.974256
85,0,4211.794769,4246.153742,4213.846051,4244.615281,4225.640922,4233.84605,4216.410153,4217.948615,4218.974256,4216.922974,4206.153743,4185.640923,4209.230666,4213.846051
86,0,4211.794769,4243.076819,4216.922974,4230.256307,4217.948615,4229.230666,4206.666564,4223.58964,4226.153743,4259.999896,4198.461436,4177.435795,4210.769128,4217.435794
87,0,4212.307589,4238.461435,4219.999897,4227.692204,4224.102461,4232.820409,4207.692205,4231.281948,4227.692204,4237.948614,4207.692205,4180.512718,4207.692205,4219.999897
88,0,4214.358871,4229.230666,4220.512717,4231.794768,4233.84605,4242.563999,4213.33323,4225.128102,4226.666563,4221.025538,4211.281948,4192.30759,4203.589641,4216.410153
89,0,4215.897333,4238.461435,4229.230666,4242.051178,4233.84605,4246.153742,4214.358871,4224.102461,4229.230666,4247.179383,4209.230666,4199.999897,4208.717846,4222.563999
90,0,4215.384512,4248.717845,4230.769127,4246.153742,4229.230666,4237.948614,4213.846051,4233.33323,4229.743486,4227.179384,4213.33323,4194.871692,4213.846051,4231.794768
91,0,4214.871692,4236.410153,4218.974256,4236.922973,4228.205025,4229.743486,4213.33323,4235.384512,4229.743486,4197.948615,4219.999897,4189.230667,4214.871692,4223.58964
92,0,4212.307589,4229.230666,4214.871692,4226.666563,4228.717845,4229.230666,4214.871692,4230.256307,4228.717845,4230.256307,4213.846051,4194.358872,4217.435794,4213.33323
93,0,4208.205025,4236.922973,4223.07682,4223.07682,4212.82041,4225.640922,4220.512717,4227.692204,4222.563999,4242.051178,4204.615282,4197.435795,4216.410153,4216.410153
94,0,4203.07682,4234.358871,4215.384512,4224.615281,4199.999897,4221.025538,4213.846051,4217.435794,4214.358871,4214.871692,4201.025538,4181.025539,4210.769128,4216.922974
95,0,4201.538359,4227.692204,4200.512718,4227.692204,4221.025538,4225.128102,4198.461436,4205.640923,4213.33323,4229.230666,4199.487077,4163.589642,4206.666564,4209.743487
96,0,4210.256307,4232.820409,4208.205025,4230.769127,4256.922973,4243.076819,4205.640923,4218.461435,4226.153743,4265.128101,4213.33323,4173.333231,4219.487076,4213.846051
97,0,4215.384512,4235.897332,4223.58964,4231.794768,4247.692204,4248.205024,4222.051179,4236.410153,4234.871691,4248.205024,4227.179384,4190.769128,4230.256307,4222.051179
98,0,4206.153743,4235.384512,4217.948615,4229.230666,4211.281948,4228.717845,4210.256307,4228.205025,4229.230666,4216.922974,4217.948615,4188.205026,4216.922974,4216.410153
99,0,4205.640923,4244.615281,4212.307589,4226.153743,4213.33323,4221.538358,4198.461436,4221.538358,4228.205025,4228.205025,4208.205025,4182.05118,4206.666564,4218.461435
100,0,4217.435794,4249.230665,4219.487076,4230.256307,4233.33323,4230.769127,4210.256307,4231.794768,4230.256307,4237.435794,4214.358871,4190.769128,4219.487076,4232.820409
101,0,4217.435794,4239.999896,4221.538358,4230.256307,4215.897333,4234.358871,4214.358871,4224.615281,4221.538358,4212.82041,4216.410153,4201.025538,4224.102461,4232.307589
102,0,4207.692205,4233.33323,4215.897333,4224.615281,4191.281949,4227.692204,4204.102461,4207.692205,4217.435794,4213.33323,4208.205025,4198.461436,4212.307589,4219.999897
103,0,4212.82041,4236.922973,4219.999897,4229.230666,4212.307589,4230.256307,4209.230666,4221.025538,4227.179384,4248.205024,4209.230666,4199.487077,4216.410153,4228.717845
104,0,4221.025538,4232.820409,4227.179384,4230.769127,4239.487076,4240.512717,4219.999897,4242.563999,4231.794768,4242.563999,4224.102461,4206.666564,4234.358871,4245.640922
105,0,4217.948615,4224.615281,4224.102461,4226.666563,4229.230666,4244.10246,4211.281948,4232.820409,4229.230666,4231.794768,4227.692204,4202.564,4231.794768,4236.922973
106,0,4214.871692,4231.794768,4217.435794,4231.794768,4226.666563,4244.10246,4201.025538,4219.999897,4230.256307,4256.922973,4217.435794,4193.846051,4218.974256,4226.153743
107,0,4218.974256,4245.640922,4222.563999,4234.358871,4235.384512,4244.10246,4208.205025,4227.692204,4232.307589,4250.769127,4219.487076,4199.999897,4226.666563,4234.871691
108,0,4219.487076,4247.692204,4230.769127,4230.256307,4222.563999,4238.974255,4215.897333,4237.435794,4233.84605,4230.769127,4224.102461,4205.128102,4235.384512,4235.897332
109,0,4220.512717,4243.076819,4229.743486,4235.384512,4215.384512,4230.769127,4213.846051,4231.281948,4232.820409,4250.256306,4217.435794,4198.974256,4226.666563,4228.717845
110,0,4232.820409,4246.666563,4235.384512,4243.58964,4231.794768,4238.461435,4213.33323,4225.640922,4230.256307,4252.307588,4227.692204,4206.153743,4229.743486,4246.666563
111,0,4241.025537,4247.692204,4247.179383,4246.153742,4238.974255,4251.281947,4215.384512,4230.256307,4231.281948,4233.84605,4235.384512,4217.948615,4242.563999,4258.974255
112,0,4232.820409,4237.435794,4240.512717,4239.487076,4232.820409,4247.179383,4212.82041,4232.307589,4232.307589,4242.051178,4218.974256,4210.256307,4238.974255,4239.999896
113,0,4219.999897,4235.897332,4218.461435,4229.743486,4230.256307,4245.128101,4208.717846,4228.205025,4232.820409,4255.897332,4217.948615,4195.384513,4231.281948,4236.410153
114,0,4219.999897,4245.128101,4212.82041,4232.307589,4234.358871,4250.256306,4206.153743,4217.948615,4233.84605,4247.692204,4228.717845,4191.794769,4227.179384,4241.025537
115,0,4219.999897,4239.487076,4215.897333,4235.384512,4231.281948,4241.025537,4198.461436,4199.487077,4226.153743,4231.281948,4217.435794,4183.076821,4208.205025,4217.948615
116,0,4218.461435,4230.256307,4213.33323,4227.692204,4223.07682,4229.230666,4196.922974,4186.666564,4214.871692,4219.487076,4211.281948,4172.30759,4202.564,4207.692205
117,0,4217.948615,4230.769127,4214.358871,4228.205025,4217.435794,4228.717845,4203.07682,4195.897333,4214.358871,4211.794769,4217.435794,4176.410154,4216.922974,4226.666563
118,0,4218.974256,4227.179384,4221.538358,4236.410153,4226.153743,4232.820409,4207.692205,4213.33323,4221.025538,4213.846051,4216.410153,4186.153744,4216.922974,4234.871691
119,0,4219.999897,4226.153743,4221.538358,4233.33323,4236.922973,4238.974255,4207.692205,4217.435794,4224.102461,4235.384512,4221.538358,4190.256308,4218.974256,4232.307589
120,0,4219.487076,4228.717845,4217.948615,4228.717845,4224.102461,4241.025537,4204.615282,4213.846051,4227.179384,4247.692204,4226.666563,4189.743487,4239.487076,4227.692204
121,0,4215.384512,4224.102461,4217.948615,4234.358871,4219.999897,4242.051178,4205.640923,4218.461435,4231.281948,4235.384512,4213.33323,4184.615282,4239.999896,4218.461435
122,0,4210.769128,4221.025538,4220.512717,4230.769127,4243.58964,4248.717845,4209.743487,4218.974256,4230.256307,4242.051178,4207.179384,4183.589641,4222.563999,4223.07682
123,0,4203.07682,4222.051179,4217.948615,4216.410153,4237.948614,4246.153742,4211.281948,4213.33323,4227.692204,4244.615281,4216.922974,4190.256308,4218.974256,4229.743486
124,0,4206.153743,4218.974256,4222.563999,4216.410153,4204.102461,4233.33323,4216.410153,4225.640922,4228.717845,4216.922974,4222.563999,4196.922974,4221.025538,4231.281948
125,0,4217.948615,4216.922974,4229.230666,4225.640922,4206.666564,4234.358871,4219.487076,4233.84605,4228.205025,4218.974256,4216.922974,4197.435795,4214.871692,4232.307589
126,0,4215.897333,4218.974256,4221.025538,4223.07682,4235.384512,4244.615281,4214.871692,4218.461435,4225.640922,4239.999896,4209.230666,4192.82041,4212.307589,4224.102461
127,0,4204.102461,4215.897333,4212.82041,4216.410153,4246.666563,4247.692204,4219.487076,4221.538358,4230.256307,4229.230666,4221.025538,4191.281949,4221.538358,4218.461435
128,0,4202.051179,4213.33323,4214.358871,4210.256307,4228.205025,4246.666563,4231.281948,4239.487076,4234.358871,4233.33323,4229.230666,4192.82041,4226.666563,4225.128102
0,0,4204.615282,4214.871692,4216.410153,4201.538359,4204.102461,4244.10246,4230.769127,4235.897332,4233.84605,4268.205024,4214.358871,4192.82041,4219.487076,4225.640922
1,0,4205.640923,4214.358871,4215.897333,4205.640923,4218.974256,4246.666563,4225.640922,4232.307589,4232.820409,4267.179383,4211.281948,4191.794769,4221.025538,4222.051179
2,0,4213.846051,4214.871692,4223.07682,4219.487076,4245.128101,4251.794768,4233.33323,4245.128101,4232.307589,4234.871691,4229.743486,4195.384513,4228.717845,4236.922973
3,0,4219.999897,4222.563999,4225.128102,4222.051179,4238.461435,4249.743486,4242.563999,4253.333229,4237.948614,4227.179384,4231.281948,4196.922974,4221.538358,4244.10246
4,0,4214.871692,4227.179384,4219.999897,4213.846051,4227.692204,4248.205024,4239.487076,4251.281947,4246.153742,4244.615281,4219.999897,4195.384513,4216.922974,4230.256307
5,0,4206.153743,4218.974256,4216.922974,4212.307589,4221.025538,4245.640922,4233.33323,4241.025537,4241.025537,4258.974255,4218.974256,4191.281949,4218.461435,4221.538358
6,0,4209.230666,4216.410153,4223.58964,4218.461435,4211.281948,4235.384512,4231.794768,4230.769127,4232.307589,4247.692204,4219.487076,4190.769128,4206.666564,4227.692204
7,0,4216.922974,4220.512717,4233.84605,4214.871692,4215.897333,4231.794768,4235.897332,4234.358871,4232.820409,4217.435794,4217.948615,4195.384513,4197.435795,4236.922973
8,0,4213.846051,4214.871692,4236.410153,4207.179384,4217.948615,4236.410153,4234.871691,4237.435794,4232.820409,4209.230666,4210.769128,4196.410154,4201.025538,4234.358871
9,0,4209.230666,4209.230666,4229.743486,4217.948615,4205.640923,4232.307589,4228.205025,4228.717845,4229.230666,4228.717845,4203.589641,4191.281949,4197.948615,4226.153743
10,0,4213.846051,4219.999897,4224.102461,4222.051179,4209.230666,4229.230666,4230.256307,4230.769127,4230.256307,4238.461435,4208.205025,4187.179385,4197.948615,4222.051179
11,0,4209.230666,4219.999897,4218.974256,4201.538359,4223.58964,4241.538358,4236.922973,4236.922973,4231.794768,4234.871691,4212.307589,4181.538359,4203.07682,4218.974256
12,0,4201.538359,4203.07682,4212.82041,4194.358872,4227.692204,4247.179383,4231.281948,4229.230666,4227.179384,4227.179384,4206.153743,4176.410154,4196.922974,4210.256307
13,0,4198.974256,4199.487077,4209.230666,4205.128102,4217.948615,4241.025537,4222.051179,4224.615281,4222.563999,4222.563999,4201.538359,4172.30759,4188.717846,4206.666564
14,0,4195.384513,4212.82041,4214.871692,4208.205025,4204.615282,4244.615281,4227.179384,4230.256307,4227.179384,4223.07682,4205.640923,4172.30759,4194.358872,4220.512717
