title:V                                                                               , recorded:06.07.20 12.20.33, sampling:128, subject:B                                                                               , labels:COUNTER INTERPOLATED AF3 F7 F3 FC5 T7 P7 O1 O2 P8 T8 FC6 F4 F8 AF4,, units:emotiv,,,,,,,,,
125,0,4217.948615,4226.666563,4208.205025,4211.794769,4212.82041,4229.743486,4202.564,4183.076821,4211.794769,4210.256307,4176.410154,4182.05118,4210.769128,4265.128101
126,0,4217.435794,4231.281948,4218.974256,4209.743487,4215.897333,4228.717845,4193.846051,4188.205026,4214.358871,4223.58964,4191.794769,4191.281949,4215.897333,4266.153742
127,0,4214.871692,4231.281948,4217.435794,4215.384512,4219.487076,4228.205025,4189.230667,4188.205026,4217.948615,4228.717845,4210.256307,4199.487077,4218.974256,4270.769126
128,0,4210.256307,4225.640922,4206.666564,4219.487076,4216.922974,4225.640922,4196.410154,4189.230667,4218.461435,4213.846051,4209.743487,4196.922974,4211.794769,4272.307588
0,0,4216.410153,4234.871691,4214.358871,4226.153743,4225.640922,4231.794768,4203.589641,4199.999897,4225.128102,4226.666563,4215.897333,4202.051179,4219.487076,4287.692203
1,0,4235.384512,4250.769127,4230.256307,4235.897332,4231.794768,4237.435794,4202.564,4206.666564,4236.410153,4256.922973,4224.102461,4219.999897,4243.076819,4304.102459
2,0,4237.948614,4248.205024,4227.179384,4231.794768,4221.538358,4227.692204,4199.999897,4200.512718,4233.33323,4252.307588,4208.717846,4222.563999,4243.58964,4295.897331
3,0,4216.922974,4232.307589,4214.871692,4221.025538,4216.410153,4217.948615,4197.948615,4189.230667,4214.871692,4225.640922,4197.948615,4206.153743,4221.025538,4277.948613
4,0,4204.102461,4222.051179,4208.205025,4216.410153,4213.846051,4214.358871,4187.179385,4178.461436,4203.07682,4214.871692,4208.205025,4193.333231,4208.205025,4273.846049
5,0,4210.769128,4222.051179,4207.692205,4219.999897,4215.897333,4215.384512,4184.102462,4181.025539,4210.769128,4222.563999,4217.948615,4195.897333,4212.307589,4280.512716
6,0,4215.384512,4229.743486,4214.871692,4232.307589,4226.666563,4225.128102,4195.897333,4202.051179,4227.179384,4232.820409,4230.256307,4209.230666,4225.640922,4293.333228
7,0,4214.358871,4236.410153,4219.487076,4232.820409,4227.179384,4231.794768,4203.07682,4216.922974,4235.384512,4230.769127,4234.358871,4212.82041,4232.820409,4310.256305
8,0,4215.897333,4230.769127,4218.461435,4219.999897,4215.897333,4226.666563,4206.666564,4214.871692,4233.84605,4236.922973,4217.948615,4209.743487,4221.538358,4310.256305
9,0,4217.435794,4228.205025,4221.538358,4225.128102,4211.794769,4225.640922,4213.33323,4213.846051,4231.281948,4249.230665,4211.281948,4208.717846,4214.871692,4306.153741
10,0,4213.33323,4234.358871,4223.07682,4238.974255,4216.922974,4231.794768,4209.743487,4216.410153,4230.256307,4237.435794,4221.538358,4204.615282,4216.410153,4321.025535
11,0,4209.743487,4231.794768,4221.538358,4231.794768,4223.07682,4232.820409,4198.461436,4213.846051,4229.743486,4228.717845,4220.512717,4206.153743,4215.897333,4334.358868
12,0,4218.974256,4231.794768,4227.179384,4230.769127,4225.640922,4233.84605,4206.153743,4213.846051,4234.871691,4241.025537,4218.974256,4219.487076,4223.07682,4352.820406
13,0,4223.07682,4236.410153,4231.281948,4242.563999,4212.82041,4234.871691,4215.897333,4216.410153,4232.820409,4242.051178,4224.615281,4223.58964,4228.205025,4386.153739
14,0,4213.846051,4232.307589,4225.128102,4234.358871,4203.07682,4230.769127,4206.153743,4212.307589,4221.025538,4225.128102,4219.487076,4217.948615,4215.384512,4423.076815
15,0,4205.128102,4225.128102,4220.512717,4217.948615,4213.846051,4229.743486,4197.948615,4207.179384,4221.025538,4218.974256,4211.794769,4211.794769,4203.07682,4454.871686
16,0,4204.102461,4220.512717,4219.487076,4214.871692,4222.051179,4230.256307,4198.974256,4201.025538,4223.58964,4217.948615,4214.358871,4205.128102,4207.179384,4471.794762
17,0,4206.153743,4223.07682,4219.999897,4221.538358,4218.974256,4230.256307,4201.025538,4202.051179,4215.897333,4216.410153,4217.948615,4207.179384,4215.384512,4466.666557
18,0,4215.897333,4236.410153,4225.128102,4231.281948,4217.948615,4236.410153,4208.717846,4213.846051,4217.948615,4232.820409,4211.794769,4213.846051,4215.384512,4448.205019
19,0,4218.974256,4245.640922,4225.640922,4236.410153,4217.435794,4240.512717,4219.487076,4221.025538,4231.794768,4247.692204,4207.692205,4207.692205,4212.307589,4426.666558
20,0,4207.692205,4237.948614,4219.487076,4229.230666,4214.871692,4230.769127,4217.948615,4216.922974,4232.307589,4237.435794,4208.717846,4198.461436,4211.281948,4403.589636
21,0,4205.128102,4229.230666,4217.948615,4230.256307,4226.666563,4229.230666,4213.33323,4214.358871,4228.717845,4233.84605,4210.256307,4199.999897,4214.871692,4391.794764
22,0,4219.999897,4234.871691,4221.025538,4243.58964,4245.128101,4242.051178,4215.384512,4216.922974,4233.33323,4248.717845,4222.563999,4208.717846,4223.07682,4392.307585
23,0,4229.230666,4247.179383,4226.666563,4244.615281,4240.512717,4243.58964,4217.948615,4222.563999,4236.410153,4242.051178,4233.33323,4214.871692,4232.820409,4389.743482
24,0,4225.640922,4250.256306,4232.307589,4239.999896,4219.999897,4233.33323,4217.948615,4225.640922,4235.897332,4227.179384,4225.128102,4212.307589,4235.384512,4375.384508
25,0,4221.025538,4247.179383,4227.692204,4245.640922,4215.384512,4232.307589,4217.948615,4222.563999,4235.384512,4239.999896,4217.948615,4204.615282,4231.281948,4358.974252
26,0,4217.948615,4249.230665,4222.563999,4246.666563,4231.794768,4236.410153,4215.897333,4216.922974,4232.307589,4246.666563,4219.487076,4195.897333,4227.179384,4350.256304
27,0,4217.948615,4246.153742,4221.538358,4237.948614,4242.563999,4233.33323,4212.307589,4217.435794,4229.743486,4238.974255,4215.897333,4195.897333,4225.128102,4342.051176
28,0,4224.102461,4243.076819,4226.666563,4243.58964,4235.897332,4231.794768,4212.307589,4224.102461,4232.307589,4244.615281,4218.461435,4208.205025,4232.307589,4345.128099
29,0,4239.487076,4257.948614,4240.512717,4262.563998,4235.384512,4241.025537,4218.461435,4233.33323,4243.076819,4259.999896,4235.384512,4223.07682,4253.84605,4366.66656
30,0,4247.179383,4269.743485,4243.58964,4263.076819,4228.205025,4242.051178,4220.512717,4235.897332,4247.692204,4267.179383,4243.58964,4226.153743,4264.10246,4369.230662
31,0,4242.051178,4255.384511,4234.358871,4248.205024,4210.769128,4232.307589,4215.897333,4230.769127,4237.948614,4263.076819,4237.435794,4220.512717,4250.769127,4346.66656
32,0,4235.384512,4244.10246,4234.358871,4243.58964,4221.025538,4230.256307,4213.846051,4223.58964,4231.281948,4250.769127,4223.58964,4213.846051,4241.025537,4335.384509
33,0,4238.974255,4256.410152,4241.538358,4248.717845,4247.692204,4235.897332,4215.384512,4221.025538,4235.384512,4232.820409,4222.051179,4215.897333,4241.538358,4335.89733
34,0,4243.076819,4265.640921,4236.410153,4248.205024,4245.640922,4233.84605,4212.307589,4216.410153,4232.307589,4228.717845,4234.871691,4216.922974,4236.922973,4327.692202
35,0,4240.512717,4259.999896,4226.153743,4245.128101,4224.615281,4226.153743,4202.564,4206.153743,4218.461435,4234.358871,4231.794768,4205.640923,4236.922973,4319.487074
36,0,4238.974255,4255.384511,4225.640922,4243.076819,4223.07682,4230.256307,4199.999897,4204.615282,4217.435794,4233.84605,4214.871692,4201.025538,4245.640922,4316.922971
37,0,4253.333229,4262.563998,4231.281948,4245.128101,4231.794768,4242.051178,4210.256307,4216.922974,4229.743486,4238.461435,4220.512717,4209.230666,4253.333229,4321.538356
38,0,4272.307588,4276.410152,4239.999896,4255.897332,4222.051179,4247.179383,4218.461435,4224.102461,4235.897332,4247.179383,4246.666563,4215.384512,4263.589639,4334.871689
39,0,4283.076818,4291.794767,4244.615281,4265.640921,4212.307589,4247.179383,4216.922974,4218.974256,4232.820409,4241.025537,4243.076819,4217.948615,4268.717844,4343.589637
40,0,4296.922972,4296.922972,4242.563999,4265.640921,4225.640922,4246.153742,4215.897333,4216.922974,4233.33323,4227.692204,4220.512717,4217.948615,4259.487075,4344.615278
41,0,4314.358869,4293.333228,4245.640922,4259.487075,4237.435794,4239.487076,4214.871692,4218.974256,4231.281948,4233.33323,4228.205025,4217.948615,4258.461434,4352.820406
42,0,4326.666561,4306.666561,4252.307588,4257.948614,4232.307589,4232.820409,4205.640923,4212.307589,4221.025538,4235.897332,4242.051178,4218.461435,4265.640921,4364.102457
43,0,4340.512714,4328.717843,4251.281947,4268.717844,4227.692204,4233.84605,4199.999897,4202.051179,4215.384512,4221.538358,4234.871691,4217.948615,4263.076819,4366.66656
44,0,4348.717842,4326.666561,4246.666563,4277.435793,4223.58964,4231.281948,4201.025538,4201.025538,4214.871692,4211.794769,4231.794768,4215.384512,4263.076819,4360.512714
45,0,4343.589637,4315.38451,4249.230665,4271.281947,4225.128102,4227.179384,4200.512718,4208.717846,4215.897333,4216.922974,4233.33323,4215.897333,4267.179383,4355.897329
46,0,4346.66656,4324.615279,4252.820409,4263.076819,4239.487076,4235.384512,4201.025538,4210.769128,4217.435794,4227.692204,4228.205025,4218.974256,4261.025537,4358.461432
47,0,4353.333227,4330.256304,4248.205024,4263.076819,4234.358871,4236.410153,4203.589641,4206.666564,4219.487076,4231.281948,4224.102461,4213.846051,4250.769127,4362.051175
48,0,4342.563996,4318.461433,4247.692204,4262.563998,4213.846051,4221.025538,4202.564,4204.102461,4219.999897,4224.615281,4222.051179,4207.692205,4246.153742,4352.307586
49,0,4330.769125,4311.281946,4250.769127,4262.051178,4214.358871,4213.33323,4199.999897,4201.538359,4216.922974,4206.666564,4219.999897,4206.153743,4238.461435,4338.974253
50,0,4324.102458,4303.589638,4245.128101,4264.10246,4227.179384,4221.025538,4198.461436,4198.461436,4213.846051,4202.564,4218.974256,4207.179384,4232.307589,4360.512714
51,0,4309.743484,4293.333228,4238.461435,4260.512716,4234.871691,4230.256307,4200.512718,4198.974256,4211.794769,4219.999897,4215.384512,4208.717846,4231.281948,4419.999892
52,0,4305.64092,4294.358869,4243.076819,4258.461434,4236.410153,4232.307589,4205.128102,4203.589641,4213.846051,4216.922974,4213.846051,4213.33323,4234.358871,4470.769121
53,0,4310.769125,4298.974254,4244.615281,4261.538357,4228.205025,4226.153743,4203.589641,4205.640923,4216.410153,4204.102461,4218.461435,4211.794769,4239.487076,4493.846044
54,0,4303.589638,4293.333228,4238.974255,4257.435793,4217.435794,4217.948615,4197.948615,4201.538359,4216.410153,4222.563999,4221.025538,4206.666564,4238.461435,4498.974249
55,0,4285.1281,4279.999895,4236.410153,4244.10246,4212.82041,4215.897333,4196.410154,4199.999897,4214.358871,4234.358871,4217.435794,4206.666564,4229.743486,4489.230659
56,0,4273.333229,4266.666562,4233.33323,4242.051178,4218.461435,4224.615281,4200.512718,4209.230666,4217.948615,4215.897333,4216.410153,4203.589641,4219.999897,4466.666557
57,0,4270.769126,4263.076819,4230.256307,4247.179383,4227.179384,4234.358871,4208.205025,4217.435794,4224.615281,4218.974256,4217.948615,4199.999897,4216.410153,4447.692199
58,0,4270.256306,4265.640921,4237.435794,4241.538358,4226.153743,4233.33323,4213.33323,4212.82041,4223.07682,4231.281948,4215.384512,4206.666564,4224.615281,4447.179378
59,0,4267.692203,4264.10246,4242.051178,4238.974255,4225.128102,4229.743486,4212.82041,4209.230666,4217.435794,4215.384512,4214.358871,4211.281948,4231.281948,4448.71784
60,0,4266.666562,4262.563998,4235.897332,4246.153742,4227.692204,4230.256307,4209.230666,4215.384512,4218.461435,4206.666564,4218.974256,4205.640923,4222.563999,4422.563994
61,0,4265.640921,4262.563998,4232.307589,4246.153742,4217.948615,4223.07682,4208.717846,4215.384512,4217.948615,4222.563999,4215.384512,4197.435795,4214.358871,4391.281944
62,0,4260.512716,4265.128101,4238.461435,4244.615281,4210.256307,4213.846051,4210.769128,4210.769128,4214.871692,4232.820409,4211.281948,4201.025538,4219.999897,4377.948611
63,0,4262.563998,4274.87169,4247.179383,4247.692204,4228.205025,4223.07682,4217.435794,4221.025538,4224.615281,4233.84605,4218.461435,4212.307589,4228.717845,4364.102457
64,0,4268.717844,4276.922972,4249.230665,4248.205024,4237.435794,4233.33323,4222.563999,4234.871691,4237.948614,4234.871691,4221.538358,4219.487076,4234.358871,4353.333227
65,0,4261.025537,4267.692203,4243.58964,4248.205024,4228.717845,4231.794768,4220.512717,4234.358871,4233.84605,4230.769127,4219.487076,4219.487076,4234.358871,4365.640919
66,0,4249.743486,4260.512716,4233.84605,4244.615281,4227.692204,4225.640922,4217.948615,4225.128102,4222.051179,4222.051179,4217.435794,4209.743487,4224.102461,4370.769124
67,0,4244.615281,4249.743486,4226.666563,4233.33323,4223.58964,4223.58964,4214.871692,4217.435794,4217.948615,4213.846051,4209.743487,4193.846051,4210.769128,4351.281945
68,0,4241.025537,4243.076819,4224.102461,4226.666563,4215.897333,4225.128102,4214.871692,4212.307589,4215.897333,4205.640923,4196.410154,4186.153744,4203.07682,4342.051176
69,0,4249.230665,4255.897332,4225.640922,4233.33323,4217.948615,4223.07682,4215.384512,4211.281948,4217.948615,4200.512718,4198.461436,4194.358872,4211.281948,4344.615278
70,0,4265.128101,4265.640921,4228.205025,4241.025537,4210.769128,4214.871692,4211.281948,4215.384512,4224.102461,4205.128102,4215.897333,4197.948615,4226.153743,4332.307586
71,0,4274.87169,4266.666562,4235.897332,4241.025537,4203.07682,4213.846051,4212.307589,4217.435794,4223.58964,4216.410153,4223.07682,4199.487077,4228.717845,4321.538356
72,0,4290.769126,4285.1281,4246.153742,4249.743486,4205.640923,4218.974256,4212.82041,4213.846051,4219.487076,4224.615281,4211.794769,4207.692205,4230.256307,4342.563996
73,0,4319.999894,4310.256305,4252.307588,4264.10246,4196.922974,4214.358871,4204.615282,4210.256307,4215.897333,4215.384512,4210.769128,4210.256307,4241.538358,4367.692201
74,0,4339.487073,4321.538356,4256.922973,4267.179383,4199.999897,4213.33323,4205.128102,4214.871692,4217.948615,4198.974256,4227.692204,4209.230666,4253.84605,4373.333226
75,0,4355.897329,4332.307586,4265.640921,4270.769126,4229.230666,4227.179384,4217.435794,4219.487076,4227.692204,4209.230666,4233.84605,4217.948615,4263.076819,4388.205021
76,0,4373.846047,4343.076817,4270.769126,4284.61528,4238.974255,4232.307589,4219.999897,4215.897333,4226.666563,4226.666563,4228.205025,4229.743486,4268.205024,4408.20502
77,0,4377.948611,4337.435791,4272.820408,4288.205023,4221.025538,4222.563999,4213.33323,4215.384512,4221.538358,4219.999897,4225.640922,4234.358871,4268.205024,4404.615277
78,0,4370.769124,4328.205022,4271.794767,4271.281947,4203.589641,4215.384512,4211.281948,4219.487076,4227.179384,4210.256307,4229.743486,4233.33323,4266.153742,4379.999893
79,0,4359.487073,4323.589638,4265.128101,4256.410152,4197.948615,4214.358871,4212.82041,4213.846051,4225.128102,4213.33323,4234.358871,4231.281948,4263.589639,4361.538355
80,0,4351.794765,4315.89733,4266.666562,4262.563998,4214.871692,4219.487076,4215.384512,4211.794769,4219.487076,4222.051179,4229.743486,4231.281948,4261.538357,4361.025534
81,0,4349.230663,4312.307587,4271.281947,4274.35887,4236.922973,4227.692204,4218.461435,4226.666563,4233.84605,4230.769127,4228.205025,4232.307589,4266.153742,4353.846047
82,0,4341.025535,4309.743484,4262.051178,4272.307588,4225.128102,4224.615281,4216.922974,4233.84605,4243.076819,4228.205025,4237.435794,4227.179384,4270.769126,4330.769125
83,0,4326.15374,4299.487074,4250.769127,4260.512716,4198.461436,4210.769128,4212.82041,4220.512717,4232.820409,4215.384512,4230.769127,4220.512717,4264.10246,4308.205023
84,0,4316.922971,4290.256305,4252.820409,4251.281947,4198.461436,4210.256307,4211.794769,4210.769128,4229.230666,4210.769128,4218.974256,4216.410153,4250.769127,4293.846049
85,0,4308.205023,4286.153741,4250.256306,4247.179383,4218.461435,4224.615281,4215.384512,4214.871692,4232.307589,4210.769128,4227.179384,4216.922974,4243.58964,4277.435793
86,0,4296.410151,4279.487075,4242.563999,4248.205024,4234.358871,4232.307589,4217.948615,4216.922974,4232.820409,4218.974256,4229.743486,4217.948615,4246.666563,4258.461434
87,0,4292.307587,4280.512716,4244.10246,4249.743486,4234.358871,4231.794768,4216.922974,4214.358871,4233.84605,4231.281948,4212.82041,4214.358871,4248.717845,4249.743486
88,0,4289.230664,4280.512716,4247.692204,4247.692204,4222.563999,4229.743486,4218.461435,4215.384512,4229.743486,4224.102461,4208.717846,4212.307589,4245.640922,4247.179383
89,0,4277.435793,4267.179383,4248.205024,4246.153742,4216.410153,4230.769127,4222.563999,4219.487076,4232.820409,4222.051179,4222.563999,4216.922974,4246.153742,4239.487076
90,0,4265.128101,4254.871691,4242.563999,4239.999896,4219.999897,4228.205025,4217.435794,4221.025538,4242.051178,4236.922973,4227.692204,4214.358871,4243.076819,4216.410153
91,0,4255.897332,4244.10246,4231.794768,4221.538358,4224.102461,4219.487076,4206.153743,4214.358871,4236.922973,4236.410153,4218.974256,4199.999897,4231.794768,4193.333231
92,0,4249.743486,4237.435794,4234.358871,4216.410153,4215.384512,4215.897333,4206.666564,4211.281948,4227.179384,4219.999897,4215.384512,4199.487077,4229.230666,4188.205026
93,0,4244.615281,4242.051178,4243.076819,4225.640922,4203.07682,4217.435794,4219.487076,4216.922974,4227.692204,4212.82041,4221.025538,4211.281948,4233.84605,4183.076821
94,0,4237.948614,4238.461435,4236.922973,4223.58964,4208.717846,4219.487076,4226.153743,4219.487076,4229.743486,4213.846051,4222.563999,4211.281948,4228.205025,4171.79477
95,0,4228.205025,4227.692204,4224.102461,4214.871692,4216.410153,4218.461435,4221.538358,4217.948615,4229.230666,4214.871692,4216.922974,4202.564,4217.435794,4166.153744
96,0,4216.922974,4226.153743,4220.512717,4216.410153,4204.102461,4215.897333,4217.435794,4217.948615,4230.769127,4214.871692,4216.922974,4201.025538,4216.922974,4161.025539
97,0,4206.153743,4221.538358,4218.461435,4216.410153,4195.384513,4213.846051,4216.410153,4215.897333,4228.205025,4213.33323,4212.307589,4206.153743,4213.846051,4143.589642
98,0,4208.717846,4216.922974,4219.487076,4215.897333,4211.794769,4215.384512,4217.435794,4215.384512,4225.640922,4215.897333,4211.794769,4211.281948,4210.769128,4136.410155
99,0,4225.640922,4229.230666,4229.743486,4228.205025,4225.640922,4219.487076,4216.922974,4219.487076,4229.230666,4223.58964,4226.153743,4217.948615,4225.128102,4149.743488
100,0,4231.794768,4239.487076,4234.358871,4239.999896,4217.948615,4221.025538,4214.358871,4222.563999,4236.410153,4232.307589,4241.025537,4223.07682,4236.410153,4150.769129
101,0,4218.461435,4228.717845,4225.128102,4228.717845,4202.051179,4217.948615,4212.307589,4219.487076,4233.33323,4221.538358,4235.384512,4214.358871,4221.025538,4135.897335
102,0,4209.230666,4217.948615,4215.897333,4217.948615,4197.948615,4215.897333,4214.358871,4212.307589,4219.487076,4199.487077,4217.435794,4198.461436,4206.666564,4124.102463
103,0,4209.743487,4217.948615,4219.999897,4224.102461,4211.281948,4224.102461,4217.948615,4213.33323,4221.025538,4210.256307,4213.846051,4201.025538,4222.563999,4123.076822
104,0,4204.615282,4216.410153,4225.128102,4231.794768,4222.051179,4232.307589,4216.922974,4225.640922,4235.384512,4237.948614,4228.717845,4212.307589,4233.33323,4126.153745
105,0,4198.974256,4213.846051,4222.563999,4227.179384,4221.025538,4227.692204,4214.871692,4232.307589,4235.384512,4235.384512,4237.435794,4208.205025,4220.512717,4121.02554
106,0,4204.102461,4223.07682,4223.58964,4227.179384,4218.461435,4219.487076,4216.922974,4228.717845,4229.230666,4224.102461,4233.84605,4201.538359,4216.410153,4114.871694
107,0,4218.974256,4237.948614,4227.179384,4241.538358,4217.948615,4217.948615,4216.410153,4219.999897,4231.281948,4229.230666,4230.256307,4207.692205,4227.179384,4118.974258
108,0,4232.820409,4249.743486,4226.666563,4250.256306,4215.384512,4223.58964,4211.794769,4213.33323,4231.794768,4232.820409,4230.256307,4214.358871,4232.820409,4131.28195
109,0,4249.230665,4258.461434,4232.307589,4250.769127,4216.922974,4232.307589,4215.897333,4222.051179,4233.33323,4232.820409,4237.948614,4215.897333,4234.871691,4143.589642
110,0,4264.61528,4262.051178,4234.358871,4248.205024,4216.922974,4229.743486,4223.07682,4232.307589,4237.435794,4230.769127,4248.205024,4215.897333,4245.640922,4161.53836
111,0,4278.974254,4267.692203,4225.640922,4243.58964,4208.205025,4214.358871,4215.384512,4222.563999,4232.820409,4215.384512,4246.666563,4216.922974,4259.487075,4188.205026
112,0,4305.1281,4285.1281,4228.717845,4250.256306,4196.922974,4207.692205,4199.487077,4213.33323,4228.205025,4208.205025,4243.58964,4224.615281,4265.640921,4208.205025
113,0,4333.333227,4299.999895,4249.743486,4263.589639,4199.999897,4214.358871,4197.948615,4219.487076,4231.794768,4218.974256,4247.179383,4232.820409,4263.589639,4219.999897
114,0,4345.128099,4306.666561,4260.512716,4272.307588,4215.384512,4218.461435,4210.256307,4221.025538,4230.256307,4214.358871,4247.692204,4233.33323,4261.025537,4233.84605
115,0,4348.205022,4315.38451,4257.435793,4273.846049,4212.82041,4215.384512,4213.33323,4216.410153,4221.538358,4202.051179,4249.230665,4231.794768,4269.743485,4244.10246
116,0,4349.743483,4319.487074,4251.794768,4269.230665,4198.461436,4211.281948,4205.640923,4215.384512,4219.487076,4212.307589,4249.230665,4227.179384,4267.179383,4230.769127
117,0,4336.41015,4301.538356,4242.563999,4261.538357,4202.051179,4210.769128,4198.974256,4205.640923,4215.897333,4207.692205,4236.410153,4216.410153,4242.051178,4203.589641
118,0,4322.563997,4282.563998,4235.897332,4264.10246,4214.871692,4214.358871,4203.07682,4197.435795,4210.256307,4180.512718,4227.179384,4211.281948,4231.794768,4197.948615
119,0,4321.538356,4288.205023,4237.948614,4265.128101,4218.974256,4217.948615,4214.871692,4203.589641,4213.846051,4192.82041,4234.358871,4212.82041,4245.640922,4208.717846
120,0,4314.871689,4298.461433,4236.410153,4252.307588,4216.922974,4217.948615,4216.410153,4209.230666,4217.948615,4229.743486,4234.871691,4207.179384,4253.333229,4203.07682
121,0,4296.410151,4284.102459,4229.743486,4245.128101,4214.871692,4216.922974,4211.281948,4211.794769,4216.922974,4223.58964,4226.666563,4200.512718,4245.640922,4184.615282
122,0,4276.410152,4265.128101,4226.153743,4247.692204,4215.384512,4216.922974,4206.666564,4216.410153,4219.999897,4208.717846,4231.794768,4202.564,4236.922973,4170.256308
123,0,4269.743485,4261.025537,4221.538358,4246.666563,4216.922974,4216.922974,4203.07682,4216.410153,4223.07682,4208.717846,4233.84605,4204.102461,4231.794768,4158.974257
124,0,4268.717844,4254.871691,4215.384512,4235.897332,4212.82041,4217.948615,4205.640923,4214.871692,4217.435794,4190.256308,4222.051179,4203.589641,4230.256307,4153.846052
125,0,4257.435793,4242.563999,4208.717846,4231.794768,4207.692205,4215.897333,4212.307589,4215.384512,4215.384512,4186.666564,4220.512717,4197.435795,4231.794768,4155.384514
126,0,4246.666563,4242.051178,4207.692205,4242.051178,4215.384512,4215.897333,4213.846051,4215.897333,4223.58964,4220.512717,4228.717845,4188.205026,4229.743486,4153.333232
127,0,4245.128101,4250.256306,4210.256307,4243.58964,4229.230666,4225.640922,4213.33323,4221.538358,4231.281948,4240.512717,4226.666563,4192.30759,4228.205025,4145.128104
128,0,4239.999896,4248.205024,4211.281948,4234.358871,4234.358871,4231.281948,4215.897333,4229.743486,4233.33323,4238.974255,4225.128102,4197.435795,4229.743486,4135.897335
0,0,4229.230666,4238.461435,4212.307589,4232.820409,4229.743486,4227.692204,4215.897333,4232.307589,4236.922973,4250.769127,4233.33323,4193.333231,4233.33323,4127.692207
1,0,4224.615281,4231.794768,4213.33323,4233.84605,4219.999897,4227.179384,4216.922974,4230.256307,4236.922973,4244.615281,4229.743486,4195.384513,4231.281948,4124.102463
2,0,4221.025538,4228.717845,4211.281948,4229.743486,4208.205025,4229.230666,4215.384512,4227.179384,4232.307589,4216.922974,4217.435794,4200.512718,4219.487076,4125.640925
3,0,4222.563999,4228.717845,4216.410153,4233.33323,4209.230666,4231.281948,4216.410153,4229.743486,4238.461435,4217.948615,4224.615281,4202.051179,4215.384512,4135.897335
4,0,4221.538358,4226.153743,4222.051179,4239.487076,4218.974256,4230.256307,4225.640922,4237.435794,4246.153742,4239.487076,4237.435794,4205.640923,4222.563999,4142.564001
5,0,4210.256307,4216.410153,4213.33323,4233.33323,4216.410153,4220.512717,4224.102461,4231.281948,4233.33323,4233.33323,4226.153743,4197.435795,4217.435794,4127.692207
6,0,4201.025538,4211.281948,4206.666564,4225.640922,4218.461435,4214.871692,4212.307589,4216.922974,4219.999897,4207.179384,4212.307589,4186.666564,4203.589641,4108.205028
7,0,4202.051179,4216.410153,4211.794769,4227.179384,4235.384512,4218.974256,4213.846051,4221.538358,4227.692204,4209.743487,4216.410153,4193.333231,4208.205025,4106.153746
8,0,4202.051179,4219.487076,4213.33323,4228.205025,4232.820409,4217.435794,4219.487076,4233.33323,4235.897332,4236.922973,4218.974256,4195.384513,4214.871692,4109.743489
9,0,4188.205026,4213.33323,4205.128102,4219.487076,4210.769128,4219.999897,4213.846051,4230.256307,4232.307589,4238.461435,4217.435794,4182.564,4205.128102,4103.589643
10,0,4178.974257,4203.589641,4202.051179,4214.871692,4208.717846,4232.820409,4213.33323,4228.205025,4237.435794,4222.563999,4221.538358,4182.05118,4201.025538,4097.948618
11,0,4186.153744,4195.897333,4206.153743,4218.974256,4225.128102,4237.435794,4224.615281,4243.076819,4247.692204,4232.307589,4219.999897,4190.769128,4213.33323,4106.666566
12,0,4193.846051,4204.615282,4211.794769,4222.051179,4233.33323,4238.461435,4229.230666,4250.769127,4248.717845,4248.717845,4215.384512,4191.281949,4217.948615,4111.794771
13,0,4189.743487,4215.897333,4214.871692,4219.487076,4231.281948,4246.153742,4228.717845,4245.640922,4246.153742,4248.717845,4225.128102,4188.717846,4214.358871,4097.435797
14,0,4187.179385,4206.153743,4218.461435,4218.974256,4231.281948,4247.179383,4230.256307,4245.640922,4247.692204,4244.615281,4232.820409,4189.743487,4216.410153,4092.307592
15,0,4192.82041,4199.487077,4216.410153,4223.58964,4233.33323,4237.948614,4230.256307,4246.153742,4247.179383,4236.410153,4227.179384,4190.256308,4217.948615,4107.179387
16,0,4191.794769,4213.846051,4210.769128,4224.615281,4227.692204,4231.281948,4226.666563,4237.435794,4243.58964,4227.179384,4223.58964,4188.205026,4214.871692,4109.743489
17,0,4183.589641,4215.897333,4209.230666,4218.461435,4225.640922,4232.307589,4227.692204,4231.281948,4239.999896,4231.281948,4221.025538,4184.615282,4211.281948,4097.435797
18,0,4182.564,4200.512718,4208.717846,4219.999897,4229.743486,4239.999896,4231.794768,4233.84605,4236.922973,4239.487076,4215.897333,4183.076821,4211.281948,4094.358874
19,0,4189.743487,4203.07682,4208.717846,4235.384512,4233.84605,4245.128101,4232.820409,4241.025537,4239.487076,4229.230666,4222.563999,4184.615282,4219.487076,4102.051182
20,0,4192.82041,4214.358871,4214.871692,4236.922973,4236.410153,4240.512717,4233.84605,4248.205024,4245.640922,4226.666563,4235.897332,4190.256308,4229.743486,4108.205028
21,0,4185.640923,4207.179384,4214.358871,4222.051179,4233.33323,4231.794768,4232.820409,4248.717845,4247.179383,4247.179383,4232.820409,4190.256308,4231.281948,4106.666566
22,0,4183.589641,4198.461436,4208.205025,4218.974256,4225.640922,4228.205025,4227.692204,4245.640922,4248.717845,4265.128101,4225.640922,4187.179385,4227.692204,4105.128105
23,0,4186.666564,4202.051179,4210.256307,4227.692204,4227.692204,4234.871691,4228.717845,4251.281947,4254.35887,4252.307588,4233.33323,4187.692205,4231.794768,4110.76913
24,0,4183.589641,4205.128102,4212.307589,4228.205025,4236.922973,4238.461435,4231.281948,4249.743486,4249.230665,4228.205025,4235.897332,4185.640923,4232.820409,4110.76913
25,0,4174.358872,4202.051179,4204.102461,4217.948615,4233.33323,4233.33323,4224.102461,4233.33323,4234.871691,4231.281948,4224.102461,4172.820411,4225.128102,4101.025541
26,0,4175.384513,4205.640923,4195.384513,4214.871692,4231.794768,4231.281948,4215.897333,4224.615281,4234.358871,4249.230665,4214.871692,4163.589642,4222.563999,4100.51272
27,0,4184.102462,4217.435794,4197.948615,4216.922974,4242.563999,4235.384512,4215.897333,4229.230666,4244.10246,4252.820409,4217.948615,4172.820411,4226.666563,4115.897335
28,0,4182.564,4217.435794,4196.922974,4217.948615,4242.563999,4233.84605,4216.410153,4234.871691,4246.153742,4240.512717,4218.461435,4179.487077,4223.58964,4119.999899
29,0,4171.281949,4191.794769,4187.692205,4219.999897,4223.58964,4229.230666,4216.410153,4233.33323,4243.58964,4231.281948,4215.897333,4168.717847,4211.281948,4100.51272
30,0,4164.615283,4177.435795,4184.102462,4211.794769,4216.922974,4238.974255,4223.07682,4233.84605,4242.051178,4232.307589,4216.922974,4157.435796,4201.025538,4086.153746
31,0,4170.769129,4194.871692,4192.82041,4206.666564,4237.948614,4249.230665,4229.743486,4239.487076,4238.974255,4235.384512,4212.307589,4160.512719,4200.512718,4095.897336
32,0,4178.461436,4206.153743,4195.897333,4214.358871,4244.615281,4241.025537,4229.230666,4238.461435,4241.538358,4233.33323,4209.743487,4169.743488,4208.205025,4105.128105
33,0,4178.461436,4200.512718,4194.871692,4218.974256,4219.999897,4229.743486,4229.230666,4233.84605,4247.179383,4232.820409,4225.640922,4177.435795,4216.922974,4110.25631
34,0,4179.487077,4197.435795,4202.564,4218.461435,4212.307589,4233.33323,4232.820409,4237.435794,4246.153742,4245.640922,4235.897332,4183.076821,4222.051179,4121.02554
35,0,4189.230667,4201.538359,4210.769128,4228.717845,4232.820409,4237.435794,4236.410153,4245.128101,4245.640922,4252.307588,4225.128102,4187.692205,4221.025538,4123.589643
36,0,4193.333231,4209.230666,4208.717846,4231.794768,4237.435794,4234.358871,4231.794768,4244.615281,4247.692204,4239.999896,4217.435794,4186.153744,4214.871692,4113.333233
37,0,4184.615282,4213.33323,4205.128102,4214.871692,4226.153743,4231.281948,4220.512717,4235.384512,4245.640922,4234.871691,4217.435794,4176.410154,4212.307589,4107.179387
38,0,4182.564,4204.615282,4206.153743,4214.358871,4229.743486,4229.743486,4217.948615,4230.769127,4242.563999,4247.692204,4215.897333,4174.871693,4212.82041,4110.76913
39,0,4188.205026,4200.512718,4209.230666,4230.769127,4234.358871,4232.820409,4229.743486,4241.538358,4245.128101,4252.820409,4218.974256,4186.666564,4213.846051,4115.897335
40,0,4185.640923,4204.615282,4209.230666,4230.256307,4224.102461,4234.358871,4236.410153,4249.230665,4247.692204,4240.512717,4219.487076,4191.281949,4216.410153,4121.538361
41,0,4178.461436,4196.410154,4204.615282,4219.487076,4222.563999,4233.33323,4226.666563,4235.897332,4244.615281,4233.84605,4211.281948,4182.05118,4211.281948,4114.358874
42,0,4178.461436,4190.769128,4202.564,4214.871692,4233.33323,4235.384512,4221.538358,4227.692204,4245.640922,4236.410153,4212.82041,4181.538359,4207.179384,4104.615284
43,0,4184.102462,4201.538359,4207.179384,4215.897333,4234.871691,4237.948614,4228.717845,4236.410153,4247.179383,4232.307589,4221.538358,4191.281949,4213.33323,4115.384515
44,0,4184.102462,4206.666564,4211.281948,4216.410153,4230.256307,4239.487076,4233.84605,4235.897332,4244.615281,4234.871691,4221.538358,4193.846051,4217.435794,4128.717848
45,0,4181.025539,4195.897333,4211.281948,4219.999897,4231.794768,4241.538358,4233.84605,4229.743486,4243.58964,4241.538358,4218.974256,4189.743487,4213.33323,4118.461438
46,0,4179.487077,4189.230667,4209.230666,4220.512717,4218.974256,4234.871691,4231.281948,4233.33323,4246.153742,4238.974255,4216.922974,4187.179385,4211.281948,4107.692207
47,0,4180.512718,4195.897333,4208.205025,4212.82041,4195.384513,4218.974256,4229.230666,4236.410153,4246.153742,4235.384512,4211.794769,4187.179385,4208.717846,4118.461438
48,0,4186.666564,4201.538359,4207.692205,4214.358871,4213.33323,4222.563999,4229.743486,4234.871691,4244.615281,4242.563999,4207.692205,4187.692205,4202.564,4124.102463
49,0,4193.333231,4206.153743,4209.743487,4228.717845,4252.307588,4243.58964,4234.871691,4235.384512,4249.743486,4248.717845,4212.82041,4190.769128,4208.205025,4121.538361
50,0,4194.871692,4215.384512,4216.922974,4229.743486,4246.666563,4249.743486,4235.384512,4240.512717,4253.84605,4248.717845,4227.692204,4192.30759,4218.974256,4124.615284
51,0,4190.769128,4215.897333,4219.487076,4216.922974,4228.205025,4242.563999,4232.820409,4246.153742,4251.794768,4250.256306,4231.281948,4189.230667,4218.461435,4127.179386
52,0,4190.769128,4202.564,4210.769128,4216.922974,4234.871691,4238.461435,4232.820409,4245.128101,4247.692204,4242.563999,4222.051179,4185.128103,4215.897333,4122.564002
53,0,4188.205026,4200.512718,4204.102461,4221.538358,4227.692204,4229.230666,4229.230666,4234.358871,4242.563999,4235.897332,4213.33323,4184.102462,4216.922974,4115.897335
54,0,4178.974257,4203.07682,4205.128102,4215.384512,4208.717846,4215.384512,4220.512717,4222.051179,4234.358871,4233.33323,4205.640923,4184.102462,4210.256307,4110.25631
55,0,4175.384513,4195.897333,4200.512718,4213.33323,4217.435794,4217.435794,4215.384512,4215.897333,4228.205025,4219.999897,4203.07682,4178.974257,4202.051179,4103.076823
56,0,4178.461436,4200.512718,4197.435795,4220.512717,4236.922973,4229.743486,4218.461435,4216.922974,4231.281948,4220.512717,4211.794769,4173.846052,4207.179384,4109.230669
57,0,4182.05118,4219.487076,4202.564,4220.512717,4239.999896,4232.820409,4222.563999,4216.922974,4233.84605,4233.84605,4219.487076,4174.358872,4214.358871,4123.076822
58,0,4182.564,4222.563999,4201.025538,4214.871692,4235.384512,4225.640922,4221.025538,4213.33323,4231.281948,4226.666563,4213.846051,4174.871693,4211.281948,4119.487079
59,0,4179.487077,4215.384512,4194.358872,4216.922974,4228.717845,4219.999897,4218.974256,4214.358871,4229.743486,4215.384512,4207.692205,4173.846052,4206.666564,4105.640925
60,0,4175.384513,4219.487076,4195.384513,4218.461435,4215.897333,4216.922974,4217.948615,4217.948615,4230.769127,4231.281948,4214.358871,4175.384513,4205.128102,4099.9999
61,0,4173.333231,4222.563999,4197.948615,4215.897333,4211.281948,4216.410153,4219.487076,4215.384512,4231.281948,4241.538358,4226.153743,4180.512718,4203.07682,4103.076823
62,0,4173.846052,4218.974256,4199.999897,4222.563999,4222.563999,4222.051179,4224.615281,4212.82041,4230.256307,4224.102461,4226.666563,4184.102462,4200.512718,4111.794771
63,0,4174.358872,4213.846051,4200.512718,4232.820409,4234.358871,4231.794768,4231.794768,4213.846051,4228.205025,4211.281948,4214.358871,4185.128103,4198.974256,4122.564002
64,0,4177.948616,4216.410153,4197.435795,4230.769127,4233.84605,4231.281948,4231.794768,4218.974256,4230.769127,4213.33323,4212.82041,4191.281949,4209.230666,4125.128104
65,0,4182.05118,4226.153743,4198.461436,4219.487076,4224.615281,4221.025538,4223.58964,4227.692204,4236.410153,4223.07682,4226.666563,4194.871692,4216.922974,4123.076822
66,0,4176.410154,4225.128102,4197.948615,4217.435794,4215.897333,4212.307589,4216.410153,4226.153743,4233.33323,4230.256307,4227.692204,4186.153744,4207.179384,4121.538361
67,0,4172.820411,4217.948615,4193.333231,4222.563999,4219.999897,4211.794769,4213.846051,4216.922974,4229.743486,4229.743486,4216.922974,4181.025539,4201.025538,4121.02554
68,0,4178.461436,4219.999897,4196.922974,4230.256307,4235.897332,4223.58964,4216.410153,4215.897333,4233.84605,4232.307589,4219.999897,4190.256308,4212.82041,4126.666566
69,0,4181.538359,4226.666563,4206.153743,4240.512717,4233.33323,4232.820409,4216.922974,4218.974256,4230.769127,4237.435794,4223.58964,4190.769128,4216.410153,4146.666565
70,0,4178.974257,4228.205025,4206.153743,4241.025537,4217.435794,4226.153743,4213.846051,4214.871692,4221.538358,4234.358871,4212.307589,4182.05118,4209.743487,4176.410154
71,0,4186.666564,4232.820409,4207.692205,4234.358871,4219.487076,4217.948615,4215.384512,4216.922974,4227.692204,4224.102461,4220.512717,4189.743487,4214.358871,4201.538359
72,0,4194.871692,4231.794768,4209.743487,4229.230666,4218.461435,4214.871692,4217.948615,4227.692204,4237.435794,4222.563999,4234.871691,4197.435795,4219.999897,4208.205025
73,0,4190.769128,4224.615281,4205.128102,4228.717845,4208.205025,4214.871692,4216.922974,4229.743486,4231.794768,4229.230666,4218.974256,4191.794769,4213.846051,4200.512718
74,0,4189.230667,4229.230666,4205.640923,4234.871691,4227.692204,4225.128102,4221.538358,4229.230666,4229.230666,4232.820409,4215.384512,4191.794769,4209.743487,4198.974256
75,0,4198.974256,4237.948614,4216.410153,4248.205024,4247.692204,4233.33323,4228.717845,4234.358871,4241.025537,4241.538358,4241.025537,4204.615282,4217.948615,4209.743487
76,0,4206.153743,4236.410153,4223.07682,4251.794768,4227.179384,4221.025538,4223.07682,4236.410153,4248.205024,4252.820409,4243.076819,4211.281948,4227.692204,4218.974256
77,0,4203.07682,4231.794768,4221.538358,4237.948614,4212.82041,4211.281948,4214.871692,4234.871691,4246.153742,4250.256306,4224.102461,4206.153743,4226.153743,4218.974256
78,0,4198.461436,4233.33323,4218.974256,4230.769127,4230.769127,4225.640922,4219.487076,4239.487076,4242.563999,4239.999896,4229.230666,4204.102461,4223.07682,4216.922974
79,0,4196.410154,4229.743486,4214.358871,4230.256307,4235.384512,4229.743486,4221.538358,4238.974255,4236.922973,4235.897332,4232.820409,4200.512718,4216.410153,4205.128102
80,0,4192.82041,4224.102461,4208.717846,4235.897332,4229.743486,4219.999897,4215.897333,4229.230666,4235.897332,4228.717845,4219.487076,4195.384513,4207.692205,4193.333231
81,0,4196.922974,4228.717845,4214.871692,4249.230665,4238.461435,4225.640922,4221.538358,4236.922973,4245.128101,4228.205025,4226.666563,4199.999897,4213.33323,4205.128102
82,0,4202.564,4230.769127,4222.051179,4249.230665,4235.384512,4228.717845,4232.307589,4250.256306,4246.153742,4236.410153,4236.922973,4204.615282,4219.999897,4213.33323
83,0,4200.512718,4228.717845,4218.974256,4241.538358,4226.666563,4219.487076,4233.84605,4240.512717,4235.897332,4237.948614,4226.153743,4202.564,4214.871692,4201.538359
84,0,4195.384513,4231.794768,4216.410153,4245.640922,4229.230666,4221.538358,4225.128102,4226.666563,4229.743486,4235.897332,4222.051179,4199.487077,4210.769128,4197.435795
85,0,4190.256308,4231.281948,4213.846051,4241.538358,4234.358871,4231.794768,4215.897333,4227.692204,4226.666563,4230.256307,4222.563999,4197.948615,4213.846051,4204.102461
86,0,4190.769128,4226.153743,4211.794769,4228.205025,4236.922973,4233.84605,4221.025538,4235.384512,4231.794768,4231.281948,4215.384512,4199.487077,4216.922974,4201.025538
87,0,4196.922974,4228.717845,4212.307589,4236.922973,4230.769127,4231.794768,4230.256307,4237.435794,4239.999896,4243.076819,4222.563999,4199.999897,4217.948615,4192.30759
88,0,4197.435795,4232.307589,4212.82041,4249.230665,4224.615281,4225.640922,4223.07682,4231.281948,4236.410153,4236.922973,4232.820409,4192.30759,4214.358871,4193.333231
89,0,4190.256308,4230.256307,4209.743487,4242.563999,4230.769127,4222.051179,4211.794769,4227.692204,4235.384512,4223.58964,4222.051179,4187.692205,4211.794769,4198.461436
90,0,4194.358872,4230.256307,4208.717846,4240.512717,4232.820409,4228.717845,4222.051179,4234.358871,4242.051178,4230.256307,4217.435794,4197.435795,4216.922974,4200.512718
91,0,4199.487077,4231.281948,4211.281948,4249.230665,4230.769127,4233.33323,4230.769127,4236.410153,4243.076819,4234.871691,4230.769127,4202.564,4218.974256,4202.051179
92,0,4194.871692,4231.281948,4210.769128,4246.666563,4242.563999,4232.820409,4222.563999,4231.794768,4241.025537,4230.769127,4231.281948,4198.974256,4215.384512,4204.102461
93,0,4197.435795,4231.794768,4210.256307,4245.128101,4244.615281,4231.281948,4221.025538,4236.922973,4246.666563,4247.692204,4222.563999,4199.487077,4216.410153,4199.999897
94,0,4207.692205,4234.871691,4215.897333,4254.871691,4237.435794,4234.358871,4232.820409,4252.307588,4251.281947,4263.589639,4228.205025,4203.589641,4227.692204,4200.512718
95,0,4208.717846,4232.307589,4217.948615,4248.205024,4244.615281,4240.512717,4236.922973,4257.948614,4249.743486,4255.897332,4235.384512,4201.538359,4231.281948,4205.128102
96,0,4201.025538,4222.563999,4211.281948,4235.897332,4242.563999,4238.461435,4232.820409,4253.84605,4248.717845,4246.153742,4232.820409,4199.487077,4222.563999,4203.07682
97,0,4197.435795,4219.487076,4208.205025,4241.025537,4224.102461,4226.153743,4231.794768,4247.179383,4246.666563,4237.948614,4232.820409,4202.051179,4217.435794,4204.615282
98,0,4192.82041,4219.999897,4209.230666,4240.512717,4218.974256,4217.948615,4224.615281,4235.384512,4236.922973,4228.717845,4229.743486,4195.897333,4216.410153,4197.435795
99,0,4190.769128,4217.435794,4208.717846,4231.794768,4230.769127,4223.07682,4222.563999,4234.871691,4230.256307,4231.794768,4214.871692,4190.256308,4212.307589,4186.153744
100,0,4202.051179,4224.102461,4217.435794,4242.051178,4242.051178,4233.84605,4236.922973,4251.281947,4242.051178,4245.640922,4222.563999,4201.025538,4215.897333,4204.615282
101,0,4211.794769,4230.256307,4222.563999,4252.820409,4240.512717,4236.922973,4241.025537,4259.487075,4250.769127,4247.692204,4240.512717,4207.692205,4222.051179,4223.58964
102,0,4206.666564,4224.102461,4212.82041,4239.487076,4235.897332,4229.743486,4231.794768,4247.179383,4238.461435,4236.410153,4225.640922,4199.999897,4217.948615,4205.128102
103,0,4195.384513,4215.384512,4206.153743,4226.666563,4229.743486,4223.07682,4224.615281,4233.33323,4228.205025,4228.717845,4206.666564,4196.410154,4212.307589,4190.256308
104,0,4194.871692,4213.33323,4210.256307,4232.307589,4214.871692,4216.410153,4222.563999,4234.871691,4230.256307,4232.307589,4221.025538,4198.974256,4211.281948,4201.538359
105,0,4203.07682,4219.999897,4216.410153,4244.615281,4214.358871,4213.33323,4224.102461,4243.58964,4233.84605,4244.10246,4236.410153,4199.487077,4215.897333,4204.102461
106,0,4204.102461,4230.256307,4220.512717,4247.179383,4232.820409,4221.025538,4228.717845,4247.692204,4238.461435,4244.615281,4226.666563,4199.487077,4225.640922,4195.384513
107,0,4203.07682,4228.717845,4221.025538,4240.512717,4236.410153,4228.717845,4231.281948,4245.640922,4243.58964,4228.205025,4225.128102,4199.487077,4229.230666,4198.461436
108,0,4207.692205,4223.58964,4220.512717,4244.10246,4230.256307,4231.281948,4232.307589,4246.153742,4243.076819,4227.692204,4241.025537,4201.538359,4228.717845,4211.281948
109,0,4211.794769,4227.692204,4222.563999,4250.769127,4235.897332,4230.769127,4229.743486,4243.076819,4234.871691,4241.538358,4239.999896,4199.999897,4229.230666,4209.743487
110,0,4209.230666,4232.820409,4221.538358,4248.205024,4237.435794,4231.794768,4224.615281,4237.435794,4232.820409,4236.922973,4226.666563,4194.358872,4227.179384,4197.435795
111,0,4210.769128,4231.794768,4218.974256,4242.051178,4225.128102,4233.33323,4229.743486,4243.58964,4238.461435,4228.205025,4228.205025,4196.410154,4226.666563,4203.07682
112,0,4210.769128,4223.58964,4215.384512,4233.84605,4216.922974,4231.794768,4233.84605,4247.692204,4237.948614,4234.871691,4232.307589,4202.564,4226.153743,4217.435794
113,0,4205.128102,4214.358871,4209.743487,4232.820409,4221.025538,4231.794768,4231.281948,4245.128101,4236.410153,4238.461435,4227.179384,4196.922974,4218.461435,4214.871692
114,0,4205.128102,4220.512717,4208.717846,4243.076819,4231.794768,4232.307589,4230.256307,4246.153742,4241.025537,4238.461435,4227.179384,4184.615282,4218.974256,4209.743487
115,0,4211.794769,4229.743486,4211.281948,4247.179383,4243.58964,4233.33323,4231.281948,4247.692204,4241.538358,4244.10246,4233.33323,4179.487077,4229.230666,4215.897333
116,0,4214.871692,4231.794768,4210.769128,4245.128101,4247.179383,4231.794768,4228.205025,4246.666563,4242.051178,4245.128101,4235.897332,4187.692205,4228.717845,4217.948615
117,0,4213.846051,4228.205025,4213.846051,4241.025537,4228.205025,4222.051179,4223.07682,4247.692204,4246.666563,4235.897332,4232.307589,4197.948615,4225.128102,4212.307589
118,0,4216.922974,4218.974256,4223.58964,4236.410153,4208.717846,4214.871692,4224.102461,4246.153742,4244.615281,4229.230666,4227.179384,4196.922974,4229.230666,4215.897333
119,0,4224.102461,4219.999897,4228.717845,4242.563999,4221.025538,4225.128102,4231.794768,4245.640922,4244.615281,4234.871691,4229.230666,4196.922974,4234.358871,4226.153743
120,0,4224.615281,4234.358871,4225.640922,4254.35887,4235.897332,4232.820409,4229.230666,4252.820409,4254.35887,4249.743486,4235.384512,4200.512718,4236.922973,4230.256307
121,0,4220.512717,4235.384512,4224.102461,4249.230665,4227.692204,4221.538358,4217.435794,4249.743486,4250.256306,4254.871691,4231.281948,4197.435795,4234.358871,4231.281948
122,0,4219.999897,4232.307589,4230.256307,4241.538358,4226.666563,4220.512717,4222.051179,4237.435794,4235.897332,4246.153742,4218.974256,4199.487077,4232.307589,4233.84605
123,0,4216.922974,4232.307589,4233.84605,4244.615281,4230.769127,4230.256307,4230.769127,4232.820409,4231.794768,4232.307589,4215.384512,4201.538359,4232.820409,4222.563999
124,0,4207.179384,4214.871692,4221.025538,4237.948614,4221.538358,4224.615281,4221.538358,4230.769127,4230.769127,4214.871692,4214.358871,4184.615282,4218.974256,4204.615282
125,0,4203.07682,4202.564,4206.666564,4227.692204,4211.794769,4214.358871,4215.384512,4227.179384,4227.179384,4209.230666,4211.281948,4171.281949,4204.615282,4205.128102
126,0,4211.281948,4216.922974,4214.358871,4237.948614,4215.897333,4222.563999,4222.051179,4231.281948,4229.230666,4219.487076,4219.487076,4183.589641,4213.33323,4215.897333
127,0,4210.769128,4224.102461,4224.615281,4248.205024,4229.230666,4234.871691,4230.256307,4236.922973,4233.33323,4220.512717,4221.025538,4190.769128,4217.435794,4217.435794
128,0,4206.153743,4212.307589,4219.999897,4239.487076,4239.487076,4230.769127,4230.256307,4231.281948,4231.794768,4214.358871,4203.589641,4184.102462,4204.102461,4212.82041
0,0,4205.128102,4207.179384,4215.897333,4233.84605,4229.743486,4217.948615,4221.538358,4222.051179,4229.743486,4221.538358,4194.358872,4178.461436,4195.897333,4204.102461
1,0,4202.051179,4211.281948,4217.948615,4232.820409,4213.846051,4210.256307,4213.846051,4216.410153,4229.230666,4228.717845,4197.435795,4172.820411,4196.922974,4194.358872
2,0,4207.692205,4218.974256,4220.512717,4225.640922,4214.358871,4211.794769,4216.410153,4215.897333,4227.692204,4227.179384,4203.589641,4175.384513,4204.615282,4204.102461
3,0,4219.487076,4221.025538,4225.128102,4232.307589,4220.512717,4214.358871,4217.948615,4218.461435,4228.717845,4222.563999,4214.871692,4188.205026,4215.384512,4226.666563
4,0,4219.487076,4214.871692,4225.640922,4248.205024,4224.615281,4216.922974,4212.82041,4215.384512,4228.717845,4221.025538,4221.538358,4190.769128,4217.948615,4237.435794
5,0,4216.922974,4222.051179,4224.102461,4248.717845,4231.794768,4223.07682,4218.461435,4212.307589,4227.692204,4224.615281,4215.384512,4185.640923,4215.897333,4241.025537
6,0,4224.615281,4242.051178,4227.692204,4244.615281,4235.897332,4230.256307,4229.743486,4213.846051,4230.769127,4218.974256,4214.358871,4190.769128,4222.563999,4246.153742
7,0,4227.692204,4246.666563,4229.743486,4249.743486,4236.922973,4233.33323,4231.794768,4217.435794,4232.820409,4208.717846,4224.615281,4196.922974,4226.153743,4245.640922
8,0,4219.999897,4232.820409,4229.230666,4254.871691,4231.794768,4230.769127,4231.794768,4227.179384,4234.358871,4221.538358,4222.051179,4189.230667,4218.461435,4238.461435
9,0,4217.948615,4226.666563,4226.666563,4245.640922,4219.999897,4229.743486,4230.769127,4233.33323,4237.948614,4241.538358,4202.564,4183.076821,4214.871692,4233.84605
10,0,4219.999897,4231.281948,4220.512717,4232.307589,4218.974256,4228.205025,4222.051179,4224.102461,4235.897332,4230.769127,4195.384513,4184.102462,4211.281948,4229.230666
11,0,4223.58964,4233.33323,4220.512717,4237.435794,4238.461435,4229.230666,4220.512717,4215.384512,4231.281948,4221.025538,4210.769128,4186.153744,4211.794769,4236.922973
12,0,4228.205025,4234.358871,4227.179384,4251.794768,4250.769127,4235.897332,4227.692204,4221.538358,4231.794768,4233.84605,4218.461435,4188.205026,4221.538358,4249.230665
13,0,4222.051179,4230.769127,4222.563999,4250.256306,4232.307589,4230.256307,4223.58964,4220.512717,4232.820409,4232.820409,4212.307589,4182.05118,4223.58964,4237.435794
14,0,4217.435794,4230.256307,4216.922974,4243.076819,4211.794769,4218.974256,4213.846051,4212.307589,4232.820409,4226.666563,4214.871692,4173.846052,4216.922974,4227.179384
15,0,4223.58964,4237.948614,4219.999897,4239.487076,4219.487076,4222.563999,4215.384512,4215.384512,4234.358871,4234.871691,4213.33323,4177.948616,4219.999897,4240.512717
16,0,4222.051179,4233.84605,4223.58964,4232.307589,4231.281948,4234.871691,4223.07682,4217.948615,4236.410153,4224.615281,4204.102461,4183.589641,4224.615281,4243.58964
17,0,4210.256307,4222.563999,4221.025538,4231.281948,4218.461435,4229.230666,4216.922974,4206.153743,4227.179384,4194.358872,4207.692205,4181.025539,4216.410153,4227.692204
18,0,4213.846051,4224.615281,4216.922974,4237.948614,4209.230666,4214.871692,4204.102461,4198.461436,4217.948615,4200.512718,4216.922974,4179.999898,4215.384512,4228.717845
19,0,4227.179384,4229.230666,4217.948615,4246.153742,4226.666563,4215.384512,4204.615282,4209.743487,4224.615281,4234.358871,4215.897333,4184.102462,4227.692204,4245.128101
20,0,4231.794768,4231.794768,4227.179384,4248.717845,4236.922973,4226.153743,4215.384512,4221.025538,4235.897332,4242.563999,4216.922974,4186.153744,4234.871691,4248.205024
21,0,4232.820409,4242.563999,4231.281948,4241.538358,4222.051179,4229.230666,4218.461435,4218.974256,4234.358871,4233.33323,4225.128102,4187.179385,4235.897332,4238.461435
22,0,4230.256307,4237.948614,4226.153743,4232.820409,4210.769128,4227.692204,4215.384512,4216.922974,4228.717845,4227.692204,4216.922974,4186.666564,4228.205025,4233.33323
23,0,4221.538358,4217.435794,4220.512717,4228.205025,4223.07682,4230.769127,4213.33323,4217.948615,4230.256307,4230.256307,4205.128102,4182.05118,4219.999897,4229.230666
24,0,4214.871692,4214.871692,4216.410153,4227.692204,4234.358871,4234.871691,4214.358871,4217.435794,4230.256307,4234.358871,4214.358871,4182.564,4221.538358,4215.384512
25,0,4212.82041,4222.051179,4213.33323,4230.256307,4226.666563,4231.794768,4217.435794,4217.948615,4224.615281,4216.922974,4225.640922,4184.102462,4218.974256,4204.615282
26,0,4206.666564,4215.384512,4207.179384,4225.640922,4213.846051,4224.615281,4212.82041,4209.230666,4214.358871,4195.897333,4213.846051,4176.410154,4203.589641,4203.07682
27,0,4199.487077,4209.230666,4201.538359,4212.82041,4212.82041,4223.07682,4207.179384,4198.974256,4211.794769,4212.307589,4199.487077,4166.153744,4197.948615,4200.512718
28,0,4202.051179,4215.897333,4203.07682,4212.82041,4229.230666,4231.281948,4211.794769,4204.615282,4222.051179,4236.410153,4202.564,4170.256308,4206.153743,4201.025538
29,0,4211.794769,4219.999897,4208.717846,4228.717845,4247.179383,4234.358871,4214.871692,4215.897333,4230.256307,4230.769127,4215.384512,4185.640923,4205.128102,4208.205025
30,0,4212.307589,4214.871692,4208.717846,4233.84605,4242.563999,4223.58964,4211.281948,4215.384512,4229.743486,4223.58964,4222.051179,4190.769128,4202.564,4205.128102
31,0,4208.717846,4216.922974,4210.769128,4229.230666,4227.179384,4216.410153,4211.281948,4218.461435,4229.230666,4233.84605,4223.07682,4190.769128,4213.33323,4198.461436
32,0,4209.230666,4225.128102,4212.82041,4233.84605,4221.538358,4216.410153,4213.33323,4227.179384,4232.820409,4237.435794,4227.179384,4193.846051,4217.948615,4202.051179
33,0,4210.256307,4218.974256,4208.205025,4232.820409,4222.051179,4218.461435,4212.307589,4224.102461,4228.205025,4225.128102,4228.717845,4192.82041,4207.179384,4202.564
34,0,4204.615282,4203.07682,4202.051179,4216.922974,4217.435794,4218.461435,4213.33323,4216.922974,4217.435794,4219.999897,4217.435794,4181.538359,4196.410154,4189.230667
35,0,4196.922974,4194.871692,4200.512718,4218.461435,4214.358871,4215.897333,4212.307589,4215.897333,4214.358871,4218.974256,4206.666564,4171.79477,4191.794769,4177.435795
36,0,4199.487077,4201.538359,4204.615282,4235.897332,4226.666563,4223.07682,4204.615282,4216.922974,4218.461435,4211.794769,4215.897333,4178.461436,4195.384513,4182.05118
37,0,4211.794769,4213.846051,4214.358871,4233.33323,4240.512717,4230.769127,4201.538359,4221.538358,4219.487076,4214.871692,4228.717845,4189.743487,4206.153743,4189.230667
38,0,4221.025538,4220.512717,4222.563999,4228.205025,4232.307589,4222.051179,4210.256307,4230.769127,4220.512717,4232.307589,4228.205025,4196.410154,4213.33323,4195.897333
39,0,4224.102461,4217.948615,4226.153743,4243.58964,4214.871692,4213.846051,4211.794769,4227.179384,4219.487076,4237.435794,4228.205025,4197.948615,4209.230666,4199.999897
40,0,4219.487076,4213.33323,4224.615281,4248.205024,4214.871692,4216.410153,4203.589641,4216.922974,4216.410153,4227.179384,4229.230666,4194.358872,4199.999897,4193.333231
41,0,4218.461435,4221.025538,4225.640922,4236.410153,4225.128102,4219.999897,4205.640923,4222.563999,4223.07682,4227.179384,4227.179384,4194.871692,4201.025538,4191.794769
42,0,4226.153743,4229.230666,4227.692204,4238.974255,4228.205025,4219.999897,4208.205025,4230.769127,4229.230666,4232.307589,4225.640922,4199.487077,4213.33323,4207.692205
43,0,4230.769127,4225.128102,4225.640922,4248.205024,4229.743486,4218.461435,4203.07682,4228.205025,4226.153743,4232.820409,4228.205025,4197.435795,4214.358871,4214.358871
44,0,4229.743486,4224.615281,4225.128102,4248.205024,4234.871691,4217.948615,4202.051179,4228.717845,4227.692204,4228.205025,4232.820409,4194.358872,4210.769128,4204.102461
45,0,4229.743486,4232.820409,4225.640922,4248.205024,4229.230666,4213.33323,4203.589641,4236.410153,4232.820409,4220.512717,4235.897332,4196.410154,4213.33323,4197.435795
46,0,4223.07682,4223.58964,4218.461435,4241.025537,4215.384512,4202.051179,4199.999897,4230.256307,4224.102461,4216.922974,4223.07682,4190.769128,4205.640923,4189.230667
47,0,4213.33323,4209.743487,4211.281948,4227.179384,4214.871692,4203.07682,4198.461436,4215.384512,4211.794769,4212.82041,4210.256307,4181.025539,4190.769128,4181.538359
48,0,4219.999897,4223.07682,4219.999897,4239.487076,4232.307589,4219.487076,4203.589641,4218.974256,4214.871692,4217.435794,4221.025538,4184.615282,4195.384513,4192.82041
49,0,4229.230666,4234.358871,4229.230666,4260.512716,4242.563999,4224.102461,4210.769128,4233.33323,4228.717845,4232.307589,4228.717845,4193.333231,4213.846051,4206.153743
50,0,4228.717845,4224.102461,4226.666563,4255.384511,4235.384512,4217.948615,4214.871692,4233.84605,4229.743486,4235.897332,4220.512717,4193.846051,4214.871692,4199.487077
51,0,4224.615281,4215.384512,4217.435794,4244.10246,4229.743486,4216.922974,4212.307589,4227.692204,4218.974256,4219.999897,4215.897333,4183.589641,4201.538359,4186.666564
52,0,4220.512717,4216.410153,4212.82041,4242.563999,4232.307589,4218.974256,4211.281948,4230.769127,4223.07682,4216.410153,4217.948615,4176.410154,4195.897333,4176.922975
53,0,4222.051179,4225.128102,4216.410153,4241.538358,4229.743486,4218.461435,4214.358871,4235.384512,4234.358871,4229.743486,4226.153743,4181.025539,4204.615282,4177.435795
54,0,4232.820409,4229.743486,4223.58964,4245.128101,4227.692204,4217.435794,4215.897333,4234.871691,4230.256307,4229.743486,4235.897332,4190.769128,4216.922974,4192.30759
55,0,4233.33323,4220.512717,4222.051179,4244.615281,4232.820409,4216.922974,4213.846051,4232.820409,4227.179384,4225.640922,4231.281948,4191.794769,4218.974256,4204.102461
56,0,4223.07682,4213.33323,4219.487076,4234.358871,4229.743486,4217.435794,4206.153743,4232.307589,4232.307589,4231.794768,4229.230666,4187.692205,4216.922974,4201.025538
57,0,4224.615281,4220.512717,4224.615281,4238.461435,4223.07682,4212.82041,4200.512718,4235.897332,4229.230666,4231.281948,4233.33323,4188.205026,4212.82041,4197.435795
58,0,4229.230666,4217.435794,4223.07682,4245.640922,4213.33323,4201.538359,4207.179384,4234.871691,4223.07682,4222.563999,4223.07682,4186.153744,4205.640923,4183.589641
59,0,4222.563999,4204.615282,4212.82041,4237.435794,4206.153743,4199.999897,4216.410153,4233.33323,4224.102461,4223.58964,4215.384512,4179.999898,4199.999897,4170.256308
60,0,4220.512717,4210.769128,4213.846051,4238.461435,4228.205025,4216.922974,4217.948615,4238.461435,4227.179384,4231.281948,4226.666563,4182.05118,4204.615282,4185.640923
61,0,4228.717845,4228.205025,4220.512717,4248.717845,4252.307588,4227.692204,4217.435794,4239.999896,4231.281948,4232.307589,4235.384512,4186.666564,4215.384512,4200.512718
62,0,4234.871691,4228.205025,4215.897333,4249.230665,4237.948614,4221.538358,4218.461435,4231.794768,4230.769127,4228.205025,4230.769127,4186.666564,4218.461435,4190.769128
63,0,4233.33323,4216.922974,4213.846051,4244.10246,4223.58964,4216.922974,4217.435794,4231.281948,4228.717845,4231.281948,4234.358871,4187.179385,4217.435794,4187.179385
64,0,4224.102461,4214.871692,4217.435794,4238.974255,4237.435794,4218.974256,4217.948615,4243.58964,4237.948614,4238.461435,4243.58964,4186.666564,4216.410153,4190.769128
65,0,4218.974256,4217.948615,4213.846051,4231.794768,4229.230666,4216.410153,4219.999897,4251.281947,4249.230665,4244.615281,4238.974255,4180.512718,4215.384512,4182.564
66,0,4222.051179,4216.922974,4211.794769,4234.871691,4209.230666,4215.384512,4211.281948,4244.615281,4243.58964,4246.153742,4230.256307,4180.512718,4211.794769,4179.999898
67,0,4223.58964,4215.384512,4217.435794,4244.10246,4218.461435,4217.435794,4199.487077,4233.84605,4227.692204,4233.33323,4228.717845,4186.153744,4210.256307,4190.769128
68,0,4222.563999,4215.384512,4221.538358,4245.640922,4232.820409,4214.871692,4204.615282,4228.205025,4218.461435,4214.358871,4228.205025,4186.153744,4210.769128,4194.358872
69,0,4228.205025,4215.384512,4221.538358,4243.076819,4233.84605,4217.948615,4218.974256,4230.256307,4218.461435,4208.205025,4230.256307,4185.128103,4206.666564,4195.384513
70,0,4228.717845,4215.897333,4218.974256,4244.615281,4227.179384,4224.615281,4219.999897,4230.769127,4218.461435,4218.461435,4234.358871,4181.538359,4196.922974,4196.410154
71,0,4220.512717,4216.410153,4218.974256,4250.256306,4216.922974,4223.07682,4214.358871,4229.743486,4219.487076,4226.666563,4230.256307,4182.05118,4197.435795,4203.07682
72,0,4219.999897,4217.948615,4225.128102,4245.640922,4216.410153,4226.666563,4218.461435,4237.948614,4227.179384,4229.743486,4231.794768,4193.846051,4211.281948,4216.922974
73,0,4227.179384,4217.435794,4227.692204,4233.33323,4228.717845,4236.410153,4222.051179,4248.205024,4236.922973,4233.33323,4247.692204,4198.461436,4219.487076,4221.025538
74,0,4227.692204,4213.33323,4222.563999,4236.410153,4235.384512,4231.794768,4215.897333,4249.743486,4237.435794,4227.692204,4249.230665,4193.333231,4216.410153,4215.384512
75,0,4225.640922,4218.974256,4222.051179,4248.205024,4227.179384,4223.58964,4214.358871,4241.538358,4233.84605,4223.58964,4237.435794,4194.358872,4217.435794,4210.769128
76,0,4227.692204,4228.717845,4225.128102,4244.615281,4223.07682,4228.205025,4222.051179,4233.33323,4229.743486,4231.794768,4234.358871,4194.871692,4222.051179,4207.692205
77,0,4226.153743,4223.07682,4225.128102,4232.820409,4223.07682,4227.692204,4223.07682,4231.281948,4218.461435,4233.33323,4231.794768,4186.666564,4214.358871,4200.512718
78,0,4221.538358,4214.358871,4223.58964,4233.84605,4212.82041,4220.512717,4216.410153,4230.769127,4214.358871,4226.153743,4222.563999,4182.05118,4206.666564,4204.102461
79,0,4226.153743,4216.410153,4225.640922,4235.897332,4206.666564,4223.07682,4213.846051,4230.769127,4225.128102,4227.179384,4227.179384,4186.666564,4211.281948,4215.384512
80,0,4229.743486,4222.563999,4229.230666,4229.743486,4229.230666,4235.897332,4217.948615,4236.922973,4231.281948,4222.563999,4244.615281,4188.717846,4216.922974,4221.025538
81,0,4227.692204,4223.58964,4226.153743,4229.743486,4251.794768,4243.58964,4223.07682,4247.692204,4229.743486,4221.025538,4245.640922,4186.153744,4223.58964,4222.563999
82,0,4229.743486,4218.974256,4220.512717,4234.358871,4236.922973,4237.948614,4223.07682,4250.256306,4238.974255,4238.974255,4234.871691,4189.230667,4226.666563,4224.615281
83,0,4232.307589,4214.358871,4223.07682,4234.871691,4217.948615,4231.794768,4219.999897,4247.692204,4246.153742,4242.563999,4232.307589,4195.384513,4220.512717,4224.615281
84,0,4227.179384,4212.82041,4228.717845,4232.307589,4216.410153,4231.794768,4218.974256,4247.692204,4234.358871,4229.230666,4234.358871,4192.30759,4214.358871,4218.461435
85,0,4225.640922,4214.871692,4227.179384,4233.84605,4217.435794,4232.820409,4225.128102,4248.717845,4231.794768,4231.281948,4239.487076,4187.692205,4217.435794,4221.538358
86,0,4231.794768,4214.871692,4223.58964,4233.84605,4222.563999,4231.794768,4231.794768,4247.692204,4242.051178,4233.84605,4243.58964,4191.794769,4221.025538,4228.205025
87,0,4229.230666,4214.871692,4221.025538,4227.692204,4233.33323,4233.84605,4232.307589,4245.128101,4236.922973,4227.179384,4228.717845,4185.128103,4212.307589,4216.922974
88,0,4223.58964,4222.563999,4225.128102,4231.281948,4242.563999,4243.076819,4229.743486,4245.640922,4229.230666,4225.128102,4212.307589,4180.512718,4203.589641,4202.051179
89,0,4229.230666,4229.743486,4233.84605,4247.179383,4239.999896,4246.666563,4231.794768,4249.743486,4235.384512,4223.58964,4223.58964,4190.769128,4208.205025,4209.743487
90,0,4237.435794,4227.692204,4235.384512,4248.717845,4223.07682,4238.974255,4233.84605,4247.692204,4235.897332,4220.512717,4236.922973,4195.897333,4213.846051,4219.999897
91,0,4237.435794,4226.153743,4230.769127,4233.33323,4210.256307,4228.205025,4229.230666,4241.025537,4229.230666,4224.615281,4232.820409,4193.846051,4208.717846,4214.871692
92,0,4239.487076,4230.769127,4236.410153,4231.794768,4220.512717,4230.769127,4228.205025,4241.538358,4227.692204,4231.281948,4230.769127,4194.871692,4211.794769,4215.897333
93,0,4244.10246,4229.743486,4241.538358,4237.435794,4236.410153,4242.051178,4232.307589,4248.205024,4230.769127,4230.769127,4234.871691,4196.410154,4223.58964,4220.512717
94,0,4243.58964,4225.128102,4237.948614,4234.358871,4236.922973,4249.743486,4234.358871,4251.281947,4233.84605,4234.358871,4228.205025,4196.922974,4225.640922,4219.487076
95,0,4241.538358,4223.58964,4235.384512,4236.410153,4233.33323,4250.256306,4231.281948,4247.179383,4234.871691,4233.33323,4217.435794,4195.384513,4222.051179,4221.025538
96,0,4236.410153,4217.435794,4234.358871,4238.461435,4225.128102,4243.58964,4225.128102,4244.615281,4230.256307,4211.794769,4223.07682,4190.769128,4219.487076,4223.07682
97,0,4230.769127,4215.897333,4229.743486,4235.384512,4215.897333,4239.999896,4219.487076,4245.128101,4229.743486,4206.666564,4236.410153,4189.230667,4218.974256,4215.897333
98,0,4231.281948,4222.563999,4225.640922,4227.179384,4221.025538,4243.076819,4218.461435,4239.487076,4230.769127,4232.820409,4232.307589,4187.692205,4222.051179,4207.179384
99,0,4231.281948,4221.025538,4218.461435,4215.384512,4233.84605,4245.640922,4215.384512,4233.84605,4229.230666,4241.025537,4219.487076,4175.384513,4214.871692,4204.102461
100,0,4224.102461,4211.281948,4212.82041,4216.922974,4232.820409,4245.640922,4214.871692,4237.435794,4229.230666,4224.615281,4213.33323,4166.666565,4202.051179,4193.846051
101,0,4222.563999,4211.281948,4218.974256,4231.281948,4228.717845,4248.205024,4225.128102,4247.692204,4231.794768,4228.205025,4212.307589,4172.30759,4204.102461,4186.153744
102,0,4228.717845,4223.58964,4227.179384,4233.33323,4236.410153,4252.820409,4228.205025,4250.256306,4234.871691,4235.897332,4219.487076,4181.538359,4218.461435,4196.410154
103,0,4232.307589,4232.307589,4226.153743,4223.07682,4230.769127,4245.640922,4214.358871,4239.487076,4230.769127,4220.512717,4225.640922,4181.538359,4222.563999,4206.153743
104,0,4228.205025,4227.179384,4223.07682,4224.102461,4208.717846,4233.84605,4204.615282,4228.717845,4221.538358,4210.256307,4219.487076,4178.974257,4220.512717,4204.102461
105,0,4224.615281,4219.999897,4223.58964,4228.205025,4210.256307,4230.769127,4211.794769,4228.717845,4218.461435,4217.948615,4212.82041,4185.640923,4222.051179,4195.384513
106,0,4224.615281,4216.922974,4223.07682,4219.999897,4231.281948,4234.358871,4217.948615,4232.307589,4218.974256,4220.512717,4215.384512,4184.102462,4215.897333,4187.692205
107,0,4226.153743,4215.897333,4221.025538,4210.769128,4235.897332,4234.358871,4213.33323,4230.769127,4220.512717,4209.743487,4216.922974,4172.820411,4207.692205,4191.281949
108,0,4226.153743,4215.897333,4219.999897,4214.871692,4229.230666,4232.307589,4205.128102,4231.794768,4227.692204,4211.281948,4213.33323,4175.384513,4211.281948,4198.461436
109,0,4226.666563,4218.974256,4221.025538,4226.153743,4218.974256,4232.820409,4206.153743,4231.794768,4231.794768,4227.692204,4214.871692,4184.615282,4215.897333,4193.846051
110,0,4226.153743,4221.538358,4220.512717,4227.692204,4204.615282,4230.769127,4211.281948,4228.205025,4222.563999,4221.538358,4218.974256,4176.922975,4208.205025,4189.743487
111,0,4226.666563,4215.897333,4216.922974,4223.58964,4207.692205,4227.179384,4208.717846,4228.205025,4214.871692,4203.07682,4218.461435,4166.666565,4201.538359,4189.230667
112,0,4223.58964,4206.666564,4218.974256,4218.974256,4219.999897,4229.230666,4208.205025,4231.794768,4222.051179,4211.794769,4213.846051,4172.30759,4207.692205,4180.512718
113,0,4221.025538,4209.743487,4226.666563,4214.871692,4217.948615,4232.820409,4211.281948,4233.33323,4233.33323,4236.922973,4214.358871,4176.922975,4214.871692,4183.589641
114,0,4226.153743,4215.897333,4223.07682,4213.33323,4214.358871,4229.230666,4211.794769,4233.84605,4235.897332,4239.487076,4211.281948,4177.435795,4216.410153,4196.410154
115,0,4223.07682,4207.692205,4209.743487,4206.153743,4206.153743,4219.999897,4208.205025,4234.358871,4231.794768,4223.07682,4202.564,4175.897334,4211.281948,4188.717846
116,0,4213.33323,4199.487077,4204.615282,4198.461436,4191.281949,4219.487076,4207.692205,4234.358871,4229.230666,4213.33323,4207.692205,4171.281949,4206.666564,4175.897334
117,0,4216.410153,4202.051179,4211.281948,4209.743487,4197.435795,4229.743486,4213.846051,4233.33323,4229.743486,4212.82041,4218.974256,4171.281949,4212.307589,4179.487077
118,0,4225.128102,4205.128102,4220.512717,4224.102461,4218.974256,4234.358871,4218.461435,4233.33323,4229.743486,4217.948615,4222.051179,4177.435795,4215.897333,4184.102462
119,0,4225.128102,4207.692205,4224.102461,4214.358871,4224.102461,4230.256307,4217.435794,4230.256307,4228.205025,4221.538358,4218.974256,4178.461436,4205.640923,4177.435795
120,0,4220.512717,4212.82041,4223.58964,4206.153743,4221.538358,4233.33323,4215.384512,4227.692204,4225.128102,4217.435794,4207.179384,4177.435795,4198.974256,4175.384513
121,0,4214.358871,4211.281948,4217.948615,4213.846051,4214.871692,4232.307589,4216.922974,4229.743486,4226.666563,4216.922974,4194.871692,4177.435795,4202.051179,4180.512718
122,0,4206.153743,4199.999897,4208.717846,4207.179384,4195.384513,4216.410153,4213.846051,4232.820409,4230.256307,4224.615281,4202.564,4171.281949,4206.153743,4177.435795
123,0,4208.205025,4192.30759,4208.205025,4195.897333,4194.871692,4212.82041,4211.794769,4233.84605,4226.153743,4225.640922,4218.461435,4172.820411,4207.179384,4167.179385
124,0,4216.922974,4196.922974,4221.025538,4206.153743,4221.538358,4228.717845,4216.922974,4235.384512,4218.974256,4214.871692,4215.897333,4188.205026,4207.179384,4168.205026
125,0,4217.948615,4202.564,4225.640922,4218.974256,4234.871691,4233.33323,4217.948615,4233.84605,4216.922974,4212.307589,4212.307589,4190.769128,4207.179384,4178.461436
126,0,4219.487076,4202.564,4222.051179,4218.461435,4226.153743,4227.692204,4214.871692,4233.84605,4222.051179,4224.102461,4222.563999,4184.615282,4212.307589,4180.512718
127,0,4220.512717,4205.128102,4223.07682,4209.743487,4222.051179,4228.205025,4216.922974,4241.538358,4229.230666,4233.84605,4227.179384,4191.794769,4218.461435,4183.589641
128,0,4212.307589,4201.025538,4224.615281,4207.692205,4215.384512,4222.563999,4220.512717,4243.58964,4234.358871,4233.33323,4221.538358,4198.461436,4214.871692,4185.128103
0,0,4202.564,4190.256308,4220.512717,4215.384512,4196.922974,4216.410153,4216.922974,4236.922973,4229.743486,4222.563999,4222.563999,4196.922974,4205.128102,4175.384513
1,0,4206.666564,4193.846051,4216.922974,4217.948615,4202.564,4217.948615,4212.82041,4229.230666,4218.461435,4212.307589,4224.615281,4194.871692,4199.487077,4166.666565
2,0,4215.384512,4202.564,4214.871692,4211.794769,4228.717845,4217.948615,4213.846051,4220.512717,4213.846051,4210.256307,4215.897333,4186.666564,4196.922974,4167.692206
3,0,4217.948615,4207.692205,4217.948615,4210.256307,4236.922973,4222.563999,4218.974256,4219.999897,4214.871692,4210.256307,4215.897333,4185.128103,4200.512718,4173.333231
4,0,4218.974256,4212.82041,4219.999897,4216.410153,4226.666563,4228.205025,4219.487076,4231.281948,4216.922974,4219.487076,4225.128102,4194.358872,4209.230666,4171.281949
5,0,4218.461435,4210.769128,4218.461435,4225.128102,4219.999897,4219.999897,4210.256307,4235.897332,4223.07682,4233.33323,4224.615281,4197.435795,4215.384512,4170.769129
6,0,4222.563999,4210.769128,4222.563999,4234.358871,4218.974256,4214.871692,4207.179384,4232.307589,4229.230666,4231.281948,4232.820409,4196.410154,4221.025538,4178.461436
7,0,4225.640922,4216.922974,4223.58964,4231.281948,4213.846051,4218.974256,4211.281948,4233.84605,4229.743486,4225.640922,4248.205024,4198.974256,4229.230666,4181.538359
8,0,4217.435794,4207.692205,4214.871692,4222.051179,4212.82041,4216.922974,4210.769128,4235.384512,4229.743486,4236.410153,4243.58964,4196.410154,4225.128102,4173.846052
9,0,4211.281948,4195.897333,4213.33323,4217.948615,4223.58964,4219.999897,4212.307589,4234.358871,4230.769127,4235.384512,4232.307589,4193.333231,4213.33323,4174.358872
10,0,4221.025538,4206.153743,4218.461435,4216.410153,4231.281948,4231.794768,4216.922974,4231.794768,4226.666563,4218.461435,4228.717845,4197.435795,4211.281948,4185.640923
11,0,4223.58964,4214.871692,4214.358871,4222.051179,4223.07682,4232.307589,4215.384512,4230.256307,4225.128102,4221.025538,4227.179384,4200.512718,4219.487076,4186.666564
12,0,4211.281948,4212.307589,4213.846051,4231.794768,4213.33323,4228.717845,4210.769128,4232.820409,4230.769127,4237.948614,4236.922973,4197.948615,4229.230666,4179.999898
13,0,4207.179384,4208.717846,4216.922974,4229.743486,4215.897333,4230.256307,4212.82041,4234.358871,4231.281948,4234.871691,4241.025537,4190.256308,4223.07682,4171.281949
14,0,4213.33323,4205.128102,4211.794769,4222.563999,4220.512717,4230.769127,4215.384512,4231.281948,4226.153743,4223.07682,4221.538358,4184.102462,4202.564,4162.564001
15,0,4206.666564,4198.974256,4205.640923,4218.461435,4214.358871,4224.615281,4215.384512,4231.281948,4223.58964,4228.717845,4216.410153,4184.102462,4196.410154,4160.512719
16,0,4202.051179,4197.948615,4206.153743,4219.487076,4208.205025,4219.487076,4214.871692,4233.84605,4224.102461,4231.281948,4230.769127,4181.538359,4205.128102,4162.564001
17,0,4217.435794,4206.153743,4211.794769,4234.358871,4223.58964,4223.07682,4214.358871,4235.384512,4227.179384,4222.051179,4231.281948,4181.025539,4214.871692,4170.256308
18,0,4230.256307,4217.435794,4218.461435,4254.871691,4235.897332,4227.179384,4207.692205,4235.897332,4232.307589,4224.102461,4231.794768,4188.717846,4224.102461,4175.384513
19,0,4225.640922,4222.563999,4217.948615,4252.820409,4222.051179,4225.640922,4198.974256,4234.871691,4234.871691,4243.58964,4241.025537,4187.692205,4232.307589,4174.358872
20,0,4223.58964,4223.07682,4218.461435,4236.922973,4221.025538,4226.666563,4204.102461,4232.820409,4227.692204,4248.717845,4241.538358,4184.615282,4232.307589,4179.487077
21,0,4226.153743,4217.435794,4226.153743,4232.820409,4234.358871,4228.717845,4216.410153,4231.281948,4220.512717,4231.281948,4233.84605,4193.846051,4219.999897,4188.717846
22,0,4214.358871,4202.051179,4223.58964,4237.435794,4223.58964,4221.025538,4214.358871,4224.102461,4213.33323,4208.717846,4221.538358,4195.384513,4201.538359,4182.05118
23,0,4201.538359,4195.384513,4207.692205,4233.84605,4205.640923,4213.846051,4202.564,4212.82041,4202.564,4195.897333,4212.82041,4181.025539,4194.871692,4165.128103
24,0,4212.307589,4208.205025,4205.128102,4229.230666,4219.487076,4217.948615,4199.999897,4214.358871,4206.666564,4204.102461,4218.974256,4174.358872,4206.666564,4170.769129
25,0,4227.692204,4222.563999,4212.82041,4231.794768,4229.230666,4221.538358,4203.07682,4227.179384,4220.512717,4219.999897,4231.281948,4182.05118,4220.512717,4182.564
26,0,4224.102461,4217.435794,4209.743487,4234.358871,4213.846051,4219.487076,4199.999897,4230.769127,4221.538358,4219.999897,4233.33323,4178.461436,4218.974256,4175.897334
27,0,4216.922974,4204.615282,4207.179384,4236.922973,4217.435794,4218.461435,4204.102461,4232.307589,4219.999897,4213.33323,4231.794768,4172.820411,4212.82041,4171.79477
28,0,4224.102461,4207.692205,4217.948615,4242.051178,4232.307589,4221.025538,4213.846051,4238.974255,4232.307589,4227.692204,4236.410153,4184.102462,4221.025538,4187.179385
29,0,4228.717845,4219.999897,4226.666563,4239.999896,4223.07682,4219.487076,4211.794769,4237.435794,4231.281948,4237.948614,4236.922973,4195.897333,4226.666563,4193.846051
30,0,4218.974256,4219.999897,4224.102461,4232.307589,4210.256307,4213.846051,4198.461436,4226.153743,4216.922974,4221.538358,4231.794768,4191.794769,4217.435794,4185.128103
31,0,4214.358871,4209.230666,4220.512717,4233.33323,4222.051179,4211.794769,4192.82041,4218.461435,4212.307589,4208.205025,4221.538358,4183.076821,4212.307589,4185.640923
32,0,4221.025538,4214.358871,4216.410153,4244.10246,4232.820409,4217.948615,4196.922974,4218.974256,4215.897333,4212.307589,4214.358871,4181.538359,4217.435794,4187.179385
33,0,4227.179384,4226.153743,4212.307589,4247.692204,4231.794768,4229.230666,4202.564,4223.58964,4221.538358,4223.58964,4223.58964,4183.076821,4223.07682,4184.102462
34,0,4227.179384,4222.563999,4210.256307,4247.692204,4235.384512,4233.33323,4203.07682,4228.717845,4227.692204,4235.897332,4235.384512,4183.589641,4228.717845,4188.717846
35,0,4223.58964,4217.435794,4208.717846,4245.640922,4233.84605,4231.794768,4200.512718,4228.717845,4222.563999,4243.076819,4232.820409,4180.512718,4230.256307,4194.871692
36,0,4222.051179,4222.051179,4211.794769,4234.358871,4228.717845,4231.281948,4204.102461,4229.230666,4217.948615,4233.84605,4233.84605,4184.615282,4226.153743,4196.410154
37,0,4222.563999,4222.051179,4219.999897,4230.256307,4218.974256,4223.58964,4206.153743,4233.33323,4223.07682,4213.33323,4243.076819,4198.974256,4227.692204,4197.948615
38,0,4222.051179,4212.82041,4223.07682,4243.58964,4206.666564,4216.922974,4201.538359,4232.307589,4224.102461,4212.82041,4238.974255,4203.589641,4230.769127,4201.025538
39,0,4227.692204,4214.871692,4223.58964,4251.794768,4220.512717,4230.769127,4207.179384,4230.769127,4221.538358,4236.922973,4231.794768,4197.948615,4229.743486,4196.922974
40,0,4237.948614,4227.179384,4227.179384,4251.794768,4248.717845,4249.230665,4225.128102,4239.999896,4228.717845,4253.333229,4233.84605,4201.025538,4232.307589,4200.512718
41,0,4241.025537,4233.84605,4231.281948,4257.948614,4249.743486,4247.692204,4229.743486,4251.794768,4235.897332,4249.743486,4235.384512,4208.205025,4240.512717,4214.871692
42,0,4243.076819,4235.897332,4231.281948,4261.025537,4230.256307,4237.948614,4220.512717,4249.743486,4234.358871,4243.58964,4243.076819,4207.692205,4244.615281,4219.999897
43,0,4244.615281,4235.384512,4233.84605,4261.538357,4219.999897,4231.794768,4214.358871,4240.512717,4229.743486,4224.615281,4249.743486,4205.640923,4238.974255,4214.871692
44,0,4238.461435,4228.717845,4237.948614,4261.025537,4213.33323,4222.563999,4207.179384,4227.179384,4219.487076,4203.07682,4238.461435,4204.615282,4231.794768,4214.871692
45,0,4235.897332,4219.487076,4235.384512,4255.384511,4211.794769,4219.999897,4197.948615,4215.897333,4213.33323,4222.563999,4229.743486,4203.589641,4232.820409,4217.948615
46,0,4247.179383,4228.205025,4229.230666,4256.922973,4226.153743,4229.743486,4196.922974,4222.563999,4223.58964,4248.205024,4233.84605,4198.974256,4242.563999,4207.692205
47,0,4251.794768,4245.640922,4221.538358,4260.512716,4238.461435,4239.487076,4203.589641,4241.538358,4238.461435,4245.128101,4241.025537,4188.205026,4247.692204,4199.487077
48,0,4243.58964,4244.10246,4218.461435,4251.281947,4232.820409,4241.538358,4213.33323,4254.35887,4250.769127,4251.794768,4244.10246,4183.076821,4249.230665,4207.179384
49,0,4235.384512,4232.307589,4216.410153,4247.179383,4228.717845,4238.461435,4214.871692,4251.794768,4250.769127,4260.512716,4238.461435,4184.102462,4246.153742,4209.230666
50,0,4233.33323,4229.230666,4210.256307,4249.230665,4239.487076,4232.307589,4203.07682,4237.435794,4234.358871,4233.33323,4231.281948,4175.384513,4232.820409,4196.922974
51,0,4232.820409,4228.717845,4207.692205,4242.051178,4244.615281,4234.871691,4202.051179,4234.871691,4226.153743,4215.384512,4229.230666,4168.717847,4220.512717,4185.128103
52,0,4240.512717,4233.33323,4221.538358,4245.640922,4242.051178,4246.153742,4216.410153,4247.692204,4238.974255,4240.512717,4234.871691,4183.076821,4229.743486,4186.666564
53,0,4249.230665,4239.999896,4228.205025,4257.435793,4243.58964,4250.769127,4221.538358,4250.256306,4245.640922,4257.435793,4242.563999,4195.897333,4245.128101,4201.538359
54,0,4250.769127,4242.563999,4223.07682,4259.487075,4238.974255,4250.769127,4219.487076,4247.179383,4243.58964,4249.743486,4250.769127,4199.999897,4249.230665,4218.974256
55,0,4253.333229,4245.128101,4231.281948,4262.563998,4230.256307,4246.666563,4219.999897,4253.333229,4243.58964,4232.307589,4254.871691,4206.666564,4251.281947,4226.153743
56,0,4261.025537,4249.230665,4237.948614,4267.179383,4233.33323,4237.435794,4216.922974,4248.205024,4235.384512,4217.948615,4246.153742,4206.666564,4248.205024,4219.999897
57,0,4256.410152,4245.128101,4227.179384,4264.10246,4237.435794,4236.922973,4212.82041,4233.33323,4225.640922,4224.102461,4233.33323,4197.948615,4237.948614,4207.179384
58,0,4243.076819,4235.897332,4224.615281,4256.922973,4232.820409,4245.128101,4214.871692,4232.307589,4229.230666,4234.358871,4228.717845,4193.333231,4231.794768,4197.435795
59,0,4238.461435,4232.820409,4223.58964,4248.717845,4231.794768,4247.179383,4216.410153,4237.435794,4232.307589,4228.717845,4232.307589,4187.692205,4230.769127,4199.999897
60,0,4237.948614,4229.743486,4208.717846,4244.10246,4231.281948,4245.640922,4213.33323,4233.33323,4227.692204,4225.640922,4231.281948,4174.871693,4227.692204,4197.948615
61,0,4234.871691,4226.153743,4199.487077,4246.153742,4229.230666,4246.153742,4211.281948,4230.769127,4227.692204,4231.281948,4227.692204,4167.179385,4227.179384,4188.717846
62,0,4237.948614,4231.794768,4211.794769,4253.84605,4233.33323,4244.10246,4214.358871,4239.999896,4233.33323,4229.743486,4232.820409,4176.922975,4234.871691,4195.897333
63,0,4244.10246,4235.897332,4225.640922,4263.076819,4240.512717,4246.153742,4221.538358,4249.743486,4234.358871,4225.128102,4231.794768,4192.30759,4234.871691,4206.153743
64,0,4244.615281,4234.358871,4229.743486,4264.61528,4234.358871,4245.640922,4224.615281,4250.769127,4230.769127,4222.051179,4227.179384,4198.974256,4228.205025,4197.948615
65,0,4244.10246,4240.512717,4233.33323,4261.025537,4219.999897,4234.871691,4219.999897,4243.58964,4229.230666,4218.461435,4230.256307,4200.512718,4226.666563,4199.999897
66,0,4242.563999,4246.666563,4235.384512,4263.076819,4223.07682,4234.358871,4217.948615,4237.948614,4231.794768,4229.230666,4230.256307,4199.999897,4231.281948,4216.410153
67,0,4241.538358,4230.769127,4227.692204,4260.512716,4224.102461,4241.538358,4218.974256,4240.512717,4230.256307,4235.384512,4227.692204,4192.30759,4229.230666,4207.692205
68,0,4245.640922,4221.538358,4219.487076,4254.871691,4218.974256,4244.10246,4217.435794,4244.615281,4232.307589,4223.58964,4229.230666,4183.076821,4227.692204,4191.794769
69,0,4254.35887,4239.999896,4230.256307,4266.666562,4235.897332,4248.717845,4216.410153,4247.692204,4240.512717,4221.025538,4229.230666,4188.717846,4237.435794,4209.743487
70,0,4257.435793,4254.35887,4241.538358,4281.538357,4248.717845,4248.205024,4215.384512,4246.666563,4240.512717,4227.179384,4227.692204,4196.922974,4241.025537,4221.538358
71,0,4250.256306,4248.205024,4234.358871,4277.948613,4227.692204,4232.307589,4213.846051,4237.435794,4231.281948,4219.487076,4226.666563,4188.205026,4232.307589,4206.153743
72,0,4238.461435,4242.051178,4221.025538,4265.640921,4219.487076,4224.615281,4213.33323,4229.230666,4226.666563,4212.82041,4217.948615,4171.79477,4229.743486,4195.897333
73,0,4239.487076,4245.128101,4220.512717,4261.538357,4239.999896,4236.922973,4215.897333,4229.230666,4229.743486,4232.307589,4213.33323,4167.692206,4235.384512,4202.051179
74,0,4248.205024,4252.307588,4220.512717,4264.10246,4244.10246,4248.717845,4215.384512,4230.256307,4231.794768,4244.10246,4222.051179,4169.230667,4238.461435,4208.717846
75,0,4244.615281,4248.717845,4211.794769,4264.61528,4233.84605,4245.128101,4205.640923,4227.179384,4228.717845,4221.538358,4228.205025,4165.128103,4234.358871,4205.640923
76,0,4239.487076,4239.999896,4211.281948,4262.563998,4225.640922,4234.358871,4199.999897,4229.230666,4225.640922,4215.897333,4230.769127,4170.256308,4230.256307,4199.999897
77,0,4243.58964,4236.410153,4219.487076,4263.589639,4217.435794,4230.256307,4204.615282,4231.794768,4227.692204,4234.358871,4229.230666,4178.461436,4231.794768,4198.461436
78,0,4235.897332,4232.820409,4215.384512,4258.974255,4220.512717,4231.281948,4208.717846,4233.84605,4230.256307,4230.256307,4217.948615,4171.79477,4233.84605,4196.922974
79,0,4221.025538,4226.666563,4208.205025,4249.743486,4230.769127,4228.717845,4208.717846,4240.512717,4233.33323,4209.230666,4213.846051,4166.666565,4228.717845,4195.384513
80,0,4226.666563,4229.743486,4217.435794,4250.256306,4233.33323,4232.307589,4212.307589,4246.666563,4242.051178,4217.435794,4222.051179,4176.410154,4227.179384,4206.153743
81,0,4244.10246,4241.538358,4227.179384,4258.461434,4228.205025,4238.974255,4222.563999,4254.871691,4250.256306,4235.384512,4232.307589,4186.666564,4237.948614,4218.461435
82,0,4244.615281,4241.538358,4227.179384,4265.640921,4220.512717,4236.410153,4230.256307,4260.512716,4248.205024,4235.897332,4236.922973,4187.692205,4242.051178,4209.230666
83,0,4235.897332,4232.820409,4225.640922,4268.205024,4218.461435,4230.769127,4225.128102,4251.794768,4237.435794,4231.281948,4228.717845,4185.128103,4232.307589,4196.922974
84,0,4233.84605,4230.769127,4227.179384,4264.10246,4226.153743,4231.281948,4213.846051,4233.84605,4224.615281,4223.58964,4219.487076,4185.128103,4225.128102,4205.128102
85,0,4236.922973,4234.358871,4231.281948,4263.076819,4232.820409,4234.871691,4212.307589,4229.743486,4222.563999,4213.846051,4216.410153,4190.769128,4227.692204,4221.538358
86,0,4240.512717,4235.384512,4236.410153,4270.769126,4230.256307,4242.563999,4219.487076,4242.051178,4231.281948,4213.33323,4217.435794,4193.333231,4231.281948,4226.666563
87,0,4242.563999,4232.820409,4233.84605,4269.743485,4221.538358,4250.256306,4223.07682,4253.333229,4237.435794,4226.666563,4218.974256,4185.640923,4230.256307,4217.435794
88,0,4240.512717,4231.281948,4226.666563,4261.025537,4214.871692,4246.666563,4222.563999,4250.769127,4233.84605,4231.281948,4218.461435,4181.538359,4230.769127,4201.538359
89,0,4232.307589,4228.717845,4220.512717,4260.512716,4220.512717,4234.871691,4214.871692,4236.410153,4223.58964,4219.487076,4221.025538,4183.589641,4230.769127,4197.948615
90,0,4230.769127,4230.769127,4219.487076,4259.487075,4228.717845,4229.230666,4208.205025,4228.205025,4215.897333,4214.358871,4224.615281,4185.640923,4226.153743,4216.410153
91,0,4236.410153,4233.84605,4222.051179,4256.410152,4230.769127,4236.922973,4210.769128,4230.769127,4217.948615,4219.487076,4215.897333,4186.153744,4225.128102,4225.640922
92,0,4234.871691,4233.84605,4223.58964,4263.076819,4232.307589,4245.640922,4217.948615,4232.307589,4219.999897,4211.281948,4204.102461,4178.974257,4226.153743,4211.794769
93,0,4226.666563,4234.358871,4214.871692,4264.10246,4232.307589,4241.538358,4219.487076,4230.256307,4214.871692,4198.974256,4205.128102,4168.717847,4219.999897,4196.922974
94,0,4228.717845,4234.871691,4212.307589,4257.948614,4232.820409,4237.948614,4215.897333,4230.769127,4214.358871,4205.640923,4213.33323,4175.897334,4218.461435,4194.358872
95,0,4234.358871,4234.871691,4223.58964,4260.512716,4230.256307,4232.307589,4215.897333,4231.281948,4218.461435,4216.410153,4217.948615,4189.743487,4229.230666,4207.692205
96,0,4232.820409,4229.743486,4224.615281,4262.051178,4217.948615,4220.512717,4213.846051,4229.743486,4216.922974,4222.051179,4218.974256,4189.743487,4233.84605,4220.512717
97,0,4224.615281,4219.487076,4211.794769,4251.281947,4213.846051,4219.999897,4208.717846,4229.743486,4214.358871,4216.410153,4214.358871,4183.589641,4221.025538,4208.717846
98,0,4214.358871,4211.794769,4206.666564,4241.538358,4220.512717,4229.230666,4210.256307,4229.230666,4214.358871,4205.640923,4215.897333,4180.512718,4212.307589,4195.384513
99,0,4213.846051,4217.435794,4213.33323,4251.281947,4219.999897,4234.871691,4217.948615,4230.769127,4215.897333,4208.205025,4221.025538,4180.512718,4217.435794,4200.512718
100,0,4221.025538,4225.640922,4219.999897,4265.640921,4216.922974,4236.922973,4218.461435,4232.307589,4217.948615,4219.487076,4212.307589,4184.615282,4217.435794,4198.461436
101,0,4223.58964,4220.512717,4222.051179,4259.999896,4213.846051,4227.179384,4208.205025,4225.640922,4217.435794,4214.358871,4208.205025,4188.205026,4207.692205,4191.794769
102,0,4220.512717,4212.82041,4213.846051,4245.128101,4212.307589,4213.33323,4201.025538,4221.538358,4212.82041,4194.871692,4214.871692,4185.640923,4204.102461,4196.410154
103,0,4221.025538,4211.794769,4207.692205,4241.538358,4223.58964,4218.461435,4208.205025,4230.769127,4214.358871,4192.82041,4215.384512,4185.128103,4214.358871,4203.07682
104,0,4223.58964,4216.922974,4211.794769,4251.794768,4227.179384,4231.281948,4214.358871,4236.410153,4222.563999,4214.358871,4219.487076,4188.205026,4223.07682,4207.692205
105,0,4228.717845,4228.717845,4213.33323,4265.128101,4215.897333,4227.692204,4207.692205,4231.281948,4223.58964,4225.640922,4228.205025,4189.743487,4225.128102,4210.256307
106,0,4225.640922,4231.281948,4209.743487,4264.10246,4212.82041,4220.512717,4199.999897,4228.717845,4217.948615,4218.461435,4225.128102,4183.076821,4221.025538,4202.564
107,0,4218.974256,4220.512717,4207.179384,4245.640922,4218.461435,4217.435794,4202.051179,4230.256307,4215.384512,4216.410153,4215.384512,4172.820411,4209.743487,4194.871692
108,0,4222.051179,4217.948615,4207.179384,4246.666563,4213.33323,4216.410153,4208.717846,4234.358871,4219.487076,4223.07682,4214.358871,4175.384513,4207.692205,4199.999897
109,0,4228.717845,4226.666563,4213.33323,4264.61528,4211.794769,4222.051179,4209.743487,4236.922973,4221.025538,4215.897333,4215.384512,4188.205026,4216.410153,4206.153743
110,0,4228.717845,4229.230666,4219.999897,4265.640921,4226.153743,4228.717845,4207.692205,4229.743486,4218.461435,4208.717846,4215.897333,4189.230667,4217.948615,4202.051179
111,0,4235.384512,4231.281948,4222.051179,4261.025537,4233.33323,4232.820409,4214.358871,4235.384512,4226.153743,4219.999897,4218.974256,4185.640923,4216.922974,4200.512718
112,0,4242.563999,4234.871691,4222.563999,4266.666562,4230.256307,4234.871691,4219.999897,4248.717845,4234.358871,4229.230666,4218.461435,4195.384513,4223.07682,4209.230666
113,0,4236.410153,4233.33323,4225.128102,4268.717844,4231.794768,4235.384512,4217.948615,4241.025537,4229.743486,4224.615281,4216.410153,4199.999897,4223.58964,4211.794769
114,0,4231.794768,4230.769127,4223.58964,4263.076819,4229.743486,4234.871691,4215.897333,4233.84605,4225.640922,4217.435794,4218.461435,4188.205026,4217.435794,4205.128102
115,0,4236.410153,4231.281948,4215.384512,4259.487075,4217.435794,4231.794768,4216.410153,4241.025537,4228.205025,4218.974256,4220.512717,4178.461436,4223.58964,4208.205025
116,0,4241.538358,4231.794768,4212.307589,4262.563998,4214.358871,4230.769127,4215.897333,4237.435794,4224.102461,4223.58964,4214.871692,4182.05118,4228.717845,4219.487076
117,0,4252.820409,4239.487076,4221.538358,4267.692203,4213.33323,4232.820409,4215.897333,4228.205025,4218.461435,4228.717845,4214.358871,4193.333231,4230.256307,4237.948614
118,0,4281.025536,4259.999896,4235.897332,4273.333229,4205.128102,4228.717845,4205.128102,4229.743486,4218.461435,4229.230666,4226.153743,4200.512718,4237.948614,4265.128101
119,0,4314.871689,4281.538357,4243.076819,4284.61528,4209.230666,4219.999897,4198.461436,4231.794768,4217.435794,4214.358871,4234.871691,4206.153743,4251.794768,4290.256305
120,0,4339.487073,4289.743485,4248.717845,4294.87169,4212.82041,4223.07682,4208.717846,4232.307589,4214.871692,4198.461436,4235.897332,4214.358871,4263.589639,4308.205023
121,0,4363.076816,4298.974254,4255.384511,4303.076818,4207.179384,4232.307589,4212.82041,4234.871691,4215.384512,4196.410154,4230.769127,4217.948615,4263.589639,4331.794766
122,0,4391.794764,4319.999894,4255.897332,4310.256305,4218.461435,4232.820409,4208.717846,4233.33323,4215.384512,4206.153743,4228.205025,4219.487076,4267.692203,4350.256304
123,0,4412.820405,4340.512714,4253.84605,4312.307587,4236.410153,4233.84605,4212.82041,4231.794768,4217.435794,4226.666563,4238.974255,4221.025538,4288.717844,4358.974252
124,0,4420.512712,4344.102458,4264.61528,4312.307587,4228.205025,4234.358871,4220.512717,4234.358871,4218.974256,4237.435794,4245.128101,4223.07682,4299.999895,4375.384508
125,0,4419.999892,4332.307586,4273.333229,4313.846048,4209.230666,4221.025538,4212.307589,4233.33323,4216.922974,4218.461435,4235.384512,4226.666563,4286.666562,4385.640918
126,0,4410.769123,4323.076817,4264.10246,4313.846048,4202.051179,4208.717846,4197.435795,4221.538358,4210.256307,4197.435795,4228.717845,4225.640922,4271.794767,4372.820406
127,0,4392.307585,4318.974253,4252.820409,4307.692202,4199.999897,4209.230666,4192.82041,4210.256307,4202.051179,4195.897333,4229.743486,4216.410153,4267.179383,4353.333227
128,0,4380.512713,4306.153741,4246.666563,4300.512715,4207.179384,4213.33323,4196.922974,4213.33323,4197.435795,4188.717846,4223.58964,4210.256307,4261.538357,4343.076817
0,0,4379.487072,4296.922972,4241.025537,4294.358869,4214.871692,4213.846051,4198.461436,4218.974256,4201.025538,4177.948616,4213.33323,4209.743487,4259.487075,4339.487073
1,0,4381.025534,4307.179382,4245.128101,4294.358869,4211.281948,4210.769128,4198.974256,4222.563999,4208.205025,4192.30759,4212.82041,4208.717846,4258.974255,4339.999894
2,0,4376.92297,4312.820407,4253.84605,4302.563997,4212.307589,4216.410153,4209.230666,4235.384512,4214.871692,4218.461435,4226.153743,4212.307589,4261.025537,4344.102458
3,0,4374.358867,4305.64092,4256.922973,4313.846048,4222.051179,4232.307589,4219.487076,4249.743486,4226.153743,4236.922973,4235.384512,4218.461435,4272.820408,4343.589637
4,0,4367.692201,4297.948613,4257.948614,4310.256305,4217.435794,4233.84605,4216.410153,4243.58964,4230.769127,4234.871691,4230.769127,4222.563999,4279.487075,4335.384509
5,0,4346.15374,4285.640921,4248.205024,4296.410151,4207.692205,4219.999897,4207.179384,4230.769127,4221.025538,4214.871692,4227.179384,4221.025538,4265.640921,4313.333228
6,0,4327.692202,4275.384511,4233.33323,4286.666562,4214.871692,4215.384512,4202.564,4226.153743,4212.307589,4202.051179,4226.666563,4204.102461,4246.666563,4293.846049
7,0,4324.615279,4275.897331,4232.820409,4283.589639,4219.487076,4219.999897,4202.564,4222.563999,4212.307589,4198.461436,4219.487076,4195.897333,4244.10246,4292.820408
8,0,4319.999894,4272.307588,4234.358871,4286.153741,4217.948615,4218.974256,4201.025538,4217.435794,4213.846051,4203.589641,4214.358871,4202.564,4246.666563,4290.256305
9,0,4303.589638,4256.922973,4226.666563,4289.743485,4217.435794,4216.410153,4198.974256,4215.897333,4212.307589,4216.410153,4212.307589,4195.384513,4236.410153,4272.307588
10,0,4293.333228,4251.281947,4223.07682,4287.179382,4202.051179,4212.82041,4201.025538,4218.461435,4212.82041,4220.512717,4208.717846,4183.589641,4226.666563,4263.589639
11,0,4290.769126,4253.333229,4225.128102,4277.435793,4193.846051,4213.33323,4201.025538,4223.58964,4215.384512,4211.281948,4207.179384,4186.153744,4226.666563,4264.10246
12,0,4286.153741,4250.256306,4221.025538,4267.692203,4219.999897,4224.102461,4199.999897,4232.307589,4217.948615,4212.82041,4210.769128,4189.230667,4229.743486,4252.307588
13,0,4277.435793,4249.230665,4218.974256,4265.128101,4238.461435,4232.820409,4205.640923,4237.435794,4221.025538,4222.051179,4218.974256,4192.30759,4231.281948,4244.10246
14,0,4270.256306,4245.128101,4223.07682,4266.153742,4221.025538,4225.640922,4207.179384,4229.743486,4218.461435,4217.435794,4219.999897,4199.487077,4230.769127,4252.307588
15,0,4268.717844,4235.897332,4219.999897,4265.128101,4214.358871,4216.922974,4201.538359,4224.102461,4216.410153,4218.461435,4216.410153,4193.846051,4229.230666,4252.820409
16,0,4269.743485,4236.922973,4213.33323,4265.640921,4223.58964,4219.999897,4201.025538,4231.794768,4226.153743,4237.435794,4218.974256,4184.615282,4232.307589,4246.153742
17,0,4261.025537,4239.487076,4209.743487,4263.076819,4208.205025,4222.051179,4204.615282,4238.461435,4233.33323,4240.512717,4218.974256,4181.538359,4230.256307,4241.538358
18,0,4248.205024,4232.307589,4205.640923,4249.743486,4198.461436,4222.051179,4206.153743,4240.512717,4230.769127,4227.179384,4214.358871,4181.025539,4223.07682,4227.692204
19,0,4248.717845,4232.307589,4211.794769,4254.871691,4221.538358,4236.410153,4219.999897,4247.692204,4232.820409,4227.692204,4218.461435,4190.769128,4228.205025,4221.025538
20,0,4251.794768,4232.307589,4225.640922,4267.179383,4232.820409,4247.692204,4231.281948,4249.743486,4233.84605,4226.153743,4216.922974,4201.538359,4233.33323,4232.307589
21,0,4243.076819,4217.948615,4219.999897,4254.871691,4216.410153,4237.435794,4220.512717,4241.025537,4225.640922,4218.461435,4205.128102,4191.794769,4222.563999,4231.281948
22,0,4239.487076,4220.512717,4207.179384,4246.666563,4207.179384,4227.692204,4211.794769,4242.051178,4226.666563,4229.743486,4206.153743,4183.589641,4219.487076,4223.07682
23,0,4245.640922,4233.84605,4211.281948,4261.538357,4217.948615,4232.307589,4216.922974,4252.307588,4235.384512,4234.871691,4222.051179,4190.256308,4232.820409,4227.179384
24,0,4246.666563,4224.615281,4216.922974,4264.61528,4226.153743,4234.358871,4219.999897,4251.281947,4234.358871,4227.692204,4227.692204,4192.82041,4232.307589,4225.640922
25,0,4236.922973,4213.846051,4215.384512,4249.230665,4221.025538,4232.307589,4213.846051,4237.435794,4227.692204,4232.820409,4216.922974,4189.230667,4219.487076,4214.871692
26,0,4229.230666,4216.410153,4212.82041,4246.153742,4213.33323,4230.256307,4212.307589,4232.307589,4223.58964,4227.692204,4204.102461,4183.589641,4212.82041,4213.33323
27,0,4228.717845,4215.897333,4213.846051,4254.35887,4213.846051,4232.820409,4222.051179,4245.128101,4227.179384,4212.82041,4203.589641,4182.05118,4215.384512,4215.384512
28,0,4230.256307,4215.384512,4216.922974,4254.35887,4217.948615,4241.538358,4233.84605,4254.35887,4234.871691,4214.358871,4210.256307,4184.615282,4216.922974,4217.435794
29,0,4226.153743,4216.922974,4214.358871,4249.230665,4213.846051,4244.615281,4235.384512,4249.743486,4232.820409,4217.948615,4207.692205,4179.999898,4207.179384,4215.384512
30,0,4212.82041,4209.743487,4205.128102,4248.205024,4207.179384,4233.84605,4226.153743,4243.076819,4223.07682,4213.846051,4201.538359,4170.769129,4197.948615,4203.07682
31,0,4204.102461,4202.051179,4204.102461,4246.153742,4204.615282,4228.717845,4223.58964,4237.948614,4218.461435,4208.205025,4205.128102,4169.230667,4198.974256,4194.358872
32,0,4205.128102,4202.051179,4208.205025,4244.10246,4214.871692,4239.999896,4227.179384,4231.281948,4217.435794,4207.692205,4201.025538,4169.743488,4202.051179,4202.564
33,0,4208.205025,4202.564,4202.051179,4246.153742,4230.256307,4247.179383,4223.58964,4228.717845,4213.33323,4210.769128,4189.230667,4160.512719,4199.999897,4201.538359
34,0,4203.589641,4203.07682,4191.794769,4242.051178,4223.07682,4242.051178,4214.358871,4228.205025,4211.281948,4208.717846,4192.30759,4153.846052,4195.897333,4187.179385
35,0,4202.051179,4210.769128,4197.435795,4239.999896,4212.307589,4242.563999,4214.358871,4231.794768,4221.538358,4206.666564,4205.128102,4163.589642,4198.461436,4194.358872
36,0,4209.743487,4214.358871,4208.205025,4249.743486,4221.538358,4248.717845,4219.487076,4242.051178,4231.794768,4213.846051,4204.102461,4173.333231,4204.102461,4210.769128
37,0,4207.179384,4205.640923,4204.615282,4251.794768,4227.179384,4247.179383,4216.922974,4247.179383,4228.717845,4216.922974,4200.512718,4169.230667,4204.102461,4200.512718
38,0,4193.333231,4198.974256,4195.897333,4241.025537,4218.461435,4245.128101,4219.999897,4247.179383,4226.153743,4214.358871,4199.487077,4157.435796,4197.435795,4188.717846
39,0,4193.846051,4203.07682,4197.948615,4236.922973,4215.897333,4248.717845,4234.358871,4246.666563,4229.743486,4221.538358,4195.384513,4154.358873,4198.461436,4201.025538
40,0,4204.615282,4202.051179,4201.538359,4242.051178,4216.922974,4244.10246,4232.820409,4237.948614,4224.102461,4217.948615,4199.487077,4158.974257,4202.564,4202.564
41,0,4206.153743,4198.974256,4204.102461,4245.128101,4216.922974,4239.487076,4221.538358,4230.256307,4215.897333,4202.564,4209.230666,4166.666565,4201.025538,4195.384513
42,0,4204.615282,4201.538359,4210.256307,4245.640922,4216.922974,4238.461435,4224.102461,4233.33323,4218.461435,4207.179384,4206.666564,4172.820411,4201.538359,4203.589641
43,0,4196.922974,4196.410154,4206.153743,4236.410153,4205.640923,4233.33323,4224.615281,4233.84605,4216.922974,4218.974256,4198.974256,4166.666565,4198.461436,4198.461436
44,0,4185.128103,4189.230667,4195.384513,4227.179384,4199.487077,4233.84605,4218.974256,4228.717845,4212.307589,4204.615282,4190.769128,4153.846052,4191.281949,4183.076821
45,0,4189.743487,4200.512718,4195.384513,4238.974255,4218.974256,4247.179383,4223.07682,4233.84605,4217.948615,4193.846051,4184.102462,4152.820411,4197.948615,4195.384513
46,0,4200.512718,4209.743487,4200.512718,4251.794768,4224.615281,4249.743486,4223.58964,4235.384512,4219.487076,4208.717846,4189.743487,4155.897334,4204.615282,4208.205025
47,0,4196.922974,4199.999897,4199.999897,4244.615281,4204.615282,4235.384512,4213.846051,4226.666563,4213.846051,4208.717846,4201.538359,4152.307591,4197.435795,4195.897333
48,0,4200.512718,4202.564,4205.640923,4238.974255,4202.564,4228.717845,4214.358871,4234.871691,4221.538358,4207.179384,4204.102461,4162.05118,4203.07682,4199.999897
49,0,4205.640923,4213.846051,4208.717846,4238.974255,4221.025538,4235.384512,4218.974256,4246.153742,4234.871691,4231.281948,4201.025538,4171.79477,4215.384512,4217.948615
50,0,4197.435795,4210.256307,4203.07682,4232.307589,4227.692204,4238.461435,4217.435794,4237.435794,4228.717845,4238.974255,4204.102461,4164.102462,4204.102461,4210.256307
51,0,4191.281949,4201.538359,4200.512718,4229.743486,4214.871692,4232.307589,4215.384512,4227.179384,4215.897333,4210.769128,4199.487077,4158.461437,4193.333231,4194.871692
52,0,4191.794769,4194.871692,4198.974256,4232.307589,4209.230666,4232.307589,4216.922974,4231.794768,4220.512717,4194.871692,4188.717846,4161.025539,4202.564,4199.999897
53,0,4190.769128,4194.358872,4194.871692,4234.358871,4219.487076,4244.615281,4225.640922,4242.563999,4231.794768,4210.256307,4194.871692,4162.05118,4208.205025,4210.256307
54,0,4189.230667,4200.512718,4195.897333,4235.384512,4212.82041,4249.230665,4231.281948,4246.666563,4233.33323,4228.205025,4205.128102,4161.025539,4201.025538,4204.615282
55,0,4192.82041,4207.179384,4195.384513,4232.820409,4202.051179,4247.179383,4230.769127,4246.153742,4233.84605,4229.230666,4201.025538,4160.512719,4201.538359,4199.487077
56,0,4196.410154,4202.564,4196.410154,4232.307589,4216.410153,4246.153742,4225.128102,4247.179383,4233.84605,4214.871692,4198.461436,4156.922975,4212.307589,4205.128102
57,0,4194.358872,4197.948615,4205.640923,4240.512717,4229.230666,4238.974255,4218.461435,4246.666563,4231.281948,4212.82041,4201.538359,4158.461437,4212.307589,4204.102461
58,0,4193.846051,4209.743487,4210.769128,4248.205024,4219.999897,4234.358871,4222.563999,4239.999896,4227.692204,4227.692204,4198.461436,4168.717847,4205.640923,4203.589641
59,0,4201.025538,4215.384512,4208.717846,4244.10246,4212.82041,4235.384512,4226.153743,4233.33323,4223.07682,4227.179384,4199.999897,4172.820411,4211.794769,4212.82041
60,0,4202.051179,4203.07682,4212.307589,4234.871691,4211.794769,4234.358871,4219.487076,4233.33323,4216.922974,4210.256307,4203.07682,4171.281949,4220.512717,4212.82041
61,0,4187.692205,4197.948615,4208.717846,4234.871691,4212.82041,4241.025537,4222.563999,4230.769127,4215.897333,4204.615282,4195.384513,4170.769129,4214.871692,4201.025538
62,0,4181.025539,4201.538359,4194.358872,4231.794768,4217.948615,4248.717845,4231.794768,4228.717845,4216.922974,4213.33323,4192.30759,4165.640924,4205.128102,4196.410154
63,0,4183.076821,4188.205026,4187.692205,4216.922974,4207.692205,4236.922973,4218.974256,4228.205025,4215.897333,4206.666564,4190.256308,4156.922975,4199.487077,4188.717846
64,0,4181.025539,4177.948616,4192.82041,4218.461435,4194.871692,4225.128102,4208.205025,4224.615281,4215.897333,4185.128103,4183.589641,4161.53836,4194.871692,4183.076821
65,0,4183.076821,4192.82041,4199.487077,4236.410153,4209.230666,4230.769127,4216.410153,4221.025538,4212.82041,4188.205026,4191.281949,4174.871693,4197.435795,4193.333231
66,0,4182.05118,4198.974256,4194.871692,4234.358871,4223.07682,4234.871691,4215.384512,4216.410153,4204.615282,4211.794769,4203.07682,4166.666565,4199.487077,4191.794769
67,0,4177.948616,4187.179385,4189.230667,4224.102461,4217.948615,4231.794768,4205.128102,4212.307589,4199.999897,4214.358871,4199.487077,4154.871693,4194.871692,4181.025539
68,0,4183.589641,4188.717846,4197.948615,4231.281948,4214.871692,4228.205025,4203.589641,4214.871692,4203.07682,4195.384513,4197.948615,4171.281949,4197.948615,4192.30759
69,0,4194.871692,4201.538359,4210.769128,4237.435794,4212.82041,4224.102461,4204.615282,4217.948615,4205.640923,4191.281949,4205.640923,4189.230667,4206.666564,4209.230666
70,0,4188.205026,4197.948615,4206.666564,4232.820409,4197.948615,4215.897333,4199.999897,4213.33323,4204.102461,4204.102461,4197.948615,4179.487077,4200.512718,4206.153743
71,0,4175.384513,4182.05118,4195.897333,4231.281948,4196.922974,4214.871692,4199.487077,4210.256307,4199.487077,4203.589641,4189.230667,4166.153744,4184.102462,4190.769128
72,0,4177.435795,4180.512718,4192.82041,4233.33323,4207.692205,4227.179384,4208.205025,4215.384512,4199.487077,4195.384513,4204.615282,4168.717847,4182.564,4183.589641
73,0,4180.512718,4184.615282,4190.769128,4233.33323,4204.615282,4230.769127,4210.769128,4219.487076,4210.256307,4202.564,4215.384512,4170.256308,4187.692205,4186.666564
74,0,4176.410154,4183.076821,4189.743487,4232.820409,4209.743487,4225.640922,4204.615282,4216.922974,4215.384512,4213.846051,4203.589641,4164.102462,4185.128103,4189.743487
75,0,4177.435795,4188.205026,4192.82041,4233.84605,4221.538358,4228.205025,4203.07682,4215.897333,4207.692205,4207.179384,4196.922974,4165.640924,4187.179385,4187.692205
76,0,4180.512718,4190.256308,4194.871692,4233.84605,4209.743487,4231.281948,4206.666564,4217.435794,4203.07682,4196.410154,4201.538359,4170.256308,4195.897333,4190.256308
77,0,4175.897334,4181.538359,4194.871692,4232.307589,4198.461436,4226.153743,4209.230666,4217.948615,4204.615282,4196.410154,4197.435795,4169.230667,4197.948615,4188.717846
78,0,4176.410154,4188.717846,4197.948615,4238.461435,4213.846051,4229.230666,4215.384512,4216.410153,4202.564,4199.487077,4199.487077,4172.30759,4195.897333,4180.512718
79,0,4194.358872,4210.769128,4204.102461,4255.384511,4229.230666,4244.10246,4220.512717,4216.922974,4204.615282,4212.307589,4219.999897,4184.615282,4199.999897,4195.897333
80,0,4207.179384,4218.974256,4210.256307,4265.640921,4226.153743,4247.692204,4219.999897,4223.07682,4215.384512,4222.563999,4234.871691,4190.769128,4210.256307,4220.512717
81,0,4199.999897,4210.769128,4210.256307,4255.384511,4215.384512,4238.461435,4217.948615,4230.256307,4220.512717,4216.922974,4229.230666,4185.128103,4218.461435,4219.487076
82,0,4190.256308,4202.564,4205.640923,4240.512717,4212.307589,4231.794768,4209.230666,4230.769127,4219.999897,4222.051179,4219.999897,4184.615282,4215.384512,4213.846051
83,0,4194.358872,4199.999897,4206.153743,4241.025537,4221.538358,4233.84605,4203.589641,4224.102461,4216.410153,4229.230666,4213.846051,4184.102462,4205.128102,4212.82041
84,0,4199.999897,4203.07682,4211.794769,4247.179383,4225.128102,4236.410153,4211.281948,4219.487076,4208.205025,4208.717846,4207.179384,4177.948616,4202.051179,4203.07682
85,0,4194.871692,4205.128102,4212.307589,4249.230665,4213.846051,4235.384512,4216.410153,4224.102461,4203.589641,4198.974256,4208.205025,4176.410154,4206.666564,4201.538359
86,0,4195.897333,4201.025538,4212.82041,4256.410152,4214.358871,4239.999896,4214.358871,4228.717845,4206.666564,4218.974256,4220.512717,4184.102462,4211.794769,4217.435794
87,0,4207.692205,4204.102461,4217.435794,4262.051178,4224.615281,4244.10246,4213.846051,4230.256307,4211.794769,4233.33323,4227.179384,4195.897333,4213.846051,4229.230666
88,0,4214.358871,4218.461435,4224.615281,4260.512716,4224.615281,4240.512717,4214.871692,4233.84605,4217.948615,4230.256307,4222.563999,4200.512718,4214.871692,4234.871691
89,0,4207.692205,4221.025538,4225.128102,4257.435793,4216.410153,4234.358871,4213.846051,4231.794768,4215.897333,4221.538358,4219.487076,4191.794769,4216.410153,4231.794768
90,0,4196.410154,4209.743487,4216.410153,4249.230665,4215.384512,4233.33323,4214.871692,4217.948615,4204.615282,4214.358871,4216.922974,4183.076821,4207.692205,4219.999897
91,0,4194.871692,4206.666564,4209.743487,4245.128101,4221.538358,4236.410153,4215.897333,4214.871692,4203.589641,4213.33323,4211.794769,4185.128103,4199.999897,4218.974256
92,0,4203.589641,4208.717846,4217.435794,4256.922973,4216.922974,4233.84605,4215.897333,4226.666563,4214.358871,4211.794769,4211.794769,4189.743487,4209.230666,4228.205025
93,0,4203.589641,4207.179384,4225.640922,4264.10246,4214.871692,4231.794768,4216.922974,4238.461435,4226.153743,4217.948615,4212.82041,4193.333231,4217.948615,4230.769127
94,0,4195.897333,4211.281948,4221.025538,4253.333229,4228.205025,4233.84605,4217.435794,4242.051178,4231.281948,4234.358871,4212.307589,4193.333231,4211.794769,4230.769127
95,0,4198.461436,4213.33323,4215.897333,4255.897332,4225.640922,4233.84605,4217.948615,4236.922973,4225.128102,4234.871691,4217.435794,4188.205026,4210.256307,4231.794768
96,0,4199.999897,4206.153743,4217.435794,4261.538357,4213.846051,4229.743486,4215.897333,4228.205025,4211.794769,4220.512717,4216.410153,4183.076821,4212.82041,4231.794768
97,0,4192.82041,4202.564,4220.512717,4254.35887,4223.58964,4229.743486,4214.358871,4224.102461,4203.589641,4199.999897,4204.615282,4181.538359,4204.615282,4230.769127
98,0,4194.871692,4203.07682,4221.025538,4251.794768,4217.948615,4231.281948,4215.384512,4221.025538,4202.051179,4184.615282,4203.07682,4179.487077,4195.897333,4230.256307
99,0,4201.025538,4200.512718,4215.384512,4251.794768,4196.410154,4228.205025,4214.358871,4215.897333,4203.589641,4200.512718,4208.205025,4179.487077,4200.512718,4230.769127
100,0,4197.948615,4202.564,4209.230666,4245.128101,4215.897333,4231.794768,4214.871692,4224.102461,4210.256307,4218.974256,4206.666564,4180.512718,4209.743487,4238.461435
101,0,4193.333231,4206.666564,4210.769128,4245.640922,4241.025537,4238.461435,4217.435794,4233.33323,4214.358871,4205.640923,4204.615282,4175.897334,4208.717846,4244.615281
102,0,4189.743487,4206.666564,4211.794769,4253.84605,4223.58964,4232.820409,4215.384512,4226.153743,4214.871692,4197.948615,4199.999897,4172.30759,4197.435795,4243.076819
103,0,4192.82041,4203.07682,4205.640923,4249.230665,4207.692205,4225.128102,4209.743487,4222.051179,4213.846051,4213.33323,4197.948615,4171.79477,4196.922974,4253.333229
104,0,4205.128102,4207.179384,4206.666564,4244.10246,4221.025538,4229.230666,4215.384512,4230.769127,4217.948615,4228.717845,4211.794769,4177.948616,4216.922974,4274.35887
105,0,4212.82041,4214.871692,4221.538358,4250.256306,4223.07682,4233.84605,4229.230666,4238.974255,4225.640922,4231.794768,4225.640922,4191.281949,4232.307589,4287.179382
106,0,4201.025538,4206.153743,4218.974256,4245.128101,4202.564,4231.794768,4226.153743,4234.871691,4224.615281,4218.461435,4220.512717,4187.692205,4220.512717,4286.153741
107,0,4186.153744,4192.30759,4204.615282,4238.461435,4199.487077,4230.769127,4214.358871,4228.717845,4215.897333,4206.153743,4213.846051,4171.281949,4202.564,4282.051177
108,0,4190.769128,4199.487077,4211.794769,4246.666563,4218.974256,4234.358871,4222.051179,4228.717845,4212.307589,4214.358871,4216.922974,4176.410154,4208.717846,4289.743485
109,0,4201.025538,4211.281948,4226.666563,4246.153742,4223.58964,4234.871691,4233.84605,4228.205025,4215.384512,4216.410153,4214.871692,4189.743487,4217.948615,4298.974254
110,0,4193.846051,4203.07682,4216.922974,4232.307589,4208.717846,4231.281948,4223.58964,4216.410153,4210.256307,4205.640923,4199.999897,4178.461436,4204.615282,4286.666562
111,0,4189.230667,4195.897333,4205.640923,4232.307589,4214.871692,4230.769127,4213.33323,4208.717846,4203.07682,4202.051179,4198.974256,4166.153744,4200.512718,4259.487075
112,0,4196.922974,4196.410154,4209.230666,4238.974255,4232.307589,4233.33323,4215.897333,4214.871692,4201.025538,4197.435795,4215.384512,4174.871693,4209.230666,4250.769127
113,0,4197.948615,4201.025538,4210.769128,4235.897332,4227.179384,4231.794768,4215.897333,4214.358871,4202.051179,4199.487077,4215.897333,4182.05118,4205.128102,4258.974255
114,0,4198.974256,4212.307589,4216.922974,4240.512717,4216.922974,4230.256307,4216.922974,4217.948615,4211.281948,4217.948615,4208.205025,4186.153744,4205.128102,4267.179383
115,0,4207.692205,4215.384512,4225.640922,4248.205024,4217.948615,4231.281948,4219.999897,4234.358871,4219.999897,4225.128102,4213.846051,4191.794769,4221.025538,4272.307588
116,0,4208.205025,4209.743487,4223.07682,4243.58964,4221.025538,4224.615281,4217.435794,4236.922973,4217.948615,4214.871692,4211.794769,4190.256308,4224.615281,4266.153742
117,0,4203.07682,4213.846051,4219.487076,4234.871691,4219.487076,4220.512717,4216.922974,4223.58964,4211.794769,4212.82041,4195.384513,4183.589641,4214.358871,4251.794768
118,0,4200.512718,4217.948615,4222.563999,4233.33323,4215.897333,4223.58964,4219.999897,4217.948615,4207.179384,4217.948615,4195.384513,4183.076821,4208.717846,4245.128101
119,0,4197.948615,4206.666564,4218.974256,4236.922973,4212.307589,4225.128102,4218.461435,4220.512717,4204.102461,4210.769128,4208.717846,4185.128103,4206.666564,4254.871691
120,0,4198.974256,4196.922974,4211.281948,4238.461435,4215.897333,4227.179384,4217.435794,4216.922974,4200.512718,4192.82041,4205.640923,4177.435795,4202.564,4261.538357
121,0,4197.435795,4196.410154,4209.230666,4231.281948,4216.922974,4228.717845,4216.410153,4214.358871,4198.461436,4187.179385,4194.871692,4171.79477,4198.974256,4254.871691
122,0,4192.82041,4199.999897,4211.794769,4228.717845,4210.769128,4228.717845,4217.435794,4221.538358,4205.128102,4203.589641,4196.410154,4177.948616,4200.512718,4246.153742
123,0,4198.461436,4213.33323,4215.897333,4236.922973,4221.025538,4236.410153,4227.179384,4234.358871,4217.435794,4221.025538,4201.025538,4187.179385,4209.230666,4245.128101
124,0,4207.692205,4214.358871,4219.999897,4238.974255,4234.358871,4241.538358,4236.410153,4237.948614,4221.025538,4224.102461,4203.07682,4188.205026,4217.435794,4252.307588
125,0,4203.589641,4204.102461,4217.948615,4236.410153,4227.179384,4234.871691,4230.256307,4232.820409,4219.999897,4209.743487,4205.128102,4181.538359,4219.487076,4254.35887
126,0,4201.025538,4208.717846,4217.435794,4233.84605,4220.512717,4232.820409,4220.512717,4229.743486,4217.435794,4200.512718,4205.128102,4184.615282,4216.410153,4248.717845
127,0,4208.717846,4219.999897,4222.051179,4236.410153,4217.435794,4234.871691,4224.102461,4231.794768,4217.435794,4213.33323,4208.717846,4198.461436,4219.999897,4254.871691
128,0,4212.307589,4219.487076,4226.153743,4240.512717,4204.615282,4231.281948,4228.205025,4234.871691,4224.615281,4222.051179,4218.974256,4204.102461,4232.820409,4265.640921
0,0,4210.256307,4218.461435,4223.07682,4235.384512,4206.666564,4232.307589,4223.07682,4234.358871,4225.640922,4217.948615,4215.384512,4190.769128,4235.897332,4259.999896
1,0,4210.256307,4222.051179,4223.07682,4233.33323,4232.820409,4236.410153,4218.461435,4230.769127,4218.461435,4225.128102,4206.666564,4182.05118,4223.07682,4251.794768
2,0,4204.615282,4212.307589,4224.615281,4231.281948,4234.358871,4234.358871,4218.461435,4229.743486,4217.435794,4223.58964,4201.025538,4178.974257,4211.281948,4252.307588
3,0,4197.435795,4199.999897,4214.871692,4219.999897,4217.435794,4232.820409,4218.974256,4230.769127,4217.435794,4203.07682,4189.743487,4169.743488,4209.230666,4250.256306
4,0,4203.07682,4200.512718,4210.256307,4214.871692,4222.051179,4235.384512,4219.999897,4233.33323,4218.461435,4205.128102,4187.179385,4171.281949,4210.256307,4255.897332
5,0,4211.794769,4205.128102,4221.025538,4230.769127,4221.025538,4232.820409,4221.538358,4234.871691,4225.128102,4221.538358,4195.897333,4184.615282,4211.281948,4272.820408
6,0,4211.794769,4207.179384,4228.717845,4232.820409,4207.692205,4230.769127,4221.025538,4233.33323,4223.07682,4217.948615,4203.07682,4187.692205,4217.435794,4281.538357
7,0,4206.153743,4210.769128,4222.563999,4219.999897,4218.461435,4231.794768,4218.461435,4227.692204,4216.410153,4210.769128,4214.871692,4183.589641,4226.666563,4279.487075
8,0,4206.153743,4216.410153,4215.384512,4226.153743,4231.794768,4229.743486,4215.384512,4225.640922,4215.384512,4219.487076,4216.922974,4184.615282,4228.205025,4273.333229
9,0,4209.743487,4216.410153,4217.435794,4234.871691,4217.435794,4230.256307,4215.384512,4229.743486,4217.435794,4230.256307,4204.102461,4184.102462,4230.256307,4260.512716
10,0,4212.82041,4216.410153,4223.07682,4228.717845,4201.025538,4229.230666,4218.461435,4231.794768,4224.102461,4228.205025,4205.128102,4184.102462,4234.871691,4255.897332
11,0,4215.897333,4213.33323,4224.102461,4223.58964,4194.358872,4218.461435,4216.922974,4230.256307,4224.615281,4215.897333,4211.794769,4184.615282,4224.102461,4259.487075
12,0,4221.538358,4212.82041,4225.640922,4229.230666,4204.102461,4216.922974,4214.871692,4229.743486,4217.435794,4212.82041,4202.564,4184.615282,4213.846051,4262.051178
13,0,4223.07682,4221.538358,4231.794768,4237.435794,4232.820409,4232.820409,4218.974256,4229.230666,4216.922974,4223.58964,4199.487077,4186.666564,4225.640922,4262.051178
14,0,4218.974256,4223.58964,4230.769127,4233.33323,4239.999896,4236.922973,4221.538358,4223.58964,4218.974256,4215.384512,4204.615282,4187.179385,4232.307589,4252.820409
15,0,4218.461435,4216.922974,4219.999897,4223.58964,4219.999897,4228.205025,4216.922974,4222.563999,4223.07682,4203.07682,4206.666564,4180.512718,4224.615281,4243.58964
16,0,4218.461435,4213.846051,4222.563999,4229.230666,4211.794769,4229.743486,4216.410153,4230.256307,4229.230666,4223.07682,4212.307589,4181.025539,4226.666563,4253.333229
17,0,4212.307589,4215.384512,4235.384512,4238.974255,4218.974256,4235.384512,4222.563999,4231.794768,4224.615281,4237.948614,4214.358871,4187.179385,4232.820409,4267.179383
18,0,4212.307589,4217.435794,4235.384512,4228.205025,4220.512717,4233.84605,4221.538358,4226.153743,4217.948615,4216.410153,4213.846051,4188.717846,4229.743486,4261.025537
19,0,4224.102461,4220.512717,4226.666563,4218.974256,4224.615281,4233.84605,4218.461435,4229.743486,4229.743486,4214.358871,4215.384512,4191.281949,4223.07682,4249.743486
20,0,4223.07682,4218.974256,4225.128102,4228.717845,4232.307589,4233.84605,4218.974256,4233.33323,4233.33323,4226.153743,4206.666564,4194.871692,4217.435794,4250.769127
21,0,4213.33323,4213.33323,4227.692204,4235.384512,4231.794768,4232.307589,4218.461435,4231.281948,4221.538358,4205.128102,4201.538359,4193.846051,4221.025538,4249.743486
22,0,4221.025538,4213.846051,4229.230666,4229.743486,4224.615281,4233.84605,4220.512717,4232.820409,4223.07682,4204.615282,4215.384512,4194.871692,4232.307589,4248.717845
23,0,4226.153743,4218.974256,4230.769127,4230.256307,4221.025538,4236.922973,4230.769127,4235.897332,4233.84605,4232.820409,4218.974256,4200.512718,4234.358871,4251.794768
24,0,4217.435794,4220.512717,4228.717845,4230.769127,4216.922974,4234.871691,4231.794768,4234.871691,4232.820409,4231.794768,4202.051179,4192.82041,4222.563999,4246.153742
25,0,4217.435794,4215.897333,4225.640922,4221.538358,4216.410153,4230.256307,4218.974256,4229.230666,4218.974256,4212.82041,4195.384513,4180.512718,4217.435794,4235.897332
26,0,4218.974256,4214.358871,4225.640922,4220.512717,4226.666563,4232.307589,4213.33323,4222.051179,4213.33323,4216.922974,4199.487077,4179.487077,4219.487076,4231.281948
27,0,4214.358871,4220.512717,4224.615281,4231.281948,4230.256307,4234.871691,4214.358871,4223.07682,4224.102461,4229.230666,4205.128102,4184.102462,4214.358871,4222.563999
28,0,4218.974256,4222.051179,4223.07682,4228.717845,4218.461435,4229.743486,4214.358871,4230.256307,4232.820409,4225.640922,4212.82041,4191.794769,4220.512717,4224.615281
29,0,4225.128102,4212.307589,4226.666563,4217.948615,4215.384512,4227.179384,4215.384512,4233.33323,4228.205025,4217.435794,4214.871692,4194.358872,4238.461435,4242.563999
30,0,4221.025538,4203.589641,4227.692204,4212.82041,4226.666563,4228.205025,4219.487076,4230.769127,4222.051179,4216.922974,4216.922974,4188.717846,4242.563999,4243.076819
31,0,4213.846051,4198.461436,4219.999897,4206.666564,4224.102461,4221.538358,4217.435794,4224.615281,4218.461435,4221.025538,4221.538358,4184.102462,4229.743486,4226.666563
32,0,4201.025538,4184.102462,4208.717846,4199.999897,4205.640923,4207.179384,4206.153743,4211.794769,4206.153743,4214.358871,4210.769128,4181.538359,4217.435794,4217.948615
33,0,4194.358872,4174.358872,4206.153743,4202.051179,4197.948615,4202.564,4201.025538,4211.794769,4204.615282,4208.205025,4202.051179,4182.05118,4217.435794,4215.384512
34,0,4200.512718,4178.461436,4211.281948,4201.025538,4199.999897,4208.205025,4204.615282,4223.58964,4218.461435,4216.410153,4211.794769,4188.205026,4228.205025,4213.846051
35,0,4206.666564,4184.615282,4211.794769,4195.897333,4205.128102,4214.358871,4209.230666,4229.743486,4222.563999,4222.051179,4219.487076,4191.281949,4234.358871,4219.999897
36,0,4206.666564,4190.256308,4209.743487,4198.974256,4212.82041,4216.410153,4213.33323,4230.256307,4215.897333,4208.205025,4213.33323,4190.769128,4228.717845,4223.58964
37,0,4205.128102,4191.794769,4211.794769,4205.640923,4219.999897,4215.897333,4215.897333,4230.769127,4217.435794,4195.897333,4216.410153,4193.846051,4224.615281,4224.102461
38,0,4201.538359,4187.692205,4214.358871,4205.640923,4214.871692,4216.922974,4216.410153,4231.281948,4221.538358,4214.358871,4227.692204,4191.281949,4226.666563,4219.999897
39,0,4195.384513,4191.794769,4209.743487,4200.512718,4206.153743,4216.410153,4209.743487,4229.230666,4217.948615,4230.769127,4222.051179,4182.564,4226.666563,4203.589641
40,0,4197.435795,4198.974256,4209.743487,4205.128102,4213.33323,4212.82041,4202.051179,4230.256307,4221.538358,4226.153743,4211.281948,4183.076821,4228.717845,4198.974256
41,0,4208.717846,4197.435795,4219.487076,4220.512717,4225.640922,4216.410153,4206.666564,4242.563999,4232.307589,4228.205025,4224.102461,4192.30759,4238.974255,4219.487076
42,0,4216.410153,4201.025538,4225.128102,4223.07682,4224.615281,4224.102461,4218.461435,4248.717845,4236.922973,4238.461435,4250.256306,4203.07682,4247.692204,4236.922973
43,0,4212.307589,4204.102461,4219.999897,4213.846051,4215.897333,4221.538358,4217.948615,4238.974255,4234.871691,4236.410153,4248.717845,4204.102461,4247.692204,4230.256307
44,0,4211.281948,4197.948615,4217.435794,4209.743487,4211.281948,4210.769128,4207.692205,4227.179384,4228.205025,4231.794768,4228.717845,4191.794769,4242.563999,4217.948615
45,0,4217.948615,4206.666564,4223.58964,4216.410153,4217.948615,4210.256307,4206.666564,4228.205025,4223.07682,4232.307589,4222.051179,4192.30759,4244.10246,4214.871692
46,0,4220.512717,4216.410153,4231.794768,4228.717845,4230.256307,4219.999897,4214.358871,4231.281948,4220.512717,4221.538358,4228.717845,4202.564,4249.230665,4212.82041
47,0,4218.974256,4207.692205,4233.33323,4231.281948,4227.692204,4225.640922,4218.974256,4232.820409,4217.435794,4213.846051,4238.974255,4204.615282,4245.640922,4217.435794
