title:V                                                                               , recorded:06.07.20 12.56.43, sampling:128, subject:B                                                                               , labels:COUNTER INTERPOLATED AF3 F7 F3 FC5 T7 P7 O1 O2 P8 T8 FC6 F4 F8 AF4,, units:emotiv,,,,,,,,,
2,0,4276.922972,4285.640921,4217.435794,4302.051177,4219.999897,4230.769127,4229.743486,4225.640922,4230.769127,4231.794768,4283.589639,4192.30759,4324.102458,4275.384511
3,0,4283.076818,4288.717844,4223.07682,4303.589638,4224.615281,4233.84605,4233.33323,4241.538358,4236.922973,4243.076819,4292.820408,4201.538359,4330.256304,4275.384511
4,0,4283.076818,4280.512716,4224.615281,4307.692202,4192.82041,4227.692204,4230.769127,4240.512717,4241.538358,4248.717845,4283.589639,4199.487077,4327.692202,4272.820408
5,0,4286.153741,4277.948613,4229.230666,4314.871689,4198.461436,4228.717845,4232.307589,4233.33323,4237.948614,4230.769127,4284.102459,4200.512718,4328.205022,4275.384511
6,0,4289.743485,4282.051177,4232.307589,4307.692202,4228.717845,4230.769127,4229.230666,4230.769127,4233.84605,4212.307589,4295.897331,4205.128102,4330.769125,4275.384511
7,0,4283.589639,4277.435793,4232.307589,4293.846049,4222.051179,4220.512717,4216.922974,4222.051179,4234.871691,4208.205025,4283.076818,4205.640923,4311.794766,4264.10246
8,0,4278.461434,4274.35887,4233.33323,4298.974254,4193.333231,4210.256307,4214.358871,4221.538358,4234.358871,4208.205025,4269.743485,4206.666564,4297.435792,4258.974255
9,0,4281.025536,4272.820408,4237.435794,4306.666561,4184.102462,4209.230666,4220.512717,4227.692204,4233.33323,4212.82041,4275.897331,4207.179384,4304.615279,4263.076819
10,0,4282.051177,4264.10246,4235.384512,4301.538356,4180.512718,4212.307589,4225.128102,4225.128102,4234.358871,4224.615281,4276.410152,4209.743487,4310.256305,4266.666562
11,0,4285.1281,4264.61528,4231.281948,4301.538356,4183.076821,4216.410153,4229.230666,4227.692204,4237.948614,4229.743486,4275.384511,4215.897333,4311.281946,4272.307588
12,0,4291.794767,4270.256306,4236.410153,4306.153741,4198.974256,4219.999897,4230.769127,4233.84605,4238.461435,4227.179384,4289.743485,4216.922974,4321.025535,4275.897331
13,0,4296.410151,4267.692203,4239.999896,4299.487074,4198.974256,4217.948615,4230.256307,4231.794768,4239.999896,4228.205025,4295.38451,4213.846051,4326.666561,4276.410152
14,0,4294.87169,4263.589639,4234.871691,4292.307587,4194.871692,4219.999897,4230.769127,4230.769127,4244.615281,4235.384512,4293.846049,4217.435794,4323.076817,4278.974254
15,0,4289.743485,4262.563998,4231.794768,4299.487074,4207.179384,4230.256307,4232.307589,4241.025537,4247.179383,4245.640922,4295.897331,4217.948615,4321.538356,4280.512716
16,0,4282.051177,4258.461434,4230.769127,4301.025536,4202.051179,4229.230666,4233.33323,4238.974255,4240.512717,4233.84605,4280.512716,4208.205025,4311.794766,4267.179383
17,0,4273.846049,4248.205024,4221.538358,4291.794767,4182.05118,4216.410153,4230.256307,4216.922974,4226.153743,4198.974256,4257.435793,4198.461436,4296.922972,4246.666563
18,0,4268.205024,4236.410153,4212.307589,4283.589639,4182.564,4209.230666,4218.461435,4199.487077,4216.410153,4180.512718,4248.205024,4189.230667,4284.102459,4235.384512
19,0,4267.692203,4238.974255,4211.794769,4280.512716,4187.179385,4212.82041,4214.358871,4203.589641,4217.435794,4201.538359,4251.281947,4185.128103,4278.974254,4239.487076
20,0,4269.230665,4244.615281,4213.33323,4276.922972,4193.846051,4215.384512,4225.640922,4212.82041,4223.07682,4223.07682,4256.922973,4191.794769,4284.102459,4243.076819
21,0,4266.153742,4238.461435,4205.640923,4275.384511,4203.07682,4211.794769,4228.717845,4210.769128,4223.07682,4216.410153,4259.487075,4194.871692,4287.692203,4238.461435
22,0,4262.051178,4228.717845,4197.948615,4273.333229,4185.640923,4202.564,4218.974256,4204.102461,4221.025538,4203.07682,4250.769127,4187.692205,4279.487075,4232.820409
23,0,4262.051178,4228.717845,4197.948615,4271.281947,4169.743488,4199.487077,4213.846051,4208.205025,4218.461435,4204.102461,4243.076819,4178.974257,4276.922972,4231.794768
24,0,4261.538357,4229.743486,4197.948615,4273.846049,4186.153744,4208.205025,4219.487076,4217.948615,4218.974256,4213.33323,4239.999896,4170.256308,4281.025536,4229.743486
25,0,4261.538357,4232.307589,4195.384513,4281.025536,4199.999897,4216.410153,4227.179384,4225.640922,4224.102461,4221.025538,4238.461435,4170.256308,4282.563998,4229.743486
26,0,4262.563998,4236.922973,4199.487077,4286.153741,4197.435795,4216.410153,4227.179384,4220.512717,4227.179384,4216.922974,4243.076819,4181.025539,4283.076818,4236.410153
27,0,4261.538357,4239.487076,4202.564,4287.179382,4205.640923,4214.358871,4219.999897,4211.794769,4222.563999,4205.640923,4246.153742,4187.692205,4283.076818,4239.487076
28,0,4263.076819,4239.487076,4202.564,4286.153741,4205.640923,4213.846051,4216.410153,4217.435794,4220.512717,4205.128102,4250.256306,4190.769128,4285.640921,4238.461435
29,0,4270.256306,4239.999896,4208.205025,4290.256305,4179.487077,4212.82041,4226.666563,4226.666563,4224.615281,4216.922974,4264.10246,4200.512718,4293.333228,4241.538358
30,0,4274.35887,4246.153742,4216.410153,4300.512715,4177.435795,4214.358871,4229.743486,4226.666563,4227.692204,4220.512717,4265.640921,4199.999897,4295.897331,4244.615281
31,0,4274.35887,4247.179383,4212.82041,4305.64092,4205.128102,4214.871692,4219.487076,4222.051179,4224.615281,4218.974256,4249.230665,4191.794769,4289.743485,4238.974255
32,0,4277.435793,4243.58964,4207.179384,4301.025536,4212.82041,4215.384512,4220.512717,4224.102461,4229.743486,4228.717845,4257.948614,4197.435795,4296.922972,4241.025537
33,0,4279.999895,4247.179383,4211.281948,4298.461433,4205.128102,4223.58964,4232.307589,4228.717845,4239.487076,4238.461435,4277.948613,4206.153743,4309.743484,4248.205024
34,0,4277.948613,4251.281947,4209.230666,4304.102459,4212.82041,4231.794768,4237.435794,4230.256307,4233.84605,4233.33323,4268.717844,4199.487077,4304.102459,4247.692204
35,0,4269.230665,4245.128101,4195.897333,4300.512715,4205.128102,4224.615281,4233.84605,4222.563999,4222.051179,4221.025538,4246.666563,4185.640923,4291.794767,4236.410153
36,0,4256.922973,4237.435794,4185.128103,4293.846049,4195.897333,4218.461435,4229.230666,4212.82041,4221.025538,4223.07682,4248.205024,4176.922975,4291.281946,4226.666563
37,0,4254.35887,4237.435794,4189.230667,4292.307587,4213.846051,4226.666563,4224.102461,4210.256307,4225.128102,4225.640922,4252.820409,4177.948616,4286.666562,4224.615281
38,0,4257.435793,4238.461435,4194.871692,4291.794767,4209.230666,4226.153743,4224.615281,4214.358871,4221.538358,4213.846051,4239.999896,4179.999898,4284.61528,4226.666563
39,0,4257.435793,4237.435794,4196.410154,4292.307587,4188.205026,4216.922974,4229.230666,4217.948615,4216.922974,4214.358871,4231.281948,4179.487077,4292.820408,4229.230666
40,0,4258.974255,4241.025537,4200.512718,4294.87169,4204.102461,4217.948615,4229.743486,4219.487076,4221.025538,4230.256307,4241.025537,4181.538359,4296.922972,4232.307589
41,0,4262.563998,4241.538358,4206.153743,4293.333228,4219.487076,4222.051179,4230.769127,4224.615281,4228.205025,4227.179384,4253.333229,4191.281949,4294.358869,4236.922973
42,0,4265.640921,4238.974255,4207.692205,4292.820408,4196.922974,4217.948615,4233.33323,4232.307589,4230.256307,4221.538358,4259.487075,4202.051179,4297.435792,4246.153742
43,0,4267.692203,4240.512717,4209.743487,4299.999895,4188.717846,4214.871692,4233.33323,4234.358871,4230.769127,4234.871691,4259.999896,4206.666564,4298.461433,4248.205024
44,0,4261.025537,4240.512717,4209.743487,4308.717843,4199.999897,4216.410153,4230.769127,4230.769127,4229.743486,4234.871691,4254.35887,4198.974256,4288.717844,4238.461435
45,0,4250.769127,4230.256307,4204.615282,4304.102459,4190.769128,4215.384512,4229.230666,4224.102461,4224.615281,4215.897333,4252.307588,4191.281949,4277.948613,4227.179384
46,0,4248.205024,4220.512717,4199.487077,4284.102459,4196.922974,4216.410153,4229.230666,4218.974256,4222.051179,4214.358871,4250.769127,4191.794769,4277.948613,4225.128102
47,0,4252.307588,4221.025538,4199.487077,4273.846049,4225.640922,4221.025538,4233.33323,4222.563999,4226.153743,4227.692204,4240.512717,4191.281949,4279.999895,4226.666563
48,0,4247.692204,4221.538358,4197.948615,4289.230664,4213.846051,4219.999897,4230.769127,4224.102461,4227.179384,4224.102461,4233.84605,4182.564,4274.87169,4226.153743
49,0,4245.640922,4226.666563,4198.974256,4298.461433,4184.102462,4215.384512,4222.051179,4219.487076,4223.58964,4212.82041,4239.999896,4182.564,4274.87169,4227.692204
50,0,4259.487075,4236.410153,4209.230666,4295.897331,4191.794769,4218.974256,4225.128102,4230.256307,4225.128102,4217.948615,4251.794768,4202.564,4283.076818,4239.487076
51,0,4266.666562,4234.358871,4214.871692,4299.999895,4213.33323,4224.102461,4233.84605,4245.640922,4234.871691,4229.230666,4263.076819,4216.922974,4286.666562,4247.179383
52,0,4252.820409,4220.512717,4203.589641,4291.281946,4218.461435,4219.999897,4226.153743,4234.871691,4236.410153,4228.205025,4261.025537,4206.666564,4278.974254,4234.358871
53,0,4241.025537,4211.794769,4191.794769,4271.281947,4190.256308,4213.33323,4215.897333,4218.461435,4225.128102,4222.051179,4246.153742,4186.153744,4271.794767,4222.563999
54,0,4239.487076,4210.256307,4193.333231,4267.692203,4161.025539,4211.794769,4216.410153,4217.948615,4218.974256,4221.538358,4233.33323,4174.358872,4264.61528,4218.974256
55,0,4230.256307,4205.128102,4191.794769,4268.717844,4185.128103,4212.82041,4216.410153,4215.897333,4217.435794,4216.922974,4224.615281,4169.230667,4250.256306,4208.205025
56,0,4224.102461,4201.538359,4188.205026,4262.563998,4213.33323,4211.281948,4215.897333,4209.743487,4210.769128,4201.025538,4218.974256,4169.230667,4239.999896,4199.487077
57,0,4236.922973,4208.717846,4199.487077,4274.87169,4198.461436,4211.281948,4216.922974,4218.974256,4214.358871,4204.615282,4227.692204,4181.025539,4253.84605,4213.33323
58,0,4239.999896,4209.743487,4205.640923,4283.076818,4189.230667,4213.33323,4213.846051,4222.563999,4223.07682,4216.922974,4230.256307,4188.717846,4263.076819,4219.487076
59,0,4230.256307,4203.07682,4195.384513,4269.230665,4199.487077,4213.33323,4214.358871,4208.717846,4217.435794,4211.281948,4223.07682,4179.487077,4255.384511,4206.666564
60,0,4234.871691,4208.205025,4200.512718,4266.153742,4193.846051,4211.794769,4217.435794,4204.102461,4214.358871,4207.692205,4227.692204,4177.948616,4258.461434,4209.743487
61,0,4248.205024,4219.487076,4215.384512,4279.999895,4188.717846,4211.281948,4216.922974,4214.871692,4224.102461,4221.025538,4246.153742,4193.333231,4274.87169,4231.281948
62,0,4251.794768,4214.871692,4216.922974,4285.640921,4192.82041,4209.743487,4215.384512,4216.410153,4228.205025,4224.102461,4250.769127,4199.487077,4275.384511,4233.84605
63,0,4251.794768,4207.179384,4215.384512,4281.538357,4199.487077,4207.179384,4215.384512,4209.743487,4221.538358,4212.82041,4235.384512,4191.281949,4265.128101,4223.58964
64,0,4254.871691,4213.33323,4217.948615,4279.999895,4205.128102,4210.256307,4216.922974,4210.256307,4220.512717,4212.307589,4226.153743,4189.743487,4262.563998,4227.179384
65,0,4248.205024,4214.871692,4213.846051,4276.410152,4192.82041,4211.794769,4213.846051,4208.717846,4219.999897,4210.256307,4232.820409,4188.717846,4260.512716,4229.230666
66,0,4246.153742,4207.179384,4210.256307,4269.230665,4188.717846,4210.769128,4211.281948,4202.051179,4219.487076,4206.153743,4237.948614,4188.717846,4263.589639,4226.666563
67,0,4256.410152,4208.205025,4216.410153,4265.640921,4192.30759,4211.794769,4216.410153,4206.153743,4226.666563,4222.051179,4238.461435,4196.922974,4271.794767,4235.384512
68,0,4256.410152,4210.256307,4215.897333,4269.230665,4168.205026,4202.051179,4213.33323,4211.794769,4226.666563,4226.153743,4241.538358,4195.897333,4268.717844,4236.922973
69,0,4243.076819,4204.102461,4207.179384,4267.179383,4163.076821,4193.333231,4201.025538,4202.564,4217.435794,4204.102461,4240.512717,4183.589641,4260.512716,4222.563999
70,0,4245.128101,4205.640923,4207.692205,4263.076819,4199.487077,4205.128102,4202.564,4201.025538,4218.461435,4207.692205,4239.999896,4184.615282,4265.128101,4224.615281
71,0,4255.897332,4215.897333,4213.33323,4269.230665,4211.281948,4219.999897,4217.435794,4214.358871,4225.640922,4234.358871,4240.512717,4190.256308,4264.61528,4232.820409
72,0,4256.922973,4227.179384,4212.82041,4273.846049,4193.333231,4220.512717,4224.615281,4224.615281,4228.717845,4236.922973,4242.051178,4190.769128,4264.61528,4233.84605
73,0,4249.743486,4232.820409,4210.769128,4268.205024,4188.717846,4217.948615,4217.435794,4224.615281,4233.33323,4222.563999,4242.051178,4189.230667,4264.61528,4232.820409
74,0,4242.563999,4232.820409,4210.256307,4259.999896,4173.333231,4214.358871,4202.051179,4220.512717,4229.230666,4218.461435,4239.999896,4184.615282,4247.692204,4225.640922
75,0,4243.076819,4239.487076,4218.974256,4259.999896,4155.897334,4209.743487,4203.07682,4224.615281,4222.051179,4218.974256,4248.717845,4191.281949,4246.666563,4226.666563
76,0,4252.820409,4255.384511,4231.281948,4269.743485,4181.538359,4212.82041,4217.948615,4233.84605,4227.692204,4221.025538,4268.205024,4209.743487,4266.666562,4240.512717
77,0,4250.769127,4254.871691,4228.205025,4268.717844,4196.922974,4214.358871,4212.307589,4223.07682,4227.692204,4220.512717,4257.948614,4205.640923,4251.281947,4234.358871
78,0,4241.025537,4248.717845,4214.358871,4262.051178,4173.846052,4208.717846,4195.897333,4203.07682,4216.922974,4211.281948,4233.33323,4191.281949,4227.692204,4218.461435
79,0,4248.717845,4261.538357,4217.435794,4266.666562,4166.153744,4211.281948,4197.948615,4204.615282,4220.512717,4206.666564,4253.84605,4198.974256,4239.487076,4228.205025
80,0,4252.307588,4267.692203,4222.563999,4269.230665,4171.79477,4215.897333,4204.102461,4210.256307,4222.563999,4207.692205,4271.794767,4203.07682,4244.10246,4237.948614
81,0,4235.897332,4246.666563,4208.205025,4254.871691,4154.358873,4213.33323,4198.461436,4198.461436,4206.153743,4197.435795,4229.743486,4183.589641,4218.461435,4218.974256
82,0,4231.794768,4237.948614,4199.487077,4250.256306,4144.102463,4212.82041,4196.410154,4201.025538,4204.102461,4196.410154,4214.871692,4179.999898,4219.999897,4210.256307
83,0,4249.230665,4254.871691,4216.410153,4260.512716,4167.179385,4216.922974,4207.179384,4227.179384,4224.615281,4218.461435,4261.025537,4201.538359,4249.230665,4231.281948
84,0,4257.435793,4259.487075,4232.307589,4257.948614,4173.846052,4214.871692,4217.435794,4238.461435,4234.358871,4231.794768,4275.384511,4215.897333,4253.333229,4244.10246
85,0,4249.743486,4247.179383,4228.717845,4246.666563,4156.410155,4209.230666,4217.948615,4227.692204,4228.205025,4216.410153,4246.666563,4209.743487,4234.871691,4229.230666
86,0,4243.58964,4250.256306,4219.999897,4251.794768,4164.102462,4212.307589,4217.435794,4222.051179,4225.128102,4208.717846,4234.871691,4198.461436,4227.692204,4217.435794
87,0,4246.153742,4262.051178,4219.487076,4261.025537,4183.589641,4219.487076,4219.487076,4224.615281,4226.153743,4215.384512,4251.794768,4201.025538,4233.33323,4226.666563
88,0,4249.743486,4257.435793,4222.563999,4252.307588,4181.025539,4220.512717,4218.461435,4223.07682,4225.128102,4208.205025,4267.179383,4210.256307,4231.794768,4233.33323
89,0,4246.666563,4247.692204,4221.538358,4252.820409,4167.692206,4217.435794,4217.948615,4221.025538,4224.102461,4206.153743,4252.820409,4206.666564,4225.128102,4225.640922
90,0,4242.051178,4248.205024,4219.999897,4263.076819,4148.717847,4212.82041,4216.922974,4219.999897,4224.102461,4221.025538,4229.743486,4201.538359,4221.538358,4217.435794
91,0,4242.563999,4256.922973,4217.948615,4250.769127,4152.307591,4211.281948,4211.794769,4218.974256,4222.051179,4225.640922,4238.974255,4206.666564,4224.102461,4219.999897
92,0,4245.128101,4265.128101,4216.922974,4241.025537,4193.333231,4216.922974,4214.871692,4219.999897,4223.07682,4215.384512,4248.205024,4207.179384,4225.640922,4222.563999
93,0,4247.179383,4267.179383,4214.358871,4254.871691,4208.717846,4221.538358,4223.58964,4224.102461,4225.128102,4216.922974,4239.487076,4203.07682,4224.102461,4222.563999
94,0,4247.179383,4262.051178,4216.410153,4253.333229,4190.256308,4217.435794,4222.051179,4222.563999,4224.102461,4227.179384,4241.025537,4202.564,4222.563999,4221.025538
95,0,4246.153742,4260.512716,4218.461435,4238.461435,4190.769128,4214.871692,4215.384512,4223.58964,4225.128102,4223.07682,4241.025537,4201.025538,4222.563999,4219.487076
96,0,4248.717845,4263.589639,4219.999897,4241.025537,4192.82041,4215.897333,4217.948615,4233.33323,4231.281948,4215.897333,4249.230665,4204.102461,4218.461435,4221.538358
97,0,4247.179383,4259.487075,4216.922974,4244.10246,4185.640923,4211.794769,4225.128102,4233.84605,4231.794768,4223.07682,4257.948614,4203.589641,4212.307589,4221.538358
98,0,4239.487076,4243.58964,4209.743487,4238.461435,4187.692205,4207.692205,4219.999897,4215.897333,4222.051179,4217.948615,4228.205025,4189.230667,4203.07682,4210.256307
99,0,4236.410153,4240.512717,4208.717846,4242.051178,4180.512718,4207.179384,4214.358871,4211.794769,4217.435794,4205.128102,4210.769128,4187.692205,4203.589641,4205.128102
100,0,4242.563999,4248.717845,4216.410153,4248.205024,4179.999898,4210.769128,4219.487076,4231.794768,4224.615281,4221.025538,4236.922973,4206.666564,4217.435794,4216.410153
101,0,4241.025537,4242.051178,4212.307589,4240.512717,4193.333231,4212.307589,4220.512717,4234.358871,4224.615281,4233.84605,4234.358871,4205.128102,4217.435794,4218.461435
102,0,4235.897332,4230.256307,4205.128102,4231.281948,4193.846051,4205.640923,4215.384512,4221.538358,4219.487076,4218.974256,4204.615282,4186.666564,4205.128102,4206.666564
103,0,4234.871691,4233.84605,4209.230666,4226.153743,4201.025538,4200.512718,4216.410153,4217.948615,4219.999897,4214.871692,4223.07682,4190.769128,4203.589641,4206.666564
104,0,4235.384512,4243.58964,4212.307589,4226.666563,4212.82041,4202.564,4217.948615,4221.025538,4225.640922,4230.769127,4248.717845,4202.564,4212.307589,4211.281948
105,0,4227.692204,4238.461435,4204.102461,4234.358871,4192.30759,4199.999897,4209.743487,4216.410153,4221.025538,4227.692204,4222.051179,4191.281949,4203.589641,4198.461436
106,0,4219.487076,4227.179384,4201.025538,4234.871691,4174.358872,4197.435795,4208.717846,4211.794769,4211.794769,4213.33323,4206.153743,4177.435795,4183.589641,4184.615282
107,0,4222.563999,4219.999897,4210.769128,4229.230666,4209.230666,4209.743487,4223.58964,4219.487076,4217.948615,4214.358871,4236.922973,4189.743487,4192.30759,4193.846051
108,0,4237.435794,4230.769127,4218.461435,4242.563999,4233.84605,4219.487076,4233.33323,4236.922973,4229.743486,4234.871691,4258.974255,4210.256307,4216.922974,4212.82041
109,0,4241.025537,4243.076819,4215.384512,4254.871691,4186.153744,4207.692205,4222.563999,4237.948614,4226.666563,4236.410153,4239.999896,4204.102461,4204.102461,4207.692205
110,0,4223.07682,4222.051179,4202.564,4237.948614,4158.461437,4193.846051,4209.743487,4221.025538,4216.410153,4202.051179,4228.205025,4186.666564,4171.79477,4189.743487
111,0,4215.384512,4202.564,4203.07682,4215.897333,4219.487076,4201.538359,4217.948615,4222.051179,4217.435794,4200.512718,4210.256307,4189.230667,4178.974257,4188.717846
112,0,4235.384512,4232.307589,4217.948615,4223.07682,4273.846049,4221.538358,4235.384512,4244.615281,4228.205025,4250.256306,4187.692205,4203.07682,4212.82041,4209.230666
113,0,4247.692204,4258.461434,4223.58964,4232.307589,4241.538358,4224.102461,4234.871691,4252.307588,4243.076819,4261.025537,4234.358871,4210.769128,4208.205025,4220.512717
114,0,4228.717845,4228.717845,4208.717846,4227.692204,4193.333231,4207.692205,4217.435794,4229.743486,4230.769127,4222.563999,4255.384511,4198.461436,4178.461436,4198.461436
115,0,4215.897333,4198.461436,4204.102461,4231.281948,4199.487077,4201.538359,4212.82041,4211.281948,4207.179384,4210.256307,4188.717846,4182.564,4166.666565,4178.974257
116,0,4236.410153,4222.563999,4216.410153,4235.897332,4238.974255,4214.871692,4227.179384,4231.281948,4219.999897,4228.205025,4184.615282,4198.974256,4181.538359,4202.051179
117,0,4252.307588,4250.256306,4222.051179,4230.769127,4267.179383,4226.666563,4240.512717,4254.871691,4243.076819,4236.410153,4243.58964,4227.179384,4202.564,4227.179384
118,0,4235.384512,4237.948614,4212.82041,4224.615281,4237.435794,4214.358871,4233.84605,4246.153742,4231.794768,4232.307589,4214.358871,4216.410153,4198.974256,4208.717846
119,0,4219.487076,4218.461435,4205.640923,4225.128102,4190.256308,4199.487077,4220.512717,4233.33323,4218.974256,4229.743486,4182.05118,4193.846051,4179.487077,4189.743487
120,0,4226.666563,4223.07682,4209.230666,4227.179384,4208.717846,4204.102461,4222.051179,4238.974255,4230.256307,4222.051179,4245.640922,4207.692205,4167.692206,4205.128102
121,0,4237.435794,4231.794768,4214.358871,4226.153743,4252.820409,4215.897333,4231.794768,4244.615281,4238.461435,4218.974256,4245.640922,4224.102461,4174.871693,4215.897333
122,0,4238.974255,4231.794768,4212.82041,4227.692204,4248.205024,4217.435794,4231.794768,4245.128101,4235.384512,4233.84605,4183.589641,4214.358871,4195.384513,4208.205025
123,0,4236.410153,4234.358871,4209.230666,4232.307589,4218.461435,4213.33323,4230.769127,4242.563999,4229.743486,4241.538358,4189.230667,4203.589641,4207.692205,4204.102461
124,0,4228.717845,4224.102461,4207.692205,4223.58964,4219.487076,4207.179384,4227.692204,4225.640922,4222.563999,4225.128102,4219.999897,4206.666564,4181.538359,4201.538359
125,0,4223.58964,4208.205025,4210.769128,4211.794769,4241.025537,4202.051179,4217.948615,4211.281948,4218.461435,4209.230666,4210.769128,4212.307589,4154.358873,4194.871692
126,0,4232.307589,4218.461435,4222.051179,4231.794768,4255.384511,4207.692205,4222.051179,4215.897333,4220.512717,4215.897333,4193.333231,4214.358871,4184.102462,4197.948615
127,0,4239.487076,4235.897332,4230.769127,4249.230665,4258.974255,4216.922974,4233.84605,4227.692204,4229.743486,4230.256307,4216.410153,4222.563999,4203.589641,4210.256307
128,0,4224.615281,4216.922974,4219.487076,4217.435794,4244.615281,4211.794769,4223.58964,4225.128102,4228.205025,4224.102461,4218.461435,4221.538358,4170.769129,4200.512718
0,0,4211.794769,4197.948615,4207.179384,4203.07682,4230.769127,4201.538359,4211.794769,4218.461435,4216.922974,4206.153743,4182.564,4205.128102,4152.307591,4185.128103
1,0,4226.666563,4217.948615,4217.948615,4236.410153,4225.640922,4201.025538,4225.128102,4225.640922,4218.974256,4205.128102,4169.230667,4207.179384,4172.30759,4194.871692
2,0,4235.897332,4230.256307,4224.615281,4238.974255,4224.102461,4204.615282,4230.256307,4230.256307,4222.051179,4213.33323,4187.692205,4213.846051,4184.615282,4203.589641
3,0,4221.025538,4211.794769,4216.410153,4203.589641,4243.58964,4203.07682,4219.999897,4224.615281,4216.410153,4205.128102,4194.871692,4209.230666,4166.153744,4189.743487
4,0,4222.563999,4216.922974,4216.922974,4206.666564,4268.717844,4203.589641,4222.051179,4231.794768,4219.999897,4204.102461,4179.487077,4213.846051,4171.281949,4193.333231
5,0,4236.922973,4237.435794,4223.58964,4236.922973,4258.974255,4202.564,4223.07682,4239.487076,4226.666563,4208.205025,4207.179384,4223.07682,4196.410154,4207.692205
6,0,4229.230666,4230.256307,4218.974256,4230.256307,4237.948614,4199.487077,4214.871692,4235.897332,4227.692204,4205.640923,4240.512717,4220.512717,4174.871693,4198.974256
7,0,4211.281948,4211.281948,4211.794769,4203.07682,4242.051178,4197.948615,4214.358871,4231.794768,4226.666563,4209.743487,4186.153744,4206.153743,4140.512719,4176.410154
8,0,4211.281948,4212.307589,4213.846051,4206.666564,4245.128101,4198.974256,4217.948615,4231.794768,4222.563999,4215.384512,4152.307591,4197.948615,4169.230667,4176.410154
9,0,4221.025538,4219.487076,4218.974256,4222.051179,4247.692204,4199.487077,4216.922974,4230.256307,4226.153743,4215.384512,4204.615282,4207.692205,4198.974256,4193.846051
10,0,4216.922974,4217.435794,4218.974256,4209.743487,4265.640921,4202.051179,4213.846051,4225.640922,4233.84605,4212.82041,4203.07682,4214.871692,4169.230667,4194.358872
11,0,4209.743487,4214.358871,4215.384512,4193.846051,4257.948614,4204.615282,4211.794769,4226.153743,4227.692204,4207.692205,4152.820411,4204.102461,4156.922975,4182.564
12,0,4207.692205,4203.07682,4211.281948,4196.922974,4219.487076,4197.948615,4209.743487,4221.538358,4212.82041,4198.974256,4171.281949,4194.358872,4170.769129,4178.974257
13,0,4204.615282,4192.30759,4209.230666,4198.461436,4219.999897,4193.333231,4210.256307,4215.384512,4205.640923,4183.076821,4174.358872,4198.974256,4171.281949,4182.564
14,0,4209.743487,4206.666564,4215.384512,4201.538359,4247.692204,4199.999897,4212.82041,4226.153743,4214.871692,4177.948616,4167.692206,4214.358871,4169.230667,4190.769128
15,0,4222.563999,4229.743486,4221.025538,4217.948615,4237.435794,4205.128102,4212.307589,4242.051178,4227.692204,4201.538359,4214.871692,4232.307589,4163.076821,4203.07682
16,0,4222.051179,4224.102461,4219.999897,4217.948615,4221.538358,4201.538359,4209.743487,4231.794768,4219.999897,4216.922974,4188.205026,4222.563999,4151.79477,4194.358872
17,0,4208.205025,4206.153743,4216.410153,4199.487077,4232.820409,4199.999897,4208.717846,4215.897333,4208.205025,4198.461436,4152.820411,4205.640923,4159.999898,4180.512718
18,0,4201.538359,4202.051179,4216.410153,4200.512718,4245.640922,4201.025538,4214.871692,4217.948615,4218.461435,4184.102462,4190.769128,4213.846051,4176.410154,4184.615282
19,0,4203.07682,4210.256307,4215.384512,4209.230666,4247.179383,4200.512718,4215.384512,4218.974256,4222.051179,4194.358872,4186.666564,4212.307589,4164.615283,4188.717846
28,0,4199.487077,4204.615282,4212.82041,4193.333231,4197.948615,4193.846051,4197.948615,4200.512718,4204.615282,4178.974257,4207.692205,4190.769128,4153.333232,4181.025539
29,0,4203.589641,4212.307589,4218.974256,4205.640923,4253.84605,4199.999897,4210.769128,4211.281948,4210.256307,4197.435795,4215.384512,4193.846051,4160.512719,4182.564
30,0,4198.974256,4209.230666,4221.025538,4207.179384,4277.948613,4201.538359,4215.384512,4219.999897,4219.487076,4207.179384,4202.051179,4194.358872,4167.692206,4176.922975
31,0,4204.102461,4206.153743,4226.666563,4209.743487,4252.307588,4201.025538,4210.256307,4227.179384,4226.153743,4201.538359,4210.769128,4202.564,4157.435796,4183.589641
32,0,4215.897333,4222.051179,4232.820409,4222.563999,4217.948615,4200.512718,4207.179384,4234.358871,4227.692204,4198.461436,4244.615281,4215.384512,4146.153745,4199.487077
33,0,4211.281948,4228.205025,4226.153743,4215.384512,4216.410153,4198.974256,4209.230666,4230.769127,4218.461435,4190.256308,4223.58964,4205.128102,4151.28195,4190.256308
34,0,4199.487077,4214.871692,4217.948615,4202.564,4249.230665,4204.615282,4213.33323,4222.051179,4210.769128,4188.717846,4173.333231,4187.692205,4152.820411,4173.846052
35,0,4204.102461,4219.999897,4225.640922,4207.179384,4276.922972,4214.358871,4219.487076,4227.179384,4216.922974,4202.564,4201.025538,4198.461436,4151.28195,4186.666564
36,0,4207.692205,4241.025537,4228.205025,4206.666564,4268.205024,4210.769128,4216.922974,4233.84605,4219.487076,4205.128102,4245.128101,4209.743487,4157.435796,4203.07682
37,0,4192.30759,4235.897332,4216.410153,4189.743487,4227.692204,4197.948615,4202.051179,4215.897333,4204.102461,4186.153744,4202.564,4190.256308,4144.615283,4181.025539
38,0,4180.512718,4224.102461,4209.743487,4184.102462,4210.769128,4195.897333,4197.435795,4196.410154,4194.358872,4175.384513,4186.153744,4178.461436,4120.51272,4159.999898
39,0,4182.564,4229.743486,4214.358871,4187.179385,4237.435794,4203.589641,4209.743487,4197.948615,4201.538359,4174.871693,4218.974256,4187.179385,4110.76913,4167.692206
40,0,4183.589641,4237.948614,4217.435794,4190.769128,4249.230665,4204.615282,4214.358871,4212.307589,4207.692205,4185.128103,4203.589641,4185.640923,4113.333233,4171.79477
41,0,4181.025539,4242.563999,4217.435794,4194.358872,4227.692204,4204.102461,4204.615282,4219.487076,4206.666564,4190.256308,4182.05118,4176.410154,4115.897335,4161.53836
42,0,4184.102462,4248.205024,4216.410153,4186.666564,4225.128102,4209.230666,4199.999897,4223.07682,4209.743487,4181.025539,4222.563999,4182.564,4118.461438,4166.666565
43,0,4193.333231,4249.230665,4220.512717,4185.128103,4232.820409,4211.281948,4205.640923,4226.153743,4219.487076,4182.564,4263.076819,4198.974256,4121.538361,4187.179385
44,0,4193.333231,4252.820409,4218.974256,4192.82041,4224.102461,4205.128102,4203.589641,4224.615281,4218.461435,4197.948615,4242.051178,4193.333231,4125.128104,4186.153744
45,0,4190.256308,4262.563998,4213.33323,4195.384513,4235.384512,4209.743487,4201.538359,4232.307589,4218.974256,4210.256307,4232.820409,4184.102462,4127.179386,4181.025539
46,0,4191.794769,4265.128101,4214.871692,4189.230667,4243.58964,4219.999897,4209.743487,4242.051178,4227.179384,4211.794769,4256.922973,4189.743487,4129.230668,4189.230667
47,0,4189.743487,4252.307588,4217.435794,4181.538359,4231.794768,4216.410153,4214.871692,4233.33323,4219.999897,4196.410154,4244.615281,4191.281949,4126.153745,4187.179385
48,0,4182.564,4239.487076,4212.307589,4186.666564,4242.563999,4212.82041,4214.871692,4218.974256,4207.692205,4172.820411,4218.461435,4183.589641,4108.717848,4171.281949
49,0,4178.974257,4241.538358,4208.205025,4189.743487,4242.051178,4217.435794,4216.922974,4222.051179,4206.153743,4166.666565,4228.205025,4182.05118,4098.974259,4166.153744
50,0,4182.05118,4254.871691,4211.281948,4185.640923,4215.384512,4215.384512,4218.974256,4232.307589,4208.205025,4184.102462,4246.153742,4187.179385,4111.794771,4172.820411
51,0,4185.128103,4256.410152,4214.358871,4186.666564,4215.384512,4207.179384,4215.897333,4227.179384,4209.230666,4194.358872,4234.871691,4187.179385,4110.76913,4172.30759
52,0,4185.640923,4241.538358,4214.871692,4185.128103,4237.435794,4206.153743,4215.384512,4216.410153,4209.743487,4190.769128,4221.538358,4184.102462,4104.102464,4169.743488
53,0,4185.128103,4236.922973,4214.871692,4177.435795,4242.563999,4214.358871,4219.487076,4219.487076,4210.769128,4191.281949,4230.769127,4186.666564,4121.02554,4175.897334
54,0,4185.128103,4245.128101,4213.846051,4175.384513,4228.205025,4215.384512,4215.897333,4226.666563,4216.922974,4196.410154,4243.076819,4186.153744,4136.922976,4178.461436
55,0,4191.794769,4254.871691,4215.897333,4187.179385,4203.589641,4208.205025,4212.307589,4226.153743,4224.102461,4207.179384,4261.538357,4186.666564,4138.461437,4182.05118
56,0,4194.358872,4258.974255,4218.461435,4196.410154,4198.974256,4208.205025,4216.922974,4225.640922,4221.538358,4209.743487,4255.897332,4187.179385,4144.102463,4186.666564
57,0,4184.102462,4252.820409,4210.256307,4188.205026,4238.461435,4216.922974,4220.512717,4224.615281,4215.897333,4198.974256,4248.717845,4185.128103,4142.051181,4180.512718
58,0,4168.717847,4236.922973,4198.974256,4162.564001,4247.692204,4214.871692,4216.922974,4214.871692,4213.846051,4185.128103,4268.717844,4182.05118,4117.435797,4166.666565
59,0,4167.179385,4233.84605,4198.974256,4158.974257,4204.102461,4204.615282,4212.82041,4212.307589,4210.256307,4188.205026,4259.487075,4178.974257,4111.281951,4162.05118
60,0,4181.025539,4248.205024,4206.153743,4182.05118,4198.461436,4210.769128,4219.999897,4223.58964,4208.717846,4190.769128,4217.948615,4183.589641,4120.51272,4164.615283
61,0,4179.999898,4244.10246,4202.051179,4181.025539,4228.717845,4221.538358,4227.692204,4224.615281,4207.179384,4175.897334,4207.179384,4183.076821,4116.922976,4163.589642
62,0,4168.717847,4224.102461,4196.410154,4162.05118,4233.33323,4218.461435,4227.179384,4215.897333,4206.666564,4177.435795,4241.025537,4175.384513,4113.333233,4161.025539
63,0,4168.205026,4223.07682,4201.538359,4168.717847,4219.999897,4215.897333,4225.128102,4218.461435,4209.230666,4201.025538,4255.384511,4172.30759,4117.435797,4160.512719
64,0,4175.897334,4229.230666,4205.640923,4186.666564,4204.615282,4215.897333,4226.666563,4226.153743,4208.205025,4202.051179,4226.666563,4174.871693,4122.564002,4161.53836
65,0,4176.922975,4230.256307,4204.102461,4181.538359,4198.461436,4215.897333,4230.256307,4229.743486,4208.717846,4188.717846,4231.281948,4185.640923,4123.076822,4169.743488
66,0,4184.102462,4242.563999,4212.82041,4174.871693,4224.102461,4218.461435,4229.230666,4235.897332,4221.538358,4207.692205,4281.025536,4201.538359,4132.820412,4184.615282
67,0,4196.410154,4251.281947,4225.128102,4187.692205,4249.743486,4219.487076,4223.07682,4237.435794,4230.256307,4230.769127,4283.076818,4207.692205,4146.666565,4192.30759
68,0,4195.897333,4244.615281,4225.640922,4196.922974,4235.897332,4215.897333,4223.58964,4232.307589,4225.128102,4217.948615,4248.717845,4205.640923,4148.717847,4188.205026
69,0,4182.564,4239.487076,4216.410153,4184.615282,4204.615282,4215.897333,4231.794768,4231.794768,4218.974256,4194.358872,4243.076819,4199.487077,4136.922976,4175.897334
70,0,4167.179385,4231.281948,4204.615282,4169.230667,4204.102461,4216.410153,4232.307589,4227.179384,4211.281948,4192.82041,4240.512717,4184.615282,4122.051181,4163.076821
71,0,4162.05118,4216.922974,4197.948615,4169.230667,4219.487076,4213.33323,4227.692204,4215.897333,4204.615282,4197.435795,4231.794768,4175.897334,4118.461438,4156.922975
72,0,4163.589642,4220.512717,4197.435795,4182.564,4219.999897,4214.871692,4231.794768,4215.897333,4206.153743,4193.846051,4222.563999,4175.384513,4126.153745,4156.410155
73,0,4162.05118,4228.717845,4195.384513,4181.538359,4228.717845,4219.487076,4234.871691,4221.538358,4207.179384,4194.358872,4219.487076,4169.230667,4121.538361,4153.333232
74,0,4162.564001,4223.58964,4194.871692,4160.512719,4232.307589,4219.999897,4234.871691,4224.615281,4208.717846,4204.102461,4254.35887,4173.333231,4119.999899,4159.487078
75,0,4169.230667,4224.102461,4205.128102,4159.999898,4212.307589,4214.871692,4234.871691,4224.102461,4216.922974,4212.307589,4279.999895,4190.769128,4133.846053,4171.281949
76,0,4178.461436,4237.948614,4215.897333,4184.615282,4208.205025,4215.897333,4230.769127,4229.743486,4221.538358,4220.512717,4262.051178,4201.025538,4141.53836,4176.922975
77,0,4187.692205,4248.205024,4221.025538,4191.794769,4237.435794,4225.640922,4232.820409,4244.10246,4225.128102,4235.384512,4247.692204,4202.564,4153.333232,4184.615282
78,0,4194.871692,4252.307588,4221.538358,4179.999898,4250.256306,4228.205025,4240.512717,4252.307588,4234.358871,4243.076819,4258.974255,4206.666564,4175.897334,4198.461436
79,0,4193.333231,4249.230665,4219.999897,4171.79477,4237.948614,4226.153743,4240.512717,4244.10246,4234.871691,4234.358871,4255.384511,4203.07682,4165.640924,4195.897333
80,0,4184.615282,4238.461435,4213.33323,4179.999898,4232.307589,4227.692204,4234.358871,4227.692204,4220.512717,4219.487076,4248.717845,4189.230667,4140.512719,4176.410154
81,0,4177.435795,4233.33323,4205.128102,4186.666564,4221.025538,4222.563999,4230.769127,4217.948615,4211.281948,4213.33323,4249.743486,4184.102462,4142.051181,4168.205026
82,0,4173.846052,4234.358871,4201.538359,4175.384513,4207.692205,4213.846051,4230.769127,4217.435794,4212.307589,4221.025538,4229.743486,4183.076821,4148.717847,4169.743488
83,0,4172.30759,4225.640922,4200.512718,4158.461437,4214.358871,4213.846051,4231.794768,4220.512717,4214.358871,4223.58964,4215.384512,4173.846052,4142.051181,4166.666565
84,0,4168.717847,4219.999897,4194.871692,4162.05118,4229.743486,4218.461435,4232.307589,4221.025538,4213.33323,4209.230666,4224.102461,4169.743488,4140.512719,4163.589642
85,0,4169.743488,4228.205025,4192.30759,4171.281949,4233.33323,4219.487076,4231.794768,4223.58964,4216.410153,4198.461436,4244.10246,4183.589641,4147.692206,4169.230667
86,0,4171.79477,4226.153743,4196.410154,4175.897334,4219.999897,4216.922974,4231.281948,4225.128102,4222.051179,4209.230666,4247.179383,4188.717846,4153.846052,4174.358872
87,0,4177.948616,4226.666563,4204.102461,4190.769128,4203.589641,4212.82041,4230.769127,4228.205025,4226.666563,4227.692204,4242.563999,4185.640923,4155.384514,4177.435795
88,0,4185.128103,4238.974255,4216.410153,4190.256308,4205.128102,4215.384512,4231.281948,4235.897332,4228.717845,4230.769127,4259.999896,4195.384513,4151.79477,4183.589641
89,0,4187.692205,4238.974255,4219.487076,4179.487077,4230.256307,4219.487076,4232.820409,4242.051178,4230.256307,4227.692204,4272.307588,4202.564,4161.025539,4189.743487
90,0,4186.666564,4234.358871,4215.384512,4189.743487,4251.794768,4218.461435,4231.281948,4238.461435,4234.358871,4229.743486,4259.999896,4202.564,4175.384513,4193.846051
91,0,4183.589641,4242.563999,4212.307589,4193.333231,4239.487076,4216.410153,4229.230666,4231.281948,4230.769127,4232.307589,4235.897332,4195.384513,4172.820411,4187.692205
92,0,4177.435795,4231.794768,4210.256307,4176.410154,4212.82041,4214.358871,4229.230666,4222.563999,4218.974256,4219.999897,4243.076819,4185.640923,4156.410155,4174.871693
93,0,4176.410154,4218.974256,4211.794769,4176.410154,4224.102461,4218.461435,4233.84605,4218.461435,4216.922974,4216.922974,4264.61528,4186.153744,4154.358873,4176.922975
94,0,4178.461436,4229.743486,4215.897333,4184.102462,4240.512717,4215.897333,4229.743486,4211.281948,4221.025538,4229.230666,4240.512717,4188.205026,4165.128103,4180.512718
95,0,4173.846052,4224.102461,4207.179384,4174.358872,4220.512717,4203.589641,4214.871692,4197.948615,4212.82041,4227.179384,4225.128102,4179.999898,4166.666565,4174.871693
96,0,4177.948616,4214.871692,4204.615282,4175.384513,4202.564,4205.640923,4216.922974,4204.102461,4212.307589,4219.487076,4251.794768,4185.128103,4168.717847,4178.974257
97,0,4191.281949,4235.384512,4215.897333,4192.82041,4210.256307,4216.410153,4231.281948,4220.512717,4225.128102,4231.281948,4256.922973,4196.922974,4180.512718,4192.30759
98,0,4190.256308,4241.538358,4217.435794,4191.281949,4227.179384,4212.82041,4229.230666,4215.384512,4225.640922,4237.435794,4233.84605,4190.769128,4183.076821,4191.281949
99,0,4181.538359,4224.615281,4212.82041,4176.922975,4236.922973,4209.743487,4223.07682,4206.666564,4217.435794,4230.256307,4232.820409,4180.512718,4181.538359,4181.025539
100,0,4184.102462,4227.692204,4217.948615,4173.846052,4232.307589,4216.922974,4230.769127,4213.846051,4219.999897,4240.512717,4247.692204,4186.153744,4185.128103,4182.564
101,0,4189.230667,4238.461435,4223.07682,4186.666564,4215.384512,4217.948615,4234.358871,4221.025538,4225.128102,4245.640922,4253.84605,4196.922974,4183.589641,4189.230667
102,0,4190.256308,4230.769127,4227.692204,4192.30759,4227.692204,4215.384512,4234.358871,4221.538358,4222.051179,4234.358871,4252.307588,4199.487077,4179.487077,4190.769128
103,0,4188.205026,4223.58964,4228.205025,4182.05118,4248.717845,4216.410153,4236.410153,4221.538358,4219.999897,4232.820409,4226.153743,4189.743487,4183.076821,4186.666564
104,0,4186.666564,4225.128102,4217.948615,4172.820411,4236.410153,4215.897333,4230.769127,4217.435794,4219.999897,4234.358871,4224.102461,4181.538359,4189.743487,4183.589641
105,0,4188.205026,4228.717845,4212.82041,4174.871693,4222.563999,4216.410153,4230.256307,4219.999897,4226.153743,4234.871691,4259.487075,4191.794769,4187.692205,4189.230667
106,0,4191.281949,4234.871691,4219.487076,4192.30759,4214.871692,4216.410153,4230.769127,4225.128102,4231.794768,4245.640922,4263.076819,4198.461436,4181.025539,4194.358872
107,0,4191.794769,4232.307589,4221.538358,4196.922974,4206.666564,4214.358871,4221.025538,4216.922974,4228.717845,4253.84605,4241.025537,4189.743487,4188.717846,4191.281949
108,0,4197.435795,4227.692204,4217.435794,4177.435795,4221.025538,4214.871692,4219.999897,4214.358871,4226.666563,4258.461434,4245.640922,4191.281949,4206.153743,4194.871692
109,0,4202.051179,4225.640922,4221.538358,4172.820411,4246.666563,4217.435794,4226.153743,4217.948615,4227.692204,4255.897332,4245.128101,4199.999897,4207.179384,4203.589641
110,0,4195.384513,4223.58964,4223.07682,4183.589641,4245.640922,4215.897333,4222.051179,4214.871692,4223.07682,4237.435794,4224.102461,4195.897333,4193.333231,4202.051179
111,0,4185.128103,4216.922974,4216.410153,4172.820411,4223.07682,4211.794769,4216.922974,4205.128102,4214.871692,4226.153743,4211.794769,4184.615282,4182.05118,4188.205026
112,0,4178.974257,4212.82041,4211.794769,4163.076821,4207.692205,4212.82041,4216.410153,4198.974256,4208.717846,4235.897332,4219.487076,4183.076821,4182.564,4186.666564
113,0,4176.410154,4211.794769,4213.846051,4175.897334,4214.358871,4216.410153,4216.922974,4197.948615,4206.666564,4232.307589,4219.999897,4184.615282,4183.076821,4189.743487
114,0,4181.025539,4212.82041,4216.410153,4183.589641,4235.897332,4219.487076,4222.051179,4204.615282,4211.794769,4224.102461,4233.84605,4188.717846,4187.179385,4194.358872
115,0,4189.743487,4213.33323,4220.512717,4177.435795,4244.10246,4222.563999,4223.07682,4209.230666,4218.974256,4238.974255,4263.076819,4198.461436,4199.487077,4202.564
116,0,4189.230667,4209.743487,4221.025538,4174.871693,4229.230666,4219.999897,4212.82041,4201.025538,4215.897333,4250.769127,4258.461434,4198.461436,4204.102461,4205.128102
117,0,4188.205026,4212.82041,4217.435794,4182.05118,4210.769128,4216.922974,4209.230666,4194.871692,4214.871692,4239.999896,4228.717845,4188.717846,4194.358872,4202.051179
118,0,4191.281949,4219.999897,4219.487076,4190.256308,4219.487076,4224.615281,4216.410153,4199.487077,4217.435794,4235.897332,4224.615281,4185.128103,4193.846051,4201.538359
119,0,4185.128103,4214.358871,4219.999897,4178.974257,4249.743486,4231.281948,4218.461435,4207.692205,4214.871692,4248.205024,4215.897333,4182.564,4200.512718,4197.948615
120,0,4173.333231,4204.615282,4208.717846,4162.05118,4252.307588,4223.07682,4212.82041,4205.640923,4210.256307,4246.153742,4186.153744,4170.769129,4186.153744,4183.076821
121,0,4172.820411,4202.564,4205.128102,4161.025539,4227.692204,4212.82041,4213.33323,4196.922974,4210.769128,4234.871691,4207.692205,4170.256308,4178.461436,4178.974257
122,0,4179.999898,4202.564,4210.769128,4160.512719,4234.358871,4211.281948,4217.948615,4192.30759,4211.794769,4234.358871,4255.384511,4185.128103,4190.769128,4191.281949
123,0,4175.897334,4196.410154,4205.128102,4159.999898,4235.897332,4206.666564,4209.743487,4184.615282,4205.640923,4233.33323,4215.384512,4182.05118,4188.205026,4189.743487
124,0,4163.589642,4191.794769,4196.922974,4163.076821,4198.974256,4198.461436,4200.512718,4178.974257,4197.435795,4230.769127,4160.512719,4164.102462,4172.820411,4173.846052
125,0,4168.205026,4205.128102,4205.640923,4166.153744,4212.307589,4206.666564,4211.281948,4188.717846,4195.897333,4241.025537,4195.384513,4165.128103,4171.281949,4173.333231
126,0,4180.512718,4217.435794,4218.461435,4171.79477,4251.281947,4219.999897,4220.512717,4199.487077,4204.615282,4246.666563,4232.307589,4177.948616,4189.743487,4187.692205
127,0,4186.666564,4217.435794,4219.487076,4183.076821,4235.384512,4216.922974,4212.307589,4204.615282,4213.33323,4249.743486,4224.102461,4190.256308,4212.82041,4203.589641
128,0,4194.871692,4215.384512,4217.948615,4184.615282,4230.769127,4211.281948,4210.256307,4209.743487,4218.461435,4260.512716,4227.179384,4201.025538,4212.82041,4213.33323
0,0,4195.384513,4216.410153,4215.897333,4171.79477,4265.640921,4216.410153,4215.384512,4206.666564,4215.897333,4262.051178,4229.230666,4197.948615,4202.564,4207.179384
1,0,4183.076821,4206.153743,4219.999897,4165.128103,4255.384511,4212.82041,4206.666564,4191.281949,4207.692205,4245.128101,4210.256307,4186.666564,4184.615282,4194.871692
2,0,4177.948616,4201.025538,4223.58964,4169.743488,4230.256307,4201.538359,4196.410154,4179.999898,4204.615282,4235.384512,4217.948615,4186.666564,4170.256308,4197.435795
3,0,4183.589641,4203.589641,4221.025538,4167.692206,4233.33323,4201.025538,4199.999897,4176.922975,4204.615282,4236.922973,4213.33323,4189.230667,4185.128103,4195.897333
4,0,4178.461436,4197.948615,4216.922974,4156.922975,4218.461435,4201.538359,4198.974256,4175.897334,4197.948615,4236.410153,4168.205026,4179.999898,4204.615282,4184.102462
5,0,4171.281949,4188.205026,4216.410153,4152.820411,4213.33323,4195.384513,4190.256308,4174.871693,4190.256308,4232.820409,4162.05118,4173.333231,4184.102462,4179.999898
6,0,4173.846052,4185.128103,4215.897333,4156.410155,4240.512717,4197.435795,4191.281949,4171.79477,4189.230667,4228.717845,4182.05118,4170.769129,4162.05118,4181.025539
7,0,4179.999898,4192.30759,4217.948615,4158.461437,4249.230665,4206.153743,4198.974256,4173.333231,4198.461436,4227.692204,4182.05118,4174.358872,4176.410154,4183.589641
8,0,4187.179385,4203.07682,4222.563999,4166.666565,4228.205025,4205.640923,4201.025538,4183.076821,4208.205025,4236.922973,4201.538359,4187.179385,4188.717846,4195.384513
9,0,4191.281949,4208.717846,4225.640922,4179.487077,4213.846051,4199.487077,4201.538359,4191.794769,4208.717846,4241.538358,4221.538358,4195.384513,4182.564,4202.051179
10,0,4184.615282,4213.846051,4222.051179,4176.922975,4218.974256,4199.999897,4203.589641,4190.769128,4206.666564,4236.922973,4192.82041,4189.230667,4175.384513,4190.769128
11,0,4174.871693,4220.512717,4218.974256,4162.564001,4235.897332,4203.07682,4205.128102,4191.794769,4211.281948,4238.974255,4186.666564,4186.666564,4179.487077,4186.666564
12,0,4171.281949,4224.102461,4219.999897,4159.487078,4237.948614,4201.538359,4204.615282,4202.051179,4217.435794,4242.051178,4242.051178,4198.974256,4189.230667,4195.897333
13,0,4165.640924,4226.153743,4213.33323,4162.05118,4212.307589,4197.435795,4197.435795,4198.461436,4209.743487,4233.84605,4230.769127,4190.769128,4167.692206,4186.666564
14,0,4155.897334,4230.256307,4201.025538,4158.974257,4213.846051,4196.410154,4188.717846,4178.974257,4193.846051,4219.999897,4172.30759,4163.589642,4141.53836,4165.128103
15,0,4158.974257,4235.897332,4203.07682,4157.948616,4249.743486,4199.999897,4188.205026,4175.897334,4191.281949,4215.897333,4181.538359,4162.05118,4153.333232,4168.717847
16,0,4173.333231,4242.051178,4213.846051,4160.512719,4243.58964,4205.128102,4193.846051,4188.205026,4204.102461,4215.897333,4229.743486,4182.564,4165.640924,4188.205026
17,0,4182.05118,4249.743486,4213.846051,4169.743488,4216.410153,4210.769128,4198.974256,4193.846051,4212.82041,4227.692204,4250.769127,4190.256308,4154.358873,4195.897333
18,0,4183.589641,4256.410152,4211.281948,4179.487077,4228.205025,4214.871692,4202.051179,4200.512718,4212.82041,4240.512717,4215.897333,4183.589641,4161.025539,4190.256308
19,0,4181.025539,4259.487075,4210.769128,4171.281949,4241.538358,4216.410153,4205.128102,4210.256307,4215.897333,4232.307589,4206.153743,4185.640923,4162.564001,4190.769128
20,0,4180.512718,4254.35887,4213.846051,4165.128103,4236.922973,4216.410153,4210.769128,4210.256307,4219.487076,4224.102461,4255.897332,4193.333231,4133.846053,4196.922974
21,0,4186.153744,4256.922973,4220.512717,4176.922975,4240.512717,4218.974256,4215.897333,4215.384512,4222.563999,4244.10246,4272.820408,4197.948615,4143.589642,4199.999897
22,0,4180.512718,4253.333229,4214.871692,4174.358872,4235.897332,4217.948615,4210.256307,4218.461435,4224.102461,4250.256306,4208.205025,4188.717846,4176.922975,4189.230667
23,0,4165.640924,4225.128102,4200.512718,4162.05118,4221.538358,4211.281948,4199.487077,4205.128102,4213.846051,4221.538358,4163.589642,4170.769129,4158.461437,4171.281949
24,0,4165.640924,4213.33323,4203.589641,4160.512719,4232.820409,4210.256307,4198.974256,4196.410154,4200.512718,4209.230666,4209.230666,4169.743488,4133.333232,4169.743488
25,0,4175.384513,4235.384512,4213.846051,4161.53836,4244.615281,4216.922974,4207.692205,4201.538359,4202.051179,4221.538358,4251.794768,4184.102462,4146.153745,4181.025539
26,0,4174.871693,4247.692204,4215.384512,4162.05118,4224.102461,4217.435794,4214.358871,4203.589641,4209.743487,4222.563999,4224.102461,4188.205026,4155.384514,4184.102462
27,0,4172.30759,4242.563999,4216.410153,4173.846052,4208.205025,4213.33323,4213.846051,4198.974256,4201.025538,4213.846051,4182.564,4179.487077,4145.640924,4182.05118
28,0,4181.025539,4243.076819,4218.974256,4179.999898,4224.615281,4212.82041,4213.846051,4197.435795,4195.897333,4210.256307,4199.999897,4187.692205,4135.897335,4186.666564
29,0,4189.230667,4243.58964,4221.538358,4176.410154,4253.84605,4217.948615,4215.897333,4203.07682,4209.743487,4213.846051,4246.153742,4208.205025,4130.256309,4196.410154
30,0,4191.794769,4242.563999,4223.58964,4181.538359,4249.743486,4222.051179,4216.922974,4214.358871,4219.999897,4228.205025,4216.922974,4206.666564,4155.384514,4203.589641
31,0,4193.333231,4245.128101,4222.051179,4185.128103,4211.794769,4217.948615,4214.871692,4211.794769,4210.256307,4232.307589,4190.769128,4194.358872,4191.794769,4204.102461
32,0,4194.871692,4247.692204,4221.538358,4181.025539,4211.281948,4214.358871,4215.897333,4206.666564,4208.717846,4217.948615,4248.717845,4204.102461,4161.025539,4205.128102
33,0,4188.205026,4244.615281,4220.512717,4175.384513,4244.10246,4217.435794,4217.948615,4218.461435,4225.640922,4211.281948,4246.666563,4210.256307,4114.358874,4197.948615
34,0,4174.358872,4239.999896,4210.256307,4174.358872,4249.230665,4219.487076,4218.974256,4222.563999,4224.615281,4225.640922,4153.333232,4183.589641,4151.28195,4178.974257
35,0,4172.30759,4237.435794,4206.666564,4175.384513,4237.948614,4217.435794,4219.487076,4209.743487,4208.205025,4234.358871,4151.79477,4172.820411,4178.461436,4175.897334
36,0,4178.974257,4233.84605,4209.743487,4174.871693,4229.743486,4216.922974,4218.461435,4204.102461,4201.538359,4223.07682,4229.743486,4183.076821,4144.102463,4188.717846
37,0,4172.30759,4225.128102,4204.615282,4168.717847,4212.82041,4215.384512,4217.948615,4207.179384,4205.640923,4207.179384,4234.871691,4178.974257,4130.76913,4182.05118
38,0,4163.589642,4223.58964,4201.025538,4164.615283,4219.487076,4215.897333,4221.538358,4208.717846,4204.102461,4208.205025,4199.999897,4173.846052,4150.769129,4169.230667
39,0,4172.30759,4225.128102,4210.256307,4164.615283,4239.999896,4217.948615,4222.051179,4210.769128,4206.153743,4211.794769,4211.794769,4187.692205,4138.461437,4174.358872
40,0,4180.512718,4216.922974,4210.769128,4159.999898,4215.897333,4212.82041,4216.922974,4213.33323,4215.384512,4205.128102,4232.307589,4195.897333,4125.128104,4183.589641
41,0,4172.30759,4214.871692,4206.666564,4155.897334,4200.512718,4203.07682,4214.358871,4210.256307,4213.33323,4201.025538,4217.948615,4188.205026,4138.974258,4179.999898
42,0,4173.333231,4220.512717,4211.794769,4157.435796,4222.563999,4199.999897,4215.384512,4206.666564,4204.615282,4202.051179,4208.205025,4191.281949,4120.51272,4178.974257
43,0,4186.666564,4219.999897,4218.461435,4165.640924,4219.999897,4204.615282,4215.897333,4207.692205,4205.640923,4203.07682,4228.205025,4202.564,4102.051182,4184.615282
44,0,4187.692205,4219.487076,4216.410153,4172.30759,4215.384512,4212.307589,4217.435794,4209.230666,4214.358871,4204.102461,4240.512717,4204.102461,4134.358873,4187.179385
45,0,4180.512718,4219.999897,4215.897333,4168.717847,4232.307589,4218.461435,4219.487076,4205.128102,4211.794769,4201.538359,4210.769128,4194.358872,4165.640924,4183.076821
46,0,4176.922975,4209.743487,4210.769128,4160.512719,4225.128102,4215.384512,4216.410153,4192.82041,4202.051179,4193.333231,4179.999898,4178.974257,4143.589642,4171.281949
47,0,4172.820411,4200.512718,4201.538359,4159.999898,4208.205025,4208.717846,4215.384512,4189.230667,4201.025538,4186.666564,4181.025539,4168.717847,4121.538361,4165.128103
48,0,4174.871693,4210.256307,4205.128102,4166.666565,4222.563999,4212.307589,4222.051179,4197.948615,4204.102461,4190.256308,4206.666564,4179.487077,4119.487079,4171.281949
49,0,4180.512718,4213.846051,4211.281948,4171.79477,4231.794768,4217.948615,4224.615281,4203.589641,4208.205025,4194.871692,4223.07682,4201.025538,4115.384515,4178.461436
50,0,4181.025539,4207.179384,4214.358871,4174.871693,4212.307589,4212.82041,4216.922974,4199.999897,4209.743487,4189.230667,4214.871692,4201.025538,4137.435796,4181.538359
51,0,4185.128103,4214.871692,4217.948615,4177.435795,4215.897333,4210.769128,4213.846051,4198.974256,4208.717846,4190.769128,4228.717845,4196.922974,4164.102462,4190.256308
52,0,4189.230667,4219.487076,4217.435794,4171.281949,4231.281948,4215.384512,4215.897333,4203.07682,4211.794769,4202.051179,4230.769127,4203.589641,4153.846052,4193.333231
53,0,4182.05118,4210.769128,4211.794769,4161.53836,4214.358871,4216.410153,4215.384512,4206.153743,4213.846051,4206.153743,4189.230667,4194.358872,4148.717847,4179.487077
54,0,4168.717847,4204.615282,4207.179384,4158.461437,4205.128102,4214.871692,4218.974256,4202.051179,4205.640923,4194.871692,4187.179385,4175.897334,4168.205026,4170.256308
55,0,4164.615283,4199.999897,4206.666564,4155.897334,4226.666563,4209.230666,4221.538358,4198.974256,4205.640923,4185.128103,4255.897332,4189.743487,4140.512719,4177.435795
56,0,4170.256308,4195.384513,4208.717846,4152.307591,4219.999897,4202.564,4218.461435,4201.025538,4219.999897,4185.640923,4259.999896,4210.769128,4103.076823,4178.974257
57,0,4178.974257,4208.717846,4209.743487,4170.256308,4184.615282,4208.717846,4219.999897,4205.128102,4218.461435,4189.230667,4184.615282,4195.897333,4147.179386,4175.384513
58,0,4178.461436,4219.487076,4207.179384,4185.128103,4192.82041,4217.435794,4226.666563,4208.205025,4202.051179,4185.128103,4179.487077,4177.435795,4183.076821,4177.435795
59,0,4178.974257,4214.871692,4207.179384,4170.256308,4236.922973,4223.07682,4230.769127,4215.897333,4207.179384,4190.769128,4217.948615,4189.743487,4161.025539,4185.640923
60,0,4189.743487,4214.871692,4211.794769,4160.512719,4250.769127,4228.717845,4229.743486,4222.563999,4223.58964,4206.153743,4206.153743,4203.589641,4155.384514,4190.256308
61,0,4184.102462,4208.205025,4209.743487,4165.640924,4217.948615,4221.025538,4222.051179,4215.897333,4219.999897,4198.461436,4203.589641,4198.461436,4161.025539,4185.128103
62,0,4171.79477,4196.410154,4206.666564,4164.102462,4192.82041,4205.128102,4214.871692,4207.179384,4207.692205,4184.615282,4214.358871,4192.30759,4148.205027,4175.897334
63,0,4179.487077,4199.487077,4208.717846,4158.974257,4203.589641,4201.025538,4216.922974,4206.666564,4209.743487,4185.128103,4190.256308,4195.384513,4158.461437,4176.922975
64,0,4185.128103,4205.128102,4211.281948,4163.076821,4216.922974,4206.153743,4218.974256,4207.179384,4213.846051,4182.05118,4191.281949,4198.461436,4172.30759,4184.102462
65,0,4176.410154,4199.999897,4211.794769,4162.05118,4217.435794,4208.205025,4215.897333,4202.051179,4205.640923,4182.05118,4210.769128,4189.743487,4155.897334,4177.948616
66,0,4177.435795,4198.461436,4210.769128,4155.897334,4224.615281,4212.82041,4215.897333,4206.153743,4208.205025,4194.358872,4191.794769,4186.666564,4144.615283,4175.384513
67,0,4186.666564,4206.666564,4214.358871,4158.461437,4218.461435,4216.922974,4219.487076,4217.948615,4219.999897,4197.948615,4195.897333,4197.435795,4153.846052,4189.230667
68,0,4187.692205,4211.281948,4221.538358,4163.076821,4185.128103,4216.922974,4219.999897,4217.435794,4216.410153,4185.640923,4239.487076,4207.179384,4158.461437,4197.948615
69,0,4190.256308,4211.794769,4227.179384,4172.820411,4189.743487,4219.999897,4217.435794,4213.33323,4214.358871,4186.153744,4233.84605,4209.743487,4163.589642,4193.846051
70,0,4197.948615,4218.461435,4225.128102,4179.999898,4239.999896,4231.794768,4218.974256,4219.999897,4223.07682,4209.743487,4190.769128,4207.179384,4191.794769,4196.922974
71,0,4195.384513,4216.922974,4223.07682,4166.666565,4236.922973,4234.358871,4226.153743,4222.051179,4222.563999,4217.948615,4194.358872,4199.999897,4211.794769,4203.589641
72,0,4187.692205,4206.666564,4222.051179,4164.615283,4202.051179,4222.563999,4230.769127,4216.410153,4216.922974,4202.051179,4241.025537,4202.564,4190.256308,4202.564
73,0,4185.128103,4198.974256,4221.538358,4178.461436,4208.717846,4215.897333,4228.205025,4215.384512,4218.461435,4196.922974,4231.281948,4206.153743,4166.153744,4192.82041
74,0,4179.999898,4193.846051,4215.897333,4170.769129,4213.846051,4214.358871,4221.538358,4210.769128,4208.717846,4202.564,4166.666565,4187.692205,4173.333231,4179.487077
75,0,4178.974257,4191.281949,4210.769128,4157.435796,4205.640923,4216.922974,4221.538358,4206.153743,4205.128102,4198.461436,4189.743487,4183.076821,4170.769129,4178.974257
76,0,4186.153744,4202.564,4216.410153,4172.30759,4229.743486,4226.153743,4229.230666,4216.922974,4219.999897,4205.128102,4253.333229,4199.487077,4169.230667,4192.30759
77,0,4192.82041,4213.846051,4226.666563,4187.179385,4240.512717,4229.743486,4232.820409,4223.58964,4223.58964,4221.538358,4223.58964,4199.999897,4196.410154,4197.435795
78,0,4197.435795,4215.897333,4227.692204,4186.666564,4214.358871,4225.128102,4231.281948,4221.025538,4215.384512,4217.948615,4187.179385,4191.281949,4215.897333,4198.974256
79,0,4203.589641,4215.897333,4225.640922,4184.102462,4206.666564,4225.128102,4228.717845,4224.615281,4222.051179,4213.33323,4227.692204,4204.102461,4216.922974,4209.230666
80,0,4202.051179,4212.307589,4226.666563,4178.974257,4227.692204,4230.769127,4228.205025,4233.33323,4229.743486,4229.230666,4237.948614,4213.846051,4224.102461,4214.358871
81,0,4195.897333,4202.564,4223.58964,4176.922975,4241.025537,4233.33323,4228.717845,4234.871691,4227.692204,4236.922973,4217.435794,4203.589641,4219.487076,4207.179384
82,0,4187.692205,4188.205026,4217.435794,4172.30759,4229.230666,4232.307589,4230.256307,4226.666563,4226.666563,4217.435794,4234.871691,4198.974256,4188.717846,4197.948615
83,0,4174.358872,4177.435795,4210.256307,4158.974257,4216.922974,4232.307589,4228.717845,4213.846051,4216.410153,4197.435795,4225.128102,4189.230667,4172.820411,4182.05118
84,0,4173.846052,4185.128103,4210.256307,4157.435796,4223.58964,4231.794768,4227.692204,4204.615282,4198.974256,4194.871692,4184.615282,4173.333231,4180.512718,4172.820411
85,0,4186.666564,4189.743487,4219.487076,4163.076821,4203.07682,4222.051179,4228.717845,4207.179384,4207.179384,4193.846051,4191.794769,4190.256308,4172.30759,4186.666564
86,0,4192.30759,4178.461436,4221.025538,4158.974257,4166.153744,4211.794769,4222.051179,4212.82041,4221.538358,4197.948615,4204.102461,4211.281948,4171.79477,4198.461436
87,0,4196.922974,4177.948616,4217.948615,4155.897334,4188.717846,4211.794769,4218.974256,4212.307589,4211.794769,4210.256307,4196.922974,4203.589641,4204.102461,4199.999897
88,0,4207.179384,4188.205026,4230.256307,4162.05118,4237.435794,4215.897333,4223.07682,4211.281948,4207.179384,4215.897333,4213.33323,4203.07682,4224.615281,4206.666564
89,0,4212.307589,4193.846051,4240.512717,4165.128103,4246.666563,4220.512717,4223.58964,4219.487076,4222.563999,4226.153743,4219.999897,4221.025538,4219.999897,4217.948615
90,0,4213.846051,4195.384513,4235.384512,4161.025539,4217.948615,4219.999897,4215.384512,4228.205025,4227.692204,4245.128101,4212.307589,4219.999897,4215.897333,4220.512717
91,0,4212.307589,4196.410154,4231.794768,4163.076821,4189.230667,4217.435794,4215.384512,4231.281948,4225.640922,4247.692204,4231.281948,4214.358871,4216.922974,4217.435794
92,0,4208.205025,4187.179385,4237.435794,4165.128103,4201.025538,4224.102461,4226.666563,4229.230666,4230.256307,4218.461435,4235.897332,4222.563999,4195.384513,4212.307589
93,0,4203.07682,4177.948616,4233.33323,4160.512719,4233.84605,4231.794768,4231.281948,4221.538358,4226.153743,4203.589641,4222.051179,4222.563999,4185.640923,4208.717846
94,0,4206.666564,4178.974257,4227.179384,4166.666565,4238.461435,4229.743486,4228.717845,4217.948615,4221.025538,4221.538358,4219.999897,4213.846051,4209.230666,4211.794769
95,0,4215.384512,4186.666564,4232.307589,4182.05118,4227.179384,4231.281948,4231.794768,4228.205025,4233.84605,4243.58964,4221.025538,4217.435794,4225.128102,4217.948615
96,0,4211.794769,4189.743487,4233.84605,4176.410154,4214.871692,4234.871691,4230.769127,4231.794768,4237.948614,4241.025537,4207.692205,4219.487076,4221.538358,4218.974256
97,0,4199.487077,4181.025539,4223.07682,4163.076821,4194.358872,4224.102461,4219.999897,4225.128102,4227.692204,4219.999897,4240.512717,4217.948615,4200.512718,4218.461435
98,0,4201.538359,4174.358872,4223.58964,4168.717847,4196.922974,4213.33323,4213.846051,4222.051179,4227.179384,4214.358871,4245.640922,4219.487076,4189.743487,4211.794769
99,0,4211.794769,4183.589641,4232.307589,4178.461436,4228.205025,4222.051179,4214.871692,4216.922974,4225.128102,4228.205025,4187.692205,4214.358871,4214.871692,4210.256307
100,0,4208.717846,4195.897333,4228.717845,4175.384513,4242.051178,4234.358871,4216.922974,4214.358871,4219.999897,4234.871691,4181.025539,4204.615282,4228.717845,4217.948615
101,0,4201.538359,4193.846051,4217.435794,4164.615283,4217.435794,4228.205025,4217.435794,4218.974256,4223.07682,4226.666563,4199.487077,4192.30759,4201.538359,4210.256307
102,0,4197.948615,4188.205026,4215.897333,4164.102462,4193.846051,4215.384512,4209.743487,4213.33323,4218.974256,4219.487076,4192.82041,4184.615282,4192.30759,4194.358872
103,0,4195.384513,4195.384513,4220.512717,4175.897334,4221.538358,4221.538358,4208.717846,4204.615282,4206.666564,4215.897333,4191.794769,4184.615282,4208.717846,4196.922974
104,0,4198.461436,4209.743487,4224.102461,4176.922975,4253.84605,4236.410153,4225.128102,4217.435794,4213.846051,4210.769128,4205.128102,4190.256308,4196.410154,4205.128102
105,0,4196.922974,4209.743487,4225.128102,4164.615283,4228.717845,4234.871691,4235.384512,4230.256307,4223.58964,4212.82041,4193.846051,4186.666564,4175.897334,4194.871692
106,0,4183.076821,4196.410154,4215.897333,4163.076821,4186.153744,4223.58964,4226.153743,4222.051179,4211.281948,4213.33323,4179.999898,4172.30759,4173.846052,4178.974257
107,0,4174.871693,4195.897333,4207.179384,4164.615283,4188.205026,4222.051179,4217.435794,4217.435794,4208.205025,4205.640923,4187.692205,4167.179385,4167.692206,4177.435795
108,0,4180.512718,4210.256307,4206.666564,4158.974257,4219.999897,4228.717845,4216.410153,4227.692204,4219.999897,4205.640923,4195.897333,4174.871693,4161.025539,4187.179385
109,0,4180.512718,4210.256307,4208.205025,4155.897334,4233.84605,4230.256307,4217.948615,4226.153743,4218.461435,4207.692205,4201.538359,4179.487077,4169.230667,4187.692205
110,0,4178.974257,4208.205025,4212.82041,4161.025539,4223.07682,4232.820409,4224.102461,4222.051179,4210.256307,4204.615282,4209.743487,4180.512718,4178.461436,4184.615282
111,0,4189.230667,4221.025538,4225.128102,4171.79477,4221.025538,4238.974255,4229.230666,4233.33323,4215.897333,4209.743487,4228.717845,4190.256308,4177.948616,4198.461436
112,0,4189.743487,4223.07682,4226.153743,4175.897334,4209.743487,4239.487076,4225.640922,4242.563999,4225.128102,4223.58964,4211.794769,4189.743487,4182.564,4202.564
113,0,4171.281949,4205.128102,4209.743487,4161.025539,4187.179385,4229.743486,4216.410153,4230.256307,4219.999897,4215.384512,4173.846052,4167.692206,4177.435795,4178.461436
114,0,4170.769129,4202.564,4202.051179,4153.333232,4210.769128,4227.692204,4212.82041,4220.512717,4210.256307,4203.589641,4195.384513,4166.153744,4166.666565,4174.871693
115,0,4184.615282,4209.743487,4213.33323,4161.53836,4245.128101,4232.307589,4218.461435,4223.07682,4214.358871,4214.871692,4225.640922,4186.666564,4179.487077,4197.948615
116,0,4187.179385,4209.743487,4217.435794,4162.564001,4227.179384,4231.794768,4222.563999,4226.153743,4222.563999,4221.538358,4230.256307,4193.333231,4195.897333,4206.153743
117,0,4184.102462,4212.82041,4213.33323,4158.461437,4189.743487,4228.205025,4221.025538,4227.179384,4225.640922,4214.871692,4229.743486,4188.717846,4182.564,4197.948615
118,0,4182.05118,4214.358871,4210.256307,4157.435796,4175.897334,4222.563999,4214.871692,4222.563999,4223.07682,4214.358871,4205.128102,4185.640923,4172.820411,4191.794769
119,0,4183.589641,4210.769128,4211.794769,4153.846052,4198.974256,4223.07682,4217.435794,4218.974256,4219.999897,4217.435794,4188.205026,4184.615282,4177.948616,4191.794769
120,0,4189.230667,4215.897333,4214.871692,4154.358873,4234.358871,4232.307589,4225.640922,4224.102461,4222.563999,4218.974256,4212.307589,4185.640923,4188.205026,4196.922974
121,0,4191.794769,4219.487076,4211.281948,4158.461437,4226.666563,4232.307589,4222.051179,4226.666563,4228.205025,4218.461435,4229.230666,4190.256308,4197.948615,4200.512718
122,0,4191.794769,4218.974256,4211.794769,4165.640924,4207.692205,4226.666563,4217.948615,4224.102461,4228.717845,4225.128102,4226.153743,4195.897333,4193.333231,4202.564
123,0,4203.07682,4232.820409,4222.051179,4175.897334,4222.051179,4233.33323,4230.769127,4234.871691,4229.743486,4245.128101,4227.692204,4202.051179,4194.871692,4211.794769
124,0,4206.153743,4237.435794,4219.999897,4170.769129,4213.33323,4233.33323,4236.410153,4243.58964,4237.948614,4247.179383,4224.102461,4203.07682,4202.564,4213.846051
125,0,4193.846051,4227.692204,4207.692205,4161.53836,4203.589641,4223.07682,4221.025538,4235.384512,4232.307589,4230.769127,4229.230666,4196.922974,4200.512718,4208.205025
126,0,4191.281949,4229.743486,4207.692205,4167.692206,4221.538358,4219.999897,4214.358871,4227.179384,4222.563999,4230.256307,4230.769127,4187.692205,4204.102461,4206.666564
127,0,4193.846051,4230.769127,4213.33323,4167.179385,4219.999897,4222.563999,4224.615281,4227.179384,4224.102461,4229.230666,4207.179384,4179.999898,4208.205025,4201.025538
128,0,4185.128103,4218.461435,4209.743487,4155.384514,4199.999897,4224.102461,4229.743486,4223.07682,4224.102461,4206.666564,4210.769128,4179.999898,4192.82041,4190.256308
0,0,4180.512718,4221.025538,4204.102461,4159.999898,4195.384513,4225.128102,4229.743486,4219.487076,4217.948615,4203.07682,4218.461435,4180.512718,4187.692205,4188.205026
1,0,4189.230667,4227.692204,4207.179384,4175.384513,4199.487077,4217.948615,4228.205025,4219.487076,4217.948615,4219.999897,4195.384513,4179.999898,4194.358872,4190.769128
2,0,4197.435795,4224.615281,4213.846051,4176.410154,4212.82041,4216.410153,4227.692204,4221.538358,4222.563999,4228.717845,4196.922974,4187.179385,4195.897333,4195.897333
3,0,4196.922974,4225.640922,4215.897333,4163.589642,4221.538358,4224.102461,4231.281948,4221.025538,4222.563999,4223.07682,4215.384512,4197.435795,4199.999897,4204.102461
4,0,4197.948615,4231.281948,4214.358871,4162.564001,4206.666564,4221.538358,4229.230666,4219.999897,4218.974256,4218.974256,4194.871692,4199.487077,4204.102461,4208.205025
5,0,4202.564,4237.435794,4218.461435,4175.897334,4197.948615,4212.307589,4223.07682,4221.538358,4219.487076,4224.102461,4170.769129,4196.410154,4208.205025,4208.205025
6,0,4205.640923,4239.999896,4222.563999,4179.999898,4196.410154,4214.358871,4226.153743,4218.461435,4223.07682,4221.538358,4196.922974,4196.922974,4214.871692,4210.256307
7,0,4204.615282,4237.435794,4222.563999,4173.846052,4195.897333,4219.487076,4232.307589,4217.435794,4224.615281,4217.948615,4219.999897,4203.07682,4220.512717,4213.33323
8,0,4203.07682,4238.461435,4222.563999,4173.846052,4210.769128,4222.051179,4232.307589,4220.512717,4227.692204,4230.769127,4210.769128,4208.717846,4222.051179,4215.384512
9,0,4202.051179,4246.666563,4221.025538,4181.025539,4218.461435,4225.128102,4230.769127,4218.461435,4226.666563,4241.538358,4197.435795,4206.666564,4218.461435,4214.358871
10,0,4199.999897,4248.717845,4214.358871,4183.589641,4227.179384,4228.205025,4229.743486,4213.846051,4224.102461,4238.461435,4177.435795,4196.922974,4222.051179,4209.743487
11,0,4204.615282,4247.179383,4206.153743,4178.461436,4223.58964,4223.58964,4230.256307,4219.487076,4227.179384,4239.999896,4185.128103,4192.30759,4245.640922,4214.358871
12,0,4203.07682,4245.128101,4204.615282,4175.384513,4188.717846,4216.922974,4228.205025,4219.999897,4225.640922,4235.897332,4200.512718,4188.205026,4245.128101,4211.281948
13,0,4189.230667,4240.512717,4202.564,4179.487077,4182.564,4217.948615,4218.461435,4208.205025,4213.33323,4217.435794,4164.102462,4175.384513,4213.33323,4194.358872
14,0,4185.128103,4241.025537,4197.435795,4184.102462,4223.07682,4218.461435,4212.82041,4205.640923,4205.128102,4207.692205,4124.615284,4167.179385,4207.179384,4189.230667
15,0,4195.897333,4245.640922,4201.538359,4187.692205,4234.358871,4219.999897,4222.051179,4217.435794,4210.256307,4216.922974,4161.53836,4182.05118,4224.615281,4203.07682
16,0,4201.025538,4241.025537,4208.205025,4186.666564,4212.307589,4227.179384,4235.897332,4227.692204,4221.025538,4231.794768,4205.128102,4197.435795,4233.33323,4209.743487
17,0,4195.384513,4230.769127,4206.153743,4179.999898,4212.307589,4225.128102,4234.358871,4228.205025,4223.07682,4237.948614,4167.179385,4191.281949,4232.307589,4201.025538
18,0,4191.794769,4223.07682,4207.179384,4175.384513,4218.461435,4215.897333,4223.07682,4220.512717,4217.948615,4229.743486,4129.230668,4182.564,4224.102461,4195.897333
19,0,4193.333231,4223.58964,4211.794769,4175.897334,4192.82041,4215.384512,4217.948615,4217.948615,4216.410153,4226.666563,4152.307591,4189.743487,4219.999897,4202.564
20,0,4195.384513,4227.692204,4212.82041,4179.487077,4170.256308,4215.384512,4221.538358,4217.435794,4216.922974,4225.640922,4167.179385,4195.897333,4225.128102,4204.102461
21,0,4194.871692,4231.281948,4213.33323,4189.230667,4198.461436,4213.846051,4224.615281,4213.846051,4214.358871,4221.538358,4150.256309,4198.461436,4223.07682,4201.025538
22,0,4204.102461,4233.84605,4218.461435,4193.333231,4242.563999,4225.128102,4228.717845,4218.974256,4222.051179,4228.717845,4167.179385,4205.640923,4227.179384,4214.358871
23,0,4211.794769,4233.84605,4218.461435,4197.435795,4230.256307,4231.281948,4232.307589,4223.58964,4226.666563,4238.974255,4197.435795,4204.102461,4248.205024,4224.615281
23,0,4211.794769,4233.84605,4218.461435,4197.435795,4230.256307,4231.281948,4232.307589,4223.58964,4226.666563,4238.974255,4197.435795,4204.102461,4248.205024,4224.615281
24,0,4198.974256,4228.205025,4211.794769,4199.487077,4198.461436,4220.512717,4227.692204,4214.358871,4215.897333,4228.205025,4163.589642,4188.205026,4238.974255,4205.128102
25,0,4184.102462,4217.948615,4205.128102,4185.640923,4210.769128,4215.384512,4220.512717,4206.153743,4209.743487,4223.58964,4144.102463,4183.589641,4211.794769,4187.692205
26,0,4185.640923,4211.281948,4204.102461,4179.487077,4225.128102,4219.999897,4219.999897,4211.794769,4216.922974,4246.666563,4164.102462,4186.666564,4225.128102,4192.30759
27,0,4192.30759,4210.769128,4207.179384,4188.717846,4210.769128,4222.563999,4222.051179,4214.358871,4218.974256,4255.897332,4152.820411,4184.102462,4248.205024,4194.871692
28,0,4192.82041,4217.435794,4203.07682,4185.128103,4211.794769,4225.128102,4220.512717,4209.230666,4212.82041,4239.487076,4137.948617,4183.076821,4240.512717,4191.794769
29,0,4191.794769,4219.487076,4196.922974,4177.948616,4233.33323,4227.179384,4221.025538,4205.640923,4209.743487,4231.794768,4147.179386,4181.538359,4226.153743,4189.743487
30,0,4195.384513,4211.281948,4200.512718,4190.256308,4237.435794,4222.051179,4225.640922,4207.179384,4211.281948,4238.461435,4152.820411,4183.589641,4232.307589,4195.897333
31,0,4199.999897,4211.281948,4208.717846,4197.435795,4224.102461,4217.435794,4226.153743,4210.256307,4211.794769,4239.487076,4151.79477,4190.769128,4241.025537,4206.666564
32,0,4198.974256,4217.435794,4208.205025,4192.30759,4205.640923,4218.461435,4219.999897,4210.256307,4212.82041,4238.974255,4159.487078,4191.281949,4238.974255,4207.692205
33,0,4196.922974,4208.717846,4203.07682,4186.153744,4192.30759,4217.948615,4215.384512,4207.179384,4213.846051,4237.948614,4161.53836,4189.230667,4232.307589,4204.615282
34,0,4201.538359,4201.025538,4206.153743,4181.538359,4208.717846,4215.897333,4215.384512,4206.666564,4212.82041,4238.461435,4167.179385,4193.333231,4240.512717,4211.794769
35,0,4199.999897,4201.538359,4209.230666,4187.692205,4223.58964,4213.33323,4214.358871,4203.07682,4210.769128,4239.999896,4158.461437,4185.640923,4246.153742,4206.153743
36,0,4197.948615,4203.07682,4207.692205,4191.794769,4216.410153,4216.410153,4215.897333,4207.692205,4213.846051,4245.640922,4141.53836,4178.461436,4236.410153,4195.897333
37,0,4203.589641,4197.948615,4211.794769,4185.128103,4223.07682,4223.07682,4220.512717,4222.051179,4222.563999,4247.179383,4169.743488,4189.230667,4235.384512,4205.128102
38,0,4202.564,4182.05118,4210.769128,4189.230667,4225.640922,4221.025538,4219.999897,4214.871692,4217.435794,4237.435794,4172.820411,4185.640923,4235.897332,4204.615282
39,0,4196.410154,4177.435795,4207.692205,4194.358872,4207.179384,4213.846051,4215.897333,4197.435795,4207.179384,4233.33323,4128.717848,4175.897334,4228.205025,4193.846051
40,0,4197.435795,4188.205026,4211.281948,4186.666564,4201.025538,4212.82041,4215.384512,4201.538359,4211.281948,4235.897332,4147.179386,4185.640923,4230.256307,4202.051179
41,0,4204.615282,4185.640923,4216.410153,4187.179385,4214.358871,4213.33323,4214.871692,4213.846051,4221.025538,4234.358871,4186.153744,4194.358872,4232.820409,4209.743487
42,0,4205.128102,4176.922975,4212.307589,4187.179385,4231.281948,4214.871692,4214.871692,4217.435794,4223.58964,4248.717845,4162.564001,4192.30759,4239.999896,4207.692205
43,0,4197.948615,4177.948616,4211.794769,4175.897334,4247.692204,4219.999897,4219.487076,4223.07682,4225.128102,4273.846049,4147.692206,4193.333231,4256.410152,4211.794769
44,0,4190.256308,4172.30759,4213.33323,4184.102462,4228.717845,4217.948615,4217.948615,4224.102461,4223.58964,4267.179383,4171.281949,4191.281949,4249.743486,4208.717846
45,0,4187.692205,4163.076821,4207.179384,4198.974256,4192.30759,4211.281948,4212.82041,4211.281948,4215.384512,4241.538358,4159.487078,4185.640923,4225.640922,4195.897333
46,0,4185.640923,4162.564001,4202.051179,4185.640923,4215.384512,4215.384512,4216.922974,4208.205025,4211.794769,4239.999896,4137.435796,4183.076821,4222.563999,4191.794769
47,0,4173.333231,4148.717847,4197.948615,4159.999898,4239.999896,4218.974256,4214.358871,4209.230666,4209.743487,4245.128101,4141.53836,4176.410154,4219.487076,4184.102462
48,0,4164.615283,4134.358873,4194.871692,4156.922975,4205.128102,4211.794769,4203.589641,4196.410154,4201.538359,4239.487076,4129.743489,4167.179385,4208.717846,4172.820411
49,0,4178.974257,4149.230668,4205.128102,4185.640923,4197.948615,4210.769128,4206.666564,4194.871692,4207.179384,4237.435794,4137.948617,4181.538359,4223.58964,4187.692205
50,0,4202.564,4166.666565,4223.07682,4207.692205,4233.33323,4219.999897,4218.461435,4215.384512,4224.102461,4243.58964,4170.769129,4208.205025,4238.461435,4211.281948
51,0,4208.205025,4167.692206,4224.102461,4188.205026,4225.640922,4220.512717,4221.025538,4226.153743,4223.58964,4256.922973,4159.999898,4207.692205,4234.871691,4212.307589
52,0,4201.538359,4165.640924,4215.384512,4169.230667,4208.205025,4213.33323,4218.461435,4217.435794,4218.974256,4270.769126,4128.717848,4192.82041,4239.487076,4207.179384
53,0,4203.589641,4169.230667,4219.487076,4185.128103,4235.384512,4217.435794,4216.922974,4220.512717,4228.205025,4279.999895,4136.922976,4194.358872,4252.820409,4214.871692
54,0,4205.640923,4163.589642,4219.487076,4189.230667,4229.743486,4221.025538,4212.82041,4224.615281,4225.128102,4270.769126,4150.769129,4194.358872,4243.58964,4212.307589
55,0,4198.461436,4159.487078,4206.153743,4182.05118,4199.487077,4215.384512,4210.256307,4215.384512,4212.82041,4256.410152,4148.717847,4185.640923,4233.84605,4206.153743
56,0,4189.743487,4162.564001,4203.589641,4187.179385,4205.128102,4213.846051,4214.871692,4208.205025,4214.871692,4256.410152,4144.615283,4185.640923,4234.871691,4207.692205
57,0,4183.589641,4153.846052,4210.769128,4185.640923,4224.615281,4218.974256,4214.358871,4210.256307,4216.922974,4262.051178,4123.589643,4185.640923,4224.615281,4198.461436
58,0,4188.205026,4144.102463,4213.846051,4181.538359,4229.743486,4218.974256,4205.640923,4207.692205,4212.82041,4257.435793,4107.692207,4177.435795,4217.435794,4189.743487
59,0,4194.871692,4157.948616,4212.307589,4193.846051,4226.666563,4218.461435,4204.615282,4206.153743,4214.358871,4258.461434,4135.384514,4179.487077,4226.666563,4197.435795
60,0,4193.333231,4170.256308,4214.871692,4196.922974,4229.230666,4219.999897,4214.871692,4211.794769,4219.999897,4266.153742,4152.820411,4185.128103,4231.281948,4199.487077
61,0,4191.794769,4159.999898,4213.846051,4181.025539,4224.615281,4217.435794,4213.846051,4214.358871,4218.974256,4259.999896,4134.871694,4183.076821,4229.743486,4194.358872
62,0,4192.82041,4150.256309,4211.794769,4184.615282,4218.461435,4215.897333,4203.589641,4215.384512,4217.435794,4258.461434,4125.128104,4183.076821,4229.230666,4194.871692
63,0,4193.846051,4157.435796,4217.948615,4204.615282,4230.769127,4218.974256,4206.153743,4223.07682,4220.512717,4271.794767,4144.615283,4188.717846,4228.205025,4201.538359
64,0,4201.538359,4170.769129,4226.153743,4207.692205,4238.974255,4224.615281,4216.410153,4230.769127,4224.102461,4276.922972,4152.307591,4191.794769,4232.307589,4208.205025
65,0,4211.281948,4170.769129,4225.640922,4205.640923,4228.717845,4229.230666,4225.128102,4229.230666,4225.128102,4270.256306,4144.102463,4196.410154,4240.512717,4211.281948
66,0,4209.230666,4167.179385,4223.58964,4207.179384,4234.871691,4232.820409,4232.307589,4228.205025,4223.58964,4269.230665,4157.948616,4198.461436,4238.974255,4210.769128
67,0,4202.051179,4172.30759,4224.615281,4198.461436,4246.153742,4235.384512,4235.384512,4227.179384,4223.07682,4264.61528,4167.692206,4191.794769,4233.84605,4210.256307
68,0,4196.922974,4172.820411,4223.07682,4188.717846,4214.871692,4229.743486,4227.692204,4218.974256,4215.384512,4245.640922,4140.512719,4183.076821,4223.07682,4203.07682
69,0,4189.743487,4157.948616,4222.051179,4189.230667,4192.30759,4214.871692,4217.435794,4206.153743,4205.640923,4231.281948,4116.410156,4181.025539,4205.128102,4190.256308
70,0,4189.743487,4161.025539,4227.179384,4192.30759,4227.179384,4216.922974,4218.461435,4208.205025,4209.743487,4241.025537,4134.871694,4186.153744,4204.102461,4194.871692
71,0,4194.871692,4186.666564,4232.820409,4198.974256,4250.769127,4233.33323,4221.025538,4219.999897,4217.948615,4254.35887,4146.666565,4186.153744,4208.205025,4203.589641
72,0,4197.948615,4205.128102,4230.769127,4211.281948,4227.692204,4231.281948,4215.384512,4219.487076,4214.871692,4248.205024,4143.076822,4184.615282,4208.205025,4203.07682
73,0,4205.128102,4206.666564,4228.717845,4207.179384,4215.384512,4222.563999,4211.281948,4214.358871,4215.897333,4238.461435,4167.179385,4192.82041,4221.025538,4211.794769
74,0,4213.846051,4208.717846,4235.384512,4201.538359,4247.179383,4232.820409,4216.922974,4222.051179,4226.666563,4247.179383,4179.487077,4206.153743,4230.256307,4224.102461
75,0,4213.846051,4217.435794,4242.051178,4207.179384,4251.794768,4238.461435,4221.025538,4227.692204,4226.153743,4254.871691,4147.179386,4205.128102,4211.281948,4219.999897
76,0,4209.743487,4228.717845,4237.948614,4215.897333,4225.640922,4233.33323,4220.512717,4226.153743,4218.974256,4253.333229,4151.79477,4199.487077,4204.102461,4213.846051
77,0,4213.33323,4229.743486,4234.871691,4216.922974,4238.461435,4238.974255,4225.640922,4233.84605,4227.692204,4256.922973,4189.743487,4205.640923,4223.07682,4219.487076
78,0,4208.205025,4214.871692,4229.230666,4201.025538,4242.563999,4243.58964,4230.769127,4239.487076,4232.307589,4257.948614,4172.820411,4198.461436,4221.025538,4211.281948
79,0,4188.717846,4194.871692,4216.410153,4188.717846,4210.256307,4232.307589,4226.153743,4223.58964,4219.999897,4238.461435,4142.564001,4176.922975,4196.922974,4190.769128
80,0,4175.897334,4189.743487,4208.717846,4190.769128,4211.281948,4226.153743,4217.948615,4208.205025,4207.692205,4225.640922,4149.230668,4172.30759,4188.717846,4185.640923
81,0,4185.640923,4202.564,4215.384512,4193.846051,4228.205025,4232.820409,4217.948615,4215.897333,4213.33323,4241.025537,4152.820411,4185.640923,4200.512718,4193.333231
82,0,4193.846051,4208.717846,4217.435794,4186.666564,4212.82041,4228.717845,4219.487076,4222.563999,4221.538358,4246.153742,4148.717847,4187.692205,4204.615282,4195.897333
83,0,4188.205026,4201.025538,4212.307589,4180.512718,4209.230666,4218.461435,4217.435794,4210.769128,4212.307589,4223.58964,4154.358873,4179.487077,4196.410154,4191.794769
84,0,4192.82041,4204.102461,4216.922974,4184.102462,4234.358871,4219.999897,4216.410153,4208.205025,4205.640923,4219.999897,4168.205026,4187.179385,4202.564,4199.999897
85,0,4206.153743,4212.307589,4226.666563,4186.666564,4224.615281,4224.102461,4215.384512,4229.230666,4218.461435,4242.563999,4174.358872,4199.999897,4212.307589,4212.307589
86,0,4208.717846,4210.256307,4225.640922,4178.974257,4188.205026,4217.948615,4221.025538,4240.512717,4228.717845,4252.307588,4161.53836,4198.974256,4207.692205,4210.256307
87,0,4211.281948,4213.33323,4221.538358,4177.435795,4203.07682,4217.435794,4227.692204,4231.794768,4224.102461,4247.179383,4154.871693,4196.410154,4207.179384,4209.743487
88,0,4217.435794,4223.58964,4227.179384,4188.205026,4239.487076,4226.666563,4225.640922,4223.58964,4216.922974,4241.025537,4161.53836,4198.974256,4209.230666,4213.846051
89,0,4217.948615,4229.230666,4229.743486,4193.846051,4221.538358,4226.153743,4219.487076,4227.692204,4213.846051,4236.922973,4160.512719,4200.512718,4208.205025,4211.281948
90,0,4221.538358,4232.307589,4229.230666,4191.794769,4207.179384,4224.102461,4217.948615,4233.33323,4220.512717,4243.076819,4164.102462,4204.615282,4216.922974,4212.82041
91,0,4227.692204,4239.999896,4231.794768,4193.333231,4241.538358,4231.794768,4224.615281,4236.922973,4231.281948,4256.922973,4172.820411,4213.33323,4228.717845,4225.128102
92,0,4222.051179,4240.512717,4231.281948,4191.794769,4243.076819,4233.33323,4232.820409,4236.410153,4232.307589,4254.35887,4179.999898,4218.461435,4228.205025,4225.640922
93,0,4214.871692,4234.871691,4223.58964,4188.717846,4218.974256,4227.692204,4232.307589,4236.922973,4229.230666,4250.256306,4191.794769,4213.846051,4221.538358,4215.384512
94,0,4217.948615,4233.84605,4223.07682,4190.256308,4221.538358,4230.769127,4229.743486,4242.051178,4233.33323,4260.512716,4178.974257,4209.743487,4218.461435,4214.871692
95,0,4225.128102,4234.358871,4233.33323,4191.794769,4206.153743,4234.358871,4233.84605,4247.692204,4234.358871,4267.179383,4151.79477,4216.410153,4224.102461,4220.512717
96,0,4222.563999,4224.615281,4234.358871,4176.410154,4196.922974,4228.717845,4238.974255,4245.128101,4228.205025,4257.435793,4152.820411,4219.487076,4221.025538,4214.871692
97,0,4208.205025,4211.281948,4220.512717,4162.05118,4228.717845,4228.205025,4235.384512,4241.025537,4223.58964,4248.205024,4156.410155,4205.128102,4207.179384,4203.589641
98,0,4202.051179,4213.846051,4218.974256,4171.79477,4227.179384,4232.307589,4231.281948,4242.563999,4224.102461,4251.794768,4150.256309,4197.948615,4207.692205,4204.615282
99,0,4211.281948,4222.563999,4227.179384,4185.128103,4204.615282,4228.717845,4230.256307,4238.974255,4221.538358,4250.769127,4156.410155,4207.179384,4211.794769,4206.666564
100,0,4217.948615,4223.58964,4229.230666,4182.05118,4213.846051,4217.948615,4229.743486,4226.666563,4214.871692,4232.820409,4147.179386,4208.205025,4197.948615,4200.512718
101,0,4214.871692,4229.743486,4230.769127,4183.076821,4221.025538,4214.358871,4226.666563,4219.487076,4209.230666,4219.999897,4124.102463,4203.589641,4189.230667,4201.025538
102,0,4216.410153,4242.563999,4237.948614,4201.538359,4218.974256,4224.615281,4228.205025,4227.179384,4214.871692,4234.358871,4132.820412,4207.179384,4197.948615,4213.33323
103,0,4222.563999,4243.076819,4237.948614,4207.179384,4222.563999,4232.307589,4231.281948,4236.922973,4223.58964,4250.769127,4158.461437,4210.256307,4210.769128,4219.999897
104,0,4232.307589,4247.179383,4235.897332,4204.102461,4217.948615,4233.33323,4234.871691,4241.025537,4225.640922,4251.281947,4175.897334,4217.948615,4228.205025,4225.640922
105,0,4241.025537,4262.051178,4243.076819,4211.281948,4221.025538,4235.897332,4241.538358,4242.563999,4228.205025,4256.922973,4183.589641,4228.717845,4240.512717,4238.461435
106,0,4227.692204,4257.435793,4236.410153,4207.692205,4239.487076,4235.897332,4239.999896,4246.153742,4228.717845,4269.743485,4180.512718,4220.512717,4237.435794,4238.974255
107,0,4208.205025,4239.999896,4216.410153,4192.30759,4231.794768,4231.281948,4231.794768,4251.281947,4225.640922,4275.384511,4169.743488,4202.051179,4226.666563,4219.487076
108,0,4207.692205,4237.435794,4210.256307,4189.230667,4220.512717,4230.256307,4233.33323,4252.820409,4225.640922,4275.897331,4165.128103,4195.384513,4226.666563,4209.230666
109,0,4208.205025,4232.307589,4214.358871,4188.205026,4227.179384,4233.33323,4243.58964,4244.10246,4221.538358,4266.666562,4159.487078,4192.30759,4224.102461,4208.717846
110,0,4199.999897,4219.487076,4213.33323,4184.615282,4224.615281,4233.84605,4245.128101,4239.999896,4214.358871,4253.333229,4151.28195,4190.769128,4213.846051,4202.051179
111,0,4205.128102,4221.025538,4218.974256,4191.281949,4217.435794,4233.33323,4235.897332,4241.538358,4212.82041,4247.179383,4144.615283,4193.333231,4208.717846,4197.435795
112,0,4213.846051,4229.743486,4227.179384,4200.512718,4210.769128,4227.179384,4229.230666,4237.948614,4215.384512,4250.256306,4153.333232,4196.410154,4215.384512,4204.102461
113,0,4212.307589,4223.58964,4230.769127,4198.461436,4210.256307,4219.487076,4232.307589,4233.33323,4216.922974,4253.333229,4169.743488,4206.153743,4217.948615,4209.743487
114,0,4212.82041,4214.358871,4233.84605,4199.487077,4216.410153,4216.922974,4232.307589,4234.358871,4215.384512,4253.333229,4161.53836,4217.435794,4210.256307,4209.230666
115,0,4219.999897,4216.410153,4236.410153,4205.128102,4216.410153,4216.410153,4228.717845,4237.435794,4214.871692,4250.256306,4150.256309,4218.461435,4210.256307,4211.794769
116,0,4225.640922,4232.307589,4237.435794,4210.256307,4223.07682,4222.051179,4241.538358,4247.692204,4223.58964,4257.948614,4175.384513,4222.563999,4228.205025,4223.58964
117,0,4222.563999,4232.820409,4236.922973,4204.615282,4237.435794,4230.769127,4250.256306,4253.333229,4230.769127,4267.179383,4187.692205,4227.692204,4233.84605,4225.128102
118,0,4211.281948,4215.897333,4226.153743,4193.846051,4228.717845,4228.205025,4238.974255,4236.922973,4217.948615,4258.461434,4154.871693,4216.922974,4217.435794,4210.256307
119,0,4203.589641,4206.666564,4215.897333,4188.205026,4208.717846,4218.461435,4227.179384,4215.897333,4205.640923,4251.794768,4138.974258,4202.564,4208.717846,4202.051179
120,0,4199.999897,4203.589641,4209.743487,4184.615282,4208.717846,4212.82041,4218.461435,4210.256307,4207.179384,4252.820409,4154.358873,4199.999897,4210.769128,4198.461436
121,0,4200.512718,4203.589641,4207.692205,4190.769128,4214.358871,4211.794769,4213.846051,4214.358871,4207.179384,4244.10246,4154.871693,4203.589641,4210.769128,4195.384513
122,0,4208.717846,4211.794769,4213.846051,4203.07682,4208.717846,4212.307589,4218.974256,4216.922974,4205.640923,4241.538358,4149.230668,4202.564,4220.512717,4202.564
123,0,4219.487076,4217.948615,4224.102461,4209.743487,4221.025538,4217.435794,4227.692204,4223.58964,4209.230666,4255.897332,4159.487078,4201.538359,4232.307589,4216.410153
124,0,4227.179384,4219.487076,4226.153743,4212.82041,4244.10246,4224.102461,4231.281948,4234.871691,4215.897333,4267.692203,4164.102462,4208.205025,4226.153743,4221.025538
125,0,4226.153743,4225.128102,4221.538358,4212.307589,4234.358871,4222.051179,4226.153743,4233.33323,4216.410153,4265.640921,4158.461437,4212.307589,4215.897333,4215.897333
126,0,4220.512717,4224.102461,4221.025538,4208.205025,4205.640923,4214.358871,4219.999897,4218.461435,4209.743487,4244.615281,4165.128103,4209.230666,4216.922974,4208.717846
127,0,4220.512717,4218.974256,4226.153743,4213.33323,4208.205025,4218.461435,4226.153743,4217.435794,4210.256307,4234.871691,4178.461436,4209.743487,4226.153743,4209.230666
128,0,4222.563999,4219.999897,4228.717845,4218.974256,4241.025537,4232.307589,4235.384512,4225.640922,4215.897333,4258.974255,4165.640924,4207.692205,4227.692204,4214.358871
0,0,4217.948615,4219.999897,4221.025538,4215.384512,4252.820409,4231.281948,4232.820409,4223.58964,4216.922974,4275.897331,4151.79477,4199.487077,4222.051179,4211.794769
1,0,4208.205025,4209.743487,4213.33323,4210.769128,4235.897332,4219.999897,4230.256307,4222.051179,4215.897333,4257.435793,4156.410155,4195.384513,4214.871692,4199.999897
2,0,4196.410154,4198.461436,4207.692205,4208.717846,4213.33323,4216.410153,4232.307589,4228.205025,4212.82041,4237.948614,4150.769129,4188.205026,4201.538359,4187.179385
3,0,4185.128103,4185.128103,4203.07682,4199.487077,4199.999897,4214.871692,4232.820409,4225.640922,4204.615282,4232.820409,4133.333232,4176.410154,4184.102462,4175.897334
4,0,4184.102462,4173.333231,4204.102461,4188.205026,4208.205025,4213.33323,4226.666563,4219.999897,4197.435795,4233.84605,4129.743489,4175.384513,4180.512718,4171.79477
5,0,4198.461436,4178.461436,4215.897333,4195.897333,4232.307589,4218.461435,4221.025538,4227.692204,4204.102461,4245.640922,4144.102463,4188.717846,4197.948615,4186.666564
6,0,4212.82041,4193.333231,4225.128102,4212.307589,4232.820409,4222.051179,4221.025538,4232.307589,4214.358871,4253.333229,4162.05118,4201.538359,4213.846051,4209.230666
7,0,4213.33323,4198.974256,4224.615281,4214.358871,4202.051179,4215.384512,4217.948615,4216.922974,4212.307589,4244.615281,4163.076821,4202.051179,4214.358871,4210.256307
8,0,4212.82041,4205.128102,4222.051179,4214.358871,4214.871692,4212.82041,4211.281948,4201.025538,4204.102461,4238.974255,4156.922975,4194.871692,4218.974256,4204.615282
9,0,4223.07682,4216.922974,4227.179384,4223.58964,4257.435793,4218.974256,4211.794769,4205.640923,4208.717846,4250.769127,4168.205026,4203.589641,4230.769127,4218.461435
10,0,4223.58964,4213.33323,4228.717845,4222.051179,4237.435794,4218.461435,4213.846051,4211.281948,4213.846051,4258.461434,4171.79477,4211.281948,4232.307589,4225.128102
11,0,4209.743487,4198.461436,4218.461435,4208.717846,4204.102461,4212.307589,4210.769128,4203.589641,4204.102461,4245.128101,4153.846052,4195.897333,4223.58964,4211.794769
12,0,4206.666564,4199.487077,4214.358871,4217.948615,4232.820409,4214.871692,4214.358871,4203.589641,4199.999897,4235.897332,4150.769129,4187.692205,4217.435794,4206.666564
13,0,4214.358871,4211.281948,4219.487076,4235.384512,4255.384511,4221.538358,4220.512717,4219.999897,4210.769128,4249.230665,4167.692206,4198.974256,4225.640922,4215.897333
14,0,4214.358871,4215.384512,4218.974256,4230.769127,4227.692204,4221.025538,4217.435794,4229.230666,4215.384512,4258.974255,4172.30759,4197.435795,4234.871691,4216.922974
15,0,4208.205025,4209.743487,4213.33323,4218.974256,4212.307589,4218.461435,4214.871692,4228.205025,4213.846051,4264.10246,4161.025539,4184.102462,4230.769127,4208.205025
16,0,4206.666564,4198.974256,4219.487076,4214.358871,4221.025538,4216.410153,4216.922974,4230.256307,4220.512717,4269.230665,4154.358873,4188.717846,4227.179384,4203.07682
17,0,4214.871692,4196.922974,4230.769127,4213.846051,4233.84605,4214.871692,4218.974256,4237.948614,4228.205025,4263.589639,4169.743488,4206.666564,4235.384512,4209.230666
18,0,4221.538358,4203.07682,4230.256307,4212.307589,4237.435794,4217.435794,4219.487076,4237.948614,4224.102461,4256.922973,4183.076821,4209.230666,4238.974255,4216.410153
19,0,4213.846051,4203.589641,4222.051179,4212.307589,4218.974256,4218.461435,4215.897333,4229.743486,4216.922974,4257.435793,4169.743488,4197.435795,4231.794768,4212.307589
20,0,4206.666564,4195.897333,4221.025538,4214.358871,4209.230666,4213.846051,4214.358871,4218.974256,4213.846051,4245.128101,4159.487078,4194.358872,4223.07682,4204.102461
21,0,4217.435794,4201.025538,4228.717845,4224.615281,4243.076819,4219.999897,4220.512717,4215.897333,4213.846051,4241.025537,4170.769129,4205.128102,4222.051179,4212.82041
22,0,4224.615281,4209.230666,4233.84605,4232.820409,4256.410152,4231.281948,4225.640922,4216.922974,4217.435794,4257.948614,4171.281949,4206.666564,4226.153743,4221.025538
23,0,4214.871692,4202.051179,4228.205025,4226.666563,4206.666564,4223.58964,4218.461435,4211.281948,4214.871692,4259.487075,4157.948616,4196.922974,4219.999897,4211.794769
24,0,4211.281948,4197.948615,4219.999897,4219.999897,4195.384513,4212.307589,4212.82041,4204.102461,4205.128102,4246.666563,4159.487078,4194.871692,4209.743487,4205.640923
25,0,4218.461435,4214.358871,4223.58964,4220.512717,4254.871691,4224.102461,4221.025538,4210.769128,4207.692205,4250.256306,4176.410154,4202.051179,4219.487076,4219.999897
26,0,4223.58964,4235.384512,4234.871691,4231.794768,4269.230665,4236.410153,4226.153743,4226.153743,4220.512717,4263.076819,4184.615282,4209.230666,4235.897332,4231.281948
27,0,4219.999897,4245.128101,4233.33323,4235.897332,4228.717845,4230.769127,4221.538358,4229.743486,4221.538358,4259.999896,4179.999898,4208.717846,4234.358871,4223.58964
28,0,4213.846051,4245.128101,4223.58964,4231.281948,4216.922974,4228.717845,4217.435794,4223.07682,4214.358871,4251.281947,4176.922975,4204.102461,4225.128102,4216.922974
29,0,4210.256307,4243.58964,4221.538358,4232.820409,4221.025538,4229.743486,4214.871692,4221.538358,4212.307589,4249.230665,4175.897334,4199.999897,4223.07682,4219.487076
30,0,4208.205025,4249.230665,4222.563999,4233.33323,4211.281948,4223.07682,4211.794769,4223.58964,4214.358871,4245.640922,4179.487077,4195.384513,4227.692204,4219.487076
31,0,4206.666564,4254.871691,4219.999897,4225.128102,4229.230666,4225.128102,4212.307589,4217.948615,4213.33323,4236.922973,4186.666564,4192.82041,4224.615281,4212.82041
32,0,4209.230666,4254.35887,4224.102461,4227.179384,4244.10246,4234.871691,4218.461435,4221.025538,4214.358871,4238.461435,4185.128103,4198.461436,4218.461435,4217.435794
33,0,4212.82041,4249.743486,4229.743486,4238.461435,4218.974256,4234.871691,4217.948615,4231.794768,4216.922974,4242.051178,4175.897334,4202.564,4217.948615,4222.563999
34,0,4207.179384,4245.640922,4224.102461,4239.999896,4222.051179,4232.307589,4216.410153,4231.794768,4215.897333,4239.487076,4178.461436,4194.358872,4220.512717,4216.410153
35,0,4206.666564,4248.205024,4219.999897,4238.461435,4238.974255,4234.871691,4218.461435,4221.538358,4215.384512,4244.10246,4187.179385,4189.743487,4221.025538,4215.384512
36,0,4212.307589,4254.35887,4221.538358,4242.563999,4207.179384,4232.307589,4218.461435,4218.974256,4213.33323,4247.692204,4183.076821,4192.82041,4218.974256,4216.922974
37,0,4210.769128,4249.743486,4223.58964,4246.666563,4195.384513,4227.692204,4221.025538,4224.102461,4210.256307,4236.922973,4181.025539,4194.358872,4216.922974,4211.794769
38,0,4211.281948,4245.128101,4226.153743,4251.794768,4242.051178,4233.84605,4226.666563,4227.692204,4213.33323,4235.897332,4191.794769,4198.974256,4225.640922,4215.897333
39,0,4221.538358,4250.769127,4233.33323,4254.871691,4256.922973,4239.999896,4230.769127,4226.666563,4220.512717,4239.487076,4198.461436,4204.615282,4233.84605,4227.692204
40,0,4224.615281,4256.410152,4233.84605,4257.435793,4217.948615,4235.897332,4227.692204,4222.563999,4217.435794,4234.358871,4193.333231,4203.07682,4229.230666,4226.153743
41,0,4222.563999,4253.84605,4230.769127,4259.999896,4203.589641,4230.769127,4223.58964,4222.051179,4213.846051,4235.897332,4189.230667,4201.025538,4226.153743,4222.563999
42,0,4231.794768,4254.871691,4235.897332,4262.563998,4224.102461,4233.84605,4222.051179,4225.640922,4221.025538,4250.256306,4200.512718,4210.769128,4238.974255,4235.384512
43,0,4239.999896,4257.435793,4242.051178,4263.076819,4233.84605,4233.84605,4221.025538,4224.102461,4226.666563,4259.487075,4214.871692,4220.512717,4248.717845,4245.128101
44,0,4233.84605,4255.384511,4239.999896,4263.076819,4230.256307,4229.743486,4219.999897,4216.410153,4223.58964,4251.281947,4211.281948,4215.897333,4242.563999,4239.487076
45,0,4224.102461,4250.769127,4233.33323,4259.999896,4235.897332,4231.794768,4218.974256,4212.307589,4220.512717,4237.948614,4197.948615,4204.615282,4232.307589,4230.769127
46,0,4224.615281,4251.794768,4230.256307,4250.769127,4227.692204,4232.820409,4221.538358,4217.435794,4222.563999,4239.999896,4194.871692,4203.589641,4231.794768,4230.256307
47,0,4229.743486,4255.897332,4231.281948,4247.692204,4206.153743,4234.358871,4227.179384,4224.615281,4224.615281,4249.743486,4202.564,4208.717846,4238.461435,4231.281948
48,0,4227.179384,4251.794768,4228.205025,4252.307588,4219.487076,4240.512717,4230.256307,4224.102461,4222.563999,4247.179383,4199.487077,4201.025538,4237.435794,4224.102461
49,0,4226.153743,4246.153742,4224.102461,4255.384511,4257.435793,4244.10246,4228.205025,4226.153743,4219.999897,4241.538358,4200.512718,4196.922974,4238.974255,4224.615281
50,0,4234.358871,4246.153742,4228.717845,4255.384511,4245.128101,4241.025537,4221.538358,4231.794768,4223.07682,4245.128101,4214.358871,4209.743487,4251.281947,4236.410153
51,0,4238.461435,4247.692204,4232.307589,4254.871691,4199.487077,4235.384512,4216.922974,4232.307589,4228.717845,4253.84605,4218.974256,4215.384512,4257.948614,4242.051178
52,0,4234.871691,4247.692204,4232.307589,4254.871691,4212.307589,4231.281948,4221.025538,4228.717845,4229.743486,4258.974255,4206.666564,4210.256307,4251.794768,4235.897332
53,0,4237.948614,4245.640922,4232.820409,4257.948614,4252.820409,4236.410153,4225.640922,4228.205025,4227.179384,4251.281947,4205.640923,4213.846051,4251.794768,4237.435794
54,0,4235.384512,4237.435794,4232.820409,4254.35887,4229.743486,4238.461435,4221.538358,4223.07682,4223.58964,4237.948614,4215.384512,4219.487076,4256.922973,4241.025537
55,0,4228.717845,4235.384512,4230.256307,4254.35887,4199.999897,4234.358871,4222.563999,4220.512717,4221.025538,4237.948614,4207.179384,4212.307589,4250.769127,4233.84605
56,0,4233.33323,4241.025537,4231.281948,4258.461434,4239.487076,4240.512717,4231.281948,4222.051179,4219.999897,4244.10246,4190.256308,4203.589641,4237.948614,4227.692204
57,0,4230.769127,4235.384512,4227.179384,4250.769127,4266.153742,4250.256306,4231.794768,4217.948615,4215.897333,4239.487076,4193.333231,4201.538359,4235.897332,4225.640922
58,0,4218.461435,4221.538358,4222.051179,4242.051178,4222.563999,4241.538358,4226.153743,4211.794769,4211.281948,4229.743486,4203.07682,4201.538359,4238.461435,4221.025538
59,0,4223.58964,4227.692204,4224.615281,4252.307588,4201.538359,4231.281948,4223.07682,4215.897333,4212.82041,4230.256307,4203.589641,4207.692205,4242.563999,4225.640922
60,0,4234.871691,4235.897332,4229.230666,4257.948614,4228.717845,4233.84605,4223.07682,4224.102461,4217.435794,4236.922973,4196.410154,4210.769128,4243.58964,4232.820409
61,0,4223.58964,4225.128102,4226.666563,4247.692204,4243.58964,4234.871691,4223.07682,4225.640922,4217.435794,4233.33323,4190.256308,4201.538359,4231.794768,4219.487076
62,0,4212.307589,4211.281948,4223.07682,4242.051178,4239.487076,4235.384512,4224.102461,4219.487076,4213.846051,4224.615281,4184.102462,4195.384513,4223.07682,4208.205025
63,0,4221.538358,4211.281948,4228.717845,4241.538358,4210.256307,4231.794768,4222.563999,4213.33323,4211.281948,4228.717845,4187.692205,4203.07682,4230.769127,4222.563999
64,0,4226.666563,4211.794769,4233.84605,4239.487076,4182.564,4219.487076,4217.435794,4210.256307,4212.307589,4226.153743,4199.487077,4210.256307,4234.871691,4227.692204
65,0,4216.410153,4208.717846,4227.179384,4238.974255,4203.07682,4221.538358,4212.82041,4209.743487,4210.256307,4209.743487,4194.871692,4201.025538,4222.051179,4209.230666
66,0,4213.846051,4209.743487,4222.563999,4241.538358,4234.871691,4234.358871,4214.871692,4207.692205,4203.589641,4209.230666,4177.948616,4190.256308,4215.384512,4203.07682
67,0,4218.974256,4207.179384,4224.102461,4239.999896,4230.256307,4234.871691,4219.487076,4207.179384,4203.07682,4223.07682,4169.743488,4188.717846,4221.025538,4209.230666
68,0,4215.384512,4206.153743,4219.487076,4233.33323,4225.128102,4230.256307,4219.999897,4217.435794,4212.82041,4234.871691,4181.538359,4191.281949,4227.179384,4209.230666
69,0,4211.794769,4209.230666,4215.897333,4236.922973,4225.640922,4232.307589,4215.384512,4227.692204,4222.563999,4243.58964,4199.487077,4193.333231,4234.358871,4211.281948
70,0,4215.897333,4205.128102,4218.461435,4240.512717,4218.461435,4230.769127,4212.307589,4219.487076,4218.461435,4238.461435,4203.589641,4190.769128,4235.897332,4215.384512
71,0,4213.33323,4192.30759,4216.410153,4233.33323,4225.128102,4227.179384,4215.897333,4205.640923,4205.128102,4214.871692,4189.230667,4179.487077,4225.128102,4207.692205
72,0,4204.102461,4190.256308,4207.179384,4226.666563,4215.384512,4224.615281,4216.410153,4206.153743,4198.461436,4207.692205,4176.410154,4168.717847,4214.871692,4199.999897
73,0,4205.128102,4198.461436,4206.666564,4229.743486,4202.564,4217.948615,4209.743487,4209.230666,4199.999897,4223.07682,4178.461436,4174.358872,4214.358871,4201.538359
74,0,4211.281948,4203.07682,4210.769128,4233.33323,4226.153743,4215.384512,4208.717846,4205.640923,4201.538359,4226.666563,4187.692205,4185.640923,4222.051179,4205.128102
75,0,4209.743487,4198.461436,4212.307589,4234.871691,4241.538358,4219.999897,4213.33323,4204.615282,4203.589641,4213.846051,4190.769128,4183.589641,4229.230666,4205.640923
76,0,4209.743487,4196.922974,4214.871692,4241.025537,4227.179384,4224.102461,4215.897333,4210.256307,4203.589641,4213.33323,4184.615282,4181.025539,4228.205025,4208.717846
77,0,4216.922974,4204.102461,4221.025538,4243.076819,4211.281948,4221.025538,4216.410153,4207.692205,4202.051179,4225.128102,4181.538359,4186.666564,4218.974256,4207.692205
78,0,4212.307589,4204.102461,4218.461435,4234.871691,4213.846051,4214.871692,4213.33323,4197.948615,4205.128102,4229.230666,4187.179385,4183.076821,4223.07682,4201.538359
79,0,4200.512718,4195.384513,4210.769128,4231.281948,4227.179384,4215.384512,4211.281948,4199.487077,4207.692205,4228.205025,4187.692205,4173.333231,4236.922973,4199.487077
80,0,4203.07682,4196.922974,4211.281948,4241.538358,4231.794768,4220.512717,4213.846051,4210.256307,4204.102461,4228.205025,4189.230667,4177.435795,4237.948614,4203.589641
81,0,4208.205025,4205.128102,4214.871692,4247.179383,4223.58964,4218.974256,4214.871692,4214.358871,4202.564,4231.281948,4195.897333,4181.025539,4229.743486,4205.640923
82,0,4200.512718,4203.589641,4208.717846,4240.512717,4225.128102,4216.410153,4214.358871,4211.281948,4205.640923,4237.435794,4191.794769,4170.256308,4225.640922,4199.999897
83,0,4197.948615,4195.897333,4207.179384,4242.051178,4237.948614,4218.974256,4218.461435,4205.640923,4205.640923,4238.461435,4183.076821,4168.717847,4226.666563,4197.948615
84,0,4202.564,4190.769128,4213.846051,4245.128101,4236.410153,4220.512717,4213.33323,4194.871692,4198.974256,4222.563999,4185.128103,4174.358872,4223.58964,4200.512718
85,0,4205.128102,4191.794769,4217.435794,4238.461435,4220.512717,4216.922974,4203.07682,4192.82041,4197.435795,4211.794769,4191.281949,4172.820411,4223.07682,4204.615282
86,0,4208.205025,4194.871692,4218.461435,4237.948614,4221.025538,4214.871692,4202.051179,4204.615282,4205.640923,4225.128102,4192.82041,4177.948616,4230.769127,4206.666564
87,0,4211.281948,4192.82041,4216.922974,4242.563999,4244.615281,4218.461435,4203.589641,4209.230666,4207.692205,4242.563999,4191.281949,4180.512718,4233.84605,4206.153743
88,0,4215.384512,4191.794769,4218.974256,4244.10246,4259.999896,4220.512717,4204.615282,4205.128102,4205.640923,4247.692204,4192.82041,4177.435795,4232.820409,4208.205025
89,0,4229.230666,4205.128102,4229.230666,4253.84605,4245.640922,4221.538358,4214.871692,4215.384512,4217.948615,4256.410152,4207.692205,4189.743487,4247.179383,4222.051179
90,0,4237.435794,4211.794769,4235.384512,4264.10246,4209.230666,4217.435794,4221.538358,4226.153743,4226.153743,4256.410152,4214.871692,4200.512718,4255.384511,4230.769127
91,0,4225.640922,4201.025538,4224.615281,4255.384511,4207.692205,4216.410153,4215.384512,4221.025538,4218.461435,4243.58964,4207.179384,4186.153744,4245.128101,4218.974256
92,0,4216.410153,4193.333231,4215.897333,4242.563999,4246.153742,4225.128102,4215.897333,4217.948615,4214.358871,4241.025537,4200.512718,4171.79477,4243.076819,4207.179384
93,0,4217.948615,4193.333231,4216.922974,4244.10246,4244.615281,4224.615281,4214.871692,4219.999897,4215.897333,4245.640922,4194.358872,4179.487077,4244.10246,4211.281948
94,0,4222.563999,4189.743487,4223.58964,4248.205024,4215.384512,4214.358871,4207.692205,4213.33323,4216.922974,4239.999896,4191.281949,4187.179385,4237.948614,4218.461435
95,0,4224.615281,4191.794769,4228.717845,4252.820409,4225.640922,4213.33323,4209.230666,4210.769128,4218.461435,4241.025537,4198.974256,4187.179385,4244.10246,4223.58964
96,0,4224.102461,4193.333231,4226.153743,4252.307588,4236.410153,4215.384512,4209.230666,4208.717846,4211.281948,4241.538358,4200.512718,4183.589641,4247.179383,4222.563999
97,0,4222.051179,4184.102462,4221.538358,4241.538358,4239.487076,4213.846051,4202.564,4199.487077,4205.640923,4233.84605,4199.999897,4183.076821,4242.051178,4222.051179
98,0,4222.051179,4182.05118,4221.538358,4235.384512,4247.179383,4218.461435,4200.512718,4200.512718,4214.358871,4238.461435,4210.769128,4184.102462,4244.615281,4225.128102
99,0,4223.07682,4193.333231,4219.487076,4242.563999,4213.846051,4215.384512,4199.487077,4210.256307,4218.974256,4252.307588,4213.33323,4179.999898,4244.10246,4221.538358
100,0,4225.128102,4196.410154,4216.922974,4251.794768,4206.666564,4211.281948,4199.999897,4208.205025,4213.33323,4247.179383,4207.692205,4183.589641,4238.974255,4221.025538
101,0,4225.640922,4192.82041,4215.384512,4250.256306,4268.717844,4224.102461,4204.102461,4202.051179,4208.717846,4231.794768,4207.692205,4184.615282,4238.461435,4224.615281
102,0,4220.512717,4191.794769,4212.82041,4245.640922,4262.563998,4225.640922,4203.07682,4207.179384,4209.230666,4234.871691,4201.538359,4173.846052,4231.794768,4213.846051
103,0,4215.384512,4188.717846,4215.897333,4245.128101,4198.461436,4211.281948,4198.461436,4209.230666,4212.307589,4241.025537,4196.922974,4170.256308,4228.717845,4205.128102
104,0,4215.384512,4182.564,4216.410153,4243.076819,4217.948615,4211.794769,4200.512718,4199.487077,4208.717846,4230.256307,4199.999897,4176.922975,4230.769127,4210.256307
105,0,4207.179384,4172.820411,4204.102461,4231.794768,4264.61528,4219.999897,4202.051179,4191.281949,4202.051179,4221.538358,4193.846051,4170.769129,4218.974256,4205.640923
106,0,4201.538359,4168.717847,4198.974256,4229.743486,4250.256306,4217.948615,4201.538359,4199.999897,4204.615282,4231.794768,4187.692205,4162.564001,4215.897333,4199.999897
107,0,4211.281948,4183.076821,4211.281948,4242.051178,4232.307589,4215.897333,4203.07682,4214.871692,4213.846051,4245.128101,4191.794769,4170.256308,4229.230666,4210.256307
108,0,4218.461435,4190.769128,4214.358871,4245.640922,4221.538358,4217.435794,4204.615282,4217.435794,4214.871692,4246.666563,4195.897333,4173.333231,4231.794768,4215.384512
109,0,4211.281948,4173.846052,4207.179384,4233.84605,4199.999897,4212.307589,4202.051179,4204.615282,4209.743487,4235.384512,4192.30759,4168.205026,4225.128102,4205.640923
110,0,4212.82041,4176.410154,4207.179384,4230.256307,4213.846051,4209.230666,4193.333231,4199.999897,4209.230666,4227.179384,4193.846051,4172.820411,4233.33323,4205.640923
111,0,4224.102461,4202.564,4213.33323,4241.025537,4242.051178,4212.82041,4191.281949,4207.179384,4215.384512,4236.922973,4204.102461,4178.461436,4240.512717,4215.897333
112,0,4221.025538,4208.205025,4213.846051,4242.051178,4229.743486,4216.410153,4197.435795,4209.743487,4218.974256,4245.640922,4211.281948,4174.358872,4230.769127,4216.410153
113,0,4204.102461,4192.82041,4210.769128,4225.128102,4215.897333,4211.281948,4198.974256,4202.564,4210.256307,4229.743486,4202.564,4168.205026,4215.384512,4203.589641
114,0,4203.07682,4196.922974,4213.846051,4223.07682,4221.025538,4212.82041,4202.051179,4206.153743,4205.128102,4219.999897,4189.743487,4166.666565,4208.717846,4200.512718
115,0,4217.948615,4216.410153,4222.051179,4237.435794,4221.025538,4225.128102,4213.846051,4224.615281,4216.410153,4232.307589,4194.358872,4174.871693,4209.743487,4208.717846
116,0,4220.512717,4227.692204,4220.512717,4241.538358,4230.769127,4229.230666,4219.999897,4233.33323,4221.538358,4242.563999,4210.769128,4183.589641,4217.948615,4212.82041
117,0,4209.230666,4229.230666,4215.384512,4236.410153,4233.33323,4225.128102,4214.871692,4222.563999,4211.794769,4234.358871,4211.794769,4178.461436,4218.461435,4211.281948
118,0,4201.538359,4225.640922,4214.871692,4235.897332,4217.435794,4225.640922,4213.846051,4217.948615,4207.179384,4222.563999,4199.487077,4170.769129,4208.205025,4207.179384
119,0,4201.538359,4226.153743,4213.846051,4235.384512,4226.666563,4229.230666,4215.897333,4225.640922,4211.281948,4227.692204,4199.999897,4171.79477,4208.717846,4205.128102
120,0,4203.589641,4228.717845,4209.743487,4227.179384,4241.025537,4226.153743,4212.82041,4225.128102,4213.846051,4242.563999,4207.692205,4169.743488,4219.999897,4205.640923
121,0,4210.256307,4232.820409,4208.717846,4226.153743,4214.871692,4224.102461,4211.794769,4226.153743,4217.435794,4251.794768,4209.743487,4167.692206,4226.153743,4210.769128
122,0,4211.794769,4230.256307,4211.794769,4231.794768,4196.410154,4229.743486,4218.461435,4235.384512,4219.487076,4238.974255,4212.307589,4169.743488,4229.743486,4214.871692
123,0,4205.640923,4227.179384,4212.82041,4230.769127,4230.256307,4233.84605,4224.102461,4235.384512,4216.922974,4226.153743,4217.435794,4171.281949,4232.820409,4215.897333
124,0,4204.615282,4228.717845,4214.871692,4222.051179,4249.743486,4233.84605,4221.025538,4228.717845,4216.410153,4238.974255,4209.743487,4176.410154,4228.205025,4214.871692
125,0,4212.307589,4230.256307,4223.58964,4222.563999,4235.384512,4231.794768,4216.922974,4226.153743,4217.948615,4248.717845,4208.717846,4184.102462,4229.230666,4213.33323
126,0,4223.07682,4232.820409,4232.307589,4232.307589,4227.692204,4231.794768,4222.051179,4223.58964,4218.974256,4236.922973,4229.230666,4188.717846,4242.563999,4219.487076
127,0,4228.717845,4240.512717,4226.153743,4242.051178,4226.666563,4233.33323,4225.640922,4223.07682,4219.999897,4237.948614,4237.435794,4188.717846,4248.205024,4230.256307
128,0,4223.07682,4243.58964,4218.974256,4244.615281,4222.051179,4231.281948,4221.025538,4224.615281,4219.999897,4247.692204,4221.025538,4176.922975,4236.410153,4227.179384
0,0,4214.871692,4238.974255,4215.897333,4242.563999,4220.512717,4224.102461,4215.897333,4219.487076,4215.384512,4238.974255,4210.769128,4164.615283,4229.230666,4212.82041
1,0,4216.922974,4232.820409,4215.897333,4239.487076,4224.615281,4219.487076,4213.33323,4208.717846,4208.717846,4228.717845,4211.281948,4167.692206,4229.743486,4206.666564
2,0,4222.051179,4229.230666,4215.897333,4235.384512,4225.128102,4219.487076,4210.769128,4202.564,4203.589641,4222.051179,4210.256307,4170.769129,4227.692204,4209.743487
3,0,4219.487076,4225.640922,4216.922974,4228.717845,4222.563999,4223.07682,4211.794769,4207.692205,4208.205025,4219.999897,4207.692205,4167.692206,4230.256307,4214.871692
4,0,4217.435794,4226.666563,4217.948615,4227.692204,4215.897333,4227.692204,4214.871692,4218.974256,4213.846051,4233.33323,4205.128102,4169.743488,4231.281948,4215.897333
5,0,4209.743487,4221.538358,4213.33323,4225.640922,4207.179384,4223.07682,4215.897333,4217.948615,4208.717846,4236.410153,4198.461436,4169.743488,4219.999897,4202.564
6,0,4196.922974,4205.640923,4203.589641,4216.922974,4210.769128,4216.922974,4216.922974,4207.692205,4203.589641,4226.666563,4197.948615,4162.564001,4216.410153,4192.82041
7,0,4197.948615,4199.999897,4205.128102,4219.999897,4225.640922,4223.58964,4221.538358,4210.769128,4207.179384,4225.640922,4204.102461,4166.666565,4228.205025,4202.564
8,0,4209.743487,4212.82041,4215.384512,4229.743486,4232.307589,4226.153743,4220.512717,4219.487076,4211.281948,4227.692204,4208.717846,4178.974257,4231.794768,4210.256307
9,0,4215.897333,4228.717845,4216.922974,4229.743486,4226.666563,4221.538358,4220.512717,4225.128102,4215.384512,4234.358871,4217.435794,4185.128103,4233.84605,4211.281948
10,0,4213.846051,4232.307589,4214.871692,4232.307589,4217.435794,4224.615281,4228.205025,4231.794768,4222.563999,4247.179383,4232.820409,4185.128103,4248.717845,4219.999897
11,0,4215.897333,4226.153743,4217.435794,4240.512717,4208.205025,4223.58964,4225.640922,4230.256307,4222.563999,4245.640922,4234.358871,4185.640923,4256.922973,4226.666563
12,0,4223.58964,4226.666563,4220.512717,4241.025537,4220.512717,4221.025538,4214.871692,4222.563999,4219.487076,4243.076819,4221.025538,4190.256308,4251.794768,4223.58964
13,0,4228.717845,4240.512717,4218.974256,4239.487076,4246.666563,4229.230666,4215.384512,4227.692204,4224.102461,4259.999896,4226.153743,4195.384513,4256.410152,4225.128102
14,0,4229.230666,4245.640922,4217.435794,4243.076819,4238.974255,4228.205025,4218.974256,4229.743486,4224.615281,4263.589639,4239.487076,4190.256308,4267.179383,4229.743486
15,0,4228.717845,4241.538358,4218.461435,4246.666563,4212.82041,4216.410153,4212.82041,4221.025538,4219.999897,4246.666563,4232.820409,4179.999898,4264.61528,4230.769127
16,0,4229.230666,4243.076819,4222.051179,4244.10246,4223.58964,4218.974256,4211.794769,4216.922974,4216.922974,4238.461435,4226.666563,4177.948616,4254.35887,4226.153743
17,0,4225.640922,4245.128101,4222.051179,4241.025537,4251.281947,4224.102461,4215.897333,4216.922974,4216.922974,4245.640922,4232.820409,4182.564,4255.384511,4222.563999
18,0,4225.640922,4241.025537,4222.051179,4242.563999,4257.948614,4220.512717,4216.410153,4209.230666,4217.948615,4250.256306,4228.205025,4189.230667,4257.435793,4226.666563
19,0,4225.640922,4236.922973,4221.538358,4245.128101,4235.897332,4219.487076,4217.948615,4210.256307,4217.948615,4244.615281,4222.051179,4192.82041,4255.897332,4233.33323
20,0,4222.563999,4234.871691,4216.410153,4246.666563,4209.743487,4218.974256,4217.948615,4215.897333,4214.871692,4234.871691,4225.128102,4187.179385,4252.307588,4229.230666
21,0,4221.538358,4239.487076,4215.384512,4251.794768,4225.128102,4222.051179,4216.922974,4220.512717,4219.999897,4242.563999,4231.281948,4181.538359,4255.897332,4223.58964
22,0,4223.58964,4244.615281,4224.615281,4256.922973,4260.512716,4229.230666,4218.974256,4226.666563,4233.84605,4260.512716,4236.922973,4187.692205,4263.076819,4227.692204
23,0,4226.153743,4242.051178,4225.128102,4255.897332,4247.692204,4226.666563,4218.461435,4223.58964,4232.820409,4259.487075,4233.84605,4193.846051,4257.948614,4230.769127
24,0,4229.743486,4237.435794,4219.999897,4247.692204,4202.564,4213.846051,4213.846051,4209.230666,4222.563999,4239.487076,4228.205025,4194.871692,4249.743486,4230.769127
25,0,4237.948614,4239.999896,4225.640922,4247.692204,4213.846051,4215.384512,4211.794769,4212.307589,4222.563999,4238.461435,4238.974255,4207.179384,4258.461434,4239.999896
26,0,4242.563999,4247.179383,4234.871691,4253.333229,4251.281947,4227.692204,4211.794769,4221.025538,4226.666563,4251.281947,4245.640922,4212.307589,4270.256306,4249.230665
27,0,4233.33323,4241.538358,4225.640922,4249.230665,4251.794768,4227.179384,4204.615282,4211.281948,4219.999897,4241.025537,4227.179384,4191.281949,4255.897332,4237.435794
28,0,4227.692204,4229.230666,4218.461435,4237.948614,4232.820409,4218.461435,4198.974256,4217.435794,4212.82041,4229.743486,4214.871692,4176.922975,4241.538358,4225.128102
29,0,4230.769127,4230.769127,4226.153743,4239.487076,4214.871692,4215.897333,4206.153743,4245.640922,4219.999897,4236.410153,4223.07682,4188.205026,4247.179383,4229.230666
30,0,4226.666563,4234.358871,4225.640922,4249.743486,4216.410153,4217.948615,4216.410153,4255.897332,4223.07682,4237.948614,4229.230666,4194.358872,4248.717845,4232.307589
31,0,4220.512717,4226.666563,4217.435794,4248.717845,4238.461435,4221.025538,4217.435794,4250.769127,4218.974256,4227.179384,4228.717845,4184.615282,4238.461435,4224.102461
32,0,4226.666563,4228.205025,4220.512717,4245.128101,4252.307588,4225.128102,4216.410153,4256.410152,4221.025538,4232.820409,4226.666563,4182.05118,4241.025537,4222.051179
33,0,4227.692204,4233.33323,4226.153743,4242.563999,4225.640922,4219.999897,4216.922974,4258.461434,4221.538358,4245.128101,4218.974256,4184.615282,4244.10246,4222.051179
34,0,4223.58964,4228.717845,4221.538358,4240.512717,4210.256307,4214.358871,4214.358871,4254.871691,4216.922974,4245.128101,4221.025538,4187.179385,4242.051178,4224.102461
35,0,4229.743486,4229.230666,4218.974256,4242.563999,4228.205025,4222.563999,4212.307589,4254.35887,4217.435794,4238.974255,4227.692204,4188.717846,4246.153742,4231.794768
36,0,4228.205025,4232.820409,4215.384512,4245.128101,4244.10246,4229.230666,4214.871692,4245.128101,4215.897333,4229.743486,4214.871692,4181.025539,4241.538358,4226.666563
37,0,4216.410153,4224.615281,4209.230666,4237.948614,4251.281947,4229.743486,4216.922974,4232.820409,4209.743487,4224.102461,4199.487077,4173.333231,4227.692204,4213.33323
38,0,4217.435794,4219.999897,4210.769128,4234.358871,4231.794768,4231.794768,4216.410153,4237.435794,4213.846051,4228.717845,4210.769128,4178.461436,4236.410153,4218.461435
39,0,4227.179384,4226.153743,4216.410153,4248.205024,4213.846051,4230.256307,4213.846051,4244.10246,4221.538358,4227.692204,4217.435794,4184.615282,4245.640922,4227.692204
40,0,4229.230666,4227.692204,4218.461435,4250.256306,4243.58964,4229.230666,4212.307589,4235.897332,4215.897333,4222.563999,4204.615282,4187.692205,4233.84605,4224.615281
41,0,4231.281948,4224.102461,4222.563999,4238.974255,4270.769126,4232.820409,4215.897333,4233.84605,4215.897333,4232.307589,4207.692205,4196.922974,4233.33323,4224.615281
42,0,4232.307589,4222.563999,4227.179384,4241.538358,4225.128102,4231.794768,4215.384512,4239.487076,4223.58964,4242.563999,4227.179384,4204.615282,4246.153742,4229.743486
43,0,4228.205025,4218.461435,4226.666563,4247.179383,4185.640923,4225.128102,4215.384512,4237.435794,4220.512717,4231.281948,4228.717845,4198.974256,4245.640922,4230.769127
44,0,4226.666563,4213.846051,4224.615281,4241.538358,4230.769127,4225.640922,4223.58964,4236.922973,4212.82041,4222.051179,4218.461435,4194.358872,4241.025537,4227.179384
45,0,4232.307589,4216.410153,4227.179384,4243.58964,4265.640921,4231.281948,4225.640922,4242.563999,4214.871692,4225.128102,4222.563999,4197.948615,4241.025537,4229.230666
46,0,4235.384512,4217.435794,4232.307589,4252.307588,4238.974255,4229.743486,4217.948615,4243.58964,4224.102461,4223.58964,4231.794768,4205.128102,4241.025537,4235.384512
47,0,4235.384512,4216.922974,4230.769127,4248.205024,4210.256307,4222.051179,4217.435794,4244.615281,4226.153743,4227.692204,4231.281948,4204.615282,4249.230665,4236.410153
48,0,4233.33323,4217.948615,4221.025538,4239.487076,4214.358871,4216.410153,4216.922974,4243.076819,4221.025538,4235.384512,4223.58964,4193.846051,4250.256306,4229.743486
49,0,4225.640922,4214.358871,4214.871692,4239.487076,4239.999896,4214.871692,4203.07682,4229.743486,4213.846051,4231.281948,4213.846051,4183.076821,4233.84605,4222.563999
50,0,4218.461435,4209.230666,4218.974256,4242.051178,4253.84605,4217.948615,4195.384513,4213.33323,4209.743487,4225.640922,4205.640923,4182.564,4224.102461,4218.461435
51,0,4219.999897,4211.794769,4220.512717,4241.025537,4223.58964,4217.948615,4197.948615,4202.564,4212.82041,4227.692204,4214.871692,4187.179385,4234.871691,4220.512717
52,0,4227.692204,4215.384512,4216.922974,4239.999896,4199.999897,4216.410153,4197.435795,4193.846051,4215.384512,4226.666563,4227.692204,4187.692205,4242.051178,4225.640922
53,0,4230.256307,4214.358871,4213.846051,4239.487076,4241.025537,4222.563999,4203.07682,4192.82041,4217.435794,4226.153743,4220.512717,4186.666564,4238.461435,4226.153743
54,0,4226.153743,4208.205025,4218.461435,4238.974255,4274.35887,4233.33323,4215.384512,4199.487077,4217.948615,4232.307589,4204.615282,4182.564,4233.33323,4219.999897
55,0,4222.051179,4205.640923,4222.563999,4245.640922,4229.743486,4229.230666,4219.999897,4201.025538,4214.871692,4231.794768,4203.589641,4179.999898,4229.743486,4218.974256
56,0,4222.563999,4205.640923,4218.974256,4250.256306,4193.846051,4215.384512,4215.384512,4198.461436,4212.307589,4216.410153,4209.743487,4183.076821,4231.281948,4220.512717
57,0,4222.051179,4207.692205,4214.871692,4243.076819,4232.820409,4217.948615,4214.871692,4204.102461,4212.82041,4206.666564,4209.230666,4183.076821,4233.84605,4219.999897
58,0,4221.538358,4202.564,4219.487076,4236.410153,4271.281947,4230.256307,4218.974256,4208.205025,4212.307589,4216.922974,4201.025538,4181.538359,4230.256307,4219.487076
59,0,4223.58964,4196.410154,4222.563999,4239.999896,4245.128101,4229.743486,4216.410153,4207.179384,4210.769128,4229.230666,4203.07682,4185.128103,4230.769127,4224.615281
60,0,4223.07682,4200.512718,4217.948615,4245.128101,4199.487077,4216.922974,4204.615282,4208.205025,4216.410153,4227.179384,4210.769128,4186.153744,4236.922973,4226.153743
