title:V                                                                               , recorded:06.07.20 12.54.20, sampling:128, subject:B                                                                               , labels:COUNTER INTERPOLATED AF3 F7 F3 FC5 T7 P7 O1 O2 P8 T8 FC6 F4 F8 AF4,, units:emotiv,,,,,,,,,
48,0,4189.743487,4160.512719,4200.512718,4178.974257,4204.102461,4215.897333,4210.256307,4214.871692,4205.128102,4223.07682,4193.333231,4183.589641,4183.076821,4195.897333
49,0,4197.948615,4188.717846,4205.640923,4192.82041,4223.07682,4218.461435,4205.128102,4218.461435,4205.640923,4239.487076,4206.153743,4185.640923,4197.435795,4208.717846
50,0,4215.384512,4214.871692,4207.692205,4214.358871,4219.999897,4213.846051,4202.051179,4215.384512,4198.461436,4219.999897,4206.153743,4186.153744,4204.102461,4218.974256
51,0,4207.692205,4203.07682,4204.102461,4210.769128,4184.102462,4207.179384,4205.128102,4209.743487,4196.922974,4196.922974,4189.230667,4179.487077,4180.512718,4199.487077
52,0,4182.564,4183.589641,4194.871692,4199.487077,4154.871693,4198.461436,4198.974256,4200.512718,4192.82041,4190.256308,4168.717847,4164.102462,4150.256309,4170.769129
53,0,4174.358872,4182.05118,4191.794769,4192.30759,4184.102462,4201.025538,4197.435795,4196.922974,4187.692205,4200.512718,4166.153744,4158.461437,4150.769129,4165.640924
54,0,4187.179385,4192.30759,4196.922974,4191.794769,4223.58964,4215.897333,4210.769128,4210.256307,4193.333231,4220.512717,4182.05118,4175.384513,4172.820411,4181.538359
55,0,4194.871692,4193.333231,4202.564,4198.461436,4219.487076,4219.487076,4215.897333,4212.82041,4200.512718,4215.384512,4185.640923,4186.153744,4179.487077,4190.256308
56,0,4197.948615,4192.30759,4202.564,4207.179384,4200.512718,4217.435794,4215.897333,4207.179384,4197.948615,4201.025538,4182.564,4177.948616,4174.871693,4194.358872
57,0,4202.564,4196.922974,4201.025538,4208.717846,4172.30759,4216.410153,4214.871692,4208.205025,4194.358872,4189.743487,4185.640923,4171.79477,4173.333231,4196.410154
58,0,4204.102461,4199.999897,4202.051179,4205.128102,4164.102462,4215.897333,4205.640923,4203.589641,4192.82041,4186.153744,4187.179385,4178.461436,4169.743488,4197.435795
59,0,4205.640923,4194.358872,4207.179384,4203.589641,4209.230666,4217.435794,4201.538359,4198.461436,4191.281949,4207.179384,4181.538359,4185.640923,4166.153744,4199.487077
60,0,4207.179384,4188.717846,4209.230666,4198.461436,4252.307588,4217.435794,4208.205025,4199.999897,4189.743487,4219.999897,4184.102462,4184.615282,4173.846052,4201.025538
61,0,4206.153743,4191.794769,4208.205025,4196.410154,4226.666563,4214.358871,4208.717846,4202.051179,4189.230667,4199.999897,4190.256308,4183.589641,4182.564,4201.025538
62,0,4205.640923,4196.410154,4205.128102,4205.128102,4175.897334,4206.666564,4199.487077,4201.025538,4191.794769,4187.692205,4186.153744,4184.615282,4178.974257,4197.435795
63,0,4206.153743,4193.846051,4204.615282,4213.846051,4172.820411,4203.07682,4199.487077,4205.128102,4193.846051,4201.538359,4184.102462,4183.076821,4176.410154,4198.974256
64,0,4204.102461,4185.640923,4206.666564,4210.256307,4191.794769,4204.615282,4204.615282,4212.307589,4195.897333,4209.743487,4189.230667,4179.487077,4182.05118,4200.512718
65,0,4201.538359,4185.128103,4205.640923,4198.461436,4206.153743,4209.230666,4208.717846,4216.922974,4196.922974,4217.435794,4192.30759,4176.922975,4190.256308,4201.538359
66,0,4197.435795,4184.615282,4202.564,4190.256308,4223.58964,4212.307589,4209.230666,4208.205025,4192.30759,4224.615281,4184.102462,4171.281949,4183.076821,4197.435795
67,0,4195.384513,4182.05118,4203.07682,4190.769128,4225.640922,4210.256307,4204.102461,4197.948615,4192.30759,4221.538358,4180.512718,4169.230667,4171.79477,4194.871692
68,0,4195.897333,4183.076821,4206.666564,4197.948615,4199.999897,4201.538359,4197.435795,4201.025538,4198.974256,4222.563999,4182.05118,4175.897334,4173.333231,4194.358872
69,0,4191.281949,4182.05118,4203.589641,4190.256308,4198.461436,4200.512718,4195.384513,4199.999897,4195.384513,4222.563999,4182.564,4177.435795,4184.102462,4189.743487
70,0,4188.205026,4176.410154,4197.948615,4179.487077,4217.435794,4209.230666,4195.384513,4193.846051,4188.717846,4207.179384,4181.538359,4169.230667,4183.589641,4185.640923
71,0,4197.435795,4180.512718,4198.974256,4197.948615,4186.666564,4208.717846,4198.461436,4202.051179,4192.30759,4198.461436,4186.666564,4169.743488,4177.435795,4194.871692
72,0,4208.205025,4188.205026,4207.179384,4210.769128,4162.05118,4206.666564,4201.538359,4206.666564,4193.846051,4199.999897,4191.794769,4179.487077,4179.487077,4202.051179
73,0,4211.281948,4188.205026,4211.794769,4193.333231,4205.128102,4213.33323,4198.974256,4199.487077,4188.717846,4201.538359,4192.82041,4182.564,4189.743487,4202.051179
74,0,4207.692205,4176.410154,4209.743487,4178.461436,4233.84605,4211.281948,4195.384513,4197.948615,4192.30759,4214.358871,4187.692205,4181.025539,4187.692205,4201.538359
75,0,4204.615282,4173.846052,4203.07682,4187.179385,4196.922974,4203.07682,4191.794769,4201.538359,4195.384513,4227.692204,4181.538359,4178.461436,4177.435795,4200.512718
76,0,4206.153743,4187.179385,4201.025538,4196.410154,4182.564,4206.153743,4193.846051,4201.025538,4192.82041,4217.948615,4182.564,4167.692206,4178.974257,4191.794769
77,0,4200.512718,4191.794769,4201.025538,4191.794769,4221.538358,4218.461435,4205.640923,4199.999897,4192.82041,4204.102461,4184.102462,4156.922975,4183.589641,4185.640923
78,0,4188.205026,4181.538359,4194.871692,4184.615282,4227.692204,4219.487076,4209.230666,4201.025538,4193.846051,4202.564,4177.948616,4151.79477,4170.769129,4184.102462
79,0,4187.179385,4190.256308,4189.743487,4187.692205,4206.666564,4210.769128,4196.922974,4199.999897,4189.743487,4210.256307,4170.256308,4151.79477,4163.589642,4185.128103
80,0,4193.333231,4217.435794,4194.871692,4196.410154,4216.410153,4208.717846,4195.384513,4204.615282,4188.717846,4212.307589,4173.846052,4159.999898,4168.717847,4187.692205
81,0,4187.179385,4223.07682,4202.564,4193.333231,4207.692205,4216.410153,4206.153743,4215.384512,4194.358872,4204.102461,4181.538359,4169.230667,4162.05118,4184.615282
82,0,4189.230667,4232.307589,4203.07682,4194.871692,4179.999898,4216.922974,4203.589641,4214.358871,4195.897333,4201.538359,4184.615282,4168.717847,4163.076821,4189.230667
83,0,4198.974256,4263.076819,4201.025538,4208.205025,4204.102461,4214.358871,4194.871692,4202.051179,4189.230667,4201.538359,4182.564,4163.076821,4172.820411,4201.538359
84,0,4196.410154,4276.922972,4204.102461,4213.846051,4236.922973,4217.948615,4196.922974,4206.153743,4188.205026,4204.102461,4182.05118,4167.692206,4160.512719,4203.07682
85,0,4198.974256,4266.666562,4215.897333,4213.33323,4210.256307,4219.999897,4204.102461,4218.974256,4195.897333,4210.769128,4189.743487,4182.564,4142.051181,4197.948615
86,0,4211.794769,4268.717844,4224.102461,4215.384512,4177.948616,4217.435794,4204.615282,4217.435794,4196.410154,4218.974256,4188.205026,4192.30759,4143.589642,4204.615282
87,0,4208.205025,4268.717844,4219.487076,4210.256307,4197.435795,4214.871692,4200.512718,4209.230666,4191.794769,4214.358871,4172.30759,4187.179385,4144.615283,4206.153743
88,0,4195.897333,4255.897332,4209.230666,4202.564,4207.179384,4217.435794,4201.538359,4212.82041,4192.30759,4198.461436,4174.358872,4177.948616,4144.102463,4198.461436
89,0,4194.358872,4247.179383,4210.256307,4199.999897,4168.205026,4212.82041,4203.589641,4207.692205,4188.717846,4182.05118,4184.102462,4173.846052,4141.02554,4189.743487
90,0,4195.897333,4246.666563,4213.846051,4199.487077,4163.076821,4204.615282,4202.564,4196.410154,4179.487077,4177.435795,4176.922975,4170.256308,4133.333232,4186.153744
91,0,4199.999897,4244.615281,4216.410153,4199.999897,4213.33323,4210.769128,4204.615282,4198.461436,4184.102462,4191.281949,4175.897334,4173.846052,4138.974258,4191.794769
92,0,4207.179384,4243.58964,4216.922974,4202.564,4223.58964,4217.948615,4208.205025,4209.230666,4197.948615,4212.82041,4192.82041,4179.999898,4159.487078,4199.999897
93,0,4208.205025,4249.743486,4216.922974,4216.922974,4198.974256,4212.82041,4211.281948,4217.435794,4204.615282,4221.538358,4196.922974,4179.999898,4167.179385,4201.025538
94,0,4215.384512,4263.076819,4217.948615,4235.384512,4212.307589,4214.358871,4212.307589,4218.461435,4201.538359,4211.794769,4191.794769,4183.076821,4163.076821,4205.128102
95,0,4222.563999,4266.153742,4218.974256,4234.871691,4214.358871,4221.025538,4211.281948,4213.33323,4195.384513,4201.025538,4191.281949,4187.179385,4161.53836,4210.256307
96,0,4212.82041,4258.974255,4215.384512,4231.794768,4175.384513,4213.846051,4206.153743,4211.794769,4192.82041,4209.743487,4191.794769,4182.564,4165.640924,4205.128102
97,0,4212.307589,4258.974255,4215.384512,4242.051178,4173.333231,4206.666564,4208.205025,4222.563999,4202.051179,4225.640922,4195.897333,4182.564,4172.820411,4205.640923
98,0,4224.102461,4265.128101,4221.538358,4245.640922,4209.230666,4213.33323,4219.487076,4232.307589,4210.769128,4226.666563,4202.051179,4192.30759,4176.410154,4214.871692
99,0,4216.922974,4259.487075,4217.435794,4235.384512,4226.153743,4225.640922,4226.666563,4230.256307,4209.743487,4209.743487,4203.07682,4191.281949,4172.820411,4211.281948
100,0,4196.410154,4239.999896,4203.07682,4220.512717,4224.615281,4230.256307,4223.58964,4218.461435,4201.025538,4196.922974,4193.846051,4176.410154,4167.179385,4195.897333
101,0,4197.435795,4235.384512,4202.051179,4217.435794,4225.128102,4221.538358,4219.487076,4213.846051,4195.897333,4203.589641,4188.205026,4174.871693,4169.743488,4194.358872
102,0,4210.769128,4245.128101,4214.871692,4229.743486,4198.461436,4211.794769,4219.487076,4222.051179,4197.435795,4205.640923,4194.871692,4186.153744,4175.384513,4207.179384
103,0,4211.794769,4248.205024,4219.487076,4243.076819,4163.589642,4211.794769,4220.512717,4231.281948,4199.487077,4204.102461,4204.615282,4190.769128,4176.410154,4211.281948
104,0,4210.256307,4245.640922,4217.948615,4236.922973,4181.538359,4215.897333,4222.051179,4231.281948,4203.589641,4216.922974,4199.487077,4193.333231,4173.846052,4206.153743
105,0,4214.871692,4246.666563,4219.487076,4226.666563,4201.538359,4216.410153,4225.128102,4233.84605,4207.179384,4214.358871,4197.435795,4198.974256,4179.487077,4206.666564
106,0,4212.82041,4247.692204,4222.563999,4230.256307,4188.717846,4214.871692,4225.128102,4237.948614,4209.230666,4195.897333,4206.153743,4201.025538,4187.179385,4209.743487
107,0,4214.871692,4255.897332,4224.102461,4240.512717,4203.07682,4220.512717,4224.102461,4234.871691,4209.743487,4203.589641,4211.281948,4199.487077,4190.769128,4214.871692
108,0,4224.615281,4261.025537,4225.640922,4238.461435,4223.07682,4224.102461,4220.512717,4222.051179,4206.153743,4217.948615,4200.512718,4193.846051,4187.179385,4216.410153
109,0,4228.717845,4259.999896,4223.07682,4233.84605,4217.948615,4221.025538,4218.461435,4220.512717,4203.07682,4223.07682,4195.897333,4186.666564,4190.769128,4214.358871
110,0,4227.179384,4257.435793,4220.512717,4241.025537,4219.999897,4221.538358,4218.974256,4230.769127,4208.205025,4231.281948,4208.717846,4187.179385,4199.999897,4212.82041
111,0,4218.974256,4248.205024,4210.769128,4237.435794,4221.538358,4221.538358,4217.948615,4227.179384,4209.743487,4219.487076,4211.281948,4183.589641,4196.410154,4208.717846
112,0,4207.179384,4236.922973,4199.999897,4217.948615,4213.846051,4214.871692,4214.358871,4211.281948,4203.07682,4195.897333,4200.512718,4171.79477,4184.102462,4199.487077
113,0,4206.153743,4241.025537,4204.615282,4222.051179,4209.743487,4212.307589,4213.33323,4208.717846,4201.538359,4208.717846,4205.128102,4173.846052,4189.230667,4202.051179
114,0,4216.410153,4249.230665,4216.922974,4242.051178,4197.435795,4215.384512,4213.33323,4219.487076,4208.717846,4237.948614,4221.025538,4185.128103,4207.692205,4216.922974
115,0,4222.563999,4250.256306,4217.435794,4243.076819,4197.948615,4217.948615,4215.897333,4224.102461,4211.794769,4242.051178,4221.025538,4187.179385,4214.358871,4222.051179
116,0,4226.153743,4253.333229,4216.410153,4236.410153,4218.974256,4218.461435,4217.948615,4221.025538,4208.717846,4230.769127,4211.794769,4187.179385,4211.794769,4220.512717
117,0,4225.640922,4253.333229,4216.410153,4238.974255,4221.538358,4219.999897,4216.922974,4216.410153,4205.640923,4226.666563,4214.358871,4187.179385,4212.82041,4221.025538
118,0,4216.410153,4250.256306,4209.230666,4239.487076,4217.948615,4221.538358,4217.435794,4215.897333,4205.128102,4226.153743,4218.461435,4179.999898,4210.769128,4217.435794
119,0,4209.743487,4247.179383,4202.051179,4230.769127,4207.692205,4212.82041,4210.256307,4208.717846,4198.974256,4218.974256,4205.128102,4167.692206,4194.871692,4204.102461
120,0,4206.153743,4233.84605,4198.974256,4225.640922,4189.743487,4200.512718,4201.538359,4198.461436,4192.30759,4219.999897,4190.769128,4165.640924,4179.999898,4192.82041
121,0,4205.640923,4223.07682,4199.999897,4228.205025,4210.769128,4212.307589,4211.794769,4207.692205,4198.974256,4215.384512,4201.538359,4176.410154,4187.692205,4195.384513
122,0,4213.846051,4238.461435,4201.538359,4237.948614,4221.538358,4219.487076,4218.461435,4217.435794,4205.128102,4195.897333,4214.871692,4179.487077,4197.948615,4205.640923
123,0,4221.538358,4245.128101,4204.102461,4245.128101,4169.743488,4202.051179,4208.717846,4204.615282,4198.974256,4200.512718,4202.564,4174.358872,4186.666564,4203.07682
124,0,4221.538358,4232.307589,4207.179384,4247.179383,4150.769129,4202.051179,4209.230666,4202.051179,4197.435795,4225.128102,4202.051179,4180.512718,4187.692205,4201.538359
125,0,4219.999897,4228.205025,4211.281948,4242.051178,4211.281948,4217.948615,4218.461435,4216.410153,4204.615282,4215.384512,4215.384512,4187.692205,4205.128102,4208.717846
126,0,4224.102461,4233.33323,4212.82041,4234.871691,4252.820409,4218.974256,4214.871692,4215.897333,4206.666564,4205.640923,4216.922974,4186.153744,4212.307589,4217.435794
127,0,4225.640922,4229.230666,4213.33323,4231.281948,4224.615281,4215.384512,4209.230666,4203.589641,4203.589641,4228.717845,4207.692205,4187.179385,4207.179384,4217.948615
128,0,4219.999897,4230.769127,4208.205025,4234.871691,4193.846051,4214.358871,4206.666564,4203.07682,4198.974256,4232.307589,4204.615282,4185.128103,4202.051179,4213.33323
0,0,4219.487076,4239.999896,4206.666564,4245.128101,4198.974256,4214.871692,4205.640923,4205.128102,4197.435795,4207.692205,4206.666564,4177.948616,4202.051179,4214.871692
1,0,4227.692204,4241.538358,4213.33323,4250.769127,4212.82041,4217.435794,4207.179384,4207.692205,4201.538359,4203.589641,4214.871692,4184.102462,4214.358871,4222.051179
2,0,4227.692204,4236.410153,4215.384512,4241.538358,4219.999897,4191.281949,4208.205025,4210.256307,4202.564,4213.846051,4218.461435,4191.281949,4215.897333,4221.538358
3,0,4217.948615,4231.281948,4208.205025,4232.307589,4216.922974,4145.640924,4206.666564,4205.128102,4194.358872,4218.461435,4207.692205,4182.05118,4201.538359,4210.769128
4,0,4222.051179,4230.769127,4207.179384,4236.922973,4205.128102,4136.410155,4205.640923,4200.512718,4189.743487,4221.538358,4201.538359,4177.948616,4201.538359,4211.281948
5,0,4230.256307,4232.307589,4212.307589,4241.538358,4199.487077,4149.743488,4206.666564,4202.051179,4193.333231,4218.974256,4202.564,4183.589641,4211.794769,4216.922974
6,0,4222.563999,4227.692204,4210.256307,4239.999896,4202.564,4147.692206,4207.692205,4205.128102,4199.999897,4217.948615,4201.538359,4181.025539,4209.743487,4211.281948
7,0,4220.512717,4229.743486,4210.769128,4243.076819,4203.589641,4146.666565,4210.769128,4210.769128,4205.640923,4221.538358,4207.692205,4179.487077,4212.82041,4208.717846
8,0,4234.871691,4231.794768,4216.410153,4248.717845,4198.974256,4154.358873,4214.871692,4217.435794,4206.153743,4213.846051,4217.435794,4187.692205,4223.07682,4217.948615
9,0,4236.922973,4219.999897,4216.410153,4246.666563,4199.999897,4158.461437,4213.33323,4216.410153,4205.640923,4212.82041,4213.846051,4187.692205,4219.487076,4217.435794
10,0,4232.820409,4221.025538,4214.871692,4248.205024,4219.999897,4163.076821,4215.384512,4217.948615,4210.256307,4240.512717,4206.153743,4184.102462,4215.897333,4215.384512
11,0,4234.358871,4231.281948,4214.871692,4249.743486,4232.307589,4168.717847,4217.435794,4220.512717,4208.717846,4245.128101,4205.128102,4184.102462,4222.051179,4216.410153
12,0,4226.153743,4219.999897,4206.666564,4241.538358,4218.974256,4179.487077,4210.256307,4212.82041,4196.922974,4208.205025,4202.051179,4176.410154,4216.410153,4206.153743
13,0,4218.461435,4206.153743,4201.538359,4233.33323,4223.07682,4163.076821,4203.07682,4200.512718,4188.717846,4195.897333,4194.358872,4167.179385,4203.07682,4197.948615
14,0,4226.666563,4221.025538,4207.179384,4238.974255,4224.102461,4093.333233,4207.179384,4203.589641,4193.333231,4225.128102,4201.538359,4174.871693,4215.384512,4215.897333
15,0,4225.128102,4213.846051,4214.871692,4242.051178,4183.076821,4034.358876,4208.717846,4213.846051,4200.512718,4232.820409,4201.538359,4184.102462,4208.717846,4214.358871
16,0,4210.256307,4182.564,4212.82041,4231.794768,4168.205026,4037.435799,4204.615282,4209.743487,4194.871692,4209.743487,4187.179385,4177.435795,4174.358872,4186.153744
17,0,4207.692205,4177.948616,4208.205025,4219.487076,4207.692205,4054.871696,4201.025538,4200.512718,4192.82041,4202.564,4192.82041,4171.281949,4188.717846,4187.179385
18,0,4213.846051,4183.589641,4207.179384,4217.948615,4222.051179,4051.794773,4198.974256,4207.179384,4203.07682,4228.717845,4217.435794,4179.999898,4242.563999,4214.358871
19,0,4218.461435,4177.948616,4215.897333,4226.666563,4205.640923,4057.948619,4201.538359,4218.974256,4208.717846,4245.640922,4230.769127,4188.205026,4267.179383,4222.563999
20,0,4217.948615,4176.410154,4220.512717,4231.794768,4213.846051,4072.820413,4207.179384,4223.58964,4209.230666,4233.84605,4234.871691,4187.692205,4267.692203,4214.358871
21,0,4212.307589,4175.384513,4216.922974,4224.615281,4222.051179,4079.9999,4210.769128,4228.205025,4218.461435,4235.897332,4238.461435,4187.179385,4269.743485,4209.230666
22,0,4206.153743,4168.205026,4217.948615,4216.922974,4208.717846,4078.461439,4209.743487,4230.769127,4219.999897,4245.128101,4232.820409,4188.717846,4264.61528,4207.179384
23,0,4206.666564,4170.769129,4219.999897,4221.025538,4216.410153,4079.9999,4209.743487,4223.07682,4209.743487,4232.307589,4225.128102,4186.153744,4256.922973,4206.666564
24,0,4205.128102,4171.281949,4213.846051,4218.974256,4229.230666,4088.205028,4213.846051,4217.435794,4208.717846,4230.769127,4222.051179,4183.076821,4250.256306,4203.07682
25,0,4205.128102,4162.564001,4212.307589,4214.358871,4204.615282,4086.666567,4215.384512,4226.666563,4215.897333,4254.35887,4218.974256,4185.640923,4247.179383,4199.487077
26,0,4207.692205,4160.512719,4216.922974,4216.922974,4185.640923,4081.025541,4213.33323,4233.33323,4213.846051,4256.410152,4216.922974,4188.205026,4251.794768,4201.025538
27,0,4209.743487,4167.692206,4218.974256,4219.999897,4215.384512,4087.179387,4215.897333,4233.33323,4213.846051,4248.205024,4221.538358,4190.769128,4254.871691,4205.128102
28,0,4211.281948,4170.256308,4218.461435,4212.82041,4231.281948,4091.794772,4217.435794,4229.743486,4221.025538,4257.948614,4227.179384,4192.82041,4254.35887,4207.692205
29,0,4207.692205,4158.974257,4211.794769,4208.717846,4194.358872,4086.153746,4207.692205,4222.051179,4216.922974,4246.153742,4226.153743,4186.666564,4253.333229,4202.564
30,0,4203.589641,4152.307591,4206.153743,4226.153743,4169.230667,4084.102464,4200.512718,4211.281948,4205.128102,4224.102461,4222.051179,4176.922975,4244.615281,4195.897333
31,0,4210.769128,4165.640924,4212.82041,4241.538358,4205.640923,4091.281951,4206.153743,4211.281948,4207.692205,4241.538358,4226.153743,4179.999898,4247.179383,4206.153743
32,0,4218.974256,4172.820411,4221.025538,4227.692204,4257.948614,4100.51272,4213.846051,4216.410153,4219.487076,4259.999896,4234.871691,4188.717846,4261.538357,4221.025538
33,0,4216.410153,4165.128103,4213.33323,4213.33323,4248.205024,4103.076823,4213.33323,4214.358871,4216.922974,4255.384511,4226.666563,4185.128103,4256.410152,4217.948615
34,0,4209.230666,4155.897334,4207.179384,4215.897333,4201.538359,4096.410156,4207.179384,4208.205025,4204.615282,4247.179383,4206.153743,4177.435795,4234.358871,4206.666564
35,0,4208.717846,4152.307591,4210.769128,4212.82041,4204.102461,4094.871695,4203.07682,4208.717846,4202.051179,4240.512717,4208.205025,4179.999898,4239.487076,4205.128102
36,0,4212.307589,4154.358873,4214.358871,4200.512718,4236.410153,4103.589643,4200.512718,4216.410153,4215.897333,4238.974255,4224.102461,4186.666564,4252.820409,4206.153743
37,0,4206.666564,4163.589642,4212.82041,4199.487077,4230.769127,4111.794771,4203.07682,4226.153743,4225.128102,4254.35887,4222.563999,4185.128103,4245.128101,4203.589641
38,0,4196.410154,4171.79477,4213.33323,4204.615282,4198.461436,4106.153746,4202.564,4223.58964,4219.999897,4260.512716,4212.307589,4177.435795,4233.33323,4197.435795
39,0,4193.846051,4182.05118,4214.358871,4212.82041,4188.717846,4101.538361,4196.922974,4215.897333,4215.897333,4247.692204,4219.999897,4179.999898,4237.948614,4195.897333
40,0,4194.358872,4197.435795,4214.358871,4212.82041,4208.717846,4112.307592,4199.999897,4217.435794,4222.563999,4244.10246,4228.205025,4187.692205,4238.974255,4198.461436
41,0,4191.281949,4207.179384,4215.384512,4202.051179,4228.717845,4119.999899,4207.179384,4222.051179,4220.512717,4246.153742,4221.538358,4184.102462,4229.230666,4197.948615
42,0,4189.230667,4207.692205,4212.82041,4198.461436,4223.58964,4109.743489,4207.179384,4221.538358,4210.769128,4238.974255,4218.461435,4176.410154,4217.948615,4194.871692
43,0,4182.05118,4202.051179,4205.128102,4199.999897,4200.512718,4103.589643,4204.102461,4215.384512,4207.179384,4228.205025,4214.871692,4170.769129,4210.769128,4186.666564
44,0,4173.846052,4203.07682,4207.692205,4198.461436,4187.179385,4108.717848,4206.666564,4214.358871,4207.179384,4226.153743,4208.205025,4171.281949,4214.871692,4185.128103
45,0,4175.384513,4210.256307,4216.922974,4202.051179,4191.281949,4108.717848,4208.717846,4213.33323,4205.128102,4226.666563,4203.07682,4173.333231,4218.461435,4189.230667
46,0,4184.615282,4215.384512,4216.922974,4212.82041,4203.07682,4105.640925,4205.640923,4205.640923,4199.487077,4220.512717,4202.051179,4171.79477,4212.307589,4191.794769
47,0,4191.281949,4215.897333,4215.384512,4213.846051,4217.948615,4107.692207,4199.999897,4194.358872,4199.487077,4206.153743,4207.692205,4173.333231,4207.692205,4193.333231
48,0,4196.410154,4216.922974,4219.999897,4210.256307,4216.410153,4110.76913,4199.999897,4199.487077,4209.230666,4217.435794,4225.128102,4185.640923,4221.538358,4203.07682
49,0,4195.897333,4216.410153,4221.538358,4214.358871,4191.794769,4112.820412,4204.615282,4213.33323,4212.82041,4238.974255,4232.307589,4189.743487,4232.820409,4208.205025
50,0,4196.922974,4214.871692,4218.461435,4216.922974,4198.461436,4115.384515,4207.179384,4218.461435,4209.230666,4226.153743,4229.743486,4185.640923,4232.307589,4205.640923
51,0,4201.025538,4211.794769,4222.051179,4210.769128,4234.358871,4121.02554,4211.281948,4221.538358,4218.974256,4217.435794,4237.435794,4191.794769,4233.84605,4205.128102
52,0,4205.640923,4213.33323,4223.07682,4212.82041,4231.281948,4124.615284,4216.922974,4231.281948,4229.230666,4249.743486,4246.666563,4200.512718,4243.58964,4209.230666
53,0,4203.07682,4206.666564,4218.461435,4214.358871,4205.640923,4122.564002,4214.871692,4227.692204,4214.871692,4253.84605,4227.692204,4194.871692,4235.897332,4206.666564
54,0,4191.281949,4192.82041,4211.281948,4206.153743,4205.640923,4119.999899,4210.769128,4208.717846,4198.461436,4215.384512,4198.461436,4180.512718,4201.538359,4191.794769
55,0,4194.358872,4206.153743,4212.82041,4212.307589,4205.128102,4121.02554,4210.769128,4201.025538,4201.538359,4206.153743,4200.512718,4176.410154,4197.435795,4189.230667
56,0,4219.999897,4234.358871,4221.025538,4230.256307,4191.794769,4129.743489,4215.384512,4213.33323,4209.230666,4226.666563,4233.84605,4192.30759,4242.563999,4222.563999
57,0,4244.10246,4235.384512,4230.256307,4234.871691,4207.692205,4138.974258,4218.974256,4225.640922,4216.410153,4238.461435,4255.897332,4213.33323,4271.794767,4265.640921
58,0,4261.025537,4235.897332,4236.922973,4235.897332,4229.230666,4141.53836,4216.410153,4226.666563,4224.615281,4248.205024,4253.84605,4219.999897,4272.820408,4290.256305
59,0,4277.948613,4252.307588,4237.435794,4237.948614,4229.230666,4137.948617,4213.846051,4213.846051,4224.615281,4245.640922,4251.281947,4215.897333,4277.948613,4298.974254
60,0,4294.87169,4262.563998,4237.948614,4232.820409,4227.179384,4133.846053,4210.256307,4204.102461,4219.999897,4231.281948,4258.461434,4217.435794,4293.846049,4316.922971
61,0,4327.179381,4282.051177,4248.205024,4245.640922,4208.205025,4132.307591,4209.230666,4214.871692,4230.769127,4227.692204,4273.333229,4231.794768,4318.974253,4357.948611
62,0,4366.66656,4308.717843,4261.025537,4266.666562,4172.30759,4129.743489,4208.717846,4221.538358,4240.512717,4230.769127,4284.61528,4245.128101,4344.102458,4398.974251
63,0,4387.6922,4315.38451,4263.589639,4263.076819,4175.897334,4125.128104,4206.153743,4214.358871,4236.922973,4234.871691,4282.051177,4246.666563,4352.820406,4421.538353
64,0,4403.589636,4327.179381,4265.640921,4264.10246,4208.205025,4127.179386,4210.256307,4216.922974,4237.435794,4241.025537,4283.076818,4249.230665,4367.692201,4449.23066
65,0,4431.794763,4354.871688,4274.35887,4285.1281,4227.179384,4143.589642,4218.974256,4229.743486,4244.615281,4243.58964,4301.025536,4259.999896,4401.538354,4489.74348
66,0,4455.384506,4367.17938,4278.461434,4292.820408,4224.615281,4155.897334,4219.999897,4232.307589,4248.717845,4245.640922,4314.358869,4266.666562,4424.102456,4517.948607
67,0,4460.512711,4369.230662,4272.820408,4288.717844,4190.256308,4147.692206,4211.281948,4223.07682,4245.128101,4245.128101,4306.153741,4258.974255,4415.384507,4517.435787
68,0,4449.23066,4368.717842,4268.717844,4285.640921,4164.615283,4135.384514,4209.230666,4215.384512,4237.948614,4222.563999,4290.256305,4247.692204,4383.076816,4497.435787
69,0,4441.025532,4374.871688,4270.769126,4289.743485,4203.07682,4142.564001,4213.846051,4220.512717,4235.384512,4210.256307,4286.153741,4244.615281,4364.615278,4484.615275
70,0,4437.948609,4378.461431,4274.35887,4290.769126,4256.922973,4156.922975,4213.33323,4224.615281,4237.948614,4228.205025,4274.87169,4246.666563,4352.820406,4475.384506
71,0,4422.563994,4363.076816,4271.281947,4284.102459,4242.563999,4151.79477,4213.33323,4222.051179,4236.410153,4239.487076,4255.384511,4245.640922,4324.102458,4452.820404
72,0,4396.410149,4333.846048,4265.640921,4272.820408,4189.743487,4139.487078,4213.846051,4215.897333,4228.717845,4223.07682,4246.153742,4236.922973,4298.974254,4419.999892
73,0,4372.820406,4311.281946,4255.897332,4264.61528,4184.102462,4145.640924,4212.307589,4209.743487,4222.051179,4211.281948,4249.230665,4229.230666,4303.076818,4399.487072
74,0,4352.820406,4295.897331,4248.205024,4253.333229,4216.410153,4153.846052,4208.205025,4206.153743,4219.999897,4216.410153,4246.153742,4228.717845,4310.769125,4388.717841
75,0,4341.538355,4289.743485,4247.179383,4252.307588,4219.487076,4153.333232,4208.205025,4211.794769,4219.999897,4212.82041,4239.999896,4231.794768,4301.025536,4373.333226
76,0,4334.358868,4285.1281,4250.769127,4258.974255,4206.153743,4152.307591,4211.281948,4218.974256,4223.07682,4201.025538,4237.948614,4226.153743,4283.589639,4351.281945
77,0,4318.974253,4267.179383,4243.076819,4245.128101,4216.410153,4154.871693,4211.281948,4214.358871,4224.102461,4199.999897,4231.794768,4215.384512,4268.205024,4331.794766
78,0,4300.512715,4249.230665,4228.717845,4230.769127,4196.410154,4151.28195,4202.564,4202.564,4217.948615,4206.666564,4217.435794,4205.128102,4253.333229,4313.846048
79,0,4286.666562,4244.615281,4222.051179,4234.871691,4172.30759,4148.205027,4196.410154,4198.461436,4213.846051,4214.871692,4211.794769,4197.948615,4244.615281,4295.38451
80,0,4285.640921,4245.640922,4229.743486,4238.461435,4206.153743,4159.487078,4208.205025,4215.897333,4221.025538,4231.794768,4222.563999,4201.025538,4255.384511,4295.38451
81,0,4289.230664,4246.666563,4235.384512,4235.384512,4231.281948,4171.79477,4218.974256,4227.692204,4226.153743,4239.487076,4226.153743,4207.692205,4265.128101,4302.051177
82,0,4276.410152,4239.999896,4226.666563,4228.205025,4221.025538,4172.30759,4218.461435,4222.051179,4220.512717,4217.435794,4216.922974,4202.051179,4252.820409,4286.666562
83,0,4258.461434,4230.256307,4218.974256,4224.102461,4208.205025,4168.717847,4218.974256,4219.487076,4215.384512,4199.999897,4215.897333,4194.871692,4241.025537,4264.61528
84,0,4251.281947,4230.256307,4217.948615,4224.615281,4202.564,4167.692206,4215.384512,4218.461435,4212.307589,4215.897333,4221.025538,4200.512718,4246.153742,4263.076819
85,0,4248.717845,4226.666563,4217.435794,4220.512717,4206.666564,4168.205026,4210.256307,4210.256307,4212.307589,4221.538358,4214.358871,4203.589641,4244.615281,4263.589639
86,0,4245.128101,4217.948615,4214.358871,4217.435794,4207.179384,4169.230667,4213.846051,4210.256307,4218.461435,4205.640923,4214.871692,4199.487077,4234.358871,4252.820409
87,0,4245.640922,4222.051179,4217.948615,4224.102461,4194.358872,4168.717847,4216.922974,4221.538358,4226.666563,4217.948615,4227.692204,4200.512718,4239.999896,4248.205024
88,0,4241.025537,4227.692204,4218.461435,4226.666563,4201.538359,4168.205026,4215.897333,4230.256307,4228.205025,4248.717845,4230.769127,4199.999897,4253.333229,4248.205024
89,0,4225.640922,4209.743487,4208.717846,4209.743487,4216.410153,4170.256308,4216.922974,4222.051179,4219.999897,4231.281948,4213.846051,4185.640923,4238.974255,4229.743486
90,0,4216.922974,4196.922974,4204.615282,4202.051179,4194.871692,4170.769129,4218.461435,4218.974256,4216.410153,4204.102461,4211.281948,4178.974257,4226.153743,4216.410153
91,0,4222.051179,4200.512718,4215.384512,4217.948615,4178.974257,4172.30759,4218.461435,4232.820409,4224.615281,4203.589641,4219.999897,4190.769128,4236.410153,4224.102461
92,0,4225.128102,4197.435795,4219.487076,4226.153743,4210.256307,4181.538359,4218.974256,4242.563999,4226.666563,4188.717846,4220.512717,4201.025538,4240.512717,4225.640922
93,0,4224.102461,4193.846051,4217.948615,4212.307589,4232.307589,4188.717846,4224.102461,4242.051178,4225.640922,4165.640924,4219.487076,4203.589641,4233.84605,4220.512717
94,0,4219.999897,4193.333231,4217.435794,4204.102461,4206.153743,4186.666564,4227.692204,4243.076819,4226.153743,4169.743488,4213.846051,4201.025538,4231.281948,4220.512717
95,0,4213.33323,4183.589641,4217.948615,4209.743487,4192.30759,4183.589641,4225.640922,4239.487076,4224.102461,4176.410154,4201.538359,4196.922974,4223.58964,4213.33323
96,0,4211.794769,4179.487077,4218.461435,4212.307589,4212.82041,4184.615282,4223.07682,4227.179384,4218.461435,4171.281949,4200.512718,4193.333231,4214.358871,4202.051179
97,0,4214.871692,4187.179385,4219.487076,4208.717846,4224.615281,4187.179385,4222.563999,4221.538358,4216.410153,4172.30759,4206.666564,4188.717846,4216.410153,4201.025538
98,0,4207.179384,4182.564,4214.358871,4198.974256,4214.871692,4186.153744,4217.435794,4215.897333,4214.358871,4178.974257,4198.974256,4184.102462,4214.871692,4201.538359
99,0,4198.974256,4175.384513,4210.256307,4194.871692,4197.948615,4183.076821,4213.33323,4207.179384,4211.281948,4185.128103,4187.692205,4182.564,4211.794769,4197.948615
100,0,4201.025538,4181.538359,4214.871692,4202.564,4187.692205,4182.05118,4212.307589,4206.666564,4210.256307,4169.230667,4193.333231,4182.05118,4216.922974,4196.410154
101,0,4206.153743,4186.153744,4216.922974,4203.589641,4205.640923,4187.179385,4217.435794,4216.922974,4211.794769,4154.871693,4208.205025,4182.564,4227.179384,4199.487077
102,0,4206.153743,4179.999898,4215.897333,4196.410154,4213.33323,4192.30759,4226.153743,4226.666563,4215.384512,4176.922975,4203.07682,4187.179385,4223.58964,4197.948615
103,0,4187.692205,4155.384514,4211.281948,4193.846051,4181.538359,4188.717846,4223.07682,4224.615281,4209.230666,4180.512718,4169.230667,4183.589641,4179.487077,4171.79477
104,0,4173.333231,4141.02554,4210.769128,4191.281949,4191.794769,4185.128103,4212.82041,4216.410153,4204.102461,4160.512719,4161.53836,4175.897334,4154.358873,4155.897334
105,0,4190.769128,4161.53836,4216.922974,4194.871692,4228.717845,4191.281949,4213.846051,4221.025538,4215.897333,4179.999898,4206.666564,4186.666564,4211.794769,4188.205026
106,0,4208.717846,4169.743488,4220.512717,4200.512718,4210.256307,4195.897333,4216.410153,4228.717845,4228.205025,4213.33323,4241.538358,4202.564,4276.922972,4216.922974
107,0,4214.358871,4151.79477,4220.512717,4196.410154,4203.07682,4196.410154,4215.384512,4232.307589,4232.820409,4226.153743,4252.820409,4209.230666,4303.589638,4224.102461
108,0,4217.948615,4139.999899,4223.58964,4187.692205,4228.205025,4202.051179,4215.897333,4232.820409,4238.974255,4230.256307,4272.820408,4211.794769,4329.230663,4235.384512
109,0,4215.384512,4135.897335,4224.102461,4188.205026,4222.051179,4204.615282,4214.358871,4236.410153,4241.025537,4234.871691,4290.256305,4216.922974,4348.205022,4241.538358
110,0,4209.230666,4121.02554,4225.128102,4191.281949,4204.615282,4199.999897,4218.461435,4240.512717,4243.076819,4241.538358,4276.922972,4221.025538,4334.358868,4230.769127
111,0,4207.692205,4113.846053,4227.692204,4187.692205,4203.589641,4201.538359,4229.230666,4244.615281,4248.205024,4242.051178,4262.051178,4217.435794,4321.025535,4225.640922
112,0,4192.82041,4107.692207,4221.025538,4176.410154,4202.051179,4203.07682,4225.640922,4241.538358,4244.10246,4215.384512,4253.333229,4205.128102,4305.64092,4210.769128
113,0,4175.384513,4098.974259,4209.743487,4173.333231,4203.589641,4185.640923,4212.82041,4231.794768,4228.205025,4203.07682,4238.974255,4194.358872,4288.205023,4189.743487
114,0,4187.179385,4102.564002,4212.82041,4181.025539,4215.384512,4165.128103,4211.794769,4234.871691,4225.640922,4219.487076,4239.487076,4196.410154,4294.87169,4195.384513
115,0,4198.461436,4103.076823,4218.461435,4177.435795,4216.410153,4165.640924,4217.435794,4241.538358,4235.897332,4221.025538,4252.307588,4202.051179,4304.615279,4206.666564
116,0,4190.769128,4100.51272,4217.435794,4169.230667,4209.230666,4169.743488,4215.897333,4228.717845,4235.384512,4216.922974,4247.692204,4202.564,4296.410151,4202.051179
117,0,4193.333231,4110.76913,4221.025538,4180.512718,4199.999897,4167.179385,4214.871692,4217.948615,4225.640922,4220.512717,4237.435794,4203.589641,4290.256305,4198.974256
118,0,4207.179384,4117.435797,4224.615281,4198.461436,4193.333231,4169.743488,4217.948615,4225.640922,4223.07682,4221.538358,4243.076819,4206.666564,4297.948613,4207.692205
119,0,4204.615282,4108.205028,4221.538358,4193.846051,4203.07682,4170.769129,4217.435794,4224.615281,4225.128102,4217.435794,4241.025537,4203.589641,4294.87169,4207.692205
120,0,4193.846051,4103.589643,4214.358871,4174.358872,4196.922974,4168.717847,4216.410153,4215.897333,4220.512717,4203.589641,4226.666563,4193.333231,4280.512716,4199.999897
121,0,4184.615282,4108.717848,4208.205025,4169.230667,4177.948616,4174.358872,4221.025538,4222.563999,4217.948615,4190.769128,4222.563999,4182.564,4272.820408,4188.717846
122,0,4177.435795,4114.871694,4201.538359,4176.922975,4187.179385,4185.640923,4229.743486,4241.025537,4227.179384,4203.07682,4229.743486,4181.025539,4277.435793,4182.564
123,0,4178.461436,4125.640925,4203.07682,4174.358872,4209.230666,4191.794769,4231.794768,4250.769127,4234.871691,4219.487076,4235.384512,4192.30759,4282.563998,4190.256308
124,0,4183.076821,4143.589642,4210.256307,4171.281949,4212.82041,4191.281949,4226.153743,4247.692204,4231.281948,4215.897333,4236.922973,4197.948615,4278.974254,4198.461436
125,0,4178.461436,4151.28195,4215.897333,4175.897334,4204.102461,4185.640923,4216.410153,4232.820409,4224.102461,4201.025538,4229.743486,4190.769128,4269.230665,4189.743487
126,0,4174.358872,4153.333232,4213.33323,4179.487077,4197.435795,4182.564,4209.743487,4225.128102,4222.563999,4193.846051,4227.179384,4191.794769,4267.692203,4187.179385
127,0,4177.948616,4160.512719,4215.897333,4180.512718,4191.794769,4191.281949,4214.358871,4229.230666,4226.666563,4201.025538,4237.435794,4202.051179,4271.794767,4198.461436
128,0,4179.487077,4173.846052,4221.538358,4185.640923,4202.051179,4198.461436,4221.025538,4233.33323,4228.205025,4211.794769,4241.025537,4204.102461,4264.61528,4202.051179
0,0,4177.948616,4177.435795,4223.07682,4182.05118,4212.82041,4196.410154,4217.435794,4228.205025,4225.640922,4204.102461,4232.307589,4203.589641,4252.820409,4195.384513
1,0,4179.999898,4172.820411,4224.615281,4179.487077,4189.743487,4195.897333,4215.897333,4225.640922,4224.102461,4203.07682,4234.358871,4207.179384,4256.922973,4200.512718
2,0,4186.666564,4175.384513,4228.717845,4185.128103,4173.846052,4199.487077,4226.666563,4232.307589,4228.717845,4211.794769,4243.58964,4207.692205,4266.666562,4211.281948
3,0,4188.717846,4176.922975,4223.07682,4180.512718,4188.205026,4199.487077,4232.820409,4236.410153,4230.256307,4198.461436,4237.435794,4204.615282,4257.948614,4205.640923
4,0,4184.102462,4170.256308,4218.974256,4171.79477,4203.07682,4196.922974,4226.666563,4235.384512,4226.666563,4189.230667,4233.33323,4202.564,4252.307588,4196.922974
5,0,4194.871692,4184.615282,4230.769127,4183.589641,4209.743487,4205.128102,4225.640922,4240.512717,4231.281948,4202.051179,4251.281947,4209.743487,4275.384511,4216.922974
6,0,4207.692205,4193.846051,4238.461435,4195.897333,4207.179384,4213.846051,4232.820409,4245.640922,4238.461435,4211.281948,4257.435793,4221.025538,4279.487075,4227.692204
7,0,4197.948615,4168.205026,4230.769127,4184.102462,4197.435795,4208.717846,4228.205025,4237.948614,4233.84605,4213.846051,4239.999896,4217.435794,4253.84605,4206.666564
8,0,4196.922974,4168.205026,4227.692204,4182.05118,4199.487077,4199.999897,4222.051179,4228.717845,4225.640922,4210.256307,4232.820409,4207.692205,4248.717845,4206.666564
9,0,4213.846051,4214.871692,4231.794768,4201.025538,4212.307589,4201.025538,4223.07682,4221.025538,4222.563999,4191.794769,4229.743486,4203.589641,4255.384511,4225.640922
10,0,4219.999897,4250.769127,4229.743486,4219.999897,4216.410153,4204.102461,4225.128102,4213.33323,4222.051179,4191.281949,4217.948615,4201.538359,4243.58964,4223.07682
11,0,4209.230666,4245.640922,4222.563999,4223.58964,4213.846051,4200.512718,4222.051179,4210.256307,4218.461435,4203.589641,4201.025538,4192.30759,4209.230666,4199.487077
12,0,4199.999897,4234.871691,4218.461435,4213.33323,4215.897333,4203.07682,4219.487076,4211.281948,4212.307589,4190.256308,4188.205026,4186.153744,4180.512718,4184.102462
13,0,4196.922974,4233.33323,4216.922974,4201.025538,4206.153743,4203.07682,4218.974256,4207.692205,4210.769128,4173.846052,4179.487077,4182.564,4178.974257,4181.025539
14,0,4195.897333,4234.358871,4209.743487,4202.564,4186.153744,4191.794769,4213.33323,4208.717846,4210.256307,4172.30759,4183.589641,4179.999898,4198.974256,4187.179385
15,0,4195.897333,4235.897332,4209.230666,4208.205025,4187.179385,4189.743487,4211.281948,4210.256307,4206.666564,4167.692206,4188.205026,4182.05118,4201.025538,4189.743487
16,0,4195.384513,4236.922973,4215.384512,4207.692205,4201.538359,4204.615282,4216.410153,4210.769128,4206.153743,4174.358872,4186.153744,4183.076821,4187.692205,4187.692205
17,0,4197.435795,4235.897332,4212.82041,4210.256307,4202.051179,4209.743487,4218.461435,4212.307589,4209.743487,4195.897333,4187.179385,4176.922975,4186.666564,4185.640923
18,0,4193.333231,4233.84605,4199.999897,4214.358871,4212.82041,4206.666564,4217.435794,4214.871692,4211.794769,4210.256307,4193.846051,4170.256308,4201.538359,4182.564
19,0,4188.205026,4235.897332,4198.974256,4212.307589,4218.974256,4211.281948,4219.999897,4214.358871,4214.358871,4202.051179,4200.512718,4168.717847,4215.384512,4183.589641
20,0,4188.205026,4238.974255,4202.051179,4212.307589,4201.025538,4209.743487,4222.051179,4214.871692,4216.922974,4201.538359,4196.922974,4169.230667,4208.717846,4178.974257
21,0,4186.666564,4236.410153,4201.538359,4213.33323,4206.153743,4205.640923,4219.999897,4217.435794,4217.435794,4219.999897,4191.794769,4170.256308,4205.640923,4171.281949
22,0,4188.205026,4239.999896,4203.07682,4221.025538,4219.999897,4206.666564,4223.58964,4215.897333,4217.948615,4230.256307,4199.999897,4178.461436,4223.58964,4178.461436
23,0,4198.461436,4245.640922,4206.666564,4229.743486,4198.974256,4206.666564,4224.102461,4221.025538,4222.563999,4225.640922,4206.153743,4187.179385,4225.640922,4190.256308
24,0,4213.33323,4256.410152,4203.589641,4229.743486,4187.692205,4205.128102,4215.897333,4225.128102,4222.051179,4216.410153,4202.051179,4183.076821,4221.538358,4199.487077
25,0,4223.58964,4265.640921,4204.615282,4223.07682,4217.948615,4203.589641,4212.82041,4219.487076,4214.358871,4206.666564,4197.435795,4177.435795,4230.256307,4212.82041
26,0,4242.051178,4271.794767,4213.846051,4222.051179,4238.461435,4208.717846,4217.948615,4215.897333,4210.256307,4193.846051,4202.564,4186.666564,4243.076819,4236.922973
27,0,4287.179382,4316.922971,4223.58964,4245.640922,4229.230666,4217.435794,4220.512717,4215.897333,4218.461435,4201.025538,4219.999897,4199.487077,4272.307588,4285.640921
28,0,4326.15374,4368.717842,4233.84605,4271.281947,4219.487076,4214.871692,4216.410153,4213.33323,4225.640922,4212.307589,4220.512717,4203.589641,4281.025536,4325.64092
29,0,4336.41015,4367.692201,4244.615281,4268.205024,4209.743487,4202.051179,4214.871692,4211.794769,4219.487076,4197.435795,4207.692205,4209.230666,4254.871691,4337.948612
30,0,4347.692201,4348.205022,4251.281947,4255.897332,4193.333231,4199.999897,4215.384512,4211.794769,4218.974256,4184.102462,4215.897333,4218.461435,4266.153742,4361.025534
31,0,4373.846047,4373.846047,4249.230665,4265.128101,4199.999897,4203.07682,4216.410153,4208.717846,4229.230666,4186.666564,4237.948614,4221.538358,4320.512715,4405.128097
32,0,4383.589636,4407.6922,4246.153742,4278.461434,4228.717845,4201.538359,4214.871692,4206.153743,4231.794768,4178.974257,4234.358871,4218.461435,4318.974253,4416.410148
33,0,4371.794765,4403.589636,4245.128101,4277.435793,4224.615281,4202.051179,4211.794769,4209.743487,4227.179384,4179.487077,4217.435794,4217.948615,4269.743485,4388.717841
34,0,4363.076816,4388.717841,4247.692204,4271.281947,4209.743487,4202.051179,4211.281948,4215.384512,4227.692204,4209.743487,4218.974256,4221.025538,4262.563998,4373.333226
35,0,4355.384509,4378.461431,4246.153742,4263.589639,4209.743487,4203.589641,4209.743487,4218.461435,4229.230666,4219.487076,4234.358871,4218.461435,4295.38451,4377.43579
36,0,4338.461432,4356.41015,4239.999896,4256.922973,4179.487077,4200.512718,4206.153743,4210.256307,4228.717845,4197.435795,4239.487076,4205.640923,4307.692202,4365.128098
37,0,4319.487074,4336.41015,4232.307589,4253.84605,4170.256308,4196.410154,4207.692205,4206.666564,4227.179384,4202.564,4233.33323,4200.512718,4291.794767,4340.512714
38,0,4307.692202,4332.307586,4227.179384,4252.307588,4228.717845,4202.051179,4215.384512,4214.871692,4226.666563,4221.025538,4229.743486,4202.051179,4278.461434,4324.102458
39,0,4294.358869,4324.102458,4226.153743,4247.692204,4258.974255,4209.230666,4215.897333,4221.538358,4228.717845,4218.461435,4231.794768,4199.999897,4275.384511,4309.230664
40,0,4275.897331,4298.461433,4226.153743,4237.948614,4216.410153,4203.07682,4205.640923,4211.281948,4228.205025,4212.307589,4228.205025,4198.974256,4263.589639,4289.230664
41,0,4269.230665,4288.717844,4224.102461,4236.410153,4185.128103,4193.846051,4196.922974,4197.435795,4223.07682,4220.512717,4222.563999,4198.974256,4253.84605,4277.435793
42,0,4271.794767,4291.794767,4226.153743,4243.58964,4208.205025,4200.512718,4203.07682,4206.666564,4230.769127,4228.205025,4222.051179,4199.999897,4253.333229,4269.743485
43,0,4263.076819,4282.563998,4228.205025,4244.615281,4246.153742,4216.922974,4218.461435,4222.051179,4238.461435,4221.025538,4224.102461,4201.538359,4251.794768,4258.461434
44,0,4243.58964,4264.61528,4219.487076,4227.179384,4256.922973,4223.07682,4219.487076,4218.461435,4227.692204,4216.922974,4220.512717,4195.897333,4242.563999,4241.025537
45,0,4227.179384,4246.666563,4212.307589,4206.666564,4226.666563,4211.281948,4211.794769,4211.794769,4218.974256,4230.769127,4209.230666,4186.153744,4231.281948,4222.563999
46,0,4218.461435,4235.384512,4215.384512,4213.33323,4193.333231,4202.051179,4213.33323,4222.051179,4224.102461,4236.922973,4209.230666,4186.153744,4230.769127,4215.384512
47,0,4210.769128,4231.281948,4214.871692,4227.692204,4199.999897,4211.281948,4217.435794,4225.128102,4227.692204,4219.487076,4221.538358,4188.717846,4231.794768,4207.179384
48,0,4210.769128,4232.820409,4212.82041,4223.07682,4231.794768,4221.538358,4215.897333,4217.948615,4226.153743,4225.128102,4223.58964,4188.205026,4231.794768,4200.512718
49,0,4209.743487,4225.640922,4214.871692,4209.743487,4234.358871,4215.384512,4211.281948,4210.769128,4224.102461,4251.794768,4204.102461,4186.153744,4224.102461,4201.025538
50,0,4199.487077,4213.33323,4208.205025,4208.205025,4227.692204,4212.82041,4211.281948,4211.281948,4221.538358,4245.128101,4196.410154,4183.589641,4217.435794,4196.922974
51,0,4191.794769,4210.769128,4204.102461,4205.128102,4216.410153,4216.922974,4213.846051,4219.487076,4225.640922,4218.461435,4209.230666,4184.615282,4223.07682,4186.153744
52,0,4189.230667,4206.153743,4207.692205,4201.025538,4174.358872,4208.205025,4207.692205,4219.487076,4226.153743,4217.948615,4210.256307,4183.589641,4225.640922,4179.487077
53,0,4183.076821,4190.256308,4209.230666,4201.538359,4174.358872,4201.025538,4202.051179,4210.769128,4213.33323,4232.820409,4197.435795,4179.999898,4214.358871,4176.410154
54,0,4178.461436,4185.640923,4206.666564,4201.538359,4235.384512,4210.769128,4210.256307,4218.461435,4210.769128,4245.128101,4195.384513,4183.589641,4209.230666,4175.384513
55,0,4180.512718,4189.743487,4211.794769,4198.974256,4254.35887,4217.435794,4217.435794,4231.794768,4217.948615,4239.999896,4196.922974,4188.717846,4212.82041,4174.871693
56,0,4180.512718,4186.153744,4213.846051,4201.025538,4216.922974,4212.82041,4210.256307,4229.743486,4216.922974,4224.102461,4197.948615,4186.666564,4214.358871,4171.79477
57,0,4179.487077,4182.564,4213.33323,4207.179384,4195.384513,4208.717846,4208.205025,4222.051179,4214.358871,4235.384512,4202.564,4184.102462,4215.897333,4170.769129
58,0,4178.461436,4181.538359,4212.307589,4208.205025,4194.871692,4207.179384,4208.717846,4219.487076,4215.384512,4256.410152,4202.051179,4184.102462,4215.384512,4169.743488
59,0,4169.230667,4169.743488,4207.179384,4196.922974,4206.153743,4208.717846,4206.153743,4218.974256,4217.435794,4234.871691,4201.538359,4184.615282,4208.717846,4162.05118
60,0,4159.999898,4164.615283,4203.07682,4190.256308,4223.58964,4215.897333,4207.179384,4220.512717,4218.974256,4213.846051,4201.025538,4184.615282,4204.615282,4154.358873
61,0,4161.025539,4168.205026,4201.025538,4193.333231,4224.102461,4218.461435,4206.666564,4216.410153,4215.384512,4227.692204,4191.281949,4181.538359,4201.025538,4151.79477
62,0,4162.564001,4161.53836,4196.922974,4193.846051,4215.897333,4212.82041,4202.051179,4209.743487,4208.717846,4226.666563,4186.666564,4177.435795,4202.564,4150.769129
63,0,4157.435796,4153.333232,4196.410154,4192.30759,4200.512718,4210.769128,4199.487077,4210.256307,4210.256307,4226.153743,4192.30759,4174.871693,4210.769128,4150.256309
64,0,4158.974257,4153.333232,4204.102461,4199.999897,4187.692205,4211.794769,4199.487077,4216.922974,4215.897333,4244.10246,4195.384513,4175.897334,4214.358871,4148.717847
65,0,4171.79477,4159.487078,4211.794769,4210.769128,4202.051179,4211.281948,4202.564,4223.07682,4218.974256,4245.640922,4205.128102,4185.128103,4217.948615,4157.435796
66,0,4174.871693,4161.53836,4217.435794,4214.358871,4218.461435,4214.358871,4206.153743,4223.07682,4219.999897,4233.84605,4208.717846,4189.743487,4220.512717,4163.589642
67,0,4165.128103,4157.948616,4213.846051,4210.769128,4206.666564,4216.922974,4203.07682,4221.025538,4215.384512,4228.205025,4195.384513,4182.564,4213.33323,4157.435796
68,0,4159.487078,4148.717847,4206.666564,4203.07682,4207.179384,4215.897333,4197.948615,4216.922974,4212.82041,4226.666563,4187.179385,4178.461436,4201.025538,4149.743488
69,0,4164.615283,4144.615283,4208.717846,4201.538359,4232.820409,4216.922974,4203.07682,4217.435794,4216.922974,4239.487076,4193.333231,4180.512718,4200.512718,4154.871693
70,0,4164.102462,4145.640924,4213.846051,4201.025538,4224.102461,4216.410153,4204.102461,4214.358871,4213.33323,4243.58964,4184.102462,4177.435795,4198.974256,4151.79477
71,0,4161.025539,4149.743488,4211.281948,4202.051179,4200.512718,4213.846051,4199.999897,4206.153743,4207.692205,4230.769127,4176.922975,4177.948616,4194.358872,4145.128104
72,0,4171.79477,4155.384514,4212.82041,4211.794769,4202.051179,4215.384512,4201.538359,4208.205025,4217.435794,4231.794768,4198.461436,4190.769128,4207.179384,4156.922975
73,0,4182.05118,4156.410155,4214.871692,4217.948615,4205.640923,4214.871692,4201.538359,4214.358871,4225.128102,4236.922973,4215.384512,4194.871692,4223.07682,4170.769129
74,0,4175.384513,4150.769129,4213.33323,4206.153743,4202.564,4211.281948,4198.461436,4207.179384,4218.461435,4225.640922,4201.538359,4185.640923,4216.410153,4165.128103
75,0,4168.717847,4150.769129,4211.794769,4201.538359,4214.358871,4217.435794,4201.025538,4204.102461,4214.358871,4229.743486,4193.333231,4184.102462,4208.205025,4159.999898
76,0,4172.30759,4152.820411,4213.846051,4210.769128,4226.666563,4221.538358,4204.102461,4211.281948,4218.974256,4237.948614,4198.974256,4184.615282,4211.281948,4158.974257
77,0,4175.897334,4159.999898,4214.358871,4219.487076,4210.256307,4217.435794,4199.999897,4212.82041,4219.487076,4224.615281,4200.512718,4181.025539,4213.846051,4158.461437
78,0,4177.435795,4160.512719,4214.358871,4216.410153,4193.333231,4217.435794,4200.512718,4210.256307,4217.948615,4222.563999,4201.025538,4182.05118,4214.871692,4165.640924
79,0,4178.461436,4153.846052,4213.33323,4201.538359,4224.615281,4229.230666,4207.692205,4213.846051,4220.512717,4244.615281,4206.666564,4186.153744,4216.410153,4171.79477
80,0,4175.897334,4158.461437,4216.922974,4194.871692,4247.692204,4234.358871,4209.230666,4219.999897,4223.58964,4253.84605,4208.205025,4185.640923,4214.871692,4169.743488
81,0,4166.666565,4170.256308,4218.974256,4201.025538,4200.512718,4220.512717,4199.999897,4213.846051,4217.435794,4231.794768,4200.512718,4179.999898,4200.512718,4161.025539
82,0,4164.102462,4173.333231,4215.897333,4201.025538,4182.564,4213.846051,4197.948615,4202.564,4209.230666,4217.435794,4192.30759,4179.487077,4184.615282,4156.410155
83,0,4173.846052,4180.512718,4221.025538,4192.30759,4231.794768,4229.230666,4206.153743,4208.717846,4215.384512,4216.922974,4194.871692,4187.692205,4188.205026,4163.076821
84,0,4177.948616,4198.461436,4229.230666,4195.897333,4242.051178,4237.435794,4209.743487,4224.615281,4226.153743,4214.871692,4212.307589,4193.846051,4205.128102,4175.897334
85,0,4168.205026,4205.128102,4226.666563,4203.589641,4211.281948,4230.769127,4209.743487,4224.615281,4222.051179,4225.128102,4216.922974,4194.358872,4199.487077,4174.358872
86,0,4161.025539,4203.589641,4217.948615,4198.974256,4192.82041,4226.153743,4209.230666,4217.435794,4212.82041,4241.025537,4202.051179,4191.794769,4183.076821,4165.640924
87,0,4160.512719,4201.025538,4214.358871,4191.281949,4181.025539,4226.153743,4203.07682,4214.358871,4212.307589,4227.692204,4193.846051,4189.230667,4181.538359,4163.076821
88,0,4159.999898,4204.102461,4212.82041,4191.281949,4190.256308,4228.205025,4200.512718,4211.794769,4211.794769,4209.743487,4202.564,4186.153744,4184.615282,4165.640924
89,0,4163.076821,4211.281948,4214.358871,4193.846051,4221.025538,4231.794768,4207.179384,4214.358871,4211.281948,4214.358871,4212.82041,4186.666564,4187.179385,4168.717847
90,0,4165.128103,4210.769128,4216.922974,4195.384513,4231.794768,4235.384512,4212.82041,4221.025538,4218.974256,4221.025538,4216.410153,4187.179385,4194.871692,4173.333231
91,0,4159.999898,4198.461436,4212.307589,4190.769128,4207.179384,4233.84605,4209.743487,4215.897333,4222.051179,4215.384512,4206.666564,4184.102462,4188.717846,4168.205026
92,0,4157.948616,4193.846051,4201.025538,4185.128103,4179.999898,4224.615281,4201.025538,4202.051179,4211.281948,4213.33323,4192.82041,4177.948616,4175.897334,4156.922975
93,0,4167.179385,4202.564,4203.07682,4188.205026,4186.666564,4221.025538,4198.974256,4201.538359,4208.717846,4214.871692,4198.461436,4178.974257,4185.128103,4159.487078
94,0,4179.487077,4209.743487,4214.358871,4202.564,4210.769128,4233.33323,4208.717846,4215.384512,4217.948615,4217.435794,4213.33323,4191.281949,4206.153743,4176.922975
95,0,4182.05118,4204.102461,4218.461435,4204.615282,4190.256308,4234.871691,4211.281948,4215.384512,4214.358871,4216.410153,4208.205025,4190.769128,4199.487077,4180.512718
96,0,4173.846052,4193.846051,4210.256307,4190.256308,4164.102462,4218.974256,4203.07682,4201.025538,4204.615282,4204.102461,4198.461436,4176.922975,4183.589641,4171.281949
97,0,4172.30759,4192.82041,4209.230666,4190.256308,4199.487077,4217.948615,4202.564,4200.512718,4209.743487,4201.538359,4209.743487,4184.102462,4191.281949,4176.410154
98,0,4184.102462,4199.487077,4218.974256,4206.153743,4235.897332,4232.307589,4211.794769,4212.82041,4218.461435,4216.410153,4224.102461,4202.564,4206.666564,4190.256308
99,0,4190.256308,4209.743487,4221.538358,4205.128102,4224.615281,4237.948614,4219.999897,4217.948615,4221.025538,4218.461435,4221.025538,4198.461436,4205.640923,4192.82041
100,0,4183.589641,4213.33323,4215.384512,4192.82041,4202.051179,4233.84605,4221.538358,4210.256307,4218.461435,4213.846051,4213.33323,4182.05118,4198.461436,4184.615282
101,0,4173.846052,4200.512718,4212.82041,4192.30759,4178.974257,4232.307589,4220.512717,4209.743487,4215.897333,4221.538358,4217.948615,4183.076821,4197.435795,4175.384513
102,0,4173.333231,4191.794769,4216.922974,4196.922974,4170.256308,4230.769127,4221.538358,4224.102461,4223.58964,4230.256307,4223.58964,4195.384513,4202.051179,4175.384513
103,0,4190.769128,4212.307589,4218.974256,4200.512718,4202.051179,4233.33323,4222.563999,4233.84605,4230.769127,4239.487076,4224.615281,4201.538359,4216.922974,4195.897333
104,0,4210.256307,4228.717845,4223.58964,4204.615282,4223.07682,4241.538358,4224.102461,4226.666563,4227.692204,4238.974255,4227.179384,4202.051179,4229.230666,4219.999897
105,0,4224.102461,4231.794768,4229.230666,4211.281948,4211.281948,4244.615281,4231.794768,4223.58964,4224.102461,4222.051179,4236.410153,4205.128102,4229.743486,4235.897332
106,0,4236.410153,4244.10246,4231.794768,4221.538358,4198.974256,4243.58964,4232.307589,4227.179384,4226.666563,4210.769128,4234.358871,4206.666564,4221.025538,4246.666563
107,0,4244.10246,4249.230665,4229.230666,4224.615281,4192.82041,4239.487076,4220.512717,4222.563999,4223.58964,4220.512717,4221.025538,4201.025538,4208.205025,4253.84605
108,0,4240.512717,4235.384512,4226.153743,4213.846051,4203.589641,4237.948614,4217.948615,4217.435794,4218.974256,4225.640922,4209.230666,4195.384513,4196.922974,4246.153742
109,0,4234.871691,4232.820409,4224.615281,4208.717846,4221.025538,4239.999896,4226.153743,4218.974256,4221.025538,4219.999897,4208.205025,4194.358872,4192.82041,4235.384512
110,0,4228.717845,4228.205025,4220.512717,4208.205025,4219.999897,4235.897332,4225.128102,4208.717846,4220.512717,4220.512717,4212.307589,4189.743487,4191.794769,4225.128102
111,0,4218.974256,4216.922974,4213.846051,4209.230666,4211.794769,4231.281948,4220.512717,4204.102461,4215.384512,4222.563999,4210.256307,4184.615282,4195.384513,4221.025538
112,0,4220.512717,4223.58964,4217.948615,4217.948615,4192.30759,4232.307589,4222.563999,4215.384512,4215.897333,4212.307589,4204.615282,4187.692205,4198.974256,4223.58964
113,0,4225.128102,4226.666563,4221.538358,4225.640922,4170.256308,4231.281948,4222.563999,4215.384512,4217.948615,4209.743487,4201.025538,4185.640923,4191.794769,4219.999897
114,0,4218.461435,4212.307589,4215.897333,4222.563999,4192.30759,4229.230666,4216.410153,4209.230666,4217.435794,4220.512717,4198.974256,4175.384513,4187.179385,4214.358871
115,0,4217.435794,4214.871692,4215.897333,4218.974256,4231.794768,4243.076819,4218.461435,4218.974256,4215.897333,4214.358871,4198.974256,4177.948616,4193.333231,4217.435794
116,0,4223.58964,4226.666563,4221.538358,4213.846051,4236.922973,4251.281947,4230.769127,4226.153743,4214.871692,4201.538359,4200.512718,4187.692205,4193.333231,4219.999897
117,0,4213.33323,4214.358871,4217.435794,4205.128102,4199.999897,4237.435794,4230.256307,4209.743487,4208.205025,4197.948615,4195.897333,4179.999898,4184.615282,4207.179384
118,0,4200.512718,4200.512718,4210.769128,4210.256307,4158.974257,4224.615281,4219.487076,4198.461436,4203.589641,4183.076821,4191.281949,4170.256308,4177.435795,4196.922974
119,0,4206.666564,4206.666564,4213.33323,4217.948615,4182.05118,4231.794768,4222.051179,4206.153743,4211.281948,4185.640923,4203.07682,4176.410154,4183.076821,4200.512718
120,0,4216.410153,4223.58964,4218.461435,4217.948615,4239.487076,4247.692204,4232.307589,4221.538358,4225.128102,4232.307589,4220.512717,4188.205026,4209.743487,4212.307589
121,0,4224.615281,4240.512717,4219.999897,4225.640922,4227.179384,4246.153742,4234.358871,4227.179384,4230.769127,4252.820409,4221.025538,4192.30759,4226.153743,4227.179384
122,0,4241.025537,4249.743486,4217.435794,4243.076819,4186.666564,4236.922973,4232.307589,4222.051179,4228.205025,4224.102461,4217.435794,4189.230667,4218.461435,4243.076819
123,0,4257.948614,4247.692204,4219.999897,4243.58964,4194.871692,4237.948614,4232.820409,4222.051179,4230.256307,4214.358871,4218.974256,4190.256308,4222.051179,4258.461434
124,0,4292.307587,4281.025536,4234.358871,4246.666563,4206.666564,4239.999896,4228.717845,4229.743486,4231.794768,4229.743486,4227.692204,4205.640923,4261.025537,4298.974254
125,0,4343.589637,4338.974253,4250.256306,4265.640921,4205.128102,4236.922973,4219.999897,4224.615281,4228.717845,4218.461435,4237.948614,4220.512717,4288.717844,4355.384509
126,0,4368.205021,4352.820406,4248.717845,4269.230665,4210.769128,4236.410153,4215.897333,4207.179384,4225.640922,4203.07682,4237.435794,4216.922974,4283.076818,4383.589636
127,0,4378.461431,4352.307586,4250.256306,4267.179383,4218.461435,4233.33323,4214.871692,4199.999897,4223.58964,4201.025538,4229.743486,4215.897333,4282.563998,4394.358867
128,0,4399.999892,4381.538354,4260.512716,4281.538357,4220.512717,4229.743486,4214.871692,4206.666564,4225.640922,4192.30759,4235.897332,4227.692204,4295.897331,4416.922969
0,0,4414.358866,4396.410149,4261.025537,4291.281946,4205.640923,4230.769127,4216.922974,4208.205025,4228.205025,4190.769128,4238.974255,4227.179384,4287.692203,4427.179379
1,0,4409.743482,4389.743482,4250.769127,4287.179382,4183.589641,4223.58964,4213.846051,4196.922974,4224.615281,4202.564,4224.102461,4214.358871,4272.820408,4418.46143
2,0,4403.076815,4392.307585,4249.230665,4283.589639,4197.435795,4213.846051,4202.051179,4183.589641,4216.922974,4193.846051,4209.743487,4209.743487,4269.743485,4410.256302
3,0,4392.307585,4393.846046,4250.256306,4285.640921,4223.07682,4218.461435,4197.948615,4190.256308,4216.922974,4178.461436,4203.589641,4213.33323,4251.794768,4395.384508
4,0,4375.384508,4377.43579,4251.281947,4285.1281,4198.461436,4222.563999,4205.128102,4199.487077,4219.999897,4183.589641,4204.615282,4217.435794,4228.205025,4371.794765
5,0,4360.512714,4354.871688,4250.769127,4277.948613,4171.281949,4214.358871,4198.974256,4188.205026,4214.358871,4194.358872,4208.205025,4213.846051,4235.384512,4355.897329
6,0,4347.179381,4334.871689,4247.179383,4269.230665,4209.743487,4214.871692,4188.205026,4178.974257,4212.82041,4205.128102,4208.205025,4203.07682,4252.820409,4344.102458
7,0,4336.41015,4328.717843,4247.692204,4269.230665,4242.051178,4229.230666,4196.410154,4189.230667,4222.051179,4203.589641,4218.974256,4208.717846,4263.589639,4337.948612
8,0,4322.051176,4311.281946,4245.128101,4259.487075,4197.435795,4231.281948,4208.205025,4201.538359,4228.205025,4197.948615,4239.999896,4221.025538,4272.820408,4333.333227
9,0,4294.358869,4269.230665,4232.820409,4234.871691,4170.769129,4223.07682,4203.07682,4198.461436,4218.974256,4219.487076,4229.743486,4209.230666,4258.974255,4306.666561
10,0,4273.333229,4245.640922,4229.743486,4225.128102,4226.153743,4231.281948,4204.615282,4201.538359,4212.82041,4252.307588,4204.615282,4194.871692,4235.897332,4276.410152
11,0,4269.743485,4248.205024,4239.487076,4231.794768,4263.589639,4243.076819,4216.410153,4214.358871,4220.512717,4257.435793,4207.692205,4203.589641,4230.256307,4267.179383
12,0,4265.640921,4247.179383,4239.999896,4234.871691,4231.794768,4238.974255,4214.871692,4218.461435,4226.666563,4235.384512,4217.435794,4209.230666,4228.717845,4264.10246
13,0,4246.666563,4224.615281,4230.256307,4225.128102,4191.281949,4228.205025,4208.717846,4214.871692,4220.512717,4216.410153,4203.07682,4197.948615,4214.358871,4238.974255
14,0,4223.58964,4204.102461,4218.461435,4215.897333,4178.461436,4223.07682,4208.717846,4210.769128,4210.769128,4216.922974,4186.666564,4187.692205,4199.487077,4211.794769
15,0,4208.205025,4198.974256,4215.384512,4217.435794,4188.205026,4223.07682,4205.640923,4201.025538,4208.205025,4217.948615,4178.974257,4181.025539,4186.153744,4204.102461
16,0,4210.769128,4205.640923,4219.487076,4222.051179,4219.999897,4231.794768,4208.717846,4204.102461,4214.871692,4223.58964,4188.717846,4184.615282,4193.846051,4210.769128
17,0,4217.435794,4205.128102,4219.487076,4214.871692,4231.794768,4238.461435,4218.974256,4222.563999,4226.153743,4244.615281,4206.666564,4195.897333,4210.769128,4209.743487
18,0,4204.615282,4192.82041,4212.82041,4202.051179,4210.256307,4233.33323,4210.256307,4224.102461,4226.666563,4256.410152,4209.743487,4194.871692,4207.692205,4196.922974
19,0,4191.794769,4184.615282,4209.743487,4199.487077,4207.692205,4229.230666,4198.461436,4207.179384,4218.461435,4250.256306,4202.051179,4186.666564,4197.948615,4192.30759
20,0,4195.384513,4187.179385,4207.179384,4200.512718,4227.692204,4234.358871,4206.153743,4205.640923,4216.922974,4251.794768,4204.615282,4187.179385,4204.615282,4195.897333
21,0,4192.82041,4182.05118,4205.640923,4197.435795,4241.025537,4235.897332,4213.33323,4216.410153,4220.512717,4248.717845,4209.230666,4188.717846,4207.692205,4192.82041
22,0,4181.025539,4169.230667,4204.615282,4198.974256,4224.102461,4234.358871,4213.33323,4223.07682,4219.999897,4240.512717,4205.640923,4185.128103,4201.025538,4185.128103
23,0,4174.871693,4162.05118,4203.589641,4196.410154,4202.051179,4234.871691,4215.384512,4224.102461,4219.487076,4245.128101,4199.487077,4185.640923,4193.846051,4181.025539
24,0,4166.666565,4154.871693,4202.051179,4186.666564,4213.33323,4231.281948,4209.743487,4218.974256,4216.410153,4238.974255,4196.410154,4185.640923,4184.102462,4171.79477
25,0,4161.025539,4153.846052,4202.051179,4192.30759,4243.58964,4226.666563,4201.538359,4213.846051,4212.307589,4234.871691,4199.999897,4183.589641,4183.076821,4163.589642
26,0,4165.128103,4161.53836,4203.589641,4206.153743,4235.384512,4230.769127,4201.025538,4205.128102,4211.281948,4245.640922,4202.564,4187.692205,4192.30759,4167.179385
27,0,4166.153744,4156.922975,4203.07682,4198.974256,4209.230666,4232.820409,4199.487077,4196.410154,4210.769128,4245.640922,4193.846051,4184.615282,4190.256308,4168.717847
28,0,4162.05118,4151.28195,4201.025538,4189.743487,4234.358871,4232.820409,4199.487077,4196.410154,4211.281948,4237.948614,4182.564,4174.358872,4177.948616,4161.025539
29,0,4163.076821,4162.564001,4198.974256,4198.461436,4252.307588,4235.384512,4206.666564,4204.102461,4210.769128,4235.897332,4182.564,4172.30759,4176.410154,4158.461437
30,0,4161.53836,4159.487078,4198.974256,4198.461436,4211.281948,4229.743486,4203.589641,4203.589641,4207.692205,4224.102461,4184.102462,4171.79477,4177.948616,4155.897334
31,0,4157.948616,4144.102463,4197.948615,4191.794769,4202.051179,4223.58964,4198.974256,4203.07682,4208.205025,4217.948615,4183.589641,4168.205026,4175.897334,4153.333232
32,0,4166.666565,4148.717847,4199.999897,4201.538359,4242.563999,4230.769127,4206.153743,4207.179384,4213.33323,4237.948614,4181.538359,4174.871693,4173.846052,4161.025539
33,0,4181.025539,4161.53836,4205.128102,4208.205025,4254.35887,4236.410153,4209.230666,4208.205025,4213.33323,4252.307588,4181.025539,4183.076821,4178.461436,4170.769129
34,0,4186.666564,4157.948616,4212.307589,4203.589641,4236.922973,4230.769127,4205.128102,4207.692205,4213.33323,4242.563999,4183.589641,4183.076821,4186.153744,4175.384513
35,0,4191.281949,4158.461437,4213.33323,4214.358871,4216.922974,4233.33323,4209.230666,4216.410153,4219.487076,4230.769127,4193.333231,4185.128103,4195.897333,4183.076821
36,0,4189.743487,4158.461437,4210.769128,4222.051179,4200.512718,4238.974255,4213.33323,4222.051179,4219.999897,4224.615281,4196.410154,4186.666564,4194.358872,4181.025539
37,0,4182.05118,4151.28195,4210.769128,4206.153743,4224.102461,4235.384512,4210.769128,4219.999897,4216.922974,4241.538358,4188.717846,4185.128103,4192.30759,4175.384513
38,0,4179.487077,4148.205027,4211.281948,4189.230667,4241.538358,4227.692204,4206.153743,4213.33323,4219.487076,4260.512716,4188.717846,4186.666564,4196.410154,4177.948616
39,0,4179.999898,4149.230668,4206.666564,4194.358872,4210.256307,4218.461435,4200.512718,4201.538359,4216.410153,4247.692204,4195.384513,4186.153744,4197.948615,4175.897334
40,0,4185.128103,4157.435796,4211.794769,4207.179384,4214.871692,4218.461435,4203.589641,4197.435795,4210.769128,4228.205025,4202.564,4186.153744,4201.025538,4175.384513
41,0,4191.281949,4171.79477,4218.974256,4214.358871,4249.230665,4228.205025,4211.281948,4204.102461,4212.307589,4240.512717,4206.666564,4187.179385,4204.615282,4182.05118
42,0,4181.025539,4175.384513,4208.205025,4210.769128,4246.153742,4233.84605,4208.205025,4210.256307,4217.948615,4250.256306,4202.051179,4176.410154,4193.333231,4173.333231
43,0,4167.692206,4176.410154,4199.999897,4202.564,4246.153742,4238.974255,4209.230666,4217.948615,4221.025538,4238.461435,4197.435795,4171.79477,4187.179385,4162.05118
44,0,4173.333231,4190.769128,4209.743487,4201.538359,4252.307588,4245.640922,4218.461435,4226.153743,4224.615281,4244.10246,4205.640923,4186.666564,4195.897333,4170.769129
45,0,4177.948616,4195.384513,4213.846051,4198.461436,4231.794768,4241.025537,4210.769128,4224.102461,4219.487076,4247.179383,4215.897333,4188.205026,4191.794769,4175.384513
46,0,4171.281949,4198.461436,4210.769128,4199.999897,4215.897333,4231.281948,4201.025538,4223.58964,4214.871692,4235.384512,4217.435794,4181.538359,4182.564,4171.281949
47,0,4168.205026,4210.769128,4217.948615,4210.769128,4205.640923,4232.820409,4208.205025,4231.794768,4221.538358,4239.487076,4212.82041,4190.769128,4184.615282,4170.769129
48,0,4170.769129,4210.769128,4222.563999,4217.435794,4196.410154,4234.358871,4209.743487,4231.281948,4223.07682,4236.922973,4209.230666,4196.922974,4185.128103,4174.871693
49,0,4175.897334,4206.153743,4219.487076,4213.33323,4217.948615,4228.717845,4205.128102,4221.538358,4218.974256,4221.025538,4211.794769,4195.384513,4181.538359,4183.076821
50,0,4178.461436,4218.461435,4218.974256,4209.230666,4248.717845,4233.33323,4213.33323,4226.153743,4223.58964,4237.435794,4217.948615,4197.948615,4187.692205,4187.692205
51,0,4172.820411,4221.538358,4217.435794,4207.179384,4251.281947,4241.538358,4218.461435,4233.84605,4226.153743,4249.743486,4214.871692,4193.846051,4183.589641,4180.512718
52,0,4170.769129,4210.256307,4207.179384,4206.153743,4235.384512,4242.051178,4214.871692,4231.281948,4215.897333,4222.051179,4207.692205,4181.025539,4169.743488,4170.769129
53,0,4171.79477,4204.102461,4202.564,4206.153743,4208.205025,4236.922973,4215.897333,4225.128102,4210.256307,4218.974256,4199.999897,4175.897334,4169.743488,4165.640924
54,0,4173.846052,4212.82041,4206.153743,4213.33323,4195.384513,4236.410153,4217.948615,4229.230666,4215.897333,4243.58964,4207.179384,4184.102462,4184.615282,4173.846052
55,0,4179.487077,4218.461435,4207.179384,4221.025538,4221.025538,4242.051178,4220.512717,4232.820409,4222.051179,4229.743486,4215.384512,4188.717846,4186.153744,4180.512718
56,0,4176.922975,4201.538359,4202.564,4214.358871,4242.051178,4247.179383,4228.717845,4227.692204,4219.487076,4213.846051,4208.717846,4184.102462,4174.358872,4171.281949
57,0,4176.410154,4200.512718,4206.153743,4212.82041,4232.820409,4248.717845,4234.358871,4229.230666,4219.487076,4239.487076,4212.307589,4185.128103,4187.179385,4175.897334
58,0,4181.538359,4226.153743,4207.179384,4222.563999,4227.179384,4247.692204,4229.230666,4235.384512,4226.153743,4249.743486,4219.487076,4190.769128,4204.615282,4187.692205
59,0,4178.974257,4226.153743,4202.051179,4217.948615,4237.948614,4247.692204,4224.102461,4232.820409,4226.666563,4231.281948,4209.230666,4186.153744,4185.128103,4171.79477
60,0,4178.461436,4212.82041,4204.102461,4209.230666,4233.33323,4247.179383,4228.717845,4233.33323,4223.58964,4233.33323,4203.07682,4184.102462,4175.897334,4163.589642
61,0,4189.743487,4223.58964,4215.384512,4217.435794,4227.179384,4250.769127,4235.897332,4245.128101,4231.794768,4242.563999,4222.563999,4199.487077,4204.615282,4187.179385
62,0,4195.897333,4228.717845,4221.538358,4224.102461,4235.384512,4258.461434,4237.948614,4251.794768,4239.487076,4239.999896,4233.33323,4212.82041,4217.435794,4197.435795
63,0,4191.794769,4219.487076,4218.974256,4222.563999,4233.33323,4252.307588,4234.358871,4244.10246,4233.33323,4248.717845,4220.512717,4208.205025,4195.897333,4187.692205
64,0,4191.794769,4219.999897,4214.871692,4222.051179,4226.666563,4242.563999,4231.281948,4236.922973,4226.153743,4255.384511,4210.769128,4198.974256,4182.05118,4185.128103
65,0,4194.871692,4218.974256,4216.922974,4218.461435,4226.666563,4245.640922,4231.281948,4235.897332,4224.615281,4248.717845,4215.897333,4202.051179,4189.743487,4187.179385
66,0,4193.846051,4212.82041,4216.922974,4215.384512,4228.205025,4246.666563,4230.256307,4232.307589,4224.102461,4243.076819,4214.871692,4201.025538,4194.871692,4183.589641
67,0,4193.846051,4214.871692,4211.794769,4221.025538,4232.820409,4244.10246,4229.230666,4232.820409,4223.58964,4233.33323,4211.281948,4191.794769,4194.358872,4184.102462
68,0,4191.794769,4208.205025,4210.769128,4219.487076,4233.33323,4245.128101,4229.230666,4233.33323,4225.128102,4228.205025,4213.846051,4190.256308,4190.769128,4184.615282
69,0,4186.153744,4201.538359,4207.179384,4213.33323,4231.281948,4246.153742,4229.743486,4230.769127,4225.640922,4245.640922,4208.717846,4191.794769,4189.743487,4178.461436
70,0,4183.076821,4200.512718,4201.538359,4213.33323,4232.307589,4244.615281,4230.256307,4227.692204,4222.563999,4248.717845,4196.922974,4184.615282,4183.076821,4166.666565
71,0,4185.128103,4194.358872,4202.564,4212.307589,4226.153743,4240.512717,4229.743486,4222.563999,4213.846051,4230.769127,4199.487077,4180.512718,4174.871693,4164.615283
72,0,4185.640923,4179.999898,4207.692205,4207.692205,4222.563999,4230.769127,4225.640922,4212.82041,4208.205025,4225.128102,4199.487077,4182.564,4171.281949,4168.205026
73,0,4186.666564,4182.564,4204.102461,4208.205025,4235.384512,4230.769127,4226.666563,4216.922974,4215.897333,4232.820409,4197.435795,4179.999898,4178.461436,4169.230667
74,0,4190.256308,4196.410154,4204.615282,4210.769128,4227.692204,4239.999896,4233.33323,4225.640922,4222.051179,4229.743486,4201.025538,4178.461436,4184.102462,4170.256308
75,0,4188.205026,4198.974256,4210.256307,4211.281948,4205.640923,4236.410153,4228.205025,4221.538358,4214.871692,4222.563999,4203.589641,4184.102462,4178.461436,4173.846052
76,0,4183.076821,4192.82041,4210.256307,4211.281948,4222.051179,4231.281948,4222.051179,4219.487076,4214.358871,4226.153743,4208.205025,4187.692205,4177.435795,4173.846052
77,0,4185.128103,4192.30759,4207.179384,4211.281948,4239.487076,4244.10246,4227.692204,4230.769127,4225.128102,4237.948614,4219.999897,4184.615282,4193.333231,4176.922975
78,0,4187.179385,4196.922974,4208.205025,4212.82041,4215.384512,4252.820409,4233.33323,4233.33323,4227.692204,4231.281948,4216.922974,4183.589641,4199.487077,4179.999898
79,0,4181.025539,4193.846051,4207.692205,4218.974256,4210.256307,4243.076819,4225.128102,4222.051179,4219.487076,4218.461435,4200.512718,4178.461436,4187.692205,4173.846052
80,0,4179.487077,4189.230667,4206.153743,4218.974256,4243.58964,4239.487076,4219.487076,4217.435794,4220.512717,4234.871691,4199.999897,4172.30759,4183.076821,4168.205026
81,0,4187.179385,4196.410154,4207.179384,4210.256307,4255.384511,4244.615281,4223.07682,4221.025538,4224.615281,4247.179383,4210.256307,4178.974257,4190.769128,4173.846052
82,0,4191.281949,4204.615282,4203.589641,4203.589641,4238.461435,4239.487076,4219.999897,4221.538358,4222.051179,4231.281948,4210.256307,4187.179385,4191.794769,4176.922975
83,0,4185.640923,4198.974256,4204.615282,4203.589641,4230.769127,4233.84605,4212.82041,4218.461435,4221.538358,4230.256307,4204.615282,4182.564,4189.230667,4170.256308
84,0,4183.076821,4196.410154,4212.307589,4211.281948,4223.07682,4237.435794,4213.846051,4217.948615,4224.615281,4243.076819,4212.82041,4182.564,4196.410154,4172.30759
85,0,4178.974257,4196.410154,4208.717846,4208.205025,4210.769128,4235.384512,4214.358871,4213.33323,4219.487076,4230.256307,4220.512717,4182.05118,4198.974256,4174.358872
86,0,4175.897334,4189.743487,4197.435795,4197.435795,4226.666563,4230.769127,4212.307589,4211.794769,4212.82041,4226.666563,4213.33323,4172.30759,4194.358872,4170.769129
87,0,4179.487077,4188.205026,4202.564,4198.461436,4250.769127,4235.897332,4215.897333,4217.435794,4218.974256,4240.512717,4205.640923,4174.871693,4193.333231,4170.256308
88,0,4177.948616,4196.922974,4203.589641,4208.205025,4249.230665,4239.999896,4219.487076,4215.897333,4224.102461,4235.384512,4210.769128,4181.538359,4196.922974,4171.79477
89,0,4175.384513,4197.948615,4197.435795,4208.717846,4238.974255,4235.384512,4215.897333,4208.205025,4219.999897,4226.153743,4215.897333,4177.435795,4201.025538,4171.79477
90,0,4188.205026,4202.051179,4203.589641,4208.717846,4232.820409,4234.358871,4215.384512,4210.769128,4218.974256,4232.820409,4219.999897,4181.025539,4212.307589,4186.153744
91,0,4210.256307,4215.384512,4214.871692,4212.82041,4218.974256,4235.384512,4218.974256,4210.256307,4223.07682,4238.461435,4221.025538,4187.179385,4221.538358,4211.281948
92,0,4233.33323,4240.512717,4212.82041,4215.897333,4228.205025,4234.871691,4218.461435,4203.07682,4222.563999,4238.974255,4218.974256,4183.076821,4227.692204,4231.281948
93,0,4260.512716,4261.538357,4215.897333,4224.615281,4265.128101,4233.84605,4213.33323,4200.512718,4220.512717,4227.179384,4218.461435,4185.640923,4235.384512,4253.333229
94,0,4294.358869,4277.435793,4221.538358,4245.128101,4262.563998,4230.256307,4207.692205,4197.435795,4221.538358,4214.358871,4235.384512,4197.435795,4263.589639,4301.025536
95,0,4336.922971,4312.820407,4223.58964,4260.512716,4224.102461,4219.487076,4202.051179,4186.666564,4224.615281,4224.615281,4251.281947,4200.512718,4307.179382,4357.948611
96,0,4371.281944,4344.615278,4228.205025,4261.025537,4212.82041,4213.33323,4192.82041,4181.025539,4223.58964,4229.743486,4241.025537,4198.974256,4315.38451,4391.794764
97,0,4380.512713,4339.487073,4233.84605,4256.922973,4230.256307,4214.358871,4188.205026,4183.589641,4218.461435,4202.051179,4238.974255,4205.640923,4299.999895,4404.615277
98,0,4394.871687,4345.640919,4233.84605,4263.589639,4247.692204,4217.435794,4194.358872,4189.230667,4221.538358,4192.82041,4267.692203,4215.384512,4325.64092,4427.179379
99,0,4421.538353,4385.128098,4235.897332,4274.87169,4237.435794,4220.512717,4202.051179,4195.384513,4228.205025,4222.051179,4273.846049,4219.999897,4351.794765,4451.794763
100,0,4422.563994,4393.846046,4236.922973,4273.333229,4202.564,4211.281948,4194.358872,4184.615282,4217.948615,4220.512717,4240.512717,4214.358871,4319.999894,4450.769122
101,0,4411.794764,4375.897329,4238.974255,4267.179383,4222.563999,4206.666564,4190.769128,4177.948616,4209.230666,4192.30759,4228.205025,4212.82041,4288.717844,4439.999891
102,0,4425.128097,4387.6922,4255.384511,4277.948613,4268.205024,4222.563999,4203.589641,4198.461436,4219.999897,4203.589641,4248.717845,4226.153743,4305.1281,4447.692199
103,0,4445.640917,4410.256302,4266.153742,4293.333228,4249.230665,4228.717845,4209.230666,4208.717846,4224.615281,4229.743486,4257.435793,4238.461435,4328.205022,4465.640916
104,0,4438.97425,4398.461431,4256.410152,4285.1281,4223.58964,4215.384512,4199.999897,4185.640923,4211.794769,4208.717846,4241.025537,4231.794768,4308.717843,4455.384506
105,0,4417.94861,4372.307585,4245.640922,4268.205024,4250.256306,4213.846051,4194.358872,4171.281949,4203.07682,4177.435795,4222.563999,4216.922974,4268.205024,4423.076815
106,0,4414.358866,4366.153739,4255.384511,4268.205024,4252.307588,4219.487076,4195.384513,4183.076821,4207.692205,4182.05118,4226.153743,4221.025538,4264.10246,4411.794764
107,0,4424.102456,4375.897329,4267.692203,4279.999895,4213.33323,4210.769128,4193.333231,4192.30759,4210.256307,4205.640923,4240.512717,4234.871691,4287.692203,4424.615276
108,0,4415.897328,4364.102457,4265.640921,4276.922972,4216.410153,4207.179384,4193.333231,4186.153744,4208.205025,4209.743487,4239.999896,4235.384512,4289.743485,4420.512712
109,0,4393.333226,4340.512714,4255.897332,4260.512716,4255.384511,4216.922974,4198.974256,4185.640923,4208.205025,4206.153743,4240.512717,4226.153743,4291.794767,4399.999892
110,0,4378.461431,4328.205022,4251.794768,4258.974255,4263.589639,4226.153743,4201.538359,4195.384513,4212.82041,4223.58964,4247.179383,4223.07682,4302.051177,4381.538354
111,0,4365.640919,4313.333228,4252.307588,4267.179383,4242.563999,4230.769127,4202.564,4208.717846,4219.487076,4238.461435,4250.256306,4226.153743,4298.974254,4367.692201
112,0,4350.769124,4288.717844,4253.84605,4254.871691,4237.435794,4231.794768,4207.692205,4217.948615,4224.615281,4235.897332,4256.922973,4225.640922,4296.410151,4358.461432
113,0,4330.769125,4270.769126,4243.58964,4235.897332,4245.640922,4230.769127,4211.281948,4216.410153,4218.461435,4232.307589,4250.769127,4215.897333,4289.230664,4337.948612
114,0,4309.743484,4264.61528,4229.743486,4232.307589,4245.640922,4231.281948,4210.256307,4209.230666,4208.717846,4229.743486,4231.794768,4202.051179,4269.230665,4309.230664
115,0,4304.102459,4258.461434,4231.794768,4233.33323,4246.666563,4231.794768,4212.307589,4215.384512,4212.82041,4238.461435,4238.461435,4202.051179,4271.281947,4305.1281
116,0,4300.512715,4239.999896,4235.897332,4231.794768,4240.512717,4227.692204,4208.205025,4218.974256,4220.512717,4257.948614,4247.179383,4206.153743,4281.025536,4307.692202
117,0,4276.410152,4216.410153,4223.58964,4219.487076,4226.666563,4220.512717,4196.922974,4199.487077,4209.230666,4249.743486,4226.153743,4194.871692,4259.487075,4281.025536
118,0,4259.487075,4211.794769,4215.384512,4208.717846,4242.051178,4221.538358,4196.410154,4190.769128,4199.487077,4222.563999,4221.538358,4188.717846,4242.051178,4258.461434
119,0,4267.179383,4217.948615,4223.07682,4218.974256,4266.153742,4230.256307,4203.07682,4207.179384,4209.230666,4232.820409,4242.563999,4199.487077,4251.794768,4265.128101
120,0,4273.846049,4213.846051,4227.692204,4228.205025,4260.512716,4233.84605,4207.692205,4223.07682,4222.051179,4265.640921,4245.128101,4205.640923,4252.820409,4268.205024
121,0,4264.61528,4207.692205,4223.58964,4211.281948,4251.794768,4232.307589,4210.256307,4225.128102,4225.640922,4264.10246,4232.307589,4199.999897,4239.487076,4248.717845
122,0,4247.179383,4194.871692,4217.435794,4195.384513,4254.35887,4232.307589,4207.692205,4222.051179,4221.025538,4245.640922,4232.307589,4199.487077,4232.820409,4227.692204
123,0,4231.794768,4169.230667,4215.384512,4198.974256,4244.615281,4231.794768,4209.743487,4214.871692,4214.871692,4242.051178,4230.769127,4195.897333,4224.615281,4215.384512
124,0,4224.102461,4164.102462,4214.358871,4202.564,4237.435794,4235.384512,4217.435794,4210.769128,4209.743487,4239.999896,4222.051179,4185.128103,4215.897333,4205.640923
125,0,4218.461435,4174.358872,4213.846051,4198.974256,4251.281947,4241.025537,4217.435794,4212.307589,4208.205025,4225.128102,4214.871692,4181.025539,4211.281948,4194.358872
126,0,4213.846051,4171.281949,4212.82041,4194.871692,4260.512716,4237.435794,4214.871692,4219.487076,4209.230666,4233.84605,4217.435794,4182.05118,4211.281948,4190.769128
127,0,4209.743487,4153.846052,4207.692205,4187.692205,4241.025537,4230.256307,4214.871692,4219.487076,4209.230666,4262.563998,4216.410153,4177.435795,4206.666564,4185.640923
128,0,4200.512718,4144.102463,4199.487077,4181.025539,4232.307589,4228.205025,4210.769128,4214.358871,4206.153743,4262.051178,4205.128102,4174.871693,4198.974256,4177.948616
0,0,4196.410154,4145.640924,4206.153743,4185.128103,4254.35887,4230.769127,4210.256307,4216.410153,4208.205025,4243.076819,4207.692205,4183.589641,4203.07682,4180.512718
1,0,4199.999897,4147.692206,4214.358871,4191.281949,4262.563998,4232.820409,4215.384512,4221.025538,4213.33323,4247.179383,4217.435794,4186.153744,4205.128102,4182.05118
2,0,4194.871692,4133.846053,4211.794769,4181.538359,4252.820409,4232.307589,4219.487076,4215.897333,4209.743487,4242.563999,4206.153743,4174.871693,4188.717846,4166.666565
3,0,4181.025539,4124.102463,4207.179384,4174.871693,4246.153742,4232.820409,4223.58964,4214.358871,4199.487077,4207.692205,4192.30759,4168.717847,4171.79477,4153.333232
4,0,4174.871693,4132.307591,4207.179384,4176.922975,4247.179383,4234.871691,4222.051179,4219.487076,4198.974256,4204.615282,4197.948615,4171.79477,4174.358872,4153.333232
5,0,4178.974257,4146.153745,4211.281948,4177.948616,4245.640922,4233.33323,4219.999897,4227.179384,4205.640923,4251.281947,4206.153743,4179.999898,4183.076821,4158.974257
6,0,4181.538359,4155.897334,4214.358871,4178.461436,4230.769127,4232.820409,4222.563999,4233.84605,4209.743487,4268.205024,4202.564,4183.076821,4178.461436,4161.53836
7,0,4167.179385,4156.410155,4206.666564,4175.384513,4225.640922,4237.435794,4220.512717,4228.717845,4203.07682,4241.025537,4197.435795,4171.79477,4166.666565,4153.846052
8,0,4153.333232,4156.922975,4202.051179,4170.769129,4252.307588,4243.58964,4214.871692,4223.58964,4199.487077,4229.230666,4201.538359,4163.589642,4167.179385,4146.153745
9,0,4159.487078,4167.179385,4212.307589,4172.30759,4273.333229,4249.743486,4219.999897,4232.820409,4209.230666,4234.358871,4216.410153,4175.384513,4175.384513,4152.307591
10,0,4166.666565,4179.487077,4214.358871,4175.897334,4253.84605,4255.897332,4230.769127,4239.999896,4214.871692,4239.487076,4223.58964,4185.640923,4176.922975,4159.999898
11,0,4155.384514,4175.384513,4206.153743,4171.281949,4225.128102,4254.871691,4233.84605,4231.281948,4208.205025,4232.307589,4212.82041,4178.461436,4170.769129,4153.333232
12,0,4150.256309,4173.846052,4209.230666,4176.922975,4222.051179,4252.307588,4231.794768,4232.307589,4207.692205,4224.615281,4208.717846,4178.461436,4167.692206,4151.28195
13,0,4163.589642,4183.589641,4216.922974,4184.102462,4244.10246,4253.84605,4227.692204,4242.563999,4220.512717,4238.461435,4219.487076,4189.230667,4170.769129,4161.025539
14,0,4176.410154,4193.333231,4219.487076,4185.640923,4268.205024,4253.84605,4230.256307,4249.230665,4228.205025,4258.461434,4231.281948,4196.410154,4182.05118,4172.820411
15,0,4172.820411,4188.717846,4219.487076,4184.615282,4250.769127,4248.717845,4231.794768,4248.205024,4223.07682,4242.051178,4225.128102,4193.846051,4181.025539,4169.743488
16,0,4158.461437,4173.333231,4207.179384,4173.846052,4225.128102,4244.615281,4224.102461,4236.922973,4210.769128,4227.692204,4206.153743,4180.512718,4159.999898,4154.871693
17,0,4151.79477,4164.615283,4198.461436,4165.128103,4230.769127,4246.153742,4221.538358,4226.666563,4205.640923,4239.999896,4194.358872,4167.179385,4146.666565,4144.102463
18,0,4157.435796,4169.230667,4203.07682,4174.358872,4245.640922,4247.692204,4230.769127,4232.307589,4208.205025,4232.820409,4202.564,4166.153744,4157.948616,4144.615283
19,0,4161.025539,4173.846052,4206.666564,4176.922975,4252.820409,4248.717845,4233.33323,4237.435794,4206.666564,4212.82041,4214.871692,4171.79477,4170.256308,4149.230668
20,0,4158.461437,4168.205026,4204.102461,4167.692206,4240.512717,4251.281947,4230.769127,4237.948614,4205.128102,4217.948615,4215.384512,4177.435795,4171.281949,4153.333232
21,0,4165.640924,4166.153744,4213.33323,4171.79477,4225.128102,4250.769127,4231.281948,4242.051178,4215.384512,4233.33323,4219.487076,4190.256308,4173.846052,4160.512719
22,0,4178.974257,4177.435795,4222.051179,4178.974257,4222.051179,4248.205024,4231.281948,4244.10246,4220.512717,4239.999896,4232.307589,4197.435795,4179.999898,4166.666565
23,0,4178.974257,4180.512718,4220.512717,4183.589641,4221.025538,4245.640922,4231.281948,4236.922973,4214.871692,4242.051178,4234.358871,4195.897333,4181.538359,4166.153744
24,0,4168.205026,4173.846052,4214.358871,4189.230667,4229.230666,4243.076819,4228.205025,4233.84605,4212.82041,4248.205024,4223.07682,4193.846051,4184.102462,4162.564001
25,0,4163.076821,4168.205026,4205.128102,4174.871693,4242.051178,4243.58964,4220.512717,4231.281948,4213.846051,4246.153742,4215.384512,4186.153744,4182.05118,4158.461437
26,0,4161.025539,4164.102462,4199.487077,4163.076821,4232.820409,4241.538358,4221.538358,4224.615281,4208.717846,4225.128102,4210.256307,4173.333231,4166.666565,4150.769129
27,0,4157.435796,4164.615283,4200.512718,4174.358872,4209.743487,4239.999896,4229.230666,4228.205025,4208.717846,4208.717846,4209.230666,4169.743488,4159.487078,4145.128104
28,0,4156.922975,4170.769129,4200.512718,4178.974257,4219.999897,4245.640922,4232.307589,4235.384512,4214.358871,4225.640922,4213.846051,4169.230667,4165.640924,4141.02554
29,0,4157.948616,4170.256308,4196.922974,4169.743488,4239.487076,4250.256306,4232.307589,4232.307589,4208.717846,4239.999896,4208.717846,4166.153744,4165.128103,4137.948617
30,0,4160.512719,4160.512719,4202.051179,4168.717847,4227.179384,4244.615281,4233.84605,4228.205025,4201.025538,4219.999897,4201.538359,4172.30759,4160.512719,4142.564001
31,0,4168.717847,4167.692206,4212.307589,4178.974257,4236.922973,4244.615281,4237.948614,4239.999896,4209.743487,4221.538358,4219.999897,4187.179385,4173.846052,4159.999898
32,0,4178.974257,4181.025539,4218.461435,4185.640923,4255.897332,4252.307588,4242.051178,4252.307588,4221.538358,4247.692204,4234.871691,4194.871692,4186.153744,4170.769129
33,0,4179.999898,4176.410154,4217.435794,4192.82041,4219.999897,4245.128101,4237.435794,4243.58964,4218.461435,4232.820409,4221.538358,4190.256308,4183.076821,4166.153744
34,0,4170.769129,4165.640924,4215.897333,4194.358872,4184.615282,4234.871691,4229.743486,4225.640922,4208.717846,4198.461436,4209.230666,4181.538359,4174.871693,4156.410155
35,0,4169.743488,4171.79477,4214.358871,4187.179385,4224.102461,4240.512717,4229.743486,4222.051179,4209.230666,4225.128102,4218.974256,4182.564,4180.512718,4159.487078
36,0,4174.358872,4178.461436,4213.33323,4182.05118,4261.538357,4249.743486,4231.281948,4224.615281,4217.435794,4262.051178,4218.461435,4185.640923,4186.153744,4167.179385
37,0,4172.30759,4172.30759,4211.794769,4187.179385,4234.358871,4246.153742,4228.717845,4221.025538,4213.846051,4235.384512,4210.256307,4183.589641,4180.512718,4168.205026
38,0,4171.79477,4171.281949,4214.358871,4189.743487,4218.461435,4243.58964,4228.205025,4222.051179,4205.640923,4209.743487,4213.846051,4184.102462,4176.922975,4168.205026
39,0,4176.922975,4183.076821,4215.897333,4189.230667,4239.999896,4251.281947,4233.84605,4232.307589,4208.717846,4222.563999,4218.461435,4184.615282,4186.153744,4173.846052
40,0,4175.897334,4187.692205,4214.871692,4191.794769,4238.974255,4250.769127,4235.384512,4234.871691,4213.33323,4224.615281,4216.922974,4175.897334,4188.205026,4171.79477
41,0,4165.128103,4177.435795,4209.230666,4185.128103,4231.281948,4246.666563,4231.794768,4230.256307,4209.230666,4211.794769,4213.846051,4169.230667,4173.846052,4159.999898
42,0,4159.487078,4165.128103,4202.564,4179.999898,4229.230666,4248.205024,4231.281948,4226.153743,4205.128102,4209.230666,4203.07682,4168.717847,4162.564001,4149.743488
43,0,4157.435796,4164.102462,4202.051179,4183.589641,4210.769128,4246.153742,4231.281948,4222.051179,4208.205025,4211.281948,4195.384513,4165.640924,4165.640924,4146.666565
44,0,4160.512719,4173.846052,4207.179384,4182.05118,4218.974256,4242.563999,4228.717845,4226.153743,4212.82041,4215.384512,4203.589641,4169.230667,4175.897334,4154.871693
45,0,4166.153744,4177.948616,4207.692205,4181.025539,4253.333229,4247.179383,4228.717845,4230.769127,4214.871692,4218.974256,4210.256307,4176.410154,4182.564,4162.564001
46,0,4164.615283,4178.461436,4202.564,4188.717846,4237.948614,4248.717845,4232.820409,4232.307589,4215.897333,4223.07682,4207.692205,4173.333231,4185.128103,4160.512719
47,0,4159.487078,4176.922975,4201.538359,4188.205026,4208.717846,4244.10246,4236.922973,4233.33323,4219.487076,4223.07682,4210.769128,4169.230667,4183.076821,4152.307591
48,0,4167.179385,4177.948616,4204.615282,4178.974257,4234.871691,4247.692204,4237.435794,4236.410153,4224.102461,4226.666563,4222.563999,4176.410154,4186.666564,4157.948616
49,0,4175.384513,4173.846052,4207.179384,4176.410154,4243.58964,4247.179383,4233.33323,4233.33323,4219.999897,4225.640922,4221.025538,4180.512718,4189.743487,4167.179385
50,0,4166.666565,4167.692206,4204.102461,4178.974257,4217.948615,4239.999896,4233.33323,4229.230666,4214.871692,4218.461435,4206.153743,4174.358872,4176.410154,4157.948616
51,0,4156.410155,4171.79477,4198.974256,4178.974257,4219.487076,4238.974255,4232.820409,4226.666563,4211.794769,4217.948615,4199.999897,4168.717847,4164.615283,4146.666565
52,0,4167.179385,4180.512718,4201.025538,4176.922975,4230.769127,4238.974255,4225.640922,4227.692204,4212.307589,4222.563999,4217.435794,4173.846052,4187.692205,4166.666565
53,0,4185.640923,4182.05118,4211.794769,4175.897334,4218.974256,4234.871691,4221.538358,4227.179384,4215.384512,4225.128102,4230.256307,4185.640923,4217.435794,4196.410154
54,0,4186.153744,4179.487077,4213.846051,4181.538359,4201.538359,4231.794768,4219.487076,4217.948615,4211.281948,4215.897333,4219.999897,4184.615282,4213.33323,4195.897333
55,0,4179.487077,4181.025539,4211.794769,4181.025539,4216.922974,4235.897332,4219.487076,4209.743487,4206.666564,4193.333231,4209.743487,4178.461436,4197.435795,4183.076821
56,0,4178.974257,4182.05118,4212.307589,4175.384513,4243.076819,4239.999896,4222.051179,4213.846051,4210.769128,4192.30759,4214.358871,4182.05118,4193.846051,4183.589641
57,0,4179.487077,4173.333231,4207.692205,4180.512718,4231.794768,4234.871691,4219.999897,4216.410153,4211.794769,4215.384512,4212.307589,4182.564,4193.333231,4184.102462
58,0,4175.897334,4170.256308,4201.538359,4189.230667,4211.794769,4231.794768,4217.948615,4212.82041,4209.230666,4221.538358,4214.358871,4181.025539,4200.512718,4181.538359
59,0,4176.922975,4179.487077,4204.615282,4188.205026,4231.794768,4242.051178,4222.051179,4216.922974,4216.922974,4226.666563,4225.640922,4187.179385,4209.743487,4185.640923
60,0,4180.512718,4183.076821,4206.666564,4183.589641,4251.794768,4246.153742,4219.487076,4218.974256,4221.538358,4250.256306,4217.435794,4186.666564,4209.230666,4186.153744
61,0,4175.384513,4172.30759,4201.538359,4177.435795,4236.410153,4235.384512,4213.33323,4211.281948,4211.281948,4234.358871,4206.666564,4174.358872,4200.512718,4177.435795
62,0,4169.230667,4163.076821,4199.487077,4174.358872,4208.717846,4232.820409,4217.948615,4206.153743,4205.640923,4194.358872,4215.384512,4169.743488,4195.384513,4172.820411
63,0,4165.640924,4155.384514,4198.461436,4178.461436,4197.435795,4233.33323,4219.999897,4201.538359,4204.615282,4191.794769,4207.179384,4168.717847,4188.205026,4169.743488
64,0,4162.05118,4150.769129,4196.922974,4173.333231,4219.999897,4228.205025,4213.33323,4196.922974,4195.897333,4201.538359,4184.102462,4165.640924,4176.922975,4165.640924
65,0,4171.79477,4164.102462,4203.07682,4166.153744,4244.10246,4229.230666,4213.846051,4211.794769,4199.487077,4212.82041,4197.948615,4174.871693,4187.692205,4179.999898
66,0,4184.102462,4170.769129,4209.743487,4173.333231,4227.179384,4230.256307,4217.435794,4225.128102,4211.794769,4226.666563,4214.358871,4182.05118,4205.128102,4191.794769
67,0,4175.897334,4159.999898,4202.051179,4179.487077,4196.410154,4220.512717,4211.794769,4209.743487,4206.153743,4215.897333,4195.897333,4169.743488,4193.846051,4175.384513
68,0,4162.564001,4151.28195,4197.948615,4171.281949,4203.589641,4213.33323,4207.692205,4196.410154,4200.512718,4183.076821,4187.179385,4162.05118,4175.384513,4163.589642
69,0,4165.640924,4155.384514,4201.025538,4165.640924,4225.128102,4218.974256,4213.846051,4209.230666,4209.743487,4187.692205,4207.179384,4172.30759,4193.846051,4178.974257
70,0,4171.79477,4161.53836,4203.07682,4170.256308,4218.461435,4226.666563,4221.025538,4218.461435,4214.358871,4228.205025,4209.743487,4175.384513,4212.82041,4184.615282
71,0,4170.256308,4163.076821,4204.615282,4178.974257,4216.410153,4234.358871,4227.692204,4219.999897,4210.769128,4235.384512,4201.025538,4170.769129,4204.615282,4177.435795
72,0,4167.179385,4156.922975,4207.179384,4179.999898,4236.922973,4236.922973,4233.33323,4222.051179,4212.82041,4212.82041,4204.615282,4173.333231,4197.435795,4177.435795
73,0,4164.615283,4151.79477,4201.538359,4170.256308,4235.897332,4232.820409,4225.128102,4216.410153,4211.281948,4210.256307,4205.128102,4173.333231,4197.948615,4178.974257
74,0,4172.30759,4159.487078,4201.538359,4172.820411,4212.82041,4237.435794,4221.025538,4211.281948,4204.615282,4217.435794,4202.051179,4172.820411,4201.538359,4179.487077
75,0,4191.281949,4176.922975,4211.794769,4189.743487,4225.640922,4245.640922,4231.281948,4222.051179,4209.230666,4219.487076,4216.410153,4180.512718,4219.487076,4192.30759
76,0,4195.384513,4178.974257,4215.384512,4187.692205,4242.563999,4237.948614,4228.205025,4225.640922,4218.461435,4219.487076,4227.692204,4189.230667,4226.153743,4206.153743
77,0,4182.564,4163.589642,4211.794769,4175.384513,4217.435794,4229.743486,4212.82041,4217.948615,4216.922974,4215.897333,4217.948615,4193.333231,4216.922974,4202.051179
78,0,4174.358872,4155.384514,4212.82041,4178.974257,4206.153743,4232.307589,4216.410153,4221.025538,4212.307589,4215.897333,4206.666564,4186.666564,4214.358871,4184.102462
79,0,4175.384513,4158.461437,4210.769128,4177.948616,4226.153743,4235.384512,4227.179384,4225.640922,4212.82041,4219.999897,4202.564,4173.333231,4212.307589,4173.333231
80,0,4170.769129,4153.333232,4204.102461,4165.128103,4228.205025,4231.794768,4224.615281,4218.461435,4212.307589,4211.281948,4200.512718,4168.717847,4203.589641,4174.358872
81,0,4165.128103,4147.692206,4202.564,4172.820411,4209.743487,4230.256307,4220.512717,4210.256307,4209.230666,4211.281948,4200.512718,4171.281949,4206.666564,4173.846052
82,0,4168.205026,4153.333232,4204.615282,4184.615282,4214.358871,4230.769127,4219.487076,4205.640923,4208.717846,4217.948615,4204.102461,4172.30759,4215.897333,4172.820411
83,0,4167.692206,4157.435796,4201.538359,4170.769129,4238.974255,4232.307589,4216.410153,4201.538359,4210.769128,4205.640923,4201.538359,4170.769129,4212.82041,4175.384513
84,0,4168.205026,4157.435796,4199.999897,4164.102462,4246.153742,4235.384512,4217.435794,4209.743487,4218.461435,4214.358871,4204.615282,4172.820411,4213.33323,4186.153744
85,0,4175.897334,4156.922975,4206.153743,4174.871693,4221.538358,4230.769127,4219.487076,4219.999897,4222.563999,4230.256307,4212.82041,4176.922975,4219.999897,4191.281949
86,0,4181.025539,4158.461437,4208.717846,4180.512718,4195.897333,4220.512717,4216.410153,4214.871692,4213.846051,4216.922974,4207.692205,4174.871693,4217.435794,4186.666564
87,0,4185.640923,4163.076821,4213.33323,4185.128103,4208.205025,4222.051179,4213.33323,4212.82041,4215.384512,4213.846051,4203.07682,4173.333231,4213.846051,4190.256308
88,0,4193.333231,4168.717847,4219.487076,4194.358872,4237.435794,4235.384512,4217.948615,4227.692204,4226.666563,4231.281948,4216.410153,4183.589641,4223.07682,4204.615282
89,0,4197.435795,4170.769129,4220.512717,4197.435795,4234.871691,4232.820409,4217.948615,4228.205025,4225.128102,4214.358871,4221.538358,4193.333231,4229.743486,4205.640923
90,0,4193.846051,4170.769129,4217.948615,4200.512718,4212.82041,4219.487076,4213.846051,4215.897333,4220.512717,4192.82041,4218.974256,4193.846051,4221.025538,4197.948615
91,0,4179.999898,4153.333232,4218.461435,4189.230667,4218.461435,4221.538358,4221.025538,4215.897333,4222.563999,4206.153743,4209.743487,4191.794769,4194.358872,4188.717846
92,0,4167.692206,4144.102463,4215.384512,4169.230667,4231.281948,4231.794768,4229.230666,4221.538358,4220.512717,4225.640922,4196.922974,4188.717846,4183.589641,4179.999898
93,0,4168.717847,4164.102462,4210.256307,4174.871693,4222.563999,4232.820409,4223.58964,4217.435794,4221.025538,4234.358871,4202.564,4187.179385,4203.07682,4176.922975
94,0,4161.025539,4179.487077,4204.102461,4185.640923,4227.179384,4230.769127,4216.922974,4215.384512,4222.563999,4223.07682,4219.999897,4183.076821,4211.794769,4169.743488
95,0,4142.564001,4172.820411,4198.461436,4172.820411,4227.692204,4231.281948,4217.435794,4218.974256,4220.512717,4198.461436,4221.538358,4168.717847,4208.717846,4155.384514
96,0,4138.974258,4174.358872,4196.922974,4169.230667,4207.179384,4230.256307,4214.871692,4224.615281,4224.615281,4217.435794,4225.640922,4167.179385,4223.58964,4154.871693
97,0,4141.53836,4187.179385,4202.051179,4178.974257,4225.128102,4235.897332,4214.871692,4227.179384,4229.743486,4249.743486,4231.794768,4184.102462,4226.153743,4158.974257
98,0,4141.02554,4196.410154,4205.640923,4177.435795,4258.461434,4245.640922,4216.410153,4220.512717,4219.487076,4219.487076,4222.563999,4189.230667,4207.692205,4159.487078
99,0,4142.051181,4205.128102,4204.102461,4181.025539,4221.025538,4239.487076,4208.717846,4212.307589,4208.205025,4173.333231,4218.974256,4177.435795,4210.769128,4165.128103
100,0,4145.128104,4209.743487,4204.615282,4194.358872,4188.717846,4227.179384,4203.589641,4208.717846,4210.256307,4187.692205,4227.179384,4171.281949,4219.487076,4167.692206
101,0,4154.871693,4212.307589,4209.743487,4201.538359,4226.666563,4234.871691,4212.307589,4213.33323,4216.922974,4227.179384,4230.769127,4181.538359,4214.358871,4169.743488
102,0,4158.461437,4205.640923,4210.769128,4194.358872,4242.563999,4245.640922,4219.999897,4220.512717,4222.051179,4236.410153,4231.281948,4185.640923,4210.769128,4175.384513
103,0,4145.640924,4193.846051,4203.07682,4190.769128,4218.974256,4239.999896,4218.461435,4220.512717,4225.128102,4217.948615,4231.794768,4175.897334,4211.281948,4173.333231
104,0,4141.53836,4190.769128,4200.512718,4193.333231,4211.794769,4229.743486,4214.871692,4212.307589,4224.615281,4204.102461,4227.179384,4176.410154,4207.179384,4167.179385
105,0,4150.256309,4190.769128,4202.051179,4190.769128,4214.358871,4233.84605,4217.435794,4215.384512,4224.615281,4211.794769,4226.666563,4189.230667,4206.153743,4173.333231
106,0,4150.256309,4185.128103,4205.640923,4185.640923,4219.999897,4241.025537,4224.615281,4227.179384,4226.666563,4208.717846,4230.769127,4187.692205,4207.179384,4175.897334
107,0,4150.769129,4185.128103,4209.743487,4190.769128,4226.666563,4237.948614,4231.794768,4233.33323,4225.128102,4201.538359,4225.640922,4184.102462,4207.692205,4172.30759
108,0,4155.384514,4191.281949,4207.692205,4191.794769,4205.640923,4231.281948,4231.794768,4229.230666,4219.487076,4203.07682,4210.769128,4186.153744,4203.589641,4171.281949
109,0,4147.179386,4184.102462,4196.410154,4185.128103,4197.948615,4229.230666,4227.179384,4220.512717,4213.846051,4195.384513,4206.666564,4177.948616,4198.461436,4162.564001
110,0,4140.512719,4172.820411,4194.358872,4185.128103,4232.307589,4231.281948,4227.179384,4217.435794,4214.871692,4187.179385,4217.435794,4172.820411,4203.589641,4154.871693
111,0,4152.820411,4190.256308,4199.999897,4191.794769,4245.128101,4233.33323,4227.179384,4221.025538,4218.974256,4198.974256,4222.051179,4178.461436,4213.846051,4168.717847
112,0,4164.102462,4213.846051,4199.999897,4192.82041,4233.33323,4234.358871,4225.128102,4215.897333,4218.974256,4209.230666,4212.82041,4175.897334,4212.307589,4177.948616
113,0,4161.025539,4216.922974,4197.435795,4192.30759,4233.33323,4234.358871,4222.563999,4204.102461,4216.410153,4203.07682,4214.358871,4173.846052,4213.33323,4171.281949
114,0,4161.53836,4213.33323,4201.538359,4198.461436,4206.666564,4231.794768,4216.922974,4197.948615,4218.974256,4202.564,4222.051179,4183.076821,4225.640922,4173.333231
115,0,4164.102462,4211.281948,4203.07682,4201.538359,4178.461436,4227.179384,4212.82041,4195.897333,4216.922974,4211.794769,4217.435794,4186.666564,4226.153743,4177.948616
116,0,4158.974257,4201.538359,4199.487077,4193.333231,4218.974256,4228.205025,4217.435794,4199.487077,4214.871692,4213.33323,4212.82041,4182.564,4212.307589,4169.743488
117,0,4157.435796,4194.358872,4198.974256,4185.640923,4263.076819,4235.897332,4223.07682,4212.82041,4221.538358,4210.256307,4220.512717,4186.666564,4216.410153,4170.256308
118,0,4163.076821,4196.922974,4201.025538,4186.666564,4235.384512,4238.974255,4218.461435,4217.948615,4223.07682,4206.666564,4217.435794,4190.256308,4221.538358,4177.948616
119,0,4157.435796,4190.769128,4197.948615,4183.589641,4190.256308,4228.717845,4214.358871,4204.615282,4210.256307,4201.025538,4202.051179,4185.128103,4205.640923,4168.205026
120,0,4153.333232,4185.640923,4197.948615,4188.205026,4198.461436,4218.461435,4215.384512,4194.871692,4202.564,4199.999897,4201.025538,4182.564,4196.922974,4161.025539
121,0,4166.666565,4193.846051,4206.666564,4202.051179,4235.897332,4223.58964,4215.897333,4196.410154,4208.717846,4205.640923,4209.743487,4191.794769,4203.07682,4172.820411
122,0,4178.461436,4205.128102,4210.256307,4199.487077,4239.999896,4232.820409,4217.948615,4206.153743,4212.82041,4197.948615,4216.922974,4203.589641,4209.743487,4184.102462
123,0,4177.435795,4202.564,4205.640923,4186.153744,4218.974256,4231.281948,4225.640922,4210.769128,4214.358871,4192.82041,4221.538358,4201.025538,4213.846051,4183.076821
124,0,4178.974257,4196.922974,4207.692205,4189.743487,4225.640922,4232.820409,4234.358871,4216.922974,4222.051179,4227.179384,4234.358871,4199.487077,4232.307589,4190.769128
125,0,4182.564,4202.051179,4214.871692,4202.051179,4237.948614,4241.025537,4234.871691,4221.025538,4230.769127,4244.615281,4244.10246,4203.589641,4243.076819,4201.538359
126,0,4178.974257,4211.281948,4212.307589,4204.615282,4233.33323,4238.974255,4230.769127,4217.435794,4231.281948,4229.230666,4238.974255,4202.051179,4236.922973,4197.435795
127,0,4177.948616,4215.897333,4209.230666,4197.435795,4232.307589,4235.897332,4230.256307,4210.256307,4228.717845,4232.307589,4233.84605,4197.948615,4231.794768,4193.846051
128,0,4180.512718,4216.922974,4207.692205,4192.82041,4223.07682,4235.897332,4228.717845,4211.281948,4230.256307,4234.358871,4243.076819,4195.897333,4239.999896,4199.999897
0,0,4180.512718,4211.281948,4206.153743,4190.769128,4223.58964,4232.307589,4227.179384,4212.307589,4232.820409,4216.410153,4247.692204,4194.871692,4244.10246,4201.025538
1,0,4186.666564,4215.897333,4208.205025,4192.82041,4253.84605,4233.84605,4229.743486,4212.82041,4232.307589,4221.025538,4243.58964,4199.999897,4242.563999,4202.051179
2,0,4192.82041,4224.102461,4212.82041,4196.922974,4238.974255,4232.820409,4227.179384,4213.846051,4228.205025,4234.871691,4238.461435,4203.589641,4237.948614,4203.589641
3,0,4186.153744,4219.487076,4208.717846,4194.871692,4193.333231,4220.512717,4214.358871,4209.230666,4220.512717,4228.717845,4231.281948,4195.384513,4229.743486,4196.410154
4,0,4187.692205,4214.871692,4210.769128,4194.871692,4214.358871,4218.974256,4214.871692,4207.179384,4219.487076,4229.743486,4229.743486,4193.333231,4233.84605,4197.435795
5,0,4200.512718,4224.102461,4220.512717,4211.281948,4246.666563,4233.84605,4229.230666,4214.358871,4227.179384,4233.84605,4238.461435,4205.128102,4244.10246,4212.307589
6,0,4192.82041,4222.051179,4213.33323,4214.358871,4223.07682,4237.435794,4226.666563,4214.871692,4228.717845,4220.512717,4236.922973,4202.564,4238.974255,4208.205025
7,0,4169.743488,4204.615282,4195.897333,4193.333231,4205.640923,4228.205025,4213.846051,4202.564,4221.025538,4216.410153,4228.205025,4185.128103,4228.205025,4189.230667
8,0,4169.230667,4196.922974,4195.384513,4189.230667,4224.615281,4226.153743,4216.922974,4197.435795,4221.538358,4241.025537,4228.717845,4181.538359,4232.820409,4188.205026
9,0,4187.179385,4205.640923,4206.153743,4204.102461,4242.051178,4233.84605,4225.640922,4204.615282,4229.230666,4252.820409,4232.307589,4189.743487,4244.615281,4199.487077
10,0,4191.794769,4213.846051,4208.205025,4205.640923,4234.871691,4233.84605,4225.640922,4214.358871,4233.84605,4233.84605,4241.025537,4195.897333,4247.179383,4202.564
11,0,4182.05118,4205.128102,4207.179384,4194.358872,4204.615282,4219.487076,4222.563999,4217.948615,4235.384512,4231.281948,4252.307588,4198.974256,4248.205024,4199.487077
12,0,4183.076821,4198.974256,4207.692205,4194.871692,4200.512718,4214.871692,4223.58964,4215.384512,4233.33323,4255.897332,4253.333229,4197.948615,4254.35887,4202.051179
13,0,4182.564,4187.179385,4207.179384,4193.846051,4229.230666,4225.128102,4223.58964,4212.307589,4224.615281,4244.10246,4230.256307,4190.256308,4235.897332,4193.846051
14,0,4172.30759,4169.743488,4208.717846,4185.640923,4216.922974,4224.102461,4223.07682,4209.743487,4214.871692,4207.179384,4206.153743,4182.564,4204.102461,4177.435795
15,0,4181.538359,4182.564,4215.897333,4192.30759,4189.743487,4215.384512,4223.07682,4204.615282,4209.743487,4207.692205,4204.102461,4180.512718,4202.564,4186.153744
16,0,4218.974256,4217.948615,4221.025538,4211.794769,4222.051179,4219.487076,4221.538358,4205.128102,4212.307589,4225.640922,4207.179384,4185.640923,4223.07682,4228.717845
17,0,4244.10246,4227.179384,4226.153743,4213.33323,4246.153742,4222.051179,4217.435794,4210.769128,4216.922974,4212.307589,4200.512718,4194.871692,4216.410153,4259.487075
18,0,4250.769127,4227.179384,4229.743486,4206.666564,4204.615282,4215.897333,4216.410153,4212.82041,4219.487076,4191.794769,4206.666564,4201.538359,4207.692205,4267.692203
19,0,4258.974255,4239.999896,4231.794768,4215.897333,4191.794769,4217.948615,4217.435794,4211.281948,4228.717845,4196.922974,4227.692204,4210.256307,4227.179384,4283.076818
20,0,4264.61528,4238.974255,4231.794768,4223.58964,4226.153743,4225.640922,4217.948615,4212.82041,4235.897332,4212.307589,4237.435794,4216.922974,4243.58964,4295.897331
21,0,4256.410152,4225.128102,4227.692204,4215.897333,4212.82041,4221.538358,4219.999897,4209.230666,4230.256307,4207.692205,4226.153743,4207.692205,4231.281948,4280.512716
22,0,4241.538358,4216.922974,4219.487076,4209.743487,4180.512718,4214.358871,4220.512717,4203.07682,4222.051179,4200.512718,4215.897333,4193.333231,4220.512717,4257.435793
23,0,4242.563999,4219.487076,4222.563999,4213.846051,4206.153743,4221.538358,4219.487076,4208.717846,4222.051179,4214.358871,4215.897333,4196.922974,4233.84605,4259.999896
24,0,4251.794768,4222.563999,4232.820409,4217.948615,4224.102461,4225.128102,4222.051179,4213.33323,4222.563999,4221.538358,4219.487076,4208.717846,4242.051178,4268.717844
25,0,4247.179383,4218.974256,4233.84605,4215.384512,4205.128102,4217.435794,4225.640922,4207.692205,4221.538358,4204.615282,4214.358871,4205.640923,4232.307589,4258.974255
26,0,4238.974255,4211.281948,4230.256307,4210.256307,4205.640923,4208.717846,4216.922974,4200.512718,4217.948615,4191.281949,4205.640923,4196.922974,4225.640922,4246.666563
27,0,4238.974255,4206.666564,4229.230666,4209.230666,4204.102461,4205.640923,4204.102461,4197.435795,4208.717846,4196.922974,4205.128102,4198.974256,4219.999897,4248.205024
28,0,4243.58964,4207.179384,4231.281948,4207.179384,4198.461436,4210.256307,4207.179384,4197.948615,4209.743487,4199.487077,4208.717846,4209.743487,4212.307589,4254.35887
29,0,4249.743486,4207.179384,4235.384512,4200.512718,4226.666563,4216.922974,4218.461435,4205.640923,4222.051179,4201.025538,4218.974256,4217.948615,4227.179384,4261.538357
30,0,4250.769127,4202.564,4239.487076,4196.410154,4230.769127,4219.999897,4218.974256,4209.743487,4229.743486,4212.82041,4229.230666,4219.999897,4249.743486,4262.051178
31,0,4243.58964,4199.999897,4232.820409,4204.615282,4183.589641,4215.897333,4211.794769,4205.128102,4225.640922,4221.025538,4224.102461,4213.33323,4247.692204,4257.435793
32,0,4244.10246,4207.692205,4228.717845,4217.948615,4176.410154,4210.256307,4210.256307,4198.974256,4220.512717,4217.435794,4214.871692,4206.666564,4239.999896,4253.84605
33,0,4245.640922,4204.615282,4235.897332,4218.974256,4217.435794,4215.384512,4213.846051,4206.153743,4223.58964,4211.281948,4220.512717,4213.846051,4236.922973,4251.281947
34,0,4238.974255,4189.743487,4241.538358,4205.640923,4222.051179,4224.615281,4217.948615,4221.538358,4231.281948,4197.435795,4224.615281,4219.999897,4229.230666,4248.717845
35,0,4240.512717,4198.461436,4235.384512,4202.051179,4213.846051,4224.102461,4218.974256,4222.051179,4229.743486,4193.333231,4218.461435,4212.82041,4230.769127,4249.743486
36,0,4238.461435,4217.435794,4230.769127,4215.384512,4230.769127,4220.512717,4211.794769,4205.128102,4221.025538,4213.846051,4213.846051,4199.999897,4236.410153,4236.922973
37,0,4221.538358,4216.410153,4229.743486,4223.58964,4231.794768,4229.743486,4214.871692,4207.692205,4222.051179,4232.307589,4214.358871,4191.281949,4235.897332,4214.871692
38,0,4202.051179,4193.846051,4221.025538,4208.717846,4212.82041,4235.384512,4228.205025,4223.07682,4225.640922,4223.07682,4207.179384,4188.205026,4225.128102,4196.410154
39,0,4190.769128,4177.435795,4213.846051,4190.256308,4218.461435,4231.281948,4230.256307,4224.102461,4223.58964,4210.769128,4202.564,4190.256308,4214.358871,4189.230667
40,0,4194.871692,4180.512718,4221.538358,4192.30759,4211.794769,4228.205025,4223.58964,4220.512717,4228.205025,4206.666564,4211.794769,4195.897333,4217.948615,4195.384513
41,0,4206.153743,4189.230667,4229.230666,4206.666564,4173.846052,4227.179384,4226.153743,4227.692204,4232.307589,4207.692205,4222.051179,4197.435795,4228.205025,4201.025538
42,0,4207.179384,4185.640923,4228.205025,4212.307589,4194.358872,4228.717845,4231.794768,4231.794768,4228.717845,4221.025538,4213.846051,4197.948615,4226.666563,4199.487077
43,0,4204.102461,4180.512718,4230.769127,4207.692205,4243.076819,4234.871691,4232.307589,4223.07682,4224.102461,4226.153743,4209.743487,4205.128102,4225.640922,4205.128102
44,0,4212.82041,4190.256308,4237.948614,4206.666564,4218.461435,4234.358871,4233.84605,4214.871692,4226.666563,4211.281948,4222.563999,4209.230666,4237.948614,4218.974256
45,0,4216.922974,4190.769128,4233.33323,4205.640923,4183.076821,4225.128102,4227.692204,4208.205025,4225.128102,4194.358872,4220.512717,4204.615282,4232.307589,4214.358871
46,0,4208.205025,4182.564,4221.538358,4202.564,4221.538358,4224.615281,4219.999897,4205.640923,4218.461435,4197.435795,4203.589641,4198.974256,4215.897333,4203.589641
47,0,4206.153743,4181.538359,4222.051179,4203.07682,4245.640922,4228.205025,4221.538358,4208.717846,4218.461435,4214.358871,4197.435795,4198.461436,4212.307589,4203.07682
48,0,4211.281948,4186.153744,4230.256307,4211.281948,4210.256307,4223.07682,4222.051179,4214.871692,4222.051179,4219.487076,4201.025538,4201.025538,4216.922974,4207.179384
49,0,4210.256307,4182.05118,4228.717845,4216.410153,4201.538359,4217.435794,4221.025538,4218.461435,4219.999897,4211.281948,4198.461436,4198.461436,4215.384512,4204.615282
50,0,4203.07682,4171.281949,4218.974256,4209.743487,4215.384512,4220.512717,4221.538358,4219.487076,4216.922974,4216.410153,4197.435795,4189.230667,4211.794769,4198.461436
51,0,4202.564,4166.153744,4217.948615,4197.435795,4213.33323,4224.102461,4216.922974,4218.461435,4221.538358,4222.051179,4201.538359,4186.666564,4214.871692,4198.974256
52,0,4215.897333,4176.410154,4225.640922,4201.025538,4223.07682,4227.179384,4216.410153,4223.58964,4227.692204,4222.051179,4213.846051,4198.461436,4230.769127,4212.307589
53,0,4222.563999,4187.692205,4232.307589,4214.871692,4234.358871,4230.256307,4225.128102,4226.666563,4228.717845,4231.794768,4219.487076,4202.051179,4240.512717,4219.999897
54,0,4212.82041,4184.102462,4223.07682,4212.307589,4229.230666,4228.205025,4226.153743,4217.948615,4225.640922,4233.84605,4211.281948,4186.666564,4232.820409,4210.769128
55,0,4203.07682,4178.461436,4210.769128,4198.461436,4230.769127,4229.230666,4218.461435,4211.794769,4222.563999,4212.307589,4199.999897,4173.333231,4221.025538,4202.051179
56,0,4206.153743,4184.615282,4212.82041,4199.487077,4222.563999,4230.256307,4216.410153,4219.487076,4223.58964,4207.179384,4198.974256,4173.333231,4221.538358,4204.615282
57,0,4207.179384,4191.281949,4217.948615,4208.205025,4198.974256,4225.640922,4214.358871,4222.051179,4224.615281,4213.33323,4200.512718,4175.384513,4222.563999,4203.589641
58,0,4196.922974,4200.512718,4204.615282,4208.205025,4204.615282,4226.153743,4213.846051,4220.512717,4221.538358,4214.358871,4198.461436,4166.153744,4214.871692,4194.871692
59,0,4188.717846,4215.384512,4196.922974,4201.538359,4227.692204,4230.256307,4216.922974,4226.666563,4219.999897,4218.974256,4197.948615,4162.05118,4209.743487,4190.256308
60,0,4194.871692,4234.871691,4208.205025,4206.666564,4226.666563,4233.33323,4218.974256,4235.384512,4224.102461,4227.179384,4207.179384,4175.897334,4217.435794,4199.999897
61,0,4196.410154,4247.692204,4211.281948,4216.922974,4215.384512,4232.820409,4217.435794,4230.256307,4226.666563,4223.58964,4211.794769,4178.974257,4218.461435,4206.153743
62,0,4182.564,4239.487076,4201.538359,4208.717846,4215.897333,4231.281948,4217.948615,4223.58964,4220.512717,4206.666564,4203.589641,4166.153744,4200.512718,4190.256308
63,0,4179.999898,4236.922973,4202.564,4200.512718,4217.948615,4230.256307,4218.974256,4227.692204,4215.384512,4198.461436,4203.589641,4169.230667,4197.948615,4188.717846
64,0,4192.82041,4256.410152,4207.692205,4211.794769,4214.358871,4230.769127,4217.948615,4224.615281,4217.948615,4201.025538,4213.33323,4182.05118,4216.922974,4212.82041
65,0,4201.538359,4274.87169,4204.615282,4219.999897,4216.922974,4231.281948,4215.897333,4218.461435,4224.102461,4206.153743,4214.871692,4179.487077,4219.487076,4225.128102
66,0,4201.538359,4277.435793,4203.589641,4216.922974,4219.999897,4232.820409,4216.410153,4221.025538,4221.538358,4207.692205,4200.512718,4171.79477,4194.871692,4214.871692
67,0,4202.051179,4274.87169,4204.102461,4217.435794,4211.794769,4232.820409,4216.922974,4220.512717,4213.846051,4205.128102,4185.640923,4171.79477,4177.435795,4207.179384
68,0,4208.205025,4274.35887,4205.640923,4222.051179,4215.897333,4230.769127,4213.846051,4211.794769,4215.897333,4195.897333,4189.743487,4174.871693,4182.564,4211.794769
69,0,4219.487076,4282.051177,4210.256307,4226.666563,4238.974255,4232.820409,4216.410153,4215.384512,4226.153743,4198.461436,4210.769128,4183.076821,4202.564,4226.153743
70,0,4225.640922,4289.230664,4215.384512,4227.692204,4233.33323,4235.384512,4223.07682,4223.07682,4228.205025,4210.256307,4216.922974,4186.666564,4214.358871,4231.281948
71,0,4223.58964,4283.589639,4215.897333,4226.666563,4211.794769,4232.820409,4222.051179,4227.179384,4225.640922,4214.358871,4212.307589,4183.076821,4214.871692,4225.640922
72,0,4223.58964,4272.307588,4217.948615,4227.692204,4208.205025,4230.256307,4223.58964,4231.794768,4228.717845,4217.948615,4214.358871,4188.717846,4214.871692,4227.179384
73,0,4225.128102,4271.281947,4217.948615,4231.794768,4218.974256,4231.794768,4227.179384,4229.743486,4228.205025,4221.025538,4212.82041,4195.384513,4216.922974,4234.871691
74,0,4224.615281,4274.87169,4216.922974,4231.794768,4223.07682,4230.769127,4221.025538,4221.025538,4222.563999,4211.281948,4202.564,4189.743487,4210.256307,4227.692204
75,0,4220.512717,4273.846049,4213.33323,4230.256307,4196.410154,4220.512717,4214.358871,4217.948615,4217.435794,4202.051179,4199.487077,4187.179385,4199.999897,4215.897333
76,0,4221.538358,4270.769126,4216.410153,4229.743486,4184.102462,4221.538358,4224.102461,4229.743486,4222.563999,4214.358871,4206.666564,4196.410154,4203.07682,4219.999897
77,0,4231.281948,4279.999895,4227.179384,4234.871691,4228.205025,4237.948614,4241.538358,4250.769127,4234.871691,4239.487076,4216.922974,4207.692205,4219.999897,4235.897332
78,0,4228.717845,4282.563998,4227.692204,4235.384512,4253.84605,4241.025537,4249.743486,4254.35887,4238.461435,4237.948614,4214.871692,4207.692205,4217.948615,4233.33323
79,0,4212.307589,4263.589639,4214.358871,4223.58964,4216.410153,4229.743486,4243.076819,4238.461435,4229.230666,4215.384512,4201.538359,4192.30759,4197.435795,4214.358871
80,0,4212.82041,4255.897332,4212.82041,4215.384512,4203.589641,4232.307589,4232.820409,4232.307589,4225.640922,4214.358871,4199.487077,4187.179385,4197.435795,4214.358871
81,0,4223.07682,4269.743485,4219.487076,4220.512717,4225.128102,4241.538358,4232.307589,4237.948614,4229.230666,4221.538358,4209.743487,4196.410154,4206.666564,4223.07682
82,0,4221.538358,4272.820408,4218.461435,4227.692204,4221.025538,4236.410153,4232.307589,4233.33323,4229.230666,4211.281948,4213.846051,4194.358872,4202.051179,4218.974256
83,0,4221.025538,4264.61528,4218.461435,4226.666563,4233.33323,4231.794768,4229.743486,4226.153743,4229.743486,4215.384512,4216.410153,4190.256308,4207.179384,4221.025538
84,0,4225.128102,4258.461434,4222.051179,4222.563999,4234.871691,4236.410153,4232.307589,4226.666563,4228.717845,4232.820409,4216.922974,4201.025538,4208.205025,4225.640922
85,0,4214.871692,4249.230665,4222.563999,4224.615281,4179.999898,4233.33323,4232.820409,4222.051179,4221.025538,4209.230666,4202.564,4202.564,4178.974257,4208.205025
86,0,4208.717846,4238.974255,4224.615281,4225.640922,4182.05118,4228.717845,4228.717845,4220.512717,4220.512717,4182.05118,4205.128102,4198.461436,4176.410154,4203.589641
87,0,4229.230666,4235.897332,4232.307589,4219.487076,4248.717845,4237.435794,4230.256307,4229.743486,4232.820409,4223.07682,4235.897332,4215.897333,4228.205025,4237.435794
88,0,4254.871691,4237.435794,4243.076819,4220.512717,4249.230665,4243.58964,4235.384512,4239.487076,4249.230665,4267.179383,4264.10246,4235.384512,4286.666562,4277.435793
89,0,4261.538357,4219.487076,4247.692204,4223.58964,4191.794769,4232.307589,4232.820409,4236.922973,4253.333229,4233.84605,4275.897331,4236.922973,4310.769125,4289.743485
90,0,4251.281947,4189.230667,4238.461435,4216.922974,4177.948616,4227.692204,4229.230666,4231.794768,4245.640922,4220.512717,4278.461434,4230.769127,4308.717843,4282.051177
91,0,4235.897332,4176.922975,4230.256307,4202.564,4214.358871,4234.871691,4232.307589,4232.820409,4241.538358,4264.10246,4269.230665,4222.563999,4297.435792,4268.717844
92,0,4226.153743,4182.05118,4223.07682,4190.769128,4251.794768,4239.487076,4234.358871,4231.794768,4241.025537,4261.025537,4265.640921,4213.33323,4294.358869,4262.563998
93,0,4227.179384,4182.564,4217.948615,4190.256308,4239.999896,4242.051178,4231.794768,4220.512717,4236.410153,4225.128102,4263.589639,4208.717846,4288.205023,4255.384511
94,0,4226.153743,4181.538359,4219.999897,4204.615282,4187.692205,4243.076819,4231.281948,4219.487076,4230.256307,4240.512717,4248.205024,4205.128102,4272.307588,4242.563999
95,0,4226.153743,4188.205026,4228.205025,4214.871692,4195.897333,4243.58964,4238.974255,4230.769127,4235.384512,4255.384511,4239.999896,4204.102461,4269.743485,4241.025537
96,0,4233.33323,4193.333231,4227.179384,4211.281948,4232.820409,4245.128101,4241.538358,4231.794768,4238.461435,4235.384512,4249.743486,4208.205025,4277.948613,4247.179383
97,0,4237.948614,4193.333231,4223.58964,4207.179384,4215.897333,4245.128101,4238.974255,4232.820409,4236.410153,4235.897332,4261.538357,4216.410153,4285.1281,4253.84605
98,0,4234.871691,4195.897333,4227.179384,4210.769128,4198.974256,4244.615281,4243.076819,4250.256306,4245.640922,4250.256306,4274.35887,4224.102461,4295.897331,4264.61528
99,0,4239.487076,4196.922974,4231.794768,4217.948615,4212.307589,4248.205024,4250.769127,4258.974255,4258.974255,4252.820409,4281.538357,4228.717845,4303.589638,4272.307588
100,0,4246.666563,4189.743487,4232.820409,4215.897333,4205.128102,4244.10246,4243.076819,4242.051178,4250.256306,4248.717845,4269.230665,4225.128102,4293.846049,4266.153742
