title:V                                                                               , recorded:06.07.20 13.00.06, sampling:128, subject:B                                                                               , labels:COUNTER INTERPOLATED AF3 F7 F3 FC5 T7 P7 O1 O2 P8 T8 FC6 F4 F8 AF4,, units:emotiv,,,,,,,,,
55,0,4234.871691,4324.615279,4227.692204,4241.538358,4234.358871,4219.487076,4234.358871,4232.307589,4231.794768,4223.58964,4244.10246,4210.769128,4221.025538,4228.717845
56,0,4225.640922,4305.64092,4221.538358,4236.922973,4221.538358,4215.897333,4232.307589,4224.102461,4222.051179,4210.256307,4230.769127,4207.692205,4192.30759,4225.128102
57,0,4222.051179,4308.205023,4218.461435,4234.871691,4221.025538,4218.461435,4230.256307,4224.102461,4219.999897,4218.974256,4241.538358,4199.999897,4187.179385,4214.358871
58,0,4224.615281,4320.512715,4218.461435,4238.461435,4236.922973,4222.051179,4233.33323,4226.153743,4223.07682,4231.281948,4232.307589,4192.82041,4214.871692,4211.281948
59,0,4225.128102,4314.358869,4218.974256,4241.025537,4233.33323,4216.922974,4229.230666,4226.153743,4222.051179,4221.025538,4255.897332,4198.461436,4194.871692,4220.512717
60,0,4217.948615,4303.076818,4214.871692,4236.410153,4219.487076,4213.33323,4219.487076,4218.974256,4217.435794,4213.33323,4274.87169,4201.025538,4175.384513,4215.384512
61,0,4217.435794,4301.025536,4213.846051,4233.84605,4227.692204,4215.384512,4218.974256,4213.846051,4220.512717,4223.07682,4264.61528,4196.410154,4199.999897,4202.564
62,0,4225.640922,4309.230664,4216.922974,4241.538358,4231.794768,4216.410153,4217.948615,4216.410153,4223.58964,4230.256307,4256.410152,4197.435795,4209.230666,4213.846051
63,0,4228.205025,4310.256305,4217.435794,4243.076819,4221.025538,4216.410153,4216.922974,4216.922974,4219.487076,4224.615281,4248.717845,4201.538359,4174.871693,4227.179384
64,0,4219.999897,4290.256305,4215.897333,4233.84605,4222.563999,4218.974256,4228.205025,4217.948615,4218.461435,4223.07682,4225.128102,4197.435795,4186.666564,4214.871692
65,0,4216.922974,4286.153741,4213.846051,4242.051178,4236.922973,4219.487076,4232.820409,4217.435794,4222.563999,4223.58964,4230.769127,4194.871692,4218.461435,4208.205025
66,0,4220.512717,4311.281946,4207.692205,4260.512716,4242.051178,4217.435794,4218.461435,4211.794769,4220.512717,4221.025538,4249.230665,4191.794769,4199.999897,4217.435794
67,0,4213.846051,4320.512715,4201.538359,4253.84605,4237.435794,4215.384512,4212.82041,4207.179384,4211.281948,4216.410153,4215.897333,4179.487077,4187.179385,4208.205025
68,0,4200.512718,4307.179382,4197.435795,4233.84605,4232.820409,4213.33323,4217.435794,4207.692205,4205.128102,4212.307589,4197.948615,4171.281949,4197.435795,4184.615282
69,0,4198.461436,4301.025536,4201.538359,4241.025537,4233.84605,4215.384512,4218.974256,4214.358871,4214.871692,4214.871692,4237.948614,4178.974257,4187.692205,4186.153744
70,0,4201.538359,4303.076818,4205.640923,4262.051178,4232.820409,4219.999897,4223.58964,4225.640922,4229.230666,4227.692204,4231.794768,4183.076821,4179.487077,4193.846051
71,0,4200.512718,4298.974254,4206.666564,4256.922973,4220.512717,4217.948615,4225.128102,4227.692204,4225.640922,4233.84605,4200.512718,4178.461436,4178.461436,4185.640923
72,0,4201.025538,4291.794767,4206.666564,4251.794768,4217.948615,4213.33323,4217.435794,4212.307589,4210.769128,4215.384512,4245.128101,4186.666564,4162.05118,4188.205026
73,0,4203.07682,4282.563998,4210.256307,4256.410152,4232.307589,4216.410153,4216.922974,4208.205025,4209.230666,4207.179384,4256.410152,4193.846051,4172.820411,4193.333231
74,0,4201.025538,4279.487075,4214.871692,4246.666563,4237.948614,4218.461435,4218.974256,4214.358871,4215.384512,4224.102461,4195.384513,4185.640923,4211.794769,4184.615282
75,0,4198.974256,4282.051177,4213.33323,4239.999896,4229.230666,4209.743487,4213.33323,4210.769128,4216.410153,4229.230666,4202.564,4188.717846,4204.615282,4186.153744
76,0,4202.051179,4281.025536,4213.33323,4250.769127,4216.410153,4201.025538,4210.769128,4208.717846,4214.358871,4219.487076,4236.410153,4203.07682,4182.05118,4199.999897
77,0,4207.179384,4286.666562,4218.974256,4254.871691,4214.358871,4199.999897,4215.897333,4211.281948,4215.384512,4221.025538,4246.153742,4207.692205,4197.948615,4208.205025
78,0,4206.666564,4288.205023,4218.461435,4243.58964,4223.58964,4200.512718,4217.948615,4207.179384,4216.410153,4228.717845,4239.487076,4194.871692,4217.948615,4202.051179
79,0,4197.948615,4275.897331,4209.230666,4249.743486,4225.640922,4201.538359,4213.846051,4204.102461,4213.846051,4218.974256,4222.051179,4179.999898,4199.999897,4191.281949
80,0,4196.410154,4264.10246,4207.692205,4257.435793,4221.538358,4207.692205,4216.922974,4208.205025,4211.794769,4209.743487,4208.205025,4179.487077,4167.179385,4185.640923
81,0,4197.435795,4267.179383,4207.692205,4243.58964,4226.666563,4217.435794,4228.205025,4210.769128,4211.281948,4216.410153,4210.256307,4178.461436,4176.922975,4190.769128
82,0,4193.333231,4269.743485,4201.538359,4231.794768,4228.717845,4219.487076,4227.179384,4208.717846,4208.205025,4218.974256,4203.07682,4169.743488,4209.743487,4191.794769
83,0,4190.769128,4261.025537,4198.974256,4248.717845,4221.538358,4215.897333,4217.435794,4211.281948,4208.205025,4213.33323,4224.102461,4171.281949,4207.692205,4186.666564
84,0,4192.30759,4257.948614,4202.564,4256.922973,4218.974256,4213.846051,4215.384512,4214.358871,4218.461435,4215.897333,4242.051178,4176.410154,4196.410154,4182.05118
85,0,4192.82041,4267.179383,4203.07682,4239.999896,4221.538358,4215.384512,4219.999897,4215.897333,4218.461435,4228.717845,4190.256308,4172.820411,4201.025538,4179.999898
86,0,4198.461436,4271.281947,4204.615282,4251.794768,4225.640922,4216.410153,4219.487076,4215.897333,4208.717846,4230.769127,4194.871692,4179.999898,4196.410154,4190.256308
87,0,4206.666564,4270.256306,4205.128102,4278.974254,4229.743486,4214.358871,4216.410153,4208.205025,4208.205025,4224.615281,4258.461434,4187.179385,4209.230666,4200.512718
88,0,4205.640923,4269.743485,4208.205025,4262.563998,4227.179384,4207.179384,4215.897333,4197.948615,4208.205025,4213.33323,4232.820409,4183.076821,4226.666563,4198.974256
89,0,4204.102461,4262.563998,4212.307589,4238.461435,4219.487076,4201.538359,4215.384512,4198.974256,4206.153743,4203.589641,4177.948616,4188.717846,4204.102461,4197.435795
90,0,4207.179384,4259.999896,4211.281948,4249.743486,4219.999897,4207.179384,4216.410153,4211.794769,4208.717846,4206.153743,4199.999897,4192.82041,4194.358872,4198.461436
91,0,4204.615282,4265.128101,4211.281948,4266.153742,4226.666563,4216.410153,4217.435794,4223.07682,4214.358871,4208.205025,4243.58964,4188.717846,4201.538359,4201.538359
92,0,4198.461436,4263.589639,4208.717846,4256.922973,4225.128102,4217.435794,4217.435794,4223.07682,4213.33323,4213.33323,4205.640923,4183.589641,4212.82041,4198.461436
93,0,4196.410154,4257.948614,4197.948615,4240.512717,4219.487076,4215.897333,4215.897333,4211.794769,4207.692205,4224.615281,4146.666565,4167.692206,4244.10246,4187.179385
94,0,4199.999897,4262.563998,4197.948615,4242.563999,4224.102461,4216.410153,4216.410153,4211.281948,4209.743487,4225.128102,4198.461436,4170.769129,4240.512717,4195.384513
95,0,4203.07682,4268.205024,4210.769128,4258.461434,4233.33323,4215.897333,4216.922974,4221.025538,4217.435794,4218.974256,4247.692204,4188.717846,4208.205025,4211.794769
96,0,4200.512718,4264.61528,4209.743487,4258.974255,4237.948614,4218.461435,4216.410153,4221.538358,4217.435794,4229.230666,4199.999897,4181.538359,4219.999897,4206.153743
97,0,4199.487077,4257.948614,4203.589641,4240.512717,4227.692204,4215.384512,4214.358871,4211.794769,4211.281948,4231.794768,4191.794769,4172.820411,4227.179384,4199.487077
98,0,4203.07682,4261.025537,4209.230666,4249.743486,4215.897333,4204.102461,4213.846051,4210.769128,4215.384512,4217.948615,4236.922973,4186.666564,4207.179384,4207.692205
99,0,4209.743487,4269.230665,4217.948615,4269.230665,4219.999897,4208.205025,4215.897333,4216.922974,4218.461435,4222.051179,4212.307589,4188.717846,4233.84605,4209.743487
100,0,4213.846051,4267.692203,4219.999897,4251.281947,4230.256307,4218.974256,4216.410153,4218.461435,4213.846051,4228.717845,4195.897333,4190.769128,4249.230665,4214.871692
101,0,4210.769128,4266.666562,4218.461435,4239.487076,4232.307589,4217.948615,4216.410153,4217.948615,4217.948615,4214.871692,4217.948615,4204.615282,4210.769128,4221.025538
102,0,4200.512718,4271.281947,4210.769128,4256.922973,4233.84605,4216.410153,4217.435794,4216.922974,4214.871692,4210.256307,4213.33323,4192.82041,4202.564,4209.230666
103,0,4197.435795,4261.025537,4205.640923,4254.35887,4233.33323,4218.974256,4216.922974,4216.410153,4208.717846,4229.230666,4209.743487,4178.974257,4223.58964,4199.999897
104,0,4207.692205,4261.538357,4207.692205,4241.538358,4235.897332,4217.948615,4214.871692,4222.563999,4217.435794,4245.640922,4199.999897,4187.179385,4245.128101,4213.33323
105,0,4212.82041,4279.487075,4206.153743,4259.487075,4247.179383,4218.461435,4211.794769,4222.051179,4225.640922,4239.999896,4201.025538,4190.769128,4241.538358,4221.538358
106,0,4203.07682,4275.384511,4204.615282,4268.717844,4246.153742,4218.974256,4210.256307,4212.82041,4217.435794,4224.615281,4242.563999,4189.230667,4209.743487,4211.281948
107,0,4199.999897,4260.512716,4211.281948,4250.256306,4234.358871,4215.897333,4210.769128,4214.358871,4211.794769,4230.256307,4219.487076,4188.717846,4212.82041,4203.07682
108,0,4211.281948,4270.769126,4219.487076,4243.076819,4231.794768,4217.435794,4211.281948,4223.58964,4215.897333,4240.512717,4181.538359,4188.717846,4225.128102,4206.153743
109,0,4214.358871,4277.435793,4217.435794,4247.179383,4235.384512,4218.461435,4210.769128,4223.58964,4214.358871,4228.717845,4221.025538,4191.794769,4201.538359,4212.307589
110,0,4209.743487,4263.589639,4214.358871,4241.538358,4233.84605,4216.410153,4212.307589,4222.051179,4211.281948,4223.58964,4215.897333,4188.717846,4203.589641,4211.281948
111,0,4209.230666,4261.025537,4215.897333,4234.871691,4235.384512,4218.974256,4214.358871,4225.128102,4209.230666,4234.358871,4164.615283,4177.435795,4235.897332,4209.743487
112,0,4208.205025,4265.640921,4212.82041,4242.051178,4239.999896,4219.999897,4211.794769,4221.025538,4211.281948,4227.692204,4176.922975,4176.410154,4221.025538,4208.205025
113,0,4209.230666,4265.128101,4207.692205,4250.769127,4235.384512,4216.922974,4210.256307,4211.281948,4211.794769,4221.025538,4192.30759,4176.410154,4197.435795,4207.179384
114,0,4215.384512,4265.128101,4210.769128,4246.666563,4229.743486,4215.897333,4214.358871,4208.205025,4208.205025,4232.820409,4174.358872,4174.358872,4209.743487,4209.743487
115,0,4213.846051,4264.10246,4212.307589,4244.10246,4234.871691,4218.461435,4213.33323,4216.410153,4209.230666,4243.076819,4188.205026,4176.922975,4216.922974,4213.33323
116,0,4209.743487,4256.410152,4205.128102,4248.205024,4234.871691,4216.922974,4205.128102,4221.025538,4214.871692,4238.461435,4226.666563,4178.974257,4195.384513,4211.281948
117,0,4211.281948,4253.333229,4204.102461,4246.153742,4233.33323,4217.435794,4206.153743,4213.846051,4212.82041,4238.974255,4215.384512,4179.487077,4187.692205,4210.769128
118,0,4212.307589,4256.922973,4210.769128,4241.025537,4241.025537,4223.07682,4216.410153,4208.205025,4208.205025,4243.076819,4174.871693,4177.435795,4216.922974,4216.922974
119,0,4209.230666,4250.256306,4207.179384,4242.051178,4239.999896,4224.102461,4215.384512,4208.205025,4206.666564,4236.410153,4164.102462,4171.79477,4226.666563,4216.922974
120,0,4210.769128,4248.717845,4202.051179,4241.025537,4229.743486,4219.999897,4205.640923,4205.640923,4203.589641,4225.128102,4177.435795,4169.230667,4204.102461,4213.33323
121,0,4224.102461,4270.256306,4210.256307,4241.025537,4230.769127,4219.487076,4206.153743,4213.33323,4204.615282,4222.563999,4191.794769,4184.102462,4202.564,4227.179384
122,0,4238.461435,4287.692203,4221.538358,4245.640922,4235.384512,4223.07682,4216.922974,4230.256307,4217.435794,4229.230666,4204.615282,4201.538359,4223.07682,4249.743486
123,0,4248.717845,4296.410151,4222.051179,4254.35887,4237.435794,4220.512717,4215.384512,4232.820409,4219.999897,4233.84605,4208.717846,4200.512718,4242.563999,4268.717844
124,0,4269.230665,4321.025535,4226.153743,4276.410152,4238.974255,4214.871692,4200.512718,4218.461435,4209.743487,4221.538358,4209.743487,4205.128102,4248.205024,4292.820408
125,0,4292.820408,4350.769124,4241.538358,4291.281946,4230.256307,4209.230666,4196.410154,4210.256307,4210.769128,4207.179384,4224.102461,4225.128102,4235.897332,4316.922971
126,0,4303.589638,4352.307586,4247.179383,4278.461434,4215.897333,4202.564,4200.512718,4209.743487,4214.358871,4216.410153,4236.410153,4228.717845,4252.307588,4337.435791
127,0,4313.846048,4351.281945,4238.461435,4271.281947,4216.922974,4199.999897,4195.897333,4203.07682,4209.230666,4228.205025,4246.153742,4220.512717,4297.435792,4365.640919
128,0,4332.307586,4375.384508,4236.410153,4284.61528,4234.358871,4205.640923,4193.846051,4201.025538,4209.743487,4225.128102,4245.128101,4223.07682,4302.051177,4390.769123
0,0,4345.128099,4388.205021,4243.076819,4293.333228,4242.051178,4212.307589,4199.999897,4212.307589,4218.974256,4228.717845,4228.205025,4225.640922,4293.333228,4399.999892
1,0,4353.846047,4380.512713,4245.128101,4301.025536,4236.410153,4214.358871,4201.538359,4225.640922,4229.743486,4242.563999,4248.717845,4226.153743,4313.333228,4411.281943
2,0,4363.589637,4377.948611,4245.640922,4302.563997,4234.358871,4211.794769,4198.974256,4229.743486,4233.33323,4248.717845,4279.999895,4232.307589,4317.948612,4421.538353
3,0,4366.66656,4384.615277,4246.153742,4290.256305,4229.230666,4208.717846,4200.512718,4226.666563,4232.307589,4249.743486,4270.769126,4232.820409,4309.230664,4421.025533
4,0,4361.025534,4376.410149,4244.615281,4282.051177,4219.487076,4206.666564,4201.538359,4225.640922,4233.33323,4242.051178,4258.461434,4231.794768,4308.717843,4414.358866
5,0,4349.743483,4360.512714,4243.076819,4289.230664,4225.128102,4205.128102,4199.487077,4225.640922,4234.871691,4230.769127,4262.563998,4230.769127,4296.922972,4403.076815
6,0,4338.461432,4352.820406,4244.615281,4287.179382,4234.871691,4207.179384,4199.487077,4216.922974,4223.07682,4226.153743,4250.256306,4218.974256,4270.256306,4385.128098
7,0,4327.179381,4347.179381,4239.487076,4274.87169,4235.897332,4209.743487,4200.512718,4205.128102,4210.256307,4224.615281,4243.58964,4212.82041,4261.538357,4368.205021
8,0,4316.410151,4336.41015,4232.820409,4286.666562,4234.871691,4205.128102,4194.358872,4201.025538,4214.358871,4220.512717,4234.358871,4209.743487,4258.461434,4352.820406
9,0,4307.179382,4325.128099,4229.743486,4295.897331,4226.153743,4201.538359,4185.640923,4202.051179,4214.871692,4221.025538,4218.974256,4201.025538,4245.128101,4340.512714
10,0,4302.563997,4322.563997,4230.769127,4278.461434,4219.487076,4206.666564,4186.666564,4201.538359,4208.717846,4225.128102,4217.435794,4198.974256,4234.871691,4329.743484
11,0,4293.846049,4323.589638,4228.205025,4273.846049,4230.256307,4209.230666,4190.769128,4202.051179,4207.179384,4227.692204,4220.512717,4197.948615,4221.538358,4314.871689
12,0,4279.487075,4315.38451,4218.974256,4269.230665,4238.974255,4207.692205,4191.281949,4205.128102,4208.205025,4226.666563,4213.846051,4189.743487,4212.307589,4299.487074
13,0,4266.153742,4294.358869,4209.230666,4244.10246,4234.871691,4212.82041,4194.358872,4212.82041,4207.692205,4229.230666,4204.615282,4184.615282,4207.179384,4290.256305
14,0,4265.128101,4270.256306,4215.384512,4246.666563,4235.897332,4217.435794,4201.538359,4224.102461,4211.794769,4234.358871,4212.82041,4196.922974,4193.846051,4288.205023
15,0,4270.769126,4269.230665,4229.743486,4261.538357,4229.743486,4211.281948,4205.128102,4224.102461,4215.384512,4235.897332,4231.281948,4211.281948,4191.281949,4293.333228
16,0,4266.153742,4281.025536,4227.692204,4243.58964,4215.384512,4205.128102,4205.128102,4211.281948,4206.153743,4236.922973,4213.33323,4205.128102,4195.897333,4287.179382
17,0,4257.948614,4283.589639,4216.410153,4236.922973,4223.58964,4212.307589,4203.589641,4205.640923,4201.025538,4237.435794,4187.692205,4193.333231,4187.179385,4273.846049
18,0,4258.974255,4280.512716,4222.051179,4256.410152,4246.666563,4218.974256,4202.051179,4215.384512,4208.717846,4243.076819,4211.281948,4199.999897,4189.230667,4272.820408
19,0,4257.948614,4278.461434,4233.33323,4270.256306,4247.692204,4216.922974,4205.128102,4223.07682,4214.358871,4248.205024,4216.410153,4206.153743,4186.153744,4264.10246
20,0,4247.179383,4271.794767,4227.692204,4271.281947,4232.307589,4213.846051,4210.256307,4218.461435,4212.82041,4242.563999,4193.333231,4202.051179,4144.102463,4246.666563
21,0,4237.435794,4261.025537,4215.897333,4245.128101,4228.205025,4217.435794,4212.82041,4218.974256,4212.307589,4238.974255,4203.589641,4199.487077,4126.666566,4241.538358
22,0,4231.281948,4254.871691,4207.179384,4223.07682,4235.384512,4218.974256,4211.794769,4232.820409,4211.794769,4249.743486,4205.128102,4192.30759,4162.05118,4234.871691
23,0,4223.07682,4251.281947,4203.589641,4236.922973,4237.948614,4217.435794,4212.82041,4238.974255,4210.256307,4257.435793,4179.487077,4184.102462,4175.384513,4221.538358
24,0,4215.384512,4246.666563,4199.487077,4229.743486,4239.487076,4218.974256,4213.846051,4230.256307,4211.281948,4248.717845,4183.589641,4187.692205,4159.487078,4222.563999
25,0,4210.256307,4237.948614,4196.922974,4217.435794,4237.948614,4218.974256,4209.230666,4216.922974,4208.717846,4239.999896,4196.922974,4188.717846,4153.333232,4220.512717
26,0,4205.640923,4225.640922,4194.358872,4244.10246,4224.102461,4215.384512,4201.025538,4208.205025,4199.999897,4242.051178,4179.999898,4178.974257,4149.743488,4205.640923
27,0,4196.410154,4216.922974,4191.794769,4239.999896,4218.461435,4214.358871,4199.487077,4204.615282,4197.435795,4240.512717,4181.025539,4181.025539,4144.102463,4200.512718
28,0,4192.82041,4224.615281,4194.358872,4211.281948,4231.794768,4222.051179,4212.307589,4210.769128,4206.153743,4242.051178,4203.07682,4190.769128,4143.589642,4205.128102
29,0,4192.82041,4229.743486,4192.30759,4214.871692,4237.948614,4229.743486,4218.974256,4214.871692,4206.153743,4249.743486,4186.153744,4178.974257,4143.589642,4197.435795
30,0,4182.564,4215.897333,4181.538359,4219.487076,4232.820409,4228.205025,4208.205025,4211.794769,4194.871692,4248.205024,4146.666565,4155.897334,4129.230668,4179.487077
31,0,4179.487077,4209.743487,4183.589641,4216.922974,4229.743486,4223.58964,4204.615282,4216.922974,4194.871692,4240.512717,4158.974257,4159.999898,4117.435797,4176.410154
32,0,4184.102462,4213.846051,4191.794769,4230.256307,4229.743486,4218.974256,4215.384512,4221.025538,4204.102461,4239.487076,4192.82041,4181.025539,4128.717848,4183.589641
33,0,4184.615282,4210.256307,4190.256308,4231.281948,4232.307589,4219.999897,4219.487076,4214.358871,4204.615282,4241.025537,4179.999898,4184.615282,4139.487078,4183.589641
34,0,4186.153744,4207.692205,4191.794769,4213.846051,4234.358871,4223.07682,4213.33323,4208.717846,4198.461436,4236.922973,4166.666565,4177.435795,4135.897335,4183.589641
35,0,4192.30759,4211.794769,4201.025538,4223.58964,4230.256307,4221.025538,4211.794769,4213.846051,4201.538359,4239.487076,4179.999898,4173.333231,4137.948617,4187.179385
36,0,4190.256308,4212.307589,4202.051179,4232.820409,4229.230666,4217.435794,4214.358871,4216.922974,4205.640923,4247.179383,4176.410154,4169.743488,4149.230668,4181.025539
37,0,4188.205026,4211.281948,4198.974256,4218.974256,4230.769127,4218.974256,4212.307589,4215.384512,4204.615282,4252.307588,4175.384513,4173.846052,4148.717847,4177.435795
38,0,4191.281949,4205.640923,4197.435795,4217.948615,4229.743486,4219.487076,4209.230666,4214.871692,4202.564,4249.743486,4188.205026,4179.999898,4138.461437,4178.974257
39,0,4190.769128,4198.974256,4197.435795,4232.820409,4232.307589,4218.461435,4210.769128,4217.948615,4202.051179,4246.153742,4179.487077,4181.025539,4134.871694,4174.358872
40,0,4192.82041,4203.589641,4205.128102,4231.794768,4233.84605,4219.999897,4218.974256,4227.692204,4207.692205,4244.615281,4169.230667,4183.589641,4135.384514,4172.30759
41,0,4192.82041,4205.128102,4211.281948,4217.435794,4226.666563,4220.512717,4225.128102,4231.794768,4211.281948,4240.512717,4181.025539,4185.128103,4142.051181,4175.897334
42,0,4189.743487,4194.871692,4211.281948,4228.717845,4218.461435,4217.948615,4224.102461,4225.640922,4204.615282,4235.897332,4181.025539,4185.128103,4149.743488,4175.897334
43,0,4188.205026,4194.871692,4208.717846,4239.999896,4215.384512,4212.307589,4219.487076,4222.563999,4197.435795,4239.487076,4162.05118,4183.076821,4155.897334,4174.358872
44,0,4189.230667,4199.487077,4205.128102,4228.717845,4218.461435,4205.640923,4214.871692,4217.948615,4201.538359,4240.512717,4163.076821,4183.076821,4146.666565,4176.410154
45,0,4192.30759,4196.410154,4209.743487,4225.128102,4225.640922,4211.281948,4215.384512,4209.230666,4206.666564,4235.897332,4179.999898,4191.281949,4138.974258,4183.589641
46,0,4194.358872,4194.358872,4215.384512,4223.58964,4237.948614,4217.948615,4214.871692,4208.205025,4205.640923,4237.435794,4176.922975,4196.410154,4148.205027,4189.230667
47,0,4194.358872,4194.871692,4210.769128,4216.922974,4245.640922,4218.974256,4214.871692,4211.794769,4207.179384,4251.794768,4165.128103,4188.205026,4167.692206,4188.205026
48,0,4191.281949,4185.128103,4207.692205,4212.82041,4235.384512,4222.051179,4216.922974,4206.153743,4210.256307,4257.948614,4187.692205,4185.640923,4183.589641,4187.179385
49,0,4185.128103,4174.358872,4209.230666,4213.33323,4229.743486,4232.307589,4217.948615,4211.281948,4215.384512,4259.999896,4205.640923,4193.846051,4174.871693,4184.615282
50,0,4177.948616,4173.333231,4205.128102,4216.922974,4236.410153,4232.307589,4217.435794,4219.999897,4216.922974,4266.666562,4165.128103,4184.102462,4157.948616,4169.230667
51,0,4174.358872,4174.871693,4196.410154,4217.435794,4230.769127,4218.461435,4211.794769,4213.33323,4209.230666,4262.051178,4141.02554,4169.230667,4167.692206,4159.999898
52,0,4183.589641,4182.564,4201.538359,4215.897333,4229.230666,4219.487076,4213.846051,4217.435794,4212.307589,4258.461434,4180.512718,4183.076821,4194.358872,4179.487077
53,0,4198.974256,4194.871692,4213.846051,4224.615281,4244.10246,4230.769127,4225.640922,4235.897332,4226.666563,4270.256306,4199.999897,4195.384513,4204.615282,4198.974256
54,0,4202.051179,4197.948615,4211.794769,4234.358871,4245.640922,4225.128102,4226.666563,4232.307589,4225.128102,4271.281947,4189.743487,4188.205026,4202.051179,4198.461436
55,0,4189.743487,4187.179385,4203.589641,4216.410153,4233.84605,4212.307589,4217.435794,4212.307589,4212.82041,4251.281947,4189.230667,4181.025539,4192.82041,4186.666564
56,0,4183.076821,4171.79477,4198.974256,4207.692205,4228.717845,4214.871692,4212.82041,4201.538359,4206.666564,4243.076819,4172.30759,4176.410154,4179.999898,4175.897334
57,0,4186.666564,4169.743488,4198.461436,4221.538358,4228.717845,4225.640922,4214.871692,4199.999897,4208.205025,4258.974255,4164.615283,4177.435795,4181.025539,4177.435795
58,0,4183.076821,4174.871693,4199.487077,4217.948615,4230.769127,4229.230666,4215.897333,4203.589641,4213.846051,4271.794767,4182.564,4187.692205,4181.538359,4183.589641
59,0,4178.461436,4170.769129,4201.025538,4198.974256,4235.384512,4229.230666,4217.435794,4207.179384,4217.435794,4266.666562,4169.230667,4187.692205,4177.948616,4178.461436
60,0,4187.179385,4168.717847,4205.128102,4201.538359,4239.487076,4231.281948,4219.999897,4214.358871,4220.512717,4270.769126,4163.076821,4184.615282,4197.948615,4184.615282
61,0,4195.384513,4174.358872,4211.281948,4211.794769,4242.051178,4235.384512,4219.487076,4226.666563,4225.640922,4289.230664,4194.358872,4197.948615,4217.948615,4201.025538
62,0,4189.743487,4177.948616,4208.205025,4207.692205,4237.948614,4229.743486,4215.897333,4228.717845,4224.102461,4285.640921,4201.025538,4201.538359,4210.769128,4198.974256
63,0,4186.153744,4176.922975,4204.615282,4214.871692,4230.769127,4218.974256,4217.435794,4219.487076,4218.461435,4265.640921,4176.410154,4185.640923,4201.538359,4187.692205
64,0,4191.281949,4182.564,4207.179384,4224.102461,4237.435794,4218.461435,4224.615281,4218.461435,4214.871692,4266.153742,4164.102462,4179.487077,4199.999897,4188.717846
65,0,4191.281949,4185.640923,4205.640923,4210.256307,4247.692204,4219.999897,4221.538358,4225.640922,4214.358871,4270.769126,4163.076821,4184.615282,4193.333231,4192.30759
66,0,4185.128103,4182.564,4199.999897,4211.281948,4244.615281,4217.948615,4212.82041,4225.640922,4218.974256,4267.692203,4171.79477,4185.640923,4194.871692,4186.153744
67,0,4184.615282,4177.435795,4200.512718,4222.563999,4232.820409,4217.948615,4215.384512,4223.07682,4223.07682,4272.307588,4183.076821,4186.666564,4191.281949,4181.025539
68,0,4184.615282,4169.743488,4198.461436,4207.692205,4229.230666,4222.051179,4219.487076,4224.102461,4218.974256,4272.820408,4172.820411,4182.564,4177.948616,4178.974257
69,0,4181.025539,4169.743488,4194.358872,4199.999897,4238.461435,4226.666563,4217.435794,4223.07682,4214.871692,4262.051178,4152.820411,4170.769129,4176.410154,4176.922975
70,0,4178.461436,4173.846052,4195.384513,4214.358871,4243.076819,4228.205025,4219.999897,4224.102461,4214.358871,4260.512716,4137.435796,4170.256308,4179.487077,4176.410154
71,0,4185.640923,4173.846052,4203.589641,4211.794769,4234.871691,4229.743486,4224.615281,4232.820409,4216.410153,4272.820408,4144.615283,4182.564,4183.589641,4185.640923
72,0,4194.358872,4166.666565,4210.256307,4197.948615,4229.743486,4227.179384,4219.999897,4234.358871,4218.461435,4270.256306,4175.384513,4192.82041,4197.435795,4196.410154
73,0,4197.948615,4165.640924,4209.230666,4205.640923,4232.820409,4218.974256,4215.897333,4227.179384,4218.461435,4261.025537,4175.897334,4197.948615,4201.025538,4196.922974
74,0,4201.025538,4177.435795,4213.33323,4219.999897,4226.666563,4212.82041,4215.897333,4219.999897,4216.410153,4264.61528,4148.205027,4201.538359,4188.717846,4198.461436
75,0,4202.564,4191.794769,4221.538358,4222.563999,4218.974256,4214.871692,4214.358871,4211.281948,4214.358871,4270.256306,4148.205027,4200.512718,4191.794769,4208.205025
76,0,4193.846051,4191.794769,4217.948615,4216.922974,4227.179384,4217.435794,4211.794769,4205.128102,4213.33323,4263.589639,4155.384514,4194.871692,4200.512718,4205.128102
77,0,4179.999898,4185.128103,4204.102461,4211.794769,4235.897332,4214.358871,4210.769128,4205.640923,4210.769128,4255.384511,4136.410155,4182.05118,4188.717846,4188.717846
78,0,4183.076821,4193.846051,4199.999897,4208.717846,4232.820409,4220.512717,4213.846051,4209.743487,4211.281948,4264.61528,4124.615284,4175.384513,4183.076821,4184.615282
79,0,4193.846051,4212.82041,4208.717846,4213.846051,4230.256307,4231.794768,4223.58964,4226.153743,4218.461435,4278.461434,4158.461437,4193.846051,4200.512718,4200.512718
80,0,4194.871692,4223.07682,4215.897333,4227.692204,4231.794768,4230.256307,4234.358871,4242.051178,4226.666563,4280.512716,4190.256308,4203.589641,4206.153743,4205.128102
81,0,4189.743487,4227.179384,4209.743487,4229.230666,4226.666563,4228.205025,4232.820409,4240.512717,4226.666563,4275.897331,4168.717847,4187.692205,4195.384513,4194.871692
82,0,4186.666564,4228.717845,4197.948615,4222.563999,4222.051179,4228.717845,4223.58964,4227.692204,4214.871692,4264.61528,4126.666566,4178.461436,4189.743487,4189.743487
83,0,4188.205026,4227.179384,4199.999897,4234.871691,4227.179384,4221.538358,4218.461435,4223.58964,4207.692205,4254.871691,4129.230668,4187.179385,4190.256308,4191.794769
84,0,4191.794769,4226.153743,4209.743487,4238.974255,4230.769127,4217.435794,4219.999897,4228.205025,4214.358871,4254.35887,4147.692206,4196.410154,4192.30759,4194.358872
85,0,4188.205026,4225.640922,4209.743487,4217.948615,4219.999897,4225.128102,4221.538358,4227.692204,4218.461435,4252.307588,4157.948616,4201.538359,4188.717846,4194.871692
86,0,4183.076821,4223.58964,4208.205025,4213.846051,4216.922974,4230.256307,4219.999897,4220.512717,4211.281948,4245.128101,4169.743488,4198.974256,4180.512718,4194.358872
87,0,4188.205026,4226.153743,4211.281948,4231.794768,4225.128102,4229.743486,4221.025538,4221.025538,4209.230666,4250.256306,4146.153745,4186.666564,4183.076821,4190.769128
88,0,4192.82041,4230.256307,4210.256307,4226.666563,4229.230666,4232.820409,4231.281948,4230.769127,4217.948615,4264.61528,4121.02554,4184.102462,4197.435795,4188.205026
89,0,4186.153744,4222.563999,4203.07682,4216.410153,4225.128102,4234.358871,4232.820409,4233.33323,4219.487076,4265.640921,4137.948617,4184.615282,4197.948615,4182.564
90,0,4190.769128,4224.102461,4203.589641,4237.948614,4223.07682,4230.256307,4221.538358,4226.153743,4215.897333,4261.025537,4154.358873,4182.05118,4196.410154,4184.615282
91,0,4211.281948,4234.358871,4212.82041,4246.666563,4226.153743,4222.051179,4215.897333,4224.615281,4218.461435,4262.051178,4156.922975,4196.410154,4210.256307,4203.589641
92,0,4226.153743,4241.538358,4221.025538,4235.384512,4222.051179,4215.384512,4213.33323,4228.205025,4225.128102,4266.153742,4173.333231,4217.435794,4231.281948,4225.640922
93,0,4245.640922,4265.128101,4228.205025,4249.743486,4212.82041,4212.82041,4208.205025,4221.538358,4221.025538,4260.512716,4180.512718,4221.538358,4249.743486,4250.769127
94,0,4275.897331,4295.38451,4232.307589,4272.820408,4214.358871,4213.846051,4210.256307,4214.871692,4210.769128,4249.230665,4177.435795,4217.948615,4265.640921,4283.076818
95,0,4300.512715,4304.102459,4235.897332,4272.820408,4218.974256,4216.922974,4217.948615,4222.563999,4216.410153,4252.307588,4191.281949,4226.666563,4284.61528,4319.999894
96,0,4317.948612,4311.794766,4233.84605,4270.256306,4216.410153,4219.999897,4216.922974,4226.153743,4224.615281,4257.948614,4197.435795,4228.717845,4302.563997,4351.794765
97,0,4336.922971,4332.307586,4230.256307,4283.076818,4222.563999,4218.974256,4214.871692,4215.384512,4218.974256,4250.256306,4192.30759,4219.487076,4311.794766,4370.769124
98,0,4350.769124,4350.256304,4231.281948,4297.435792,4228.717845,4219.999897,4216.410153,4213.33323,4215.897333,4247.692204,4186.666564,4218.461435,4311.794766,4381.538354
99,0,4358.461432,4358.974252,4241.025537,4294.358869,4225.128102,4222.563999,4216.922974,4221.025538,4227.692204,4253.333229,4182.05118,4228.717845,4298.974254,4386.153739
100,0,4365.128098,4362.563996,4249.230665,4282.563998,4227.179384,4223.58964,4224.615281,4230.769127,4237.948614,4259.999896,4195.384513,4236.410153,4299.999895,4390.256303
101,0,4367.692201,4358.974252,4250.256306,4281.025536,4224.615281,4221.025538,4232.820409,4237.948614,4240.512717,4265.640921,4206.153743,4239.487076,4322.051176,4393.333226
102,0,4367.17938,4354.871688,4248.717845,4286.153741,4210.769128,4218.974256,4230.769127,4237.948614,4241.025537,4268.205024,4186.666564,4238.974255,4324.615279,4393.333226
103,0,4364.615278,4348.205022,4246.666563,4287.692203,4217.948615,4222.563999,4226.153743,4232.307589,4239.487076,4264.61528,4169.743488,4237.435794,4314.358869,4390.256303
104,0,4359.487073,4346.15374,4245.128101,4285.1281,4231.794768,4229.230666,4231.794768,4231.281948,4241.025537,4269.230665,4177.948616,4239.487076,4331.281945,4392.820405
105,0,4352.307586,4343.076817,4242.563999,4277.948613,4221.025538,4228.717845,4232.307589,4232.307589,4242.051178,4275.897331,4171.281949,4237.435794,4337.435791,4386.153739
106,0,4341.538355,4331.281945,4237.948614,4275.384511,4216.922974,4220.512717,4224.615281,4228.205025,4234.358871,4265.640921,4153.333232,4225.640922,4315.89733,4365.128098
107,0,4333.846048,4325.128099,4236.410153,4285.640921,4232.820409,4217.948615,4226.666563,4225.640922,4229.230666,4258.974255,4158.974257,4219.999897,4316.922971,4356.92297
108,0,4323.589638,4312.820407,4237.435794,4277.435793,4231.281948,4224.102461,4232.820409,4226.666563,4227.179384,4263.589639,4161.025539,4218.974256,4322.051176,4352.820406
109,0,4313.846048,4296.410151,4232.820409,4253.84605,4217.948615,4227.179384,4226.666563,4232.820409,4226.153743,4269.230665,4149.743488,4215.384512,4309.743484,4338.461432
110,0,4309.743484,4290.769126,4229.743486,4250.256306,4222.051179,4228.717845,4220.512717,4240.512717,4232.820409,4275.897331,4152.307591,4214.358871,4308.717843,4319.999894
111,0,4299.999895,4281.538357,4231.281948,4245.128101,4223.58964,4231.281948,4228.205025,4245.128101,4242.051178,4285.1281,4158.461437,4217.435794,4311.794766,4306.153741
112,0,4280.512716,4265.640921,4230.256307,4236.922973,4210.256307,4228.205025,4232.820409,4245.128101,4238.974255,4283.589639,4145.128104,4217.435794,4291.794767,4290.256305
113,0,4269.230665,4265.128101,4227.692204,4247.179383,4211.281948,4221.025538,4230.769127,4241.025537,4229.743486,4277.435793,4133.333232,4217.435794,4278.974254,4279.487075
114,0,4265.640921,4259.487075,4225.128102,4250.256306,4216.410153,4224.102461,4229.230666,4235.384512,4226.153743,4274.87169,4130.256309,4216.410153,4279.999895,4270.769126
115,0,4257.435793,4241.025537,4224.102461,4239.487076,4215.384512,4232.307589,4227.692204,4232.820409,4227.692204,4273.846049,4126.153745,4212.82041,4275.384511,4261.538357
116,0,4252.820409,4240.512717,4225.128102,4242.051178,4219.487076,4231.794768,4227.692204,4237.948614,4233.33323,4278.974254,4128.205027,4215.384512,4277.948613,4256.410152
117,0,4245.640922,4246.666563,4216.410153,4244.615281,4217.948615,4229.230666,4231.281948,4244.615281,4235.384512,4284.102459,4133.846053,4213.33323,4285.1281,4247.179383
118,0,4233.84605,4236.922973,4205.640923,4228.205025,4210.256307,4231.281948,4232.820409,4245.128101,4234.871691,4282.563998,4132.307591,4204.102461,4284.102459,4236.922973
119,0,4231.281948,4229.230666,4209.230666,4223.58964,4214.871692,4230.769127,4232.307589,4242.051178,4231.794768,4284.102459,4134.358873,4205.128102,4288.717844,4238.974255
120,0,4232.307589,4222.051179,4218.974256,4230.769127,4215.897333,4224.102461,4233.33323,4243.076819,4226.153743,4287.179382,4133.333232,4212.307589,4291.794767,4240.512717
121,0,4217.948615,4204.615282,4210.769128,4222.051179,4201.538359,4216.922974,4231.281948,4239.999896,4221.538358,4277.435793,4114.871694,4199.999897,4272.820408,4219.487076
122,0,4203.07682,4197.948615,4200.512718,4213.33323,4197.948615,4213.846051,4225.640922,4238.974255,4225.640922,4274.35887,4101.538361,4188.205026,4261.538357,4201.025538
123,0,4208.205025,4211.794769,4204.615282,4221.025538,4210.769128,4218.461435,4226.666563,4250.769127,4236.922973,4289.230664,4114.871694,4200.512718,4278.974254,4208.717846
124,0,4214.871692,4217.435794,4207.179384,4228.205025,4222.051179,4226.666563,4231.794768,4254.35887,4238.461435,4295.38451,4125.128104,4209.230666,4282.563998,4213.33323
125,0,4205.128102,4207.692205,4199.487077,4224.615281,4225.128102,4226.666563,4230.256307,4239.999896,4229.743486,4285.640921,4115.897335,4200.512718,4269.230665,4200.512718
126,0,4196.922974,4202.564,4193.846051,4222.563999,4215.384512,4224.615281,4227.692204,4235.384512,4228.717845,4285.640921,4112.307592,4192.82041,4272.820408,4193.846051
127,0,4197.948615,4196.922974,4195.897333,4215.897333,4204.615282,4228.717845,4233.33323,4243.076819,4234.871691,4291.281946,4117.435797,4193.333231,4278.974254,4195.384513
128,0,4195.384513,4190.256308,4198.974256,4207.179384,4202.051179,4225.640922,4237.435794,4242.051178,4230.256307,4286.153741,4119.999899,4195.384513,4273.333229,4191.281949
0,0,4192.30759,4195.384513,4205.640923,4218.461435,4197.948615,4214.358871,4234.358871,4237.435794,4222.563999,4274.87169,4119.999899,4197.435795,4271.281947,4190.256308
1,0,4198.974256,4202.564,4210.769128,4232.820409,4200.512718,4218.974256,4233.84605,4243.076819,4227.179384,4273.333229,4125.640925,4198.974256,4281.025536,4198.974256
2,0,4204.615282,4196.410154,4208.717846,4223.07682,4213.846051,4231.281948,4237.435794,4249.743486,4232.307589,4279.487075,4130.256309,4201.538359,4285.640921,4203.07682
3,0,4199.999897,4193.333231,4206.666564,4215.384512,4219.487076,4227.692204,4237.435794,4248.205024,4229.743486,4282.563998,4129.230668,4200.512718,4281.025536,4201.025538
4,0,4195.384513,4195.897333,4205.640923,4221.538358,4212.82041,4220.512717,4232.820409,4244.615281,4229.743486,4279.487075,4123.076822,4193.333231,4274.35887,4194.358872
5,0,4197.435795,4195.897333,4204.615282,4224.102461,4212.82041,4224.615281,4230.769127,4245.128101,4231.281948,4283.076818,4121.02554,4189.743487,4272.820408,4189.743487
6,0,4201.538359,4195.897333,4207.692205,4215.897333,4217.948615,4229.743486,4232.820409,4235.897332,4227.179384,4285.1281,4118.974258,4192.82041,4272.820408,4187.692205
7,0,4203.07682,4194.871692,4215.384512,4213.33323,4212.307589,4228.205025,4233.84605,4227.179384,4223.07682,4278.461434,4117.435797,4197.948615,4272.820408,4190.769128
8,0,4207.179384,4193.846051,4226.153743,4221.025538,4205.128102,4227.692204,4235.384512,4233.33323,4230.256307,4277.948613,4124.102463,4206.666564,4275.384511,4199.487077
9,0,4208.205025,4198.974256,4224.615281,4223.58964,4212.82041,4226.666563,4237.948614,4243.58964,4236.922973,4281.538357,4128.717848,4205.128102,4275.384511,4197.435795
10,0,4196.922974,4193.846051,4211.794769,4212.82041,4222.563999,4226.153743,4235.897332,4242.563999,4233.33323,4276.410152,4121.02554,4192.30759,4270.769126,4181.025539
11,0,4181.538359,4178.974257,4201.025538,4203.07682,4216.922974,4227.179384,4231.794768,4238.974255,4225.640922,4273.333229,4110.76913,4184.615282,4269.743485,4172.30759
12,0,4181.025539,4177.948616,4201.025538,4206.666564,4215.897333,4223.58964,4231.281948,4235.384512,4222.563999,4276.922972,4106.153746,4181.538359,4270.256306,4174.871693
13,0,4190.256308,4185.128103,4205.640923,4216.410153,4228.205025,4216.922974,4231.281948,4230.769127,4224.102461,4274.87169,4102.564002,4179.487077,4266.153742,4175.897334
14,0,4188.717846,4182.564,4204.615282,4215.384512,4226.666563,4215.384512,4230.256307,4228.717845,4225.128102,4267.692203,4098.461438,4181.538359,4260.512716,4170.769129
15,0,4186.666564,4184.102462,4202.051179,4205.128102,4214.358871,4217.948615,4232.307589,4226.666563,4223.07682,4263.589639,4094.871695,4183.589641,4258.461434,4169.230667
16,0,4199.487077,4190.256308,4204.615282,4205.640923,4213.33323,4215.897333,4232.307589,4224.102461,4218.974256,4257.948614,4097.435797,4186.666564,4263.589639,4178.974257
17,0,4203.589641,4189.230667,4210.769128,4211.794769,4213.33323,4214.871692,4227.692204,4219.487076,4217.435794,4254.871691,4102.051182,4187.179385,4266.153742,4188.205026
18,0,4201.025538,4189.230667,4217.948615,4214.871692,4209.743487,4215.384512,4227.692204,4221.538358,4222.563999,4264.10246,4104.615284,4187.692205,4271.281947,4193.333231
19,0,4205.128102,4194.358872,4220.512717,4217.435794,4215.897333,4214.871692,4230.769127,4224.615281,4227.692204,4271.281947,4104.102464,4190.256308,4281.538357,4196.410154
20,0,4203.589641,4193.846051,4212.307589,4215.384512,4221.538358,4214.358871,4227.692204,4213.33323,4219.999897,4266.666562,4097.435797,4182.564,4278.461434,4189.230667
21,0,4194.871692,4186.153744,4205.640923,4209.743487,4215.384512,4213.846051,4224.615281,4199.487077,4211.281948,4260.512716,4090.769131,4171.281949,4265.640921,4176.922975
22,0,4195.384513,4188.205026,4207.179384,4209.230666,4217.435794,4215.897333,4228.205025,4201.538359,4213.33323,4259.999896,4092.307592,4176.922975,4264.61528,4179.487077
23,0,4205.128102,4193.846051,4209.230666,4211.281948,4224.102461,4216.410153,4230.769127,4207.692205,4213.33323,4256.410152,4101.538361,4188.205026,4270.256306,4188.205026
24,0,4210.769128,4196.410154,4211.281948,4217.435794,4220.512717,4215.897333,4230.769127,4208.717846,4212.82041,4255.897332,4112.307592,4188.205026,4272.307588,4191.794769
25,0,4211.281948,4196.922974,4212.82041,4216.410153,4221.025538,4215.897333,4231.794768,4209.230666,4216.922974,4255.897332,4105.128105,4184.615282,4268.205024,4193.333231
26,0,4205.640923,4194.358872,4208.205025,4208.205025,4223.07682,4214.358871,4229.230666,4207.179384,4215.897333,4249.230665,4099.9999,4183.589641,4263.589639,4193.333231
27,0,4205.640923,4193.846051,4209.743487,4216.410153,4213.33323,4212.82041,4228.717845,4206.666564,4216.410153,4254.35887,4108.205028,4188.205026,4266.153742,4194.358872
28,0,4211.794769,4203.07682,4211.794769,4225.128102,4209.743487,4214.358871,4232.307589,4209.230666,4217.435794,4265.128101,4102.564002,4189.743487,4269.230665,4197.435795
29,0,4216.410153,4208.205025,4207.179384,4208.205025,4218.974256,4216.410153,4230.769127,4207.692205,4216.922974,4264.61528,4103.589643,4185.128103,4268.205024,4202.564
30,0,4219.487076,4208.717846,4209.743487,4201.538359,4218.461435,4217.948615,4228.717845,4207.179384,4221.538358,4268.717844,4129.743489,4192.82041,4280.512716,4212.82041
31,0,4221.538358,4218.974256,4217.435794,4210.256307,4212.82041,4218.974256,4231.281948,4211.794769,4225.128102,4276.922972,4139.999899,4203.589641,4295.38451,4217.948615
32,0,4215.897333,4223.07682,4210.769128,4214.871692,4217.435794,4216.410153,4229.743486,4211.281948,4220.512717,4269.743485,4119.487079,4192.82041,4286.666562,4204.615282
33,0,4208.205025,4221.538358,4204.615282,4219.487076,4220.512717,4214.871692,4227.179384,4207.179384,4216.922974,4259.487075,4104.615284,4179.999898,4269.743485,4189.230667
34,0,4204.615282,4226.666563,4210.769128,4216.410153,4217.948615,4216.922974,4229.743486,4208.205025,4218.461435,4257.435793,4118.974258,4184.615282,4262.051178,4186.153744
35,0,4201.538359,4223.58964,4206.153743,4203.589641,4214.358871,4215.897333,4229.743486,4206.153743,4213.846051,4248.717845,4134.871694,4183.076821,4263.589639,4181.538359
36,0,4193.846051,4217.435794,4196.410154,4195.384513,4208.205025,4213.846051,4227.692204,4199.487077,4206.153743,4234.358871,4109.743489,4170.256308,4257.435793,4168.205026
37,0,4196.922974,4224.615281,4202.051179,4193.333231,4203.07682,4216.922974,4228.205025,4201.538359,4206.153743,4234.871691,4091.794772,4173.846052,4256.922973,4170.769129
38,0,4211.281948,4232.820409,4215.897333,4216.410153,4203.07682,4218.974256,4231.281948,4212.307589,4216.922974,4250.256306,4127.179386,4189.230667,4273.846049,4186.666564
39,0,4219.487076,4239.487076,4218.974256,4239.487076,4203.589641,4219.487076,4226.666563,4221.538358,4222.051179,4267.692203,4141.02554,4191.281949,4282.563998,4190.769128
40,0,4217.948615,4235.384512,4214.358871,4207.692205,4200.512718,4218.974256,4220.512717,4223.58964,4217.948615,4272.820408,4132.820412,4190.256308,4279.999895,4187.179385
41,0,4210.769128,4218.461435,4207.692205,4183.076821,4200.512718,4218.461435,4223.58964,4225.128102,4222.051179,4271.794767,4165.640924,4195.384513,4286.153741,4185.640923
42,0,4204.615282,4213.33323,4205.640923,4215.384512,4209.743487,4221.025538,4229.230666,4224.102461,4223.58964,4272.820408,4163.076821,4189.230667,4280.512716,4178.461436
43,0,4204.102461,4222.563999,4206.153743,4225.640922,4217.435794,4228.717845,4230.256307,4224.102461,4215.384512,4275.384511,4118.974258,4178.974257,4264.61528,4171.281949
44,0,4204.102461,4221.538358,4207.179384,4194.358872,4209.743487,4230.256307,4230.256307,4227.179384,4217.435794,4268.717844,4123.076822,4184.615282,4273.333229,4171.281949
45,0,4200.512718,4211.281948,4204.615282,4175.384513,4199.999897,4221.025538,4231.281948,4223.07682,4218.974256,4248.717845,4144.102463,4185.640923,4284.102459,4173.846052
46,0,4202.564,4206.153743,4206.666564,4195.384513,4207.179384,4220.512717,4231.281948,4213.846051,4208.205025,4233.84605,4133.846053,4186.153744,4263.589639,4174.358872
47,0,4213.33323,4217.948615,4218.974256,4237.435794,4211.794769,4224.102461,4230.769127,4210.769128,4206.666564,4231.281948,4139.999899,4203.589641,4252.820409,4177.948616
48,0,4222.563999,4230.256307,4228.205025,4235.384512,4204.102461,4222.051179,4230.256307,4211.281948,4214.871692,4233.33323,4151.28195,4212.82041,4265.640921,4186.153744
49,0,4217.948615,4212.82041,4222.563999,4191.281949,4199.487077,4219.487076,4231.281948,4208.205025,4212.307589,4240.512717,4134.871694,4202.051179,4261.538357,4186.153744
50,0,4207.179384,4192.30759,4215.384512,4189.743487,4210.769128,4221.538358,4233.33323,4210.769128,4213.846051,4251.281947,4146.666565,4199.999897,4243.58964,4179.487077
51,0,4209.230666,4202.051179,4218.974256,4220.512717,4214.871692,4219.487076,4234.358871,4221.025538,4226.153743,4264.61528,4174.358872,4204.102461,4263.076819,4186.153744
52,0,4217.948615,4213.33323,4222.051179,4223.58964,4200.512718,4216.922974,4234.871691,4229.230666,4230.256307,4276.410152,4173.846052,4204.102461,4296.922972,4198.461436
53,0,4216.410153,4209.743487,4221.025538,4214.358871,4199.999897,4222.563999,4235.897332,4234.871691,4229.230666,4273.333229,4188.205026,4207.179384,4291.794767,4197.435795
54,0,4207.692205,4195.897333,4216.410153,4207.692205,4213.33323,4229.743486,4239.999896,4235.897332,4228.205025,4262.051178,4196.922974,4204.615282,4266.153742,4190.769128
55,0,4207.179384,4186.666564,4214.871692,4190.769128,4222.563999,4235.384512,4246.153742,4237.435794,4224.102461,4261.538357,4156.922975,4199.999897,4264.10246,4191.281949
56,0,4211.281948,4188.717846,4217.948615,4185.128103,4218.461435,4237.435794,4246.666563,4237.435794,4222.051179,4263.076819,4133.333232,4202.564,4276.410152,4195.897333
57,0,4206.666564,4187.692205,4220.512717,4203.07682,4200.512718,4231.281948,4243.076819,4230.256307,4216.410153,4248.717845,4146.666565,4199.999897,4267.179383,4191.281949
58,0,4208.205025,4177.435795,4225.640922,4217.948615,4197.435795,4233.33323,4248.717845,4232.820409,4213.33323,4239.487076,4162.05118,4204.102461,4252.307588,4190.256308
59,0,4217.948615,4165.640924,4231.794768,4208.717846,4212.307589,4242.563999,4255.384511,4241.538358,4223.07682,4252.307588,4172.30759,4221.025538,4255.384511,4196.410154
60,0,4211.281948,4158.974257,4224.102461,4181.025539,4213.846051,4237.948614,4247.692204,4240.512717,4227.179384,4269.743485,4160.512719,4213.846051,4268.205024,4194.871692
61,0,4203.07682,4164.615283,4216.922974,4177.948616,4205.640923,4228.205025,4244.615281,4238.974255,4225.128102,4273.333229,4147.179386,4201.538359,4271.281947,4192.30759
62,0,4208.205025,4159.487078,4218.974256,4206.153743,4202.051179,4229.230666,4247.179383,4242.051178,4229.743486,4265.128101,4184.615282,4212.82041,4268.205024,4198.461436
63,0,4204.102461,4137.435796,4221.025538,4207.179384,4193.846051,4223.58964,4238.461435,4229.743486,4225.640922,4256.410152,4195.384513,4212.307589,4255.897332,4193.846051
64,0,4206.666564,4149.743488,4225.640922,4193.846051,4193.846051,4214.358871,4233.84605,4223.58964,4221.538358,4262.563998,4178.461436,4207.179384,4250.256306,4196.410154
65,0,4217.948615,4168.717847,4231.794768,4186.666564,4208.205025,4224.102461,4246.153742,4239.999896,4232.307589,4271.281947,4193.333231,4224.615281,4260.512716,4210.256307
66,0,4206.153743,4144.102463,4223.07682,4190.769128,4203.07682,4231.794768,4251.281947,4241.538358,4230.256307,4258.461434,4192.30759,4219.999897,4258.974255,4199.487077
67,0,4194.358872,4126.666566,4219.487076,4211.281948,4190.256308,4223.07682,4247.692204,4225.128102,4215.384512,4236.410153,4180.512718,4199.487077,4235.897332,4183.076821
68,0,4201.025538,4133.333232,4228.205025,4209.743487,4192.82041,4221.025538,4250.256306,4228.205025,4219.999897,4239.487076,4180.512718,4206.153743,4221.538358,4186.666564
69,0,4199.487077,4123.589643,4225.640922,4167.179385,4196.410154,4224.102461,4249.743486,4247.179383,4231.281948,4259.487075,4177.435795,4211.794769,4240.512717,4187.179385
70,0,4193.333231,4110.76913,4218.974256,4158.974257,4193.333231,4221.025538,4246.666563,4251.281947,4228.205025,4269.230665,4182.564,4200.512718,4256.922973,4180.512718
71,0,4192.82041,4112.820412,4219.999897,4195.384513,4193.846051,4215.897333,4241.025537,4239.999896,4220.512717,4263.589639,4188.717846,4197.948615,4238.974255,4179.487077
72,0,4191.281949,4112.307592,4223.07682,4203.589641,4197.435795,4217.948615,4233.84605,4234.871691,4218.461435,4258.461434,4159.487078,4202.564,4223.07682,4177.948616
73,0,4193.333231,4113.333233,4228.205025,4200.512718,4192.30759,4219.487076,4235.897332,4241.025537,4226.153743,4267.692203,4155.897334,4212.307589,4237.948614,4185.640923
74,0,4197.948615,4113.846053,4235.897332,4201.025538,4187.179385,4216.922974,4238.974255,4242.563999,4227.692204,4265.128101,4190.769128,4221.538358,4239.999896,4194.358872
75,0,4199.487077,4117.948617,4235.384512,4186.666564,4199.487077,4217.435794,4236.922973,4235.384512,4218.974256,4247.179383,4188.205026,4217.948615,4222.563999,4192.30759
76,0,4202.051179,4117.948617,4230.256307,4186.666564,4207.179384,4219.487076,4235.384512,4230.256307,4215.384512,4235.384512,4170.769129,4215.897333,4218.974256,4187.179385
77,0,4194.871692,4097.435797,4226.666563,4191.281949,4195.384513,4214.871692,4233.84605,4225.128102,4214.358871,4233.33323,4174.871693,4213.33323,4215.384512,4179.999898
78,0,4186.153744,4077.435798,4225.128102,4179.999898,4186.666564,4202.564,4229.230666,4214.358871,4210.769128,4231.794768,4179.999898,4202.051179,4207.179384,4173.846052
79,0,4193.333231,4087.692208,4225.640922,4186.666564,4195.897333,4202.051179,4230.256307,4213.33323,4213.846051,4242.051178,4186.153744,4205.640923,4216.410153,4184.615282
80,0,4203.589641,4103.076823,4228.205025,4200.512718,4198.974256,4213.33323,4233.33323,4222.563999,4225.128102,4257.948614,4202.051179,4218.974256,4232.307589,4197.435795
81,0,4199.999897,4102.051182,4227.179384,4188.717846,4184.615282,4214.871692,4231.794768,4231.794768,4231.794768,4268.205024,4216.922974,4219.487076,4235.897332,4195.897333
82,0,4194.358872,4099.487079,4223.58964,4181.025539,4181.538359,4210.256307,4235.897332,4238.461435,4233.84605,4275.897331,4210.769128,4214.871692,4234.358871,4192.82041
83,0,4191.281949,4102.564002,4221.025538,4189.743487,4198.974256,4214.871692,4239.999896,4236.410153,4231.281948,4270.256306,4198.974256,4210.256307,4235.384512,4191.794769
84,0,4185.640923,4107.692207,4218.461435,4191.794769,4208.717846,4217.948615,4232.820409,4224.615281,4222.563999,4247.692204,4192.30759,4201.025538,4228.205025,4181.025539
85,0,4181.538359,4107.692207,4210.256307,4187.692205,4206.666564,4210.769128,4224.615281,4216.922974,4215.384512,4235.897332,4191.281949,4196.922974,4216.410153,4173.846052
86,0,4191.794769,4110.76913,4209.743487,4192.82041,4205.640923,4211.281948,4228.717845,4224.102461,4215.384512,4240.512717,4195.384513,4200.512718,4216.410153,4187.179385
87,0,4205.128102,4121.02554,4218.461435,4193.333231,4202.051179,4213.846051,4234.358871,4234.871691,4217.435794,4239.999896,4192.30759,4198.974256,4226.153743,4203.589641
88,0,4212.307589,4125.640925,4223.58964,4196.922974,4198.461436,4207.179384,4232.820409,4235.384512,4215.897333,4235.897332,4193.846051,4201.025538,4241.538358,4216.922974
89,0,4235.897332,4153.333232,4228.717845,4214.358871,4203.589641,4204.102461,4231.794768,4223.58964,4218.974256,4235.897332,4208.205025,4211.794769,4265.640921,4250.256306
90,0,4276.410152,4212.307589,4235.897332,4227.692204,4205.640923,4208.717846,4229.743486,4215.897333,4224.102461,4236.922973,4213.846051,4221.025538,4279.487075,4296.922972
91,0,4297.435792,4236.410153,4241.025537,4227.179384,4195.897333,4208.717846,4229.230666,4214.358871,4226.666563,4241.025537,4207.692205,4225.640922,4277.948613,4322.051176
92,0,4309.230664,4234.358871,4245.128101,4229.230666,4199.999897,4206.153743,4228.205025,4212.307589,4229.230666,4245.640922,4213.846051,4230.256307,4289.230664,4338.461432
93,0,4329.230663,4263.076819,4250.256306,4241.025537,4213.846051,4200.512718,4216.922974,4202.564,4223.58964,4235.384512,4217.435794,4230.256307,4305.1281,4362.563996
94,0,4341.538355,4292.307587,4244.615281,4241.025537,4209.230666,4188.205026,4203.589641,4188.717846,4212.82041,4219.999897,4207.179384,4221.538358,4294.87169,4372.820406
95,0,4351.281945,4303.076818,4246.153742,4244.615281,4203.589641,4188.717846,4206.666564,4188.205026,4212.307589,4219.999897,4202.564,4224.102461,4283.076818,4376.410149
96,0,4365.128098,4319.487074,4260.512716,4267.179383,4208.205025,4201.025538,4218.461435,4198.974256,4216.410153,4219.487076,4201.025538,4234.871691,4287.179382,4389.743482
97,0,4365.640919,4324.102458,4263.589639,4266.153742,4208.205025,4201.538359,4220.512717,4201.538359,4215.897333,4206.666564,4186.666564,4236.922973,4280.512716,4391.281944
98,0,4366.153739,4331.281945,4261.025537,4247.692204,4213.33323,4198.974256,4215.384512,4202.564,4218.974256,4209.230666,4188.717846,4237.435794,4281.538357,4388.717841
99,0,4374.358867,4345.640919,4268.205024,4253.333229,4222.051179,4202.051179,4218.974256,4208.205025,4225.128102,4223.07682,4209.743487,4239.999896,4304.102459,4396.922969
100,0,4360.512714,4330.769125,4266.666562,4258.461434,4217.948615,4204.615282,4228.717845,4208.205025,4225.640922,4224.615281,4210.769128,4239.487076,4313.333228,4389.230662
101,0,4334.871689,4303.076818,4252.307588,4241.538358,4215.384512,4205.640923,4229.743486,4206.153743,4225.640922,4223.07682,4196.922974,4233.84605,4305.64092,4366.153739
102,0,4324.615279,4293.333228,4246.666563,4232.307589,4219.487076,4204.615282,4217.948615,4205.640923,4227.179384,4229.230666,4204.615282,4229.743486,4306.153741,4353.846047
103,0,4322.563997,4277.948613,4253.84605,4234.358871,4214.871692,4202.051179,4213.33323,4206.153743,4230.769127,4235.897332,4217.948615,4231.281948,4315.38451,4352.307586
104,0,4314.358869,4256.410152,4252.820409,4232.307589,4209.743487,4206.666564,4219.999897,4208.205025,4232.307589,4240.512717,4211.281948,4232.307589,4319.487074,4345.128099
105,0,4302.563997,4252.820409,4244.615281,4221.538358,4216.410153,4212.82041,4221.538358,4210.256307,4228.717845,4248.205024,4208.717846,4228.717845,4318.974253,4332.820407
106,0,4295.38451,4255.897332,4242.051178,4214.358871,4227.179384,4212.307589,4215.897333,4208.205025,4227.179384,4256.410152,4219.999897,4230.256307,4319.487074,4322.563997
107,0,4289.230664,4252.307588,4243.58964,4216.410153,4228.717845,4212.307589,4214.871692,4208.717846,4226.153743,4255.897332,4216.410153,4230.256307,4311.281946,4310.256305
108,0,4278.461434,4246.666563,4239.487076,4215.897333,4221.538358,4214.871692,4217.948615,4209.230666,4223.07682,4249.743486,4200.512718,4219.999897,4293.333228,4293.333228
109,0,4266.666562,4244.10246,4235.897332,4208.717846,4220.512717,4214.871692,4221.538358,4208.717846,4226.666563,4250.256306,4201.538359,4214.358871,4290.769126,4285.640921
110,0,4262.051178,4247.692204,4239.999896,4208.717846,4222.051179,4215.897333,4225.128102,4214.871692,4233.84605,4252.820409,4210.769128,4217.435794,4298.974254,4282.051177
111,0,4261.538357,4252.307588,4245.640922,4215.384512,4215.384512,4215.897333,4228.717845,4223.58964,4231.794768,4248.717845,4205.640923,4218.974256,4292.307587,4274.35887
112,0,4251.794768,4241.538358,4242.563999,4208.205025,4210.769128,4210.769128,4223.07682,4220.512717,4224.102461,4239.999896,4190.256308,4215.897333,4273.846049,4258.974255
113,0,4235.384512,4235.384512,4235.384512,4194.871692,4219.487076,4209.230666,4214.871692,4214.358871,4224.615281,4236.922973,4192.82041,4213.33323,4271.281947,4246.666563
114,0,4232.820409,4249.743486,4241.538358,4198.461436,4232.307589,4215.897333,4222.051179,4221.538358,4229.743486,4244.615281,4207.692205,4219.999897,4278.461434,4245.128101
115,0,4239.487076,4261.538357,4248.205024,4212.82041,4232.307589,4221.025538,4234.358871,4232.820409,4232.307589,4255.897332,4208.205025,4229.230666,4278.974254,4247.179383
116,0,4231.794768,4252.820409,4239.487076,4211.794769,4221.025538,4218.461435,4232.820409,4230.769127,4232.307589,4254.871691,4202.564,4227.179384,4270.256306,4241.538358
117,0,4217.435794,4245.640922,4230.256307,4205.128102,4217.948615,4216.922974,4228.205025,4227.692204,4233.33323,4251.794768,4204.615282,4211.794769,4266.666562,4229.743486
118,0,4215.897333,4245.128101,4230.256307,4207.692205,4217.435794,4223.07682,4230.769127,4234.871691,4234.358871,4256.922973,4203.589641,4205.640923,4270.256306,4217.435794
119,0,4215.897333,4243.076819,4226.153743,4208.205025,4216.410153,4229.230666,4232.307589,4242.563999,4232.307589,4261.025537,4201.538359,4208.205025,4272.820408,4208.717846
120,0,4208.205025,4241.538358,4223.58964,4213.33323,4223.07682,4229.230666,4231.281948,4242.563999,4232.820409,4258.461434,4206.153743,4206.666564,4269.743485,4203.589641
121,0,4204.615282,4241.538358,4228.205025,4213.33323,4228.717845,4229.743486,4233.33323,4242.051178,4234.871691,4255.897332,4204.102461,4210.256307,4265.640921,4199.999897
122,0,4203.589641,4238.974255,4227.179384,4193.846051,4226.153743,4230.769127,4234.358871,4243.076819,4230.769127,4251.281947,4200.512718,4214.871692,4261.538357,4196.410154
123,0,4198.974256,4237.948614,4223.07682,4188.717846,4226.153743,4230.256307,4233.84605,4241.025537,4226.153743,4244.10246,4206.666564,4208.717846,4262.051178,4195.384513
124,0,4196.410154,4242.563999,4221.538358,4205.128102,4223.07682,4230.256307,4233.84605,4237.435794,4226.666563,4240.512717,4202.051179,4202.051179,4260.512716,4190.769128
125,0,4194.358872,4241.538358,4219.999897,4210.256307,4209.743487,4227.692204,4230.769127,4234.358871,4227.692204,4239.487076,4189.230667,4202.564,4249.230665,4181.538359
126,0,4187.179385,4231.794768,4214.871692,4204.102461,4211.281948,4226.153743,4229.743486,4237.435794,4226.666563,4241.025537,4189.743487,4197.435795,4243.58964,4172.820411
127,0,4182.564,4228.205025,4214.871692,4204.615282,4228.205025,4230.256307,4231.281948,4243.076819,4229.743486,4244.10246,4197.435795,4191.794769,4253.333229,4171.79477
128,0,4187.179385,4234.358871,4215.897333,4198.974256,4231.794768,4231.794768,4230.256307,4239.999896,4227.692204,4244.615281,4196.410154,4195.897333,4258.974255,4177.435795
0,0,4196.410154,4239.487076,4217.435794,4196.410154,4227.692204,4230.256307,4232.307589,4233.33323,4224.102461,4242.563999,4194.871692,4197.948615,4253.333229,4181.025539
1,0,4198.974256,4237.948614,4218.974256,4208.205025,4230.256307,4233.84605,4237.435794,4234.871691,4225.128102,4241.538358,4205.128102,4200.512718,4261.538357,4181.538359
2,0,4195.384513,4240.512717,4217.435794,4209.230666,4233.33323,4235.384512,4237.948614,4232.307589,4228.205025,4238.974255,4207.692205,4204.615282,4273.333229,4179.487077
3,0,4194.871692,4250.256306,4216.410153,4203.589641,4230.256307,4234.358871,4237.948614,4231.281948,4225.640922,4239.999896,4197.435795,4199.487077,4264.61528,4175.384513
4,0,4192.82041,4246.666563,4217.948615,4204.102461,4222.051179,4233.33323,4237.435794,4238.461435,4220.512717,4239.999896,4189.230667,4188.205026,4250.256306,4168.205026
5,0,4184.102462,4230.769127,4211.281948,4204.615282,4218.461435,4227.179384,4231.281948,4238.461435,4221.538358,4235.897332,4187.692205,4186.666564,4247.692204,4159.999898
6,0,4181.538359,4231.794768,4207.179384,4203.589641,4225.640922,4226.153743,4229.743486,4236.410153,4229.230666,4242.051178,4196.410154,4197.435795,4254.871691,4161.025539
7,0,4185.640923,4241.025537,4213.846051,4206.153743,4234.358871,4228.205025,4235.384512,4247.692204,4235.384512,4255.897332,4208.205025,4202.051179,4263.076819,4169.743488
8,0,4186.153744,4231.794768,4216.922974,4210.769128,4233.33323,4222.051179,4233.33323,4250.769127,4234.358871,4255.384511,4199.999897,4192.82041,4260.512716,4167.179385
9,0,4182.05118,4220.512717,4214.358871,4208.717846,4226.666563,4217.435794,4227.692204,4237.948614,4229.230666,4246.153742,4191.281949,4188.717846,4254.35887,4158.461437
10,0,4183.589641,4225.128102,4219.999897,4202.564,4221.538358,4219.999897,4228.717845,4232.307589,4226.666563,4246.666563,4204.615282,4201.025538,4259.999896,4166.153744
11,0,4191.794769,4237.435794,4223.58964,4209.230666,4217.435794,4219.999897,4230.256307,4236.410153,4227.179384,4253.84605,4215.384512,4213.33323,4274.35887,4183.076821
12,0,4191.281949,4221.538358,4222.563999,4208.205025,4218.974256,4222.051179,4232.307589,4244.615281,4231.794768,4255.384511,4209.743487,4213.846051,4268.717844,4181.025539
13,0,4187.179385,4204.102461,4224.615281,4194.358872,4228.717845,4228.717845,4232.820409,4252.307588,4235.897332,4255.384511,4209.743487,4211.281948,4260.512716,4173.846052
14,0,4199.999897,4235.897332,4228.717845,4209.743487,4233.84605,4229.230666,4231.281948,4253.84605,4237.948614,4255.897332,4212.82041,4213.33323,4267.179383,4192.30759
15,0,4210.769128,4265.128101,4229.230666,4233.84605,4231.794768,4229.230666,4239.487076,4251.794768,4234.358871,4248.205024,4198.461436,4212.307589,4249.230665,4197.435795
16,0,4202.051179,4245.128101,4229.743486,4223.07682,4235.897332,4234.871691,4246.666563,4248.205024,4230.769127,4238.461435,4185.128103,4205.640923,4221.538358,4176.410154
17,0,4188.717846,4224.102461,4226.153743,4212.82041,4233.84605,4230.256307,4236.922973,4233.84605,4227.692204,4230.769127,4184.615282,4197.435795,4224.102461,4161.53836
18,0,4183.589641,4234.358871,4216.922974,4221.538358,4221.025538,4221.025538,4228.205025,4224.102461,4222.051179,4229.230666,4185.640923,4191.281949,4233.33323,4161.53836
19,0,4188.717846,4247.692204,4216.922974,4221.025538,4224.102461,4225.640922,4233.33323,4227.692204,4223.58964,4235.897332,4187.692205,4192.82041,4228.717845,4167.692206
20,0,4197.435795,4252.307588,4223.58964,4219.999897,4244.10246,4234.358871,4230.769127,4230.769127,4230.769127,4245.640922,4196.410154,4202.051179,4238.974255,4175.384513
21,0,4192.30759,4243.58964,4222.051179,4221.538358,4243.076819,4231.281948,4222.051179,4222.563999,4229.230666,4247.179383,4196.410154,4203.07682,4243.076819,4170.256308
22,0,4182.564,4232.820409,4215.897333,4218.461435,4232.307589,4228.205025,4224.615281,4212.82041,4224.102461,4244.10246,4193.333231,4194.358872,4231.794768,4160.512719
23,0,4184.102462,4235.897332,4217.948615,4214.358871,4238.461435,4230.256307,4230.769127,4212.82041,4224.615281,4238.461435,4192.30759,4187.692205,4231.281948,4161.53836
24,0,4187.179385,4241.025537,4219.999897,4212.307589,4244.615281,4228.205025,4230.256307,4223.58964,4224.102461,4239.487076,4187.179385,4185.128103,4233.33323,4161.025539
25,0,4186.153744,4238.974255,4217.435794,4219.999897,4233.33323,4226.666563,4228.717845,4230.769127,4224.102461,4242.051178,4185.640923,4186.153744,4231.794768,4157.948616
26,0,4186.153744,4228.717845,4214.871692,4231.281948,4224.102461,4230.256307,4231.281948,4226.153743,4225.640922,4234.358871,4186.153744,4188.205026,4228.717845,4159.487078
27,0,4187.179385,4222.051179,4216.922974,4222.051179,4237.435794,4231.281948,4234.358871,4223.58964,4223.58964,4231.281948,4183.589641,4189.230667,4228.205025,4161.53836
28,0,4183.589641,4226.666563,4218.461435,4206.666564,4245.128101,4228.205025,4234.871691,4223.58964,4218.974256,4237.435794,4187.692205,4192.82041,4231.281948,4162.05118
29,0,4183.076821,4225.128102,4219.487076,4205.128102,4236.410153,4230.769127,4234.358871,4219.487076,4218.461435,4234.871691,4196.922974,4198.461436,4230.256307,4166.666565
30,0,4189.230667,4220.512717,4223.07682,4212.82041,4234.358871,4230.769127,4232.307589,4220.512717,4222.563999,4232.820409,4195.897333,4201.025538,4227.692204,4175.384513
31,0,4190.769128,4222.563999,4227.179384,4223.07682,4236.922973,4223.07682,4230.256307,4224.615281,4224.615281,4241.538358,4192.82041,4201.025538,4231.281948,4175.384513
32,0,4187.692205,4227.179384,4227.692204,4229.743486,4238.461435,4222.051179,4230.256307,4222.051179,4224.102461,4245.128101,4199.999897,4199.487077,4237.435794,4170.256308
33,0,4191.281949,4229.743486,4229.743486,4223.58964,4244.615281,4229.743486,4228.717845,4218.461435,4225.128102,4245.128101,4211.281948,4200.512718,4240.512717,4175.897334
34,0,4195.897333,4226.153743,4231.281948,4220.512717,4249.230665,4230.256307,4226.153743,4219.999897,4227.179384,4244.10246,4210.256307,4199.999897,4244.10246,4178.461436
35,0,4194.358872,4225.128102,4227.692204,4236.922973,4246.666563,4228.205025,4226.153743,4224.102461,4230.256307,4243.58964,4200.512718,4193.333231,4241.025537,4173.333231
36,0,4197.435795,4233.33323,4226.153743,4236.410153,4248.205024,4232.820409,4230.256307,4231.794768,4232.820409,4250.769127,4198.461436,4191.794769,4237.435794,4176.410154
37,0,4197.948615,4234.871691,4224.102461,4219.999897,4247.692204,4237.948614,4231.281948,4241.025537,4235.897332,4254.871691,4203.589641,4196.922974,4240.512717,4181.025539
38,0,4190.256308,4221.025538,4220.512717,4221.025538,4233.33323,4229.743486,4225.128102,4237.435794,4231.794768,4241.538358,4197.948615,4194.358872,4231.794768,4173.333231
39,0,4177.435795,4211.281948,4214.871692,4224.615281,4226.153743,4217.948615,4217.435794,4221.538358,4218.461435,4224.615281,4182.564,4180.512718,4208.717846,4159.487078
40,0,4167.692206,4204.102461,4207.692205,4208.205025,4236.410153,4218.461435,4216.922974,4209.743487,4209.743487,4220.512717,4173.846052,4170.769129,4198.974256,4152.820411
41,0,4173.846052,4203.589641,4207.179384,4199.999897,4248.717845,4226.666563,4223.58964,4216.410153,4214.358871,4232.820409,4188.205026,4176.410154,4216.922974,4165.128103
42,0,4187.692205,4212.307589,4219.999897,4218.461435,4238.461435,4223.07682,4222.563999,4222.051179,4219.999897,4241.025537,4201.538359,4187.692205,4227.179384,4177.948616
43,0,4190.769128,4215.384512,4226.153743,4234.871691,4227.692204,4218.461435,4216.922974,4215.897333,4217.948615,4236.922973,4195.897333,4187.692205,4217.435794,4174.871693
44,0,4187.179385,4210.769128,4222.563999,4223.07682,4244.615281,4224.102461,4219.487076,4218.974256,4220.512717,4237.948614,4191.794769,4186.666564,4216.922974,4173.846052
45,0,4183.076821,4206.153743,4221.025538,4201.538359,4250.256306,4224.102461,4220.512717,4226.666563,4221.538358,4239.999896,4194.358872,4188.717846,4223.58964,4173.846052
46,0,4182.05118,4196.922974,4222.563999,4201.538359,4230.256307,4215.384512,4215.384512,4220.512717,4216.410153,4227.179384,4185.128103,4179.999898,4212.307589,4163.076821
47,0,4188.717846,4196.410154,4225.640922,4212.82041,4233.84605,4216.922974,4221.025538,4216.922974,4218.974256,4227.692204,4187.179385,4178.461436,4208.717846,4168.205026
48,0,4195.897333,4207.179384,4229.230666,4219.999897,4246.666563,4223.58964,4230.256307,4226.666563,4228.205025,4246.153742,4208.717846,4193.846051,4231.794768,4192.30759
49,0,4192.82041,4209.743487,4229.230666,4219.487076,4233.84605,4218.461435,4228.205025,4229.743486,4229.743486,4248.205024,4208.717846,4193.846051,4237.948614,4196.410154
50,0,4191.281949,4201.538359,4228.205025,4214.358871,4232.307589,4216.410153,4227.179384,4227.179384,4227.179384,4238.974255,4193.846051,4185.128103,4225.640922,4184.102462
51,0,4188.205026,4194.358872,4219.999897,4222.051179,4250.769127,4223.58964,4226.666563,4222.563999,4223.58964,4232.820409,4190.769128,4183.589641,4222.051179,4179.487077
52,0,4178.461436,4191.281949,4206.666564,4222.563999,4250.769127,4222.563999,4219.999897,4211.794769,4216.410153,4225.640922,4189.230667,4176.922975,4214.871692,4176.922975
53,0,4179.999898,4193.333231,4210.256307,4203.589641,4241.025537,4215.897333,4215.897333,4207.179384,4213.846051,4221.538358,4184.102462,4171.79477,4204.102461,4174.871693
54,0,4191.794769,4194.871692,4219.999897,4204.615282,4237.435794,4217.435794,4216.922974,4216.410153,4219.487076,4227.179384,4184.615282,4180.512718,4209.743487,4181.025539
55,0,4196.410154,4192.82041,4217.948615,4218.461435,4229.230666,4221.538358,4216.922974,4221.025538,4217.435794,4228.717845,4185.640923,4187.692205,4211.794769,4186.153744
56,0,4192.30759,4192.30759,4215.384512,4212.307589,4230.769127,4222.051179,4217.435794,4218.974256,4212.307589,4229.230666,4186.153744,4187.179385,4207.692205,4187.692205
57,0,4191.794769,4197.435795,4223.07682,4207.692205,4246.666563,4222.051179,4219.487076,4222.563999,4217.948615,4236.410153,4189.743487,4189.230667,4213.33323,4189.230667
58,0,4192.30759,4204.102461,4220.512717,4212.307589,4251.794768,4220.512717,4220.512717,4226.153743,4223.07682,4239.487076,4191.281949,4186.666564,4214.871692,4185.128103
59,0,4192.82041,4204.615282,4216.922974,4212.307589,4241.025537,4216.410153,4220.512717,4224.102461,4223.07682,4234.871691,4191.281949,4185.640923,4210.256307,4182.05118
60,0,4193.333231,4203.589641,4224.102461,4224.615281,4234.358871,4217.948615,4221.538358,4228.717845,4227.692204,4232.820409,4192.30759,4190.769128,4211.794769,4184.615282
61,0,4183.589641,4205.640923,4223.07682,4223.07682,4236.410153,4223.07682,4225.128102,4231.281948,4228.205025,4227.179384,4184.615282,4184.102462,4199.487077,4173.846052
62,0,4169.230667,4208.717846,4210.769128,4203.07682,4226.153743,4222.563999,4224.102461,4226.666563,4220.512717,4222.051179,4180.512718,4170.256308,4190.256308,4158.974257
63,0,4167.692206,4207.692205,4207.692205,4202.564,4214.358871,4217.435794,4217.948615,4221.025538,4217.435794,4222.051179,4186.153744,4167.179385,4207.692205,4161.025539
64,0,4176.922975,4209.743487,4208.717846,4211.281948,4224.102461,4217.948615,4216.410153,4217.948615,4218.974256,4225.128102,4189.743487,4169.743488,4219.487076,4169.230667
65,0,4183.589641,4220.512717,4206.153743,4208.717846,4238.461435,4225.128102,4219.487076,4214.871692,4217.948615,4230.769127,4187.179385,4171.79477,4209.230666,4171.281949
66,0,4177.435795,4225.640922,4204.102461,4206.666564,4238.974255,4227.179384,4217.435794,4213.33323,4216.922974,4236.922973,4189.230667,4169.230667,4203.07682,4167.179385
67,0,4170.256308,4216.410153,4200.512718,4204.102461,4236.410153,4219.487076,4209.743487,4210.769128,4217.435794,4232.820409,4193.846051,4163.589642,4203.07682,4157.435796
68,0,4171.79477,4206.666564,4196.922974,4202.564,4231.794768,4212.307589,4204.102461,4207.692205,4213.846051,4223.58964,4190.256308,4159.999898,4199.487077,4151.28195
69,0,4181.538359,4212.307589,4203.07682,4211.281948,4222.563999,4213.33323,4204.615282,4210.769128,4214.358871,4227.179384,4192.82041,4166.153744,4201.538359,4161.025539
70,0,4191.281949,4224.102461,4214.871692,4213.33323,4222.563999,4222.051179,4211.794769,4218.461435,4222.051179,4234.358871,4204.615282,4177.948616,4212.307589,4173.333231
71,0,4194.871692,4229.743486,4218.461435,4208.205025,4228.717845,4229.230666,4217.948615,4224.102461,4225.128102,4233.33323,4214.871692,4183.589641,4223.58964,4179.487077
72,0,4193.846051,4223.58964,4213.846051,4205.640923,4231.281948,4228.205025,4219.999897,4226.666563,4221.538358,4231.794768,4218.974256,4181.025539,4227.692204,4181.025539
73,0,4193.333231,4218.974256,4211.281948,4202.051179,4234.871691,4226.153743,4224.615281,4232.307589,4223.58964,4236.410153,4226.153743,4182.05118,4230.769127,4183.589641
74,0,4195.384513,4225.128102,4215.384512,4199.999897,4234.358871,4232.307589,4231.794768,4241.538358,4234.358871,4244.615281,4233.33323,4188.717846,4238.461435,4186.666564
75,0,4190.256308,4228.717845,4212.307589,4206.153743,4226.153743,4234.358871,4230.256307,4241.538358,4232.307589,4244.615281,4229.230666,4188.205026,4245.640922,4184.615282
76,0,4185.640923,4226.666563,4208.205025,4209.230666,4225.640922,4230.256307,4225.128102,4231.794768,4223.58964,4233.84605,4219.999897,4182.564,4238.974255,4182.564
77,0,4194.871692,4231.281948,4210.256307,4206.666564,4233.33323,4228.717845,4221.025538,4228.717845,4224.615281,4230.769127,4218.461435,4181.538359,4232.820409,4189.230667
78,0,4212.307589,4241.025537,4212.82041,4214.358871,4234.871691,4228.205025,4219.999897,4234.871691,4230.769127,4239.999896,4225.128102,4185.128103,4245.128101,4202.564
79,0,4227.692204,4253.84605,4217.435794,4235.384512,4229.743486,4229.743486,4222.563999,4243.076819,4235.897332,4254.35887,4237.435794,4191.794769,4268.205024,4221.025538
80,0,4249.743486,4278.974254,4228.205025,4250.256306,4227.692204,4230.256307,4226.153743,4247.692204,4241.538358,4262.051178,4252.820409,4200.512718,4286.153741,4248.717845
81,0,4274.87169,4302.051177,4235.384512,4246.666563,4230.769127,4221.538358,4223.58964,4242.563999,4240.512717,4254.35887,4259.487075,4206.666564,4296.922972,4279.487075
82,0,4290.256305,4304.102459,4238.461435,4239.999896,4232.820409,4214.871692,4220.512717,4228.717845,4233.84605,4237.435794,4256.410152,4209.230666,4303.589638,4302.563997
83,0,4307.692202,4303.589638,4247.179383,4247.179383,4229.230666,4218.461435,4223.07682,4225.128102,4235.384512,4235.384512,4266.153742,4215.384512,4321.538356,4331.794766
84,0,4334.871689,4324.102458,4261.025537,4262.563998,4225.128102,4220.512717,4223.07682,4230.256307,4241.025537,4244.10246,4283.076818,4227.692204,4356.41015,4369.743483
85,0,4350.256304,4346.15374,4264.10246,4269.230665,4223.58964,4217.948615,4218.461435,4227.692204,4240.512717,4238.461435,4278.461434,4234.871691,4359.487073,4386.666559
86,0,4345.640919,4340.512714,4255.384511,4265.640921,4219.999897,4217.435794,4218.461435,4226.153743,4236.922973,4227.179384,4258.461434,4230.256307,4323.589638,4377.948611
87,0,4341.025535,4331.794766,4249.743486,4258.461434,4222.563999,4218.974256,4219.487076,4228.717845,4234.871691,4226.666563,4254.871691,4223.07682,4317.948612,4374.871688
88,0,4345.128099,4336.41015,4248.205024,4253.333229,4231.794768,4218.461435,4216.922974,4228.717845,4232.820409,4230.769127,4261.025537,4217.948615,4340.512714,4386.153739
89,0,4349.230663,4336.922971,4248.717845,4264.61528,4230.769127,4217.435794,4219.999897,4230.256307,4230.769127,4229.743486,4257.435793,4215.384512,4332.820407,4388.205021
90,0,4353.846047,4341.538355,4257.948614,4279.487075,4231.794768,4220.512717,4230.769127,4239.487076,4240.512717,4236.922973,4262.051178,4224.615281,4323.589638,4387.6922
91,0,4350.769124,4345.128099,4262.563998,4265.128101,4233.84605,4223.07682,4231.794768,4236.922973,4248.717845,4241.538358,4275.384511,4232.820409,4338.461432,4384.102457
92,0,4337.435791,4331.794766,4253.84605,4248.205024,4225.640922,4219.487076,4225.640922,4226.666563,4243.076819,4234.871691,4277.948613,4229.743486,4341.025535,4374.871688
93,0,4334.358868,4317.435792,4257.435793,4257.435793,4222.051179,4216.922974,4228.205025,4231.794768,4241.025537,4233.84605,4277.435793,4229.230666,4333.333227,4370.769124
94,0,4337.948612,4315.38451,4262.563998,4262.051178,4230.256307,4218.461435,4229.743486,4241.025537,4247.692204,4242.051178,4284.102459,4236.410153,4337.435791,4371.281944
95,0,4323.076817,4301.538356,4251.281947,4245.128101,4229.743486,4215.897333,4222.051179,4233.84605,4240.512717,4238.461435,4276.922972,4236.410153,4321.025535,4357.948611
96,0,4304.102459,4288.205023,4243.076819,4240.512717,4227.179384,4214.871692,4217.948615,4224.615281,4228.205025,4224.102461,4259.487075,4227.179384,4291.794767,4337.948612
97,0,4303.589638,4292.307587,4249.743486,4245.640922,4230.256307,4217.948615,4222.563999,4226.153743,4230.256307,4223.07682,4257.948614,4225.128102,4291.281946,4330.256304
98,0,4296.922972,4284.61528,4244.615281,4243.58964,4233.33323,4219.487076,4223.07682,4228.717845,4232.307589,4233.33323,4263.589639,4219.999897,4302.051177,4319.999894
99,0,4274.87169,4258.461434,4232.307589,4233.84605,4232.307589,4222.563999,4218.974256,4225.640922,4231.281948,4236.410153,4257.435793,4206.153743,4292.820408,4301.538356
100,0,4265.128101,4249.743486,4229.230666,4229.230666,4226.666563,4229.230666,4218.974256,4228.205025,4230.256307,4242.051178,4253.333229,4199.487077,4285.640921,4291.281946
101,0,4264.10246,4258.974255,4229.743486,4238.974255,4228.717845,4230.256307,4221.538358,4235.384512,4232.307589,4252.820409,4257.948614,4202.051179,4289.230664,4283.076818
102,0,4255.897332,4254.35887,4225.640922,4247.179383,4244.615281,4231.281948,4221.538358,4238.974255,4240.512717,4259.487075,4261.025537,4198.461436,4285.1281,4271.794767
103,0,4248.717845,4243.58964,4226.153743,4238.974255,4244.10246,4233.84605,4221.025538,4235.384512,4243.076819,4259.487075,4259.999896,4196.922974,4275.384511,4265.128101
104,0,4247.179383,4244.615281,4229.743486,4230.769127,4228.717845,4229.230666,4224.102461,4229.743486,4235.384512,4255.384511,4257.948614,4207.692205,4272.307588,4267.692203
105,0,4248.205024,4244.10246,4234.358871,4235.897332,4233.84605,4226.666563,4224.615281,4226.666563,4232.307589,4245.128101,4254.871691,4216.922974,4267.692203,4268.205024
106,0,4250.769127,4241.538358,4241.538358,4242.051178,4245.640922,4229.230666,4218.974256,4227.692204,4234.358871,4239.487076,4255.897332,4218.974256,4262.563998,4267.179383
107,0,4255.384511,4241.025537,4248.205024,4243.58964,4239.487076,4223.58964,4215.384512,4226.666563,4232.307589,4245.128101,4259.487075,4222.051179,4266.153742,4268.717844
108,0,4251.794768,4233.33323,4246.153742,4242.563999,4231.794768,4216.410153,4217.435794,4224.615281,4232.820409,4244.10246,4253.84605,4223.07682,4260.512716,4265.128101
109,0,4235.384512,4221.025538,4237.435794,4237.435794,4229.230666,4216.922974,4218.461435,4223.58964,4230.256307,4234.358871,4242.051178,4216.922974,4244.10246,4249.743486
110,0,4217.948615,4213.33323,4231.794768,4224.615281,4224.102461,4215.384512,4215.897333,4221.538358,4221.025538,4227.179384,4234.871691,4209.230666,4233.84605,4229.743486
111,0,4210.256307,4206.666564,4231.281948,4220.512717,4226.666563,4214.358871,4216.922974,4220.512717,4219.487076,4227.179384,4231.281948,4205.128102,4228.717845,4218.974256
112,0,4207.692205,4198.461436,4232.820409,4227.692204,4235.384512,4218.461435,4221.025538,4216.410153,4221.025538,4228.205025,4224.615281,4204.102461,4221.538358,4213.846051
113,0,4198.974256,4193.846051,4226.666563,4224.102461,4235.384512,4220.512717,4218.974256,4209.230666,4215.384512,4226.153743,4222.563999,4202.051179,4222.563999,4210.256307
114,0,4194.358872,4194.871692,4217.435794,4209.743487,4230.769127,4219.487076,4218.974256,4214.358871,4221.025538,4227.179384,4226.666563,4199.999897,4225.128102,4209.230666
115,0,4194.358872,4195.384513,4218.461435,4210.769128,4233.33323,4217.435794,4224.615281,4230.256307,4230.769127,4234.358871,4227.179384,4201.025538,4219.999897,4207.692205
116,0,4192.30759,4190.769128,4228.717845,4223.58964,4228.205025,4214.358871,4224.102461,4234.871691,4227.179384,4239.999896,4222.563999,4201.025538,4215.897333,4200.512718
117,0,4193.333231,4191.281949,4227.692204,4224.102461,4218.461435,4215.384512,4218.974256,4232.820409,4222.563999,4243.58964,4227.179384,4199.487077,4223.07682,4201.025538
118,0,4192.82041,4193.333231,4218.974256,4216.410153,4224.615281,4217.948615,4218.974256,4233.84605,4227.179384,4245.640922,4232.307589,4199.487077,4226.153743,4203.589641
119,0,4189.230667,4191.281949,4216.922974,4212.307589,4238.461435,4216.922974,4217.435794,4233.33323,4226.153743,4245.640922,4225.640922,4201.025538,4217.435794,4198.461436
120,0,4189.230667,4188.205026,4221.538358,4216.922974,4235.897332,4214.871692,4215.384512,4229.230666,4220.512717,4241.538358,4214.871692,4198.461436,4209.230666,4195.384513
121,0,4188.717846,4183.589641,4220.512717,4229.230666,4228.205025,4213.33323,4216.410153,4218.974256,4216.922974,4234.871691,4210.256307,4188.205026,4202.564,4192.30759
122,0,4186.153744,4181.025539,4214.871692,4225.128102,4234.871691,4212.307589,4213.33323,4208.205025,4216.410153,4226.666563,4207.179384,4184.102462,4193.333231,4185.128103
123,0,4184.102462,4183.589641,4216.410153,4207.692205,4239.487076,4215.384512,4211.794769,4207.692205,4216.922974,4226.666563,4204.615282,4187.179385,4192.30759,4186.666564
124,0,4185.640923,4184.102462,4222.563999,4206.666564,4238.974255,4219.999897,4217.948615,4212.307589,4216.410153,4235.384512,4210.769128,4188.717846,4201.025538,4192.82041
125,0,4183.076821,4174.358872,4216.922974,4211.794769,4231.794768,4214.358871,4219.487076,4211.281948,4216.410153,4236.410153,4208.717846,4186.666564,4200.512718,4181.025539
126,0,4175.897334,4162.564001,4206.666564,4205.128102,4219.999897,4207.692205,4216.410153,4213.33323,4217.948615,4229.743486,4197.435795,4181.025539,4189.230667,4167.692206
127,0,4173.333231,4163.076821,4206.153743,4205.128102,4226.666563,4211.281948,4214.358871,4221.025538,4214.871692,4223.58964,4194.871692,4177.435795,4185.640923,4169.743488
128,0,4179.487077,4166.666565,4210.769128,4208.717846,4238.461435,4216.922974,4215.897333,4224.102461,4216.410153,4225.640922,4202.564,4185.640923,4191.281949,4177.435795
0,0,4177.435795,4149.743488,4210.769128,4196.410154,4233.84605,4215.384512,4217.948615,4221.025538,4220.512717,4223.07682,4199.487077,4190.769128,4184.615282,4174.871693
1,0,4164.615283,4138.461437,4206.153743,4195.384513,4229.743486,4208.717846,4212.82041,4213.33323,4212.307589,4215.384512,4187.692205,4178.461436,4172.820411,4170.256308
2,0,4166.666565,4155.897334,4205.640923,4207.179384,4234.358871,4209.230666,4208.205025,4208.717846,4207.692205,4214.871692,4181.538359,4174.358872,4166.666565,4172.30759
3,0,4177.948616,4168.205026,4206.666564,4201.025538,4231.794768,4215.897333,4214.871692,4212.82041,4212.307589,4220.512717,4183.076821,4185.640923,4166.666565,4176.410154
4,0,4173.333231,4157.948616,4207.179384,4191.794769,4231.281948,4217.435794,4220.512717,4214.871692,4215.384512,4218.974256,4184.102462,4187.692205,4167.692206,4173.846052
5,0,4163.589642,4155.897334,4207.179384,4199.999897,4233.33323,4213.846051,4216.410153,4209.230666,4209.230666,4212.307589,4182.05118,4179.487077,4165.640924,4168.205026
6,0,4168.717847,4169.743488,4214.358871,4203.07682,4224.102461,4214.871692,4217.948615,4210.256307,4209.230666,4213.846051,4183.589641,4183.076821,4167.179385,4169.230667
7,0,4175.897334,4179.999898,4219.487076,4197.435795,4216.922974,4216.922974,4223.07682,4217.948615,4212.82041,4216.922974,4188.717846,4194.358872,4172.820411,4173.333231
8,0,4170.769129,4179.999898,4214.358871,4198.974256,4214.871692,4213.846051,4219.487076,4213.33323,4210.256307,4212.307589,4187.692205,4193.846051,4168.717847,4168.205026
9,0,4166.153744,4180.512718,4212.307589,4200.512718,4214.871692,4211.281948,4216.410153,4211.794769,4208.205025,4208.205025,4185.128103,4185.128103,4159.487078,4158.974257
10,0,4173.333231,4192.30759,4219.487076,4203.589641,4218.461435,4210.769128,4216.410153,4225.128102,4214.358871,4214.871692,4189.743487,4188.717846,4162.564001,4163.076821
11,0,4176.410154,4196.410154,4222.051179,4212.307589,4221.025538,4209.743487,4214.871692,4227.692204,4216.922974,4221.025538,4197.435795,4196.410154,4166.153744,4166.666565
12,0,4165.640924,4185.128103,4214.358871,4209.230666,4216.410153,4209.743487,4211.794769,4213.846051,4206.153743,4210.769128,4194.871692,4189.743487,4158.974257,4155.897334
13,0,4158.461437,4184.615282,4209.743487,4197.435795,4214.358871,4210.769128,4207.692205,4206.153743,4200.512718,4201.538359,4191.794769,4182.05118,4157.435796,4150.769129
14,0,4168.205026,4195.384513,4211.281948,4199.487077,4217.435794,4213.33323,4203.07682,4210.769128,4210.256307,4208.717846,4201.025538,4189.743487,4164.615283,4161.025539
15,0,4174.358872,4195.384513,4212.82041,4213.33323,4214.871692,4214.871692,4205.640923,4209.230666,4210.769128,4214.358871,4202.564,4193.333231,4165.128103,4165.128103
16,0,4166.666565,4189.230667,4211.281948,4215.384512,4211.794769,4215.897333,4212.307589,4205.640923,4199.999897,4206.153743,4196.922974,4184.102462,4164.102462,4158.974257
17,0,4169.743488,4191.794769,4211.794769,4199.999897,4214.358871,4217.435794,4216.410153,4212.307589,4202.051179,4203.07682,4206.666564,4188.717846,4172.820411,4166.153744
18,0,4180.512718,4196.410154,4214.358871,4195.897333,4212.82041,4217.948615,4217.948615,4222.051179,4211.794769,4213.33323,4218.461435,4203.589641,4181.025539,4178.461436
19,0,4176.410154,4192.30759,4214.358871,4204.102461,4209.743487,4214.358871,4216.922974,4219.487076,4210.769128,4216.410153,4209.230666,4197.948615,4171.79477,4171.281949
20,0,4168.717847,4193.333231,4212.307589,4206.666564,4214.358871,4216.410153,4215.897333,4217.435794,4210.256307,4217.435794,4208.717846,4183.589641,4171.281949,4164.102462
21,0,4175.897334,4202.564,4213.846051,4206.666564,4217.948615,4227.692204,4219.487076,4227.179384,4219.487076,4230.769127,4228.205025,4186.666564,4191.281949,4174.871693
22,0,4180.512718,4205.128102,4212.307589,4210.256307,4217.435794,4231.794768,4223.07682,4231.281948,4224.615281,4243.58964,4234.358871,4194.358872,4202.051179,4182.564
23,0,4180.512718,4198.974256,4213.33323,4213.33323,4216.922974,4227.179384,4221.025538,4228.205025,4222.051179,4239.999896,4227.692204,4201.538359,4194.871692,4178.974257
24,0,4184.102462,4195.384513,4217.435794,4210.769128,4214.358871,4223.58964,4217.948615,4226.666563,4217.948615,4229.230666,4228.717845,4208.717846,4193.333231,4181.025539
25,0,4179.487077,4191.281949,4216.922974,4208.205025,4217.435794,4219.999897,4215.384512,4215.897333,4210.256307,4219.487076,4227.692204,4202.051179,4194.358872,4176.410154
26,0,4170.769129,4188.205026,4214.871692,4215.384512,4224.615281,4218.461435,4212.82041,4208.717846,4205.640923,4215.384512,4224.102461,4192.30759,4188.717846,4165.640924
27,0,4172.820411,4192.30759,4216.410153,4219.487076,4223.07682,4219.487076,4215.384512,4215.897333,4209.743487,4220.512717,4224.615281,4192.82041,4188.205026,4166.153744
28,0,4178.974257,4197.435795,4213.846051,4213.846051,4220.512717,4217.948615,4217.948615,4222.563999,4211.281948,4226.666563,4223.58964,4192.30759,4191.281949,4168.205026
29,0,4184.102462,4201.538359,4213.33323,4218.461435,4226.153743,4220.512717,4218.461435,4224.102461,4214.358871,4229.743486,4227.692204,4192.30759,4192.30759,4166.666565
30,0,4184.615282,4204.102461,4216.922974,4227.179384,4232.307589,4228.205025,4222.051179,4227.179384,4221.538358,4237.435794,4239.999896,4200.512718,4199.999897,4175.384513
31,0,4184.615282,4199.487077,4212.307589,4222.051179,4234.358871,4231.281948,4226.666563,4229.743486,4224.102461,4244.615281,4243.58964,4207.179384,4209.743487,4188.717846
32,0,4192.82041,4202.051179,4212.82041,4220.512717,4230.256307,4227.179384,4227.179384,4232.307589,4223.58964,4239.487076,4239.999896,4208.205025,4210.256307,4190.769128
33,0,4199.487077,4210.769128,4221.025538,4228.717845,4227.692204,4222.563999,4224.615281,4231.794768,4224.615281,4226.153743,4241.025537,4206.666564,4205.128102,4189.230667
34,0,4193.846051,4207.692205,4220.512717,4222.563999,4229.743486,4219.487076,4226.666563,4224.615281,4219.487076,4221.025538,4241.538358,4207.179384,4205.640923,4191.281949
35,0,4190.769128,4203.589641,4219.487076,4223.07682,4227.179384,4222.051179,4229.230666,4227.179384,4216.410153,4231.281948,4241.538358,4214.358871,4207.692205,4194.358872
36,0,4190.256308,4204.615282,4219.999897,4237.435794,4217.435794,4223.58964,4228.205025,4230.769127,4218.974256,4234.358871,4234.871691,4211.794769,4199.487077,4191.794769
37,0,4183.076821,4203.589641,4208.717846,4225.640922,4212.82041,4220.512717,4225.640922,4223.58964,4213.846051,4225.128102,4226.153743,4196.922974,4190.769128,4186.666564
38,0,4181.538359,4207.179384,4204.102461,4202.564,4213.846051,4220.512717,4230.256307,4228.205025,4216.922974,4227.692204,4233.84605,4198.461436,4201.025538,4188.205026
39,0,4189.230667,4213.33323,4215.897333,4210.769128,4219.487076,4223.07682,4231.794768,4243.58964,4231.794768,4242.051178,4245.640922,4212.307589,4214.358871,4192.30759
40,0,4190.769128,4208.717846,4219.999897,4220.512717,4223.58964,4219.999897,4224.615281,4237.435794,4228.717845,4237.948614,4236.922973,4209.743487,4208.205025,4191.281949
41,0,4181.538359,4203.07682,4208.717846,4205.640923,4222.563999,4216.410153,4222.563999,4222.563999,4214.358871,4217.435794,4226.666563,4198.974256,4197.435795,4185.128103
42,0,4177.435795,4204.615282,4205.640923,4204.615282,4223.58964,4220.512717,4228.205025,4221.538358,4213.846051,4204.615282,4223.58964,4200.512718,4191.794769,4176.410154
43,0,4185.128103,4208.205025,4214.358871,4223.07682,4227.179384,4229.230666,4230.769127,4227.179384,4217.948615,4208.205025,4222.563999,4208.205025,4195.384513,4178.974257
44,0,4198.974256,4214.871692,4227.692204,4229.230666,4232.820409,4232.820409,4233.84605,4232.307589,4219.487076,4218.461435,4230.769127,4217.435794,4211.794769,4197.948615
45,0,4217.948615,4227.179384,4238.974255,4235.384512,4233.33323,4232.307589,4240.512717,4241.538358,4226.153743,4228.205025,4251.281947,4233.33323,4232.820409,4223.58964
46,0,4231.281948,4229.230666,4243.58964,4234.871691,4221.025538,4232.307589,4241.025537,4246.666563,4234.871691,4232.820409,4261.538357,4245.640922,4245.128101,4243.076819
47,0,4234.358871,4231.281948,4238.461435,4227.692204,4216.922974,4227.179384,4232.307589,4238.461435,4233.33323,4228.205025,4253.84605,4239.487076,4250.769127,4258.461434
48,0,4245.128101,4253.333229,4230.769127,4241.538358,4231.281948,4217.948615,4226.666563,4226.153743,4223.07682,4215.897333,4241.538358,4224.615281,4250.256306,4265.640921
49,0,4256.410152,4266.153742,4225.128102,4247.179383,4231.281948,4215.897333,4226.153743,4224.102461,4215.897333,4206.666564,4235.897332,4219.999897,4242.563999,4269.743485
50,0,4260.512716,4257.948614,4224.102461,4227.692204,4219.999897,4218.974256,4225.128102,4227.179384,4217.435794,4209.743487,4244.10246,4226.666563,4250.769127,4289.230664
51,0,4273.333229,4264.61528,4226.153743,4224.615281,4229.230666,4218.974256,4220.512717,4215.384512,4217.435794,4207.179384,4249.230665,4228.205025,4266.666562,4313.846048
52,0,4294.358869,4294.358869,4226.153743,4246.666563,4237.435794,4214.871692,4217.435794,4198.461436,4211.794769,4193.846051,4243.58964,4221.538358,4266.153742,4327.179381
53,0,4308.717843,4312.820407,4229.230666,4253.84605,4230.256307,4214.358871,4217.948615,4198.461436,4211.281948,4190.769128,4239.999896,4223.58964,4254.35887,4332.307586
54,0,4316.922971,4310.769125,4242.051178,4257.948614,4230.769127,4215.384512,4217.435794,4206.666564,4214.871692,4199.999897,4240.512717,4237.435794,4246.666563,4338.461432
55,0,4328.717843,4311.794766,4255.897332,4271.281947,4229.230666,4215.384512,4219.999897,4209.230666,4224.615281,4206.153743,4251.794768,4249.743486,4259.999896,4353.846047
56,0,4338.974253,4321.025535,4259.487075,4276.922972,4222.051179,4216.922974,4223.58964,4209.743487,4232.820409,4209.743487,4272.307588,4258.974255,4293.333228,4372.820406
57,0,4331.281945,4314.871689,4257.435793,4273.846049,4225.640922,4216.410153,4223.58964,4206.153743,4228.205025,4209.230666,4272.307588,4256.922973,4293.846049,4368.717842
58,0,4310.769125,4299.999895,4253.333229,4273.846049,4233.33323,4217.948615,4223.58964,4202.564,4219.999897,4206.666564,4256.410152,4243.076819,4261.025537,4344.102458
59,0,4303.076818,4293.846049,4247.692204,4280.512716,4240.512717,4224.615281,4227.692204,4204.615282,4221.538358,4204.615282,4254.871691,4235.384512,4254.871691,4327.692202
60,0,4294.358869,4275.384511,4239.487076,4267.179383,4244.615281,4223.58964,4231.281948,4204.615282,4225.128102,4198.974256,4257.435793,4233.33323,4266.153742,4312.820407
61,0,4271.794767,4239.487076,4233.84605,4231.794768,4235.897332,4219.999897,4232.307589,4208.205025,4224.615281,4196.410154,4253.84605,4231.281948,4265.640921,4299.487074
62,0,4263.589639,4228.205025,4236.410153,4223.07682,4228.717845,4228.717845,4234.358871,4226.153743,4229.230666,4209.230666,4255.384511,4234.871691,4262.051178,4297.435792
63,0,4265.640921,4239.999896,4240.512717,4238.461435,4235.384512,4230.256307,4234.358871,4234.358871,4234.871691,4220.512717,4250.769127,4236.922973,4250.256306,4290.256305
64,0,4256.922973,4236.922973,4238.461435,4236.410153,4230.256307,4216.922974,4231.794768,4226.153743,4234.358871,4222.051179,4244.10246,4232.820409,4235.384512,4276.922972
65,0,4251.281947,4221.025538,4237.435794,4226.153743,4216.410153,4215.384512,4231.794768,4224.615281,4234.358871,4228.205025,4247.692204,4235.384512,4237.435794,4269.743485
66,0,4249.743486,4211.794769,4235.384512,4228.205025,4224.615281,4219.999897,4230.769127,4224.615281,4234.358871,4232.307589,4248.205024,4237.948614,4238.974255,4262.563998
67,0,4237.435794,4209.743487,4229.743486,4226.666563,4237.948614,4215.897333,4226.153743,4215.384512,4230.256307,4225.128102,4241.025537,4229.230666,4229.743486,4252.820409
68,0,4222.563999,4203.589641,4224.102461,4218.461435,4232.820409,4215.384512,4219.487076,4209.230666,4224.102461,4216.410153,4234.871691,4218.974256,4221.538358,4245.128101
69,0,4219.487076,4196.410154,4221.538358,4226.153743,4235.384512,4215.384512,4214.871692,4210.769128,4220.512717,4213.33323,4228.717845,4213.846051,4216.410153,4236.922973
70,0,4217.948615,4192.82041,4223.07682,4235.897332,4244.615281,4212.307589,4214.358871,4211.281948,4217.948615,4212.82041,4225.640922,4212.82041,4214.358871,4227.692204
71,0,4209.743487,4192.30759,4221.025538,4223.58964,4242.563999,4223.58964,4222.051179,4211.794769,4215.897333,4213.33323,4226.666563,4215.384512,4218.461435,4223.07682
72,0,4202.564,4190.769128,4213.33323,4208.205025,4241.538358,4232.820409,4229.743486,4210.769128,4218.974256,4218.461435,4226.153743,4214.871692,4218.974256,4220.512717
73,0,4204.102461,4182.564,4211.281948,4211.281948,4242.563999,4224.615281,4231.794768,4211.794769,4223.07682,4226.153743,4227.179384,4212.307589,4218.461435,4221.538358
74,0,4204.615282,4176.410154,4218.974256,4214.358871,4238.461435,4219.999897,4231.281948,4213.846051,4223.58964,4228.205025,4221.025538,4212.82041,4217.948615,4216.922974
75,0,4197.948615,4179.999898,4219.999897,4212.82041,4244.10246,4229.743486,4231.281948,4216.922974,4221.538358,4225.640922,4209.743487,4209.743487,4215.897333,4207.179384
76,0,4198.974256,4183.589641,4217.435794,4222.563999,4250.769127,4231.794768,4229.743486,4219.999897,4225.128102,4225.128102,4208.205025,4209.230666,4210.769128,4206.666564
77,0,4206.153743,4182.05118,4219.487076,4230.256307,4247.692204,4228.717845,4227.692204,4222.051179,4228.205025,4227.179384,4206.666564,4210.769128,4208.205025,4210.256307
78,0,4202.564,4177.435795,4219.487076,4218.461435,4248.205024,4230.256307,4228.205025,4222.051179,4223.07682,4224.102461,4194.871692,4206.666564,4204.615282,4203.589641
79,0,4191.281949,4172.820411,4215.384512,4215.897333,4245.128101,4228.717845,4231.794768,4222.051179,4220.512717,4223.58964,4195.384513,4205.640923,4203.589641,4194.358872
80,0,4184.102462,4166.153744,4215.384512,4222.563999,4232.820409,4225.640922,4233.84605,4225.128102,4221.025538,4224.102461,4198.461436,4206.666564,4200.512718,4190.769128
81,0,4176.410154,4165.640924,4209.743487,4208.205025,4231.281948,4227.179384,4232.307589,4226.666563,4217.435794,4215.384512,4179.487077,4198.974256,4185.128103,4182.564
82,0,4166.666565,4169.230667,4203.589641,4188.717846,4234.358871,4227.179384,4234.871691,4225.128102,4214.358871,4205.640923,4165.128103,4195.384513,4171.79477,4174.358872
83,0,4163.076821,4173.333231,4205.640923,4190.256308,4233.84605,4222.051179,4235.897332,4225.128102,4214.871692,4208.205025,4173.846052,4199.487077,4175.384513,4170.256308
84,0,4161.53836,4176.410154,4207.179384,4194.358872,4232.820409,4218.974256,4232.307589,4226.153743,4213.846051,4210.256307,4175.384513,4198.461436,4177.948616,4167.692206
85,0,4161.53836,4183.589641,4204.615282,4193.846051,4228.717845,4222.563999,4231.281948,4226.666563,4214.358871,4208.205025,4174.871693,4203.589641,4178.461436,4171.79477
86,0,4168.717847,4197.948615,4207.692205,4202.564,4231.281948,4227.179384,4232.307589,4226.153743,4217.948615,4216.410153,4193.333231,4210.769128,4189.743487,4177.948616
87,0,4172.30759,4207.179384,4209.743487,4207.692205,4239.999896,4230.769127,4231.281948,4224.102461,4215.384512,4227.179384,4198.974256,4204.615282,4194.871692,4176.922975
88,0,4166.666565,4204.615282,4204.615282,4206.153743,4245.128101,4232.307589,4230.256307,4224.102461,4211.794769,4224.102461,4186.153744,4194.871692,4191.281949,4173.333231
89,0,4164.615283,4206.666564,4202.564,4205.640923,4247.692204,4231.794768,4228.717845,4226.666563,4212.307589,4218.461435,4185.640923,4194.358872,4192.82041,4170.769129
90,0,4167.692206,4212.307589,4203.589641,4213.846051,4243.58964,4233.84605,4226.666563,4228.717845,4215.384512,4221.025538,4193.333231,4198.974256,4194.871692,4172.30759
91,0,4169.230667,4210.769128,4203.589641,4224.615281,4238.974255,4236.922973,4229.230666,4224.615281,4217.435794,4221.538358,4190.256308,4199.999897,4188.205026,4173.846052
92,0,4166.666565,4207.692205,4199.999897,4219.999897,4247.179383,4236.922973,4237.435794,4225.640922,4215.897333,4221.538358,4185.128103,4194.358872,4186.153744,4169.230667
93,0,4158.974257,4205.128102,4196.922974,4207.692205,4252.307588,4237.948614,4244.615281,4232.820409,4212.307589,4219.487076,4179.999898,4186.666564,4185.640923,4161.53836
94,0,4151.28195,4197.948615,4196.410154,4207.179384,4239.487076,4236.922973,4245.640922,4239.487076,4212.307589,4213.846051,4177.435795,4183.076821,4181.538359,4157.948616
95,0,4157.435796,4194.871692,4197.948615,4208.205025,4229.230666,4233.33323,4244.615281,4243.58964,4217.948615,4215.384512,4184.615282,4188.205026,4182.05118,4158.974257
96,0,4163.076821,4197.435795,4197.435795,4203.07682,4231.794768,4233.84605,4248.717845,4244.615281,4215.384512,4223.58964,4190.256308,4199.487077,4187.692205,4166.666565
97,0,4162.05118,4195.384513,4199.487077,4205.128102,4234.358871,4232.820409,4247.692204,4237.435794,4210.256307,4225.640922,4191.281949,4208.205025,4191.794769,4175.384513
98,0,4165.640924,4195.897333,4201.025538,4211.281948,4231.281948,4227.179384,4237.948614,4228.205025,4208.205025,4226.153743,4195.384513,4208.717846,4194.871692,4177.435795
99,0,4171.281949,4204.102461,4203.07682,4209.230666,4225.128102,4224.102461,4230.256307,4226.153743,4207.692205,4230.256307,4199.999897,4208.205025,4196.410154,4177.435795
100,0,4172.30759,4203.589641,4206.153743,4211.794769,4225.640922,4225.128102,4230.769127,4225.640922,4207.692205,4231.281948,4201.538359,4211.281948,4194.871692,4178.461436
101,0,4167.692206,4192.82041,4205.640923,4215.384512,4225.640922,4224.102461,4233.84605,4225.128102,4206.153743,4226.666563,4197.435795,4213.846051,4190.769128,4176.922975
102,0,4163.076821,4192.30759,4201.025538,4206.153743,4216.410153,4223.07682,4231.794768,4232.820409,4201.538359,4223.58964,4190.256308,4211.281948,4188.717846,4174.358872
103,0,4167.692206,4199.999897,4202.051179,4199.999897,4210.769128,4229.230666,4232.820409,4244.10246,4202.051179,4230.769127,4197.435795,4215.897333,4195.897333,4181.538359
104,0,4169.743488,4199.487077,4202.564,4209.230666,4216.922974,4231.794768,4238.461435,4246.666563,4204.102461,4234.358871,4210.256307,4225.640922,4202.564,4187.692205
105,0,4159.999898,4192.82041,4197.435795,4209.230666,4219.487076,4224.615281,4240.512717,4239.999896,4200.512718,4229.743486,4204.615282,4222.563999,4194.871692,4182.564
106,0,4162.05118,4189.743487,4200.512718,4202.564,4210.769128,4223.07682,4234.871691,4235.897332,4203.07682,4230.256307,4196.410154,4218.974256,4187.692205,4181.538359
107,0,4177.948616,4192.30759,4212.307589,4211.794769,4213.846051,4228.205025,4231.794768,4239.487076,4209.743487,4234.358871,4204.615282,4227.692204,4194.871692,4192.30759
108,0,4184.102462,4201.538359,4215.897333,4220.512717,4227.692204,4230.769127,4242.563999,4244.10246,4209.230666,4234.871691,4210.256307,4234.358871,4203.589641,4202.051179
109,0,4184.615282,4207.692205,4211.281948,4222.563999,4228.717845,4231.281948,4249.743486,4242.051178,4207.692205,4236.410153,4209.230666,4230.769127,4204.615282,4204.615282
110,0,4188.205026,4202.564,4207.692205,4228.205025,4221.025538,4230.256307,4240.512717,4231.794768,4205.640923,4235.897332,4208.717846,4226.153743,4203.589641,4198.974256
111,0,4184.102462,4202.564,4205.640923,4227.179384,4219.999897,4225.640922,4230.769127,4223.07682,4199.999897,4235.897332,4208.205025,4223.58964,4207.179384,4195.384513
112,0,4176.922975,4204.102461,4201.025538,4217.948615,4219.999897,4225.128102,4233.33323,4226.666563,4200.512718,4239.999896,4206.153743,4220.512717,4207.692205,4196.410154
113,0,4176.922975,4196.410154,4199.487077,4214.358871,4215.384512,4230.256307,4236.410153,4238.974255,4206.153743,4242.051178,4209.230666,4224.102461,4206.666564,4197.948615
114,0,4178.461436,4189.743487,4205.128102,4212.82041,4213.33323,4230.769127,4236.410153,4241.538358,4206.153743,4239.487076,4210.769128,4229.743486,4206.153743,4196.410154
115,0,4179.487077,4196.410154,4208.717846,4214.871692,4213.33323,4230.256307,4240.512717,4238.461435,4204.615282,4236.922973,4211.794769,4230.256307,4205.128102,4198.974256
116,0,4177.948616,4197.435795,4210.256307,4222.563999,4213.846051,4229.230666,4244.615281,4241.538358,4211.794769,4230.769127,4212.307589,4234.871691,4196.410154,4202.051179
117,0,4170.769129,4190.256308,4213.33323,4221.025538,4212.82041,4224.615281,4243.076819,4240.512717,4213.846051,4226.153743,4207.179384,4241.025537,4186.666564,4201.025538
118,0,4166.153744,4188.717846,4216.922974,4212.307589,4209.743487,4219.999897,4237.948614,4230.769127,4206.666564,4225.128102,4202.564,4241.538358,4187.179385,4198.974256
119,0,4161.025539,4184.615282,4211.794769,4215.384512,4211.794769,4217.948615,4233.33323,4225.128102,4206.666564,4225.640922,4205.640923,4239.487076,4188.205026,4197.435795
120,0,4153.846052,4184.102462,4205.128102,4217.435794,4217.435794,4214.358871,4231.281948,4226.153743,4216.922974,4224.615281,4212.307589,4241.025537,4188.205026,4197.435795
121,0,4149.743488,4187.692205,4205.640923,4209.230666,4211.794769,4213.33323,4232.820409,4229.230666,4222.051179,4224.102461,4214.871692,4244.615281,4187.692205,4195.384513
122,0,4148.717847,4183.076821,4211.794769,4207.692205,4202.051179,4217.435794,4237.948614,4234.871691,4227.692204,4230.769127,4217.435794,4254.35887,4187.692205,4194.358872
123,0,4147.692206,4175.897334,4215.897333,4212.307589,4203.589641,4218.974256,4241.538358,4237.435794,4238.974255,4232.820409,4221.538358,4264.61528,4188.205026,4201.025538
124,0,4152.307591,4178.974257,4214.871692,4214.358871,4214.871692,4219.487076,4243.58964,4237.435794,4244.615281,4233.33323,4226.153743,4269.230665,4194.358872,4210.256307
125,0,4155.897334,4178.461436,4216.410153,4215.384512,4217.435794,4224.102461,4245.128101,4241.025537,4244.615281,4237.435794,4225.128102,4272.307588,4195.384513,4212.307589
126,0,4150.769129,4166.666565,4216.922974,4214.358871,4209.230666,4224.102461,4246.153742,4244.615281,4247.179383,4237.435794,4217.948615,4271.794767,4182.564,4206.153743
127,0,4147.692206,4153.846052,4215.384512,4209.230666,4202.564,4215.897333,4245.640922,4238.461435,4245.640922,4229.230666,4218.461435,4273.333229,4178.974257,4202.564
128,0,4147.179386,4146.153745,4211.794769,4206.666564,4199.999897,4208.717846,4239.487076,4225.128102,4237.435794,4216.410153,4215.897333,4274.87169,4176.922975,4203.07682
0,0,4146.666565,4150.256309,4212.82041,4206.666564,4199.487077,4209.230666,4233.84605,4220.512717,4230.256307,4206.153743,4203.07682,4269.230665,4161.025539,4198.461436
1,0,4153.333232,4160.512719,4215.897333,4209.230666,4202.564,4214.871692,4234.358871,4222.563999,4230.256307,4205.128102,4198.461436,4261.538357,4159.999898,4196.410154
2,0,4155.384514,4155.897334,4210.256307,4206.666564,4208.205025,4215.384512,4233.84605,4214.358871,4230.256307,4201.538359,4192.82041,4253.333229,4154.358873,4187.179385
3,0,4150.769129,4144.615283,4202.564,4202.564,4213.33323,4212.307589,4230.769127,4211.794769,4227.692204,4191.794769,4183.589641,4245.128101,4142.051181,4178.461436
4,0,4161.53836,4143.589642,4208.205025,4208.205025,4215.897333,4213.33323,4230.256307,4221.538358,4232.307589,4196.410154,4197.435795,4248.717845,4164.102462,4193.846051
5,0,4180.512718,4154.358873,4216.410153,4213.846051,4218.974256,4218.974256,4231.281948,4224.102461,4238.974255,4212.307589,4220.512717,4259.999896,4197.948615,4217.435794
6,0,4185.640923,4160.512719,4215.384512,4212.307589,4219.487076,4219.999897,4235.897332,4222.051179,4237.435794,4212.307589,4217.435794,4259.999896,4193.333231,4216.410153
7,0,4184.615282,4156.410155,4214.871692,4216.410153,4219.999897,4219.487076,4241.538358,4229.230666,4236.410153,4206.153743,4207.692205,4254.35887,4182.05118,4208.717846
8,0,4189.230667,4148.205027,4218.461435,4216.410153,4217.435794,4217.948615,4237.948614,4228.205025,4238.461435,4206.666564,4202.564,4253.84605,4182.05118,4206.153743
9,0,4192.82041,4147.692206,4215.897333,4210.769128,4214.358871,4216.410153,4230.769127,4217.948615,4233.33323,4207.179384,4194.871692,4246.153742,4177.948616,4198.974256
10,0,4200.512718,4155.384514,4214.358871,4213.33323,4226.153743,4217.435794,4233.33323,4218.461435,4230.769127,4208.717846,4197.435795,4237.435794,4184.102462,4199.999897
11,0,4208.717846,4159.999898,4220.512717,4216.410153,4234.358871,4217.948615,4235.897332,4225.640922,4237.435794,4210.769128,4206.666564,4238.974255,4192.82041,4208.205025
12,0,4208.205025,4158.461437,4222.051179,4206.153743,4225.640922,4214.358871,4232.307589,4223.58964,4240.512717,4208.717846,4206.153743,4243.076819,4187.179385,4208.717846
13,0,4201.538359,4152.307591,4211.794769,4194.871692,4218.461435,4208.717846,4229.230666,4212.82041,4234.358871,4201.025538,4193.846051,4231.794768,4181.538359,4198.461436
14,0,4196.410154,4148.717847,4205.640923,4198.461436,4221.025538,4207.179384,4229.230666,4207.692205,4228.205025,4192.82041,4184.615282,4214.358871,4176.410154,4187.179385
15,0,4198.461436,4152.820411,4211.794769,4205.128102,4226.666563,4211.794769,4231.794768,4207.179384,4228.717845,4188.717846,4187.179385,4213.846051,4178.461436,4189.743487
16,0,4204.102461,4163.076821,4216.922974,4197.948615,4228.717845,4213.33323,4230.769127,4207.179384,4232.820409,4196.922974,4195.384513,4225.128102,4193.333231,4202.564
17,0,4203.589641,4160.512719,4212.307589,4184.615282,4215.897333,4203.589641,4222.051179,4207.179384,4232.820409,4202.051179,4196.410154,4226.153743,4200.512718,4201.538359
18,0,4193.333231,4148.717847,4206.153743,4182.564,4205.640923,4196.922974,4216.922974,4208.205025,4230.769127,4196.922974,4193.846051,4215.384512,4193.333231,4189.743487
19,0,4183.589641,4149.743488,4205.640923,4192.82041,4218.461435,4206.153743,4217.948615,4207.179384,4232.307589,4193.846051,4190.256308,4209.230666,4190.256308,4181.025539
20,0,4182.05118,4157.948616,4207.179384,4196.922974,4227.692204,4215.384512,4215.384512,4205.640923,4232.307589,4198.461436,4188.205026,4208.205025,4195.384513,4178.974257
21,0,4186.666564,4158.974257,4207.692205,4189.743487,4218.974256,4216.410153,4215.384512,4208.205025,4233.84605,4202.051179,4189.743487,4206.666564,4195.384513,4177.435795
22,0,4189.743487,4156.922975,4207.179384,4191.794769,4217.435794,4217.435794,4223.07682,4210.256307,4238.974255,4202.564,4187.179385,4207.179384,4193.333231,4176.922975
23,0,4187.692205,4151.79477,4209.230666,4198.974256,4220.512717,4218.461435,4221.538358,4203.589641,4239.487076,4198.461436,4180.512718,4205.128102,4191.794769,4174.358872
24,0,4184.615282,4152.307591,4205.640923,4187.179385,4217.435794,4215.384512,4215.384512,4195.384513,4230.256307,4190.256308,4180.512718,4198.974256,4185.640923,4169.230667
25,0,4195.897333,4167.179385,4208.205025,4180.512718,4216.410153,4214.358871,4218.974256,4194.358872,4224.615281,4191.281949,4178.974257,4198.974256,4183.076821,4174.871693
26,0,4208.717846,4183.589641,4217.948615,4195.897333,4221.025538,4210.769128,4219.487076,4197.948615,4227.179384,4198.461436,4179.487077,4206.153743,4193.333231,4189.743487
27,0,4207.692205,4186.666564,4219.999897,4201.025538,4221.538358,4206.666564,4218.461435,4197.948615,4224.102461,4200.512718,4188.205026,4205.640923,4199.487077,4190.769128
28,0,4200.512718,4191.794769,4216.922974,4195.897333,4217.948615,4212.307589,4227.692204,4201.025538,4221.538358,4202.564,4190.769128,4198.461436,4189.230667,4176.922975
29,0,4204.102461,4205.640923,4223.07682,4199.999897,4219.999897,4218.461435,4233.33323,4211.281948,4228.717845,4207.692205,4194.871692,4202.051179,4191.794769,4181.025539
30,0,4214.358871,4213.33323,4230.256307,4208.717846,4222.563999,4212.82041,4225.128102,4215.384512,4234.358871,4212.307589,4210.256307,4209.230666,4219.487076,4199.999897
31,0,4212.82041,4207.692205,4226.153743,4205.640923,4221.025538,4207.179384,4218.461435,4210.769128,4233.84605,4212.307589,4217.948615,4209.230666,4233.84605,4201.538359
32,0,4206.153743,4206.153743,4219.999897,4199.487077,4218.461435,4212.82041,4217.948615,4210.769128,4232.820409,4210.769128,4210.256307,4201.538359,4225.128102,4193.846051
33,0,4211.794769,4218.461435,4220.512717,4201.538359,4220.512717,4215.384512,4219.487076,4220.512717,4232.307589,4213.846051,4211.281948,4197.435795,4223.58964,4198.461436
34,0,4217.435794,4213.846051,4225.640922,4203.589641,4227.692204,4214.358871,4223.07682,4226.666563,4233.84605,4216.922974,4222.051179,4201.025538,4229.230666,4197.948615
35,0,4216.922974,4209.743487,4226.153743,4205.128102,4229.743486,4216.410153,4222.563999,4221.025538,4234.358871,4214.871692,4227.179384,4195.897333,4227.692204,4191.794769
36,0,4226.153743,4242.563999,4214.871692,4212.82041,4228.205025,4212.82041,4212.307589,4199.999897,4224.102461,4197.435795,4214.358871,4175.897334,4222.051179,4197.435795
37,0,4230.256307,4258.461434,4201.538359,4211.794769,4230.769127,4203.07682,4202.564,4186.666564,4211.794769,4176.922975,4185.640923,4161.025539,4198.461436,4192.30759
38,0,4221.538358,4237.435794,4205.640923,4212.82041,4233.33323,4204.615282,4205.128102,4198.461436,4215.384512,4176.922975,4172.820411,4167.179385,4171.79477,4173.333231
39,0,4221.538358,4233.84605,4214.871692,4217.948615,4230.769127,4214.871692,4213.846051,4212.307589,4224.615281,4193.846051,4189.743487,4176.922975,4182.564,4174.871693
40,0,4225.640922,4241.025537,4210.769128,4202.564,4224.615281,4217.948615,4218.461435,4210.256307,4227.179384,4196.922974,4194.358872,4171.281949,4192.30759,4177.435795
41,0,4212.307589,4226.153743,4202.051179,4193.846051,4219.999897,4214.358871,4217.948615,4211.794769,4223.07682,4184.102462,4182.05118,4156.922975,4176.410154,4161.53836
42,0,4201.538359,4214.871692,4205.640923,4209.743487,4221.538358,4211.794769,4221.025538,4219.999897,4222.563999,4178.461436,4183.589641,4155.897334,4174.358872,4154.358873
43,0,4206.666564,4221.025538,4210.256307,4211.281948,4221.025538,4214.358871,4224.102461,4219.999897,4226.666563,4185.640923,4193.333231,4165.128103,4185.640923,4161.53836
44,0,4209.743487,4224.102461,4208.717846,4203.07682,4215.897333,4216.410153,4221.025538,4209.743487,4225.640922,4189.230667,4190.769128,4169.230667,4179.999898,4162.05118
45,0,4204.102461,4218.974256,4207.179384,4212.82041,4220.512717,4209.743487,4214.871692,4200.512718,4219.999897,4181.538359,4188.205026,4165.640924,4174.358872,4160.512719
46,0,4202.564,4210.769128,4208.205025,4217.435794,4225.640922,4202.051179,4208.717846,4197.948615,4217.948615,4176.922975,4195.384513,4163.076821,4180.512718,4166.153744
47,0,4211.281948,4216.922974,4208.717846,4209.743487,4222.563999,4208.205025,4209.743487,4204.102461,4224.102461,4188.717846,4205.640923,4164.615283,4188.717846,4174.871693
48,0,4222.563999,4229.743486,4208.717846,4210.256307,4226.666563,4216.410153,4213.33323,4211.281948,4229.743486,4200.512718,4213.846051,4163.589642,4199.999897,4182.564
49,0,4224.102461,4228.717845,4207.692205,4213.33323,4232.820409,4213.846051,4208.205025,4207.692205,4228.205025,4196.410154,4210.256307,4153.846052,4201.538359,4183.076821
50,0,4218.974256,4222.563999,4204.102461,4210.256307,4229.230666,4211.281948,4197.948615,4203.589641,4224.615281,4190.769128,4201.025538,4148.205027,4196.410154,4181.538359
51,0,4222.563999,4224.102461,4205.640923,4208.717846,4229.230666,4217.435794,4204.102461,4214.871692,4225.640922,4198.461436,4204.102461,4155.384514,4203.589641,4185.640923
52,0,4231.794768,4231.794768,4212.307589,4223.07682,4237.948614,4221.538358,4214.358871,4226.153743,4232.820409,4210.256307,4214.871692,4164.615283,4215.897333,4191.794769
53,0,4233.33323,4233.84605,4215.384512,4231.794768,4233.84605,4216.922974,4207.692205,4219.487076,4231.794768,4208.717846,4214.358871,4166.666565,4220.512717,4193.846051
54,0,4233.33323,4227.692204,4213.846051,4229.743486,4221.538358,4213.846051,4206.153743,4215.384512,4227.692204,4202.564,4210.769128,4167.179385,4221.025538,4191.794769
55,0,4237.435794,4225.640922,4218.974256,4240.512717,4221.025538,4216.410153,4215.897333,4223.58964,4229.743486,4209.743487,4215.384512,4163.589642,4221.538358,4191.281949
56,0,4230.769127,4232.307589,4217.948615,4238.461435,4231.281948,4217.435794,4216.922974,4227.179384,4231.794768,4219.487076,4224.615281,4156.922975,4223.58964,4191.794769
57,0,4219.999897,4228.205025,4209.743487,4213.846051,4234.358871,4217.435794,4213.33323,4224.615281,4230.769127,4212.307589,4222.563999,4154.871693,4219.999897,4187.692205
58,0,4222.563999,4222.051179,4206.153743,4210.256307,4231.794768,4219.999897,4216.922974,4222.563999,4230.256307,4206.153743,4211.794769,4154.358873,4214.871692,4181.025539
59,0,4221.538358,4225.128102,4206.153743,4221.025538,4229.743486,4219.999897,4217.948615,4221.025538,4228.205025,4207.179384,4207.179384,4145.640924,4215.384512,4172.820411
60,0,4210.256307,4227.179384,4201.025538,4222.563999,4230.256307,4217.948615,4212.307589,4221.538358,4219.487076,4208.205025,4207.179384,4134.871694,4216.922974,4168.717847
61,0,4208.717846,4225.640922,4199.487077,4223.07682,4234.358871,4216.410153,4210.256307,4219.487076,4217.435794,4207.692205,4207.692205,4138.461437,4215.897333,4172.30759
62,0,4213.846051,4226.153743,4199.999897,4217.435794,4234.358871,4216.922974,4205.640923,4214.358871,4219.487076,4205.640923,4210.769128,4143.589642,4223.58964,4179.999898
63,0,4218.461435,4225.640922,4203.07682,4217.435794,4230.256307,4216.410153,4203.07682,4217.435794,4220.512717,4204.615282,4214.358871,4145.128104,4232.820409,4185.128103
64,0,4221.025538,4222.563999,4205.128102,4224.615281,4232.307589,4216.410153,4210.256307,4224.615281,4222.563999,4204.615282,4212.82041,4145.128104,4230.256307,4184.102462
65,0,4219.487076,4224.615281,4202.564,4215.897333,4233.84605,4223.58964,4220.512717,4224.615281,4223.58964,4203.589641,4208.717846,4141.53836,4224.615281,4178.461436
66,0,4218.461435,4224.615281,4203.07682,4212.307589,4230.769127,4230.256307,4222.051179,4225.128102,4223.58964,4202.564,4209.743487,4142.051181,4227.179384,4179.999898
67,0,4222.051179,4221.025538,4207.179384,4222.563999,4232.820409,4225.128102,4217.948615,4223.58964,4226.153743,4203.07682,4209.743487,4144.615283,4228.717845,4184.615282
68,0,4218.974256,4219.487076,4204.102461,4215.897333,4235.897332,4217.948615,4217.948615,4211.794769,4227.179384,4198.974256,4205.128102,4139.487078,4225.128102,4183.589641
69,0,4213.33323,4217.948615,4199.999897,4206.666564,4232.307589,4217.435794,4217.435794,4206.153743,4219.487076,4196.922974,4207.179384,4135.897335,4223.58964,4184.615282
70,0,4218.461435,4218.974256,4203.589641,4214.871692,4229.743486,4217.948615,4215.897333,4210.256307,4216.922974,4203.07682,4214.358871,4143.589642,4231.794768,4188.717846
71,0,4224.102461,4223.07682,4203.07682,4222.563999,4234.871691,4219.487076,4217.435794,4212.307589,4225.640922,4210.769128,4216.922974,4145.640924,4241.538358,4191.794769
72,0,4220.512717,4223.58964,4198.461436,4226.666563,4233.84605,4219.487076,4218.974256,4207.179384,4224.615281,4206.153743,4214.871692,4134.871694,4239.999896,4187.179385
73,0,4215.384512,4222.563999,4202.051179,4229.743486,4219.999897,4215.897333,4216.410153,4204.102461,4214.871692,4196.922974,4218.461435,4135.897335,4234.358871,4186.153744
74,0,4218.974256,4221.538358,4209.230666,4220.512717,4215.897333,4213.846051,4213.846051,4206.666564,4218.974256,4197.948615,4222.563999,4148.717847,4238.974255,4193.333231
75,0,4224.615281,4214.871692,4209.743487,4209.230666,4227.179384,4213.846051,4213.846051,4208.717846,4230.256307,4208.717846,4221.538358,4155.897334,4243.58964,4199.487077
76,0,4217.948615,4199.999897,4207.692205,4208.205025,4231.281948,4212.82041,4214.358871,4209.743487,4227.692204,4205.640923,4211.281948,4154.871693,4224.615281,4187.179385
77,0,4212.82041,4195.384513,4205.128102,4211.281948,4228.205025,4214.871692,4215.897333,4212.307589,4223.07682,4201.025538,4212.307589,4152.820411,4219.487076,4181.025539
78,0,4229.230666,4202.051179,4208.717846,4216.410153,4232.307589,4216.410153,4216.922974,4215.897333,4233.33323,4213.33323,4232.820409,4157.948616,4258.461434,4208.717846
79,0,4239.999896,4209.230666,4214.358871,4222.563999,4229.230666,4215.897333,4215.897333,4215.384512,4238.974255,4221.538358,4244.10246,4162.05118,4284.61528,4231.281948
80,0,4235.384512,4210.769128,4213.846051,4216.410153,4220.512717,4215.384512,4215.897333,4211.281948,4235.384512,4211.281948,4238.974255,4162.564001,4266.153742,4222.563999
81,0,4234.871691,4206.153743,4212.307589,4212.307589,4226.666563,4217.948615,4218.461435,4213.33323,4235.897332,4207.692205,4235.897332,4164.615283,4253.84605,4215.384512
82,0,4238.974255,4203.07682,4216.410153,4220.512717,4232.820409,4220.512717,4219.999897,4219.487076,4239.999896,4211.794769,4230.256307,4165.128103,4257.948614,4219.999897
83,0,4235.897332,4202.564,4216.922974,4218.461435,4226.153743,4219.487076,4216.922974,4220.512717,4237.435794,4207.692205,4226.666563,4163.589642,4255.384511,4217.948615
84,0,4235.384512,4203.589641,4212.82041,4203.07682,4226.666563,4216.410153,4214.358871,4221.025538,4237.435794,4212.82041,4234.358871,4163.076821,4256.410152,4216.410153
85,0,4233.84605,4202.051179,4210.769128,4201.538359,4227.692204,4212.82041,4210.256307,4226.666563,4241.538358,4226.153743,4235.384512,4158.974257,4258.974255,4215.897333
86,0,4223.07682,4199.999897,4205.640923,4207.179384,4219.487076,4211.794769,4204.615282,4225.128102,4238.461435,4222.563999,4228.205025,4148.205027,4252.307588,4207.179384
87,0,4212.82041,4193.846051,4197.435795,4202.051179,4218.974256,4210.769128,4199.999897,4213.33323,4227.179384,4205.640923,4220.512717,4140.512719,4245.640922,4197.435795
88,0,4212.82041,4190.256308,4194.871692,4195.897333,4223.07682,4206.666564,4198.461436,4208.717846,4218.974256,4198.461436,4213.846051,4144.102463,4242.051178,4193.333231
89,0,4220.512717,4195.897333,4203.589641,4199.487077,4214.871692,4201.538359,4203.589641,4211.281948,4220.512717,4203.589641,4216.922974,4154.358873,4243.58964,4202.051179
90,0,4229.743486,4197.948615,4214.358871,4217.948615,4211.794769,4203.589641,4210.769128,4216.922974,4226.666563,4212.307589,4230.256307,4167.179385,4253.333229,4219.487076
91,0,4232.820409,4198.974256,4216.410153,4221.025538,4223.07682,4209.230666,4213.33323,4220.512717,4229.743486,4213.846051,4238.461435,4169.230667,4256.922973,4224.615281
92,0,4231.281948,4209.743487,4217.435794,4205.128102,4227.179384,4210.769128,4211.794769,4214.358871,4230.769127,4210.769128,4242.563999,4168.205026,4254.35887,4223.07682
93,0,4228.717845,4212.307589,4219.487076,4202.564,4223.07682,4212.82041,4213.846051,4207.692205,4229.230666,4211.281948,4242.051178,4172.30759,4257.435793,4223.07682
94,0,4221.025538,4196.922974,4210.256307,4205.640923,4224.615281,4215.897333,4215.897333,4212.82041,4229.230666,4211.794769,4231.281948,4169.230667,4255.897332,4217.435794
95,0,4212.307589,4185.640923,4204.102461,4196.922974,4225.128102,4216.410153,4211.281948,4215.897333,4232.307589,4208.717846,4226.153743,4158.974257,4252.307588,4212.307589
96,0,4211.794769,4191.794769,4204.102461,4193.333231,4221.025538,4212.82041,4206.666564,4210.256307,4229.230666,4206.666564,4233.33323,4152.307591,4261.538357,4219.487076
97,0,4218.461435,4195.897333,4202.564,4206.153743,4216.922974,4211.281948,4210.256307,4214.358871,4224.102461,4207.179384,4234.871691,4153.846052,4267.179383,4220.512717
98,0,4219.999897,4188.205026,4201.538359,4207.692205,4217.435794,4214.358871,4215.384512,4220.512717,4226.153743,4207.692205,4224.102461,4152.820411,4256.922973,4209.743487
99,0,4211.794769,4181.538359,4202.564,4190.769128,4217.948615,4214.358871,4213.846051,4214.358871,4223.07682,4199.487077,4213.33323,4148.205027,4247.179383,4207.179384
100,0,4201.538359,4187.692205,4200.512718,4175.384513,4218.461435,4210.256307,4211.794769,4207.692205,4214.871692,4192.30759,4210.256307,4143.589642,4247.179383,4205.128102
101,0,4195.384513,4188.205026,4199.487077,4176.922975,4217.435794,4209.230666,4213.33323,4205.128102,4215.897333,4193.846051,4205.640923,4139.999899,4245.640922,4192.82041
102,0,4198.974256,4188.205026,4201.538359,4192.82041,4216.922974,4209.743487,4210.256307,4201.025538,4216.410153,4191.281949,4206.153743,4141.02554,4246.666563,4196.410154
103,0,4211.794769,4212.82041,4202.051179,4197.435795,4218.974256,4206.666564,4207.179384,4202.564,4213.846051,4184.102462,4215.384512,4150.769129,4257.948614,4221.538358
104,0,4221.025538,4233.33323,4204.615282,4192.82041,4217.435794,4205.128102,4210.256307,4209.743487,4215.384512,4185.128103,4221.538358,4158.974257,4260.512716,4233.33323
105,0,4235.897332,4242.051178,4215.897333,4207.179384,4214.358871,4205.640923,4214.358871,4213.33323,4219.487076,4198.461436,4234.871691,4167.692206,4278.974254,4252.307588
106,0,4267.179383,4276.922972,4223.07682,4232.307589,4215.384512,4202.051179,4209.743487,4208.717846,4219.487076,4201.025538,4252.307588,4178.461436,4311.794766,4295.897331
