title:V                                                                               , recorded:06.07.20 12.58.21, sampling:128, subject:B                                                                               , labels:COUNTER INTERPOLATED AF3 F7 F3 FC5 T7 P7 O1 O2 P8 T8 FC6 F4 F8 AF4,, units:emotiv,,,,,,,,,
118,0,4351.794765,4352.307586,4210.769128,4459.999891,4214.358871,4229.743486,4222.563999,4213.33323,4219.487076,4174.871693,4237.435794,4161.025539,4338.974253,4302.563997
119,0,4355.897329,4346.66656,4221.025538,4455.384506,4202.051179,4235.384512,4230.769127,4221.025538,4227.692204,4191.794769,4256.410152,4180.512718,4350.769124,4312.307587
120,0,4358.461432,4335.384509,4226.153743,4461.538352,4209.743487,4225.128102,4231.281948,4224.102461,4228.717845,4198.974256,4238.974255,4186.153744,4357.948611,4311.794766
121,0,4359.487073,4344.102458,4224.615281,4466.666557,4219.999897,4223.07682,4222.563999,4218.974256,4226.153743,4190.256308,4235.897332,4183.589641,4351.794765,4305.1281
122,0,4356.92297,4349.230663,4221.538358,4454.358865,4212.82041,4231.281948,4217.948615,4216.410153,4227.179384,4191.794769,4255.897332,4183.076821,4354.871688,4306.153741
123,0,4355.897329,4338.461432,4223.07682,4447.692199,4206.666564,4231.281948,4218.974256,4218.461435,4226.153743,4193.333231,4255.897332,4180.512718,4364.102457,4311.281946
124,0,4361.538355,4338.974253,4229.230666,4456.410147,4213.846051,4229.230666,4226.153743,4225.640922,4228.205025,4189.743487,4246.153742,4180.512718,4364.102457,4316.410151
125,0,4364.615278,4341.538355,4228.717845,4457.435788,4221.538358,4231.281948,4232.820409,4232.820409,4234.358871,4195.384513,4256.922973,4186.153744,4365.128098,4318.974253
126,0,4360.512714,4336.922971,4220.512717,4453.846045,4225.128102,4233.84605,4232.820409,4236.922973,4236.922973,4205.640923,4271.794767,4193.846051,4373.846047,4319.999894
127,0,4359.487073,4335.384509,4223.07682,4464.615275,4224.615281,4234.358871,4233.33323,4235.897332,4236.410153,4202.051179,4255.384511,4191.794769,4373.333226,4317.948612
128,0,4357.948611,4330.769125,4223.58964,4466.666557,4219.487076,4228.205025,4230.256307,4227.179384,4231.281948,4191.281949,4240.512717,4182.564,4364.615278,4310.769125
0,0,4352.307586,4324.102458,4218.461435,4452.820404,4220.512717,4225.128102,4229.230666,4223.07682,4229.743486,4191.281949,4253.84605,4185.128103,4361.025534,4306.666561
1,0,4348.205022,4325.128099,4219.999897,4448.205019,4213.846051,4225.640922,4230.769127,4223.07682,4229.230666,4194.358872,4253.84605,4188.717846,4357.948611,4304.615279
2,0,4345.640919,4318.461433,4217.435794,4450.256301,4204.615282,4220.512717,4225.128102,4216.922974,4224.615281,4193.333231,4240.512717,4184.102462,4351.794765,4297.435792
3,0,4352.820406,4313.333228,4214.358871,4446.153737,4217.948615,4221.538358,4219.999897,4217.435794,4226.153743,4202.051179,4251.794768,4189.230667,4359.487073,4302.051177
4,0,4366.66656,4326.15374,4224.102461,4452.307583,4226.153743,4226.153743,4222.051179,4226.666563,4238.974255,4210.769128,4265.640921,4202.564,4377.43579,4321.025535
5,0,4372.820406,4332.307586,4233.84605,4469.23066,4214.871692,4218.974256,4217.948615,4225.128102,4243.076819,4208.205025,4260.512716,4201.538359,4375.384508,4323.589638
6,0,4375.384508,4331.281945,4232.307589,4475.897326,4218.461435,4215.897333,4215.384512,4224.615281,4237.948614,4212.82041,4268.205024,4199.999897,4374.358867,4321.025535
7,0,4377.948611,4332.307586,4231.794768,4458.461429,4224.102461,4222.051179,4218.974256,4225.640922,4236.922973,4214.871692,4275.897331,4205.640923,4392.820405,4325.64092
8,0,4372.307585,4323.076817,4233.33323,4443.076814,4213.33323,4215.897333,4217.948615,4217.435794,4235.897332,4208.205025,4268.717844,4204.615282,4392.820405,4323.589638
9,0,4368.717842,4313.846048,4229.743486,4450.769122,4209.743487,4209.743487,4214.871692,4212.307589,4233.33323,4210.769128,4262.563998,4199.487077,4375.384508,4317.948612
10,0,4373.333226,4315.89733,4227.692204,4455.384506,4213.846051,4214.358871,4216.922974,4222.563999,4235.897332,4223.07682,4271.794767,4200.512718,4391.281944,4326.15374
11,0,4374.871688,4312.820407,4230.256307,4446.153737,4209.743487,4216.410153,4215.897333,4230.256307,4240.512717,4224.102461,4289.230664,4206.153743,4414.358866,4334.358868
12,0,4369.230662,4305.1281,4224.102461,4452.820404,4210.769128,4218.461435,4213.846051,4224.102461,4243.076819,4216.410153,4281.025536,4200.512718,4397.94861,4325.128099
13,0,4358.974252,4297.948613,4214.358871,4452.820404,4217.435794,4220.512717,4214.871692,4217.435794,4236.922973,4209.743487,4251.281947,4186.153744,4373.333226,4306.666561
14,0,4351.794765,4292.307587,4212.307589,4429.743481,4215.384512,4217.948615,4215.384512,4217.435794,4227.179384,4208.717846,4247.692204,4182.05118,4383.076816,4300.512715
15,0,4352.820406,4293.333228,4212.82041,4418.46143,4218.974256,4219.487076,4213.846051,4220.512717,4229.230666,4213.33323,4258.974255,4185.128103,4393.333226,4306.666561
16,0,4352.307586,4294.87169,4212.82041,4430.769122,4227.692204,4228.717845,4215.384512,4226.666563,4236.922973,4211.281948,4259.999896,4185.128103,4374.358867,4305.1281
17,0,4350.256304,4289.743485,4216.922974,4434.871686,4224.615281,4232.307589,4217.435794,4228.205025,4236.922973,4207.692205,4267.179383,4186.666564,4371.281944,4302.051177
18,0,4361.538355,4293.846049,4220.512717,4434.871686,4226.153743,4228.717845,4216.410153,4225.128102,4234.871691,4217.948615,4279.999895,4193.846051,4405.640918,4321.025535
19,0,4370.769124,4294.358869,4222.051179,4440.512712,4223.58964,4224.102461,4213.846051,4223.07682,4236.922973,4225.640922,4271.794767,4196.410154,4412.820405,4329.743484
20,0,4353.333227,4271.794767,4216.410153,4432.820404,4203.589641,4213.33323,4212.82041,4219.487076,4231.794768,4212.307589,4245.128101,4181.025539,4374.871688,4300.512715
21,0,4339.487073,4263.076819,4208.717846,4417.94861,4193.333231,4209.230666,4213.33323,4213.846051,4224.615281,4202.564,4239.487076,4171.281949,4366.66656,4282.051177
22,0,4353.333227,4282.563998,4214.358871,4419.999892,4212.82041,4213.33323,4212.82041,4219.487076,4229.230666,4212.307589,4262.563998,4181.025539,4392.820405,4298.461433
23,0,4367.17938,4288.717844,4225.128102,4429.230661,4225.640922,4216.922974,4214.358871,4235.897332,4239.487076,4226.153743,4277.948613,4191.281949,4402.051174,4309.230664
24,0,4367.692201,4275.384511,4226.153743,4425.128097,4213.846051,4226.153743,4216.410153,4238.974255,4244.10246,4230.769127,4268.205024,4193.333231,4394.358867,4301.538356
25,0,4368.717842,4279.999895,4227.179384,4418.974251,4222.563999,4232.307589,4215.897333,4226.666563,4241.025537,4226.666563,4261.538357,4197.948615,4393.333226,4300.512715
26,0,4368.205021,4285.1281,4228.717845,4419.999892,4238.461435,4220.512717,4215.384512,4218.974256,4237.435794,4221.025538,4257.948614,4195.384513,4397.94861,4305.64092
27,0,4362.563996,4275.384511,4220.512717,4426.666558,4218.461435,4210.256307,4212.82041,4218.461435,4236.922973,4218.974256,4253.84605,4186.153744,4395.897328,4305.1281
28,0,4357.435791,4271.794767,4214.358871,4432.307584,4198.974256,4212.307589,4205.128102,4212.82041,4235.384512,4212.307589,4264.10246,4186.153744,4382.051175,4298.461433
29,0,4354.871688,4269.230665,4212.82041,4415.384507,4221.025538,4213.33323,4200.512718,4211.281948,4232.307589,4210.256307,4257.435793,4187.692205,4374.871688,4289.743485
30,0,4353.846047,4258.974255,4213.33323,4393.333226,4228.205025,4213.33323,4208.205025,4222.051179,4232.307589,4222.051179,4235.897332,4182.564,4377.948611,4288.205023
31,0,4352.820406,4262.563998,4215.384512,4406.666559,4211.281948,4216.922974,4216.922974,4224.615281,4236.410153,4224.102461,4242.563999,4181.025539,4375.897329,4290.256305
32,0,4351.281945,4265.640921,4212.307589,4417.435789,4222.051179,4218.974256,4217.435794,4210.256307,4234.871691,4211.794769,4249.743486,4183.076821,4368.205021,4286.666562
33,0,4357.435791,4255.384511,4208.717846,4397.43579,4227.179384,4219.487076,4217.435794,4210.769128,4229.743486,4214.871692,4243.58964,4183.589641,4377.43579,4288.717844
34,0,4365.128098,4255.897332,4218.461435,4394.358867,4209.743487,4218.461435,4221.025538,4225.128102,4233.33323,4227.179384,4255.384511,4185.640923,4397.94861,4299.999895
35,0,4356.41015,4255.897332,4224.615281,4408.20502,4210.769128,4216.410153,4215.384512,4222.051179,4238.461435,4222.051179,4258.974255,4186.153744,4390.769123,4292.307587
36,0,4346.15374,4244.615281,4216.922974,4400.512713,4227.179384,4215.897333,4201.538359,4206.666564,4234.358871,4211.794769,4240.512717,4181.538359,4367.692201,4275.384511
37,0,4352.307586,4251.794768,4213.846051,4394.358867,4232.307589,4217.435794,4206.153743,4208.205025,4232.820409,4218.974256,4252.307588,4183.589641,4373.846047,4284.61528
38,0,4352.820406,4266.666562,4213.846051,4397.94861,4225.128102,4217.435794,4216.410153,4223.58964,4241.025537,4229.230666,4270.769126,4185.128103,4379.999893,4289.230664
39,0,4341.538355,4259.487075,4208.205025,4381.538354,4215.384512,4212.307589,4206.153743,4226.153743,4242.051178,4225.640922,4255.897332,4175.897334,4363.589637,4271.794767
40,0,4347.692201,4248.717845,4213.33323,4375.897329,4215.384512,4215.384512,4202.564,4222.051179,4235.897332,4221.025538,4252.307588,4176.410154,4368.205021,4272.820408
41,0,4362.563996,4249.230665,4223.07682,4394.358867,4222.563999,4222.051179,4215.384512,4226.666563,4239.487076,4227.692204,4258.461434,4185.128103,4385.128098,4291.794767
42,0,4362.563996,4255.384511,4224.615281,4398.461431,4229.743486,4224.102461,4218.461435,4239.487076,4249.230665,4240.512717,4256.922973,4185.640923,4383.076816,4292.307587
43,0,4358.974252,4255.897332,4223.58964,4389.230662,4237.948614,4223.58964,4212.307589,4240.512717,4251.281947,4252.307588,4262.051178,4186.666564,4379.487072,4284.102459
44,0,4364.615278,4253.333229,4224.615281,4390.769123,4239.487076,4220.512717,4212.82041,4228.205025,4245.640922,4258.461434,4272.820408,4198.461436,4386.153739,4291.281946
45,0,4364.615278,4252.307588,4225.128102,4390.256303,4234.358871,4217.948615,4214.871692,4226.153743,4244.615281,4254.871691,4273.333229,4206.153743,4383.076816,4298.461433
46,0,4352.307586,4247.179383,4216.410153,4376.92297,4219.487076,4216.410153,4206.666564,4226.153743,4243.58964,4242.051178,4256.410152,4193.846051,4368.205021,4289.230664
47,0,4349.230663,4244.615281,4208.205025,4370.769124,4203.07682,4216.922974,4202.564,4221.538358,4236.922973,4233.84605,4250.769127,4180.512718,4357.948611,4279.999895
48,0,4359.487073,4256.922973,4218.461435,4381.025534,4211.794769,4219.487076,4214.358871,4230.256307,4238.974255,4241.538358,4271.281947,4188.717846,4368.717842,4290.769126
49,0,4356.92297,4259.487075,4230.256307,4382.051175,4219.999897,4217.435794,4217.435794,4237.435794,4244.615281,4242.563999,4271.281947,4196.922974,4369.743483,4294.358869
50,0,4345.128099,4256.922973,4222.563999,4365.128098,4212.307589,4210.769128,4202.564,4228.205025,4240.512717,4228.717845,4254.35887,4188.717846,4350.769124,4277.435793
51,0,4347.692201,4270.769126,4219.999897,4356.92297,4226.666563,4212.82041,4202.051179,4225.128102,4237.435794,4230.769127,4269.230665,4188.717846,4350.769124,4271.281947
52,0,4350.256304,4282.051177,4226.153743,4370.769124,4228.205025,4218.461435,4212.82041,4230.769127,4239.487076,4243.58964,4289.230664,4195.384513,4361.538355,4281.025536
53,0,4344.102458,4279.999895,4223.07682,4377.43579,4201.025538,4216.410153,4214.871692,4225.128102,4237.435794,4235.384512,4277.948613,4192.30759,4355.897329,4278.461434
54,0,4339.487073,4285.1281,4215.384512,4357.948611,4212.307589,4214.871692,4212.82041,4223.07682,4234.871691,4225.128102,4270.769126,4184.102462,4347.179381,4265.640921
55,0,4332.820407,4286.666562,4210.256307,4344.615278,4241.025537,4217.948615,4207.692205,4227.692204,4235.897332,4228.717845,4271.794767,4173.846052,4342.051176,4255.897332
56,0,4326.15374,4279.487075,4210.256307,4356.41015,4233.33323,4221.538358,4205.640923,4225.640922,4231.281948,4228.717845,4263.589639,4170.769129,4338.974253,4253.333229
57,0,4329.230663,4277.948613,4213.33323,4357.948611,4216.410153,4223.58964,4212.307589,4226.153743,4231.794768,4225.640922,4268.205024,4181.025539,4343.589637,4257.435793
58,0,4326.666561,4271.794767,4210.256307,4332.820407,4201.025538,4218.461435,4209.230666,4228.717845,4235.897332,4224.615281,4280.512716,4185.128103,4336.41015,4253.84605
59,0,4326.15374,4267.179383,4207.179384,4330.769125,4195.384513,4213.33323,4201.538359,4230.256307,4238.461435,4230.769127,4291.281946,4182.05118,4333.333227,4253.333229
60,0,4333.333227,4267.692203,4210.769128,4346.15374,4215.897333,4216.922974,4210.256307,4232.820409,4239.487076,4238.461435,4295.897331,4185.128103,4351.794765,4267.179383
61,0,4324.615279,4254.35887,4210.256307,4332.307586,4228.205025,4221.025538,4220.512717,4235.384512,4238.974255,4232.820409,4275.897331,4185.640923,4332.307586,4257.948614
62,0,4316.410151,4245.128101,4208.205025,4313.846048,4218.974256,4219.487076,4216.410153,4234.358871,4235.897332,4218.974256,4257.435793,4183.076821,4297.435792,4239.487076
63,0,4340.512714,4255.384511,4214.871692,4325.64092,4204.102461,4216.410153,4214.871692,4237.948614,4240.512717,4228.717845,4282.051177,4193.846051,4335.384509,4272.307588
64,0,4363.076816,4255.384511,4220.512717,4330.256304,4191.794769,4210.256307,4217.948615,4240.512717,4246.666563,4241.025537,4296.922972,4201.538359,4380.512713,4309.230664
65,0,4362.563996,4240.512717,4216.922974,4312.820407,4194.871692,4204.102461,4215.384512,4235.384512,4238.461435,4229.743486,4284.102459,4194.358872,4369.230662,4303.076818
66,0,4372.307585,4242.051178,4221.025538,4318.461433,4202.051179,4208.205025,4212.82041,4235.384512,4235.384512,4225.640922,4298.974254,4197.948615,4367.692201,4310.256305
67,0,4385.128098,4254.35887,4229.230666,4332.820407,4204.615282,4215.897333,4214.871692,4242.563999,4244.10246,4241.538358,4316.922971,4210.769128,4388.717841,4333.846048
68,0,4372.820406,4250.769127,4228.717845,4317.435792,4218.461435,4215.897333,4218.461435,4242.563999,4246.153742,4246.666563,4294.87169,4210.256307,4375.897329,4321.025535
69,0,4362.051175,4243.58964,4221.538358,4304.102459,4217.435794,4214.871692,4219.999897,4239.487076,4242.563999,4238.461435,4282.563998,4199.487077,4364.102457,4301.025536
70,0,4362.051175,4243.076819,4218.461435,4309.230664,4203.589641,4217.435794,4220.512717,4236.922973,4242.563999,4237.435794,4289.743485,4192.30759,4366.66656,4298.461433
71,0,4355.384509,4250.769127,4221.025538,4317.435792,4216.922974,4219.999897,4223.58964,4235.897332,4244.10246,4242.563999,4284.61528,4190.769128,4360.512714,4296.410151
72,0,4355.384509,4257.948614,4229.743486,4326.15374,4225.640922,4219.999897,4229.743486,4241.025537,4248.205024,4245.128101,4286.666562,4201.025538,4365.128098,4301.025536
73,0,4362.051175,4252.820409,4234.358871,4325.64092,4211.281948,4216.922974,4231.281948,4244.615281,4252.820409,4242.563999,4296.410151,4213.846051,4371.281944,4306.666561
74,0,4358.974252,4247.692204,4230.769127,4313.333228,4213.846051,4215.897333,4228.205025,4243.58964,4252.307588,4248.205024,4301.025536,4214.871692,4367.692201,4305.1281
75,0,4351.794765,4249.743486,4226.666563,4314.871689,4220.512717,4216.410153,4222.563999,4239.487076,4246.666563,4253.333229,4301.538356,4207.179384,4370.256303,4303.589638
76,0,4354.871688,4252.820409,4228.205025,4321.538356,4214.871692,4213.846051,4218.461435,4236.410153,4243.076819,4245.640922,4295.38451,4206.153743,4372.820406,4303.589638
77,0,4361.025534,4250.769127,4234.871691,4308.205023,4215.897333,4212.82041,4226.153743,4239.999896,4245.640922,4246.153742,4291.281946,4214.871692,4364.615278,4302.051177
78,0,4355.384509,4243.58964,4232.820409,4295.897331,4213.846051,4215.384512,4233.84605,4242.051178,4245.128101,4251.281947,4287.692203,4213.846051,4351.794765,4295.38451
79,0,4346.15374,4234.358871,4226.666563,4296.922972,4208.717846,4215.897333,4229.230666,4234.871691,4239.999896,4239.999896,4275.384511,4203.07682,4338.461432,4285.1281
80,0,4348.717842,4235.384512,4230.769127,4304.102459,4207.179384,4215.897333,4228.717845,4234.358871,4238.974255,4237.435794,4270.769126,4203.589641,4339.487073,4286.666562
81,0,4353.333227,4239.487076,4235.897332,4303.076818,4188.205026,4209.743487,4232.820409,4236.410153,4239.999896,4245.640922,4272.820408,4206.666564,4343.076817,4284.61528
82,0,4344.102458,4231.794768,4231.794768,4295.38451,4183.076821,4201.538359,4226.666563,4226.153743,4235.897332,4235.384512,4261.538357,4200.512718,4327.179381,4270.256306
83,0,4343.589637,4231.794768,4233.33323,4296.410151,4210.769128,4208.717846,4218.974256,4219.999897,4235.384512,4228.205025,4258.974255,4199.999897,4322.563997,4272.820408
84,0,4352.307586,4242.563999,4237.435794,4302.051177,4227.179384,4215.384512,4221.025538,4229.743486,4240.512717,4244.10246,4264.10246,4205.640923,4333.846048,4283.076818
85,0,4347.692201,4240.512717,4229.743486,4294.87169,4213.846051,4206.666564,4217.948615,4223.58964,4236.410153,4236.410153,4253.333229,4196.922974,4324.102458,4267.692203
86,0,4332.820407,4232.307589,4218.974256,4282.051177,4200.512718,4198.974256,4205.640923,4204.615282,4227.179384,4210.769128,4247.692204,4185.640923,4311.281946,4250.769127
87,0,4330.256304,4228.717845,4222.563999,4277.948613,4205.640923,4202.051179,4207.179384,4208.717846,4228.717845,4216.922974,4253.333229,4192.82041,4313.846048,4255.897332
88,0,4339.999894,4226.153743,4234.358871,4279.999895,4205.640923,4204.102461,4217.435794,4228.205025,4237.948614,4239.999896,4254.35887,4210.769128,4316.922971,4267.179383
89,0,4346.15374,4225.128102,4241.025537,4285.640921,4197.948615,4199.487077,4216.922974,4228.717845,4238.461435,4235.384512,4253.333229,4217.435794,4317.435792,4270.256306
90,0,4347.179381,4228.717845,4239.999896,4286.666562,4204.615282,4198.461436,4212.82041,4219.999897,4228.717845,4218.461435,4262.563998,4215.897333,4316.410151,4271.794767
91,0,4346.66656,4221.538358,4235.384512,4268.717844,4213.33323,4200.512718,4211.281948,4221.538358,4225.640922,4224.615281,4264.61528,4216.410153,4307.692202,4270.769126
92,0,4339.487073,4210.769128,4230.256307,4253.84605,4202.051179,4197.435795,4207.692205,4215.897333,4223.58964,4226.153743,4247.692204,4208.717846,4300.512715,4261.025537
93,0,4333.333227,4217.435794,4234.871691,4267.179383,4194.871692,4196.410154,4209.743487,4209.230666,4222.563999,4216.410153,4243.076819,4202.051179,4305.64092,4255.384511
94,0,4337.948612,4224.615281,4243.58964,4283.589639,4201.025538,4201.025538,4216.922974,4217.435794,4225.640922,4226.153743,4248.717845,4208.205025,4306.666561,4260.512716
95,0,4338.974253,4215.384512,4237.948614,4273.333229,4206.153743,4204.102461,4215.897333,4225.128102,4227.692204,4238.974255,4243.076819,4207.692205,4298.974254,4262.051178
96,0,4334.871689,4208.717846,4231.794768,4258.974255,4215.384512,4206.153743,4214.871692,4231.794768,4231.794768,4236.410153,4245.128101,4204.615282,4298.461433,4256.410152
97,0,4339.487073,4211.794769,4239.487076,4269.743485,4219.487076,4213.846051,4221.025538,4239.999896,4239.999896,4241.025537,4257.435793,4210.769128,4308.717843,4257.948614
98,0,4334.358868,4205.640923,4241.025537,4275.897331,4214.871692,4212.307589,4218.974256,4232.307589,4235.897332,4246.666563,4250.256306,4205.128102,4309.743484,4257.435793
99,0,4323.076817,4204.615282,4233.84605,4258.974255,4227.692204,4206.153743,4213.33323,4221.538358,4228.205025,4244.10246,4243.076819,4197.948615,4306.666561,4255.897332
100,0,4329.230663,4215.897333,4241.025537,4252.307588,4223.58964,4209.230666,4216.410153,4225.128102,4234.358871,4247.179383,4253.84605,4212.307589,4310.256305,4264.61528
101,0,4336.41015,4217.948615,4249.230665,4262.051178,4189.230667,4208.717846,4217.435794,4226.153743,4239.999896,4247.179383,4253.84605,4216.410153,4310.769125,4267.692203
102,0,4329.230663,4208.717846,4244.10246,4261.025537,4186.666564,4207.179384,4217.435794,4222.051179,4232.820409,4238.974255,4243.58964,4206.153743,4306.666561,4258.974255
103,0,4321.538356,4203.589641,4239.999896,4252.820409,4217.948615,4211.281948,4224.102461,4229.743486,4229.230666,4243.076819,4243.076819,4206.666564,4300.512715,4252.307588
104,0,4311.281946,4195.897333,4234.871691,4245.128101,4220.512717,4208.717846,4225.640922,4230.256307,4228.205025,4242.563999,4237.435794,4204.102461,4288.205023,4245.640922
105,0,4306.153741,4189.743487,4229.230666,4244.10246,4208.717846,4200.512718,4222.051179,4226.666563,4227.692204,4235.897332,4232.820409,4200.512718,4288.205023,4242.563999
106,0,4315.89733,4198.974256,4238.974255,4257.435793,4209.743487,4200.512718,4223.07682,4235.897332,4234.358871,4248.205024,4244.10246,4214.871692,4298.461433,4249.230665
107,0,4314.871689,4207.179384,4245.640922,4261.538357,4196.410154,4202.051179,4218.974256,4238.974255,4236.410153,4255.897332,4248.205024,4224.615281,4298.461433,4247.692204
108,0,4302.051177,4197.948615,4236.922973,4242.563999,4194.871692,4196.922974,4210.769128,4226.666563,4231.281948,4243.076819,4229.230666,4215.384512,4285.640921,4236.922973
109,0,4305.64092,4193.333231,4235.897332,4242.563999,4222.051179,4199.999897,4213.33323,4223.07682,4227.179384,4239.487076,4221.538358,4213.846051,4281.538357,4237.948614
110,0,4308.717843,4195.897333,4236.410153,4248.205024,4227.692204,4204.102461,4218.974256,4227.692204,4227.692204,4242.051178,4230.256307,4213.33323,4282.563998,4240.512717
111,0,4291.281946,4190.769128,4222.563999,4223.58964,4214.358871,4202.051179,4214.871692,4221.538358,4222.563999,4232.307589,4218.461435,4199.999897,4271.281947,4225.640922
112,0,4290.256305,4193.846051,4223.58964,4219.999897,4215.897333,4207.179384,4213.846051,4221.025538,4219.999897,4228.205025,4205.640923,4196.922974,4262.563998,4219.999897
113,0,4300.512715,4196.410154,4232.307589,4246.153742,4214.358871,4210.769128,4217.435794,4227.179384,4225.640922,4228.717845,4212.82041,4201.025538,4264.61528,4227.692204
114,0,4288.205023,4177.435795,4223.07682,4233.33323,4200.512718,4206.153743,4216.922974,4228.205025,4223.58964,4220.512717,4214.358871,4197.948615,4263.076819,4223.58964
115,0,4279.999895,4173.846052,4222.563999,4212.82041,4203.589641,4205.128102,4214.871692,4230.256307,4221.538358,4228.717845,4212.307589,4197.948615,4262.563998,4218.974256
116,0,4295.38451,4191.794769,4239.487076,4234.358871,4222.051179,4209.230666,4218.461435,4237.435794,4232.820409,4249.230665,4220.512717,4206.666564,4271.281947,4232.307589
117,0,4300.512715,4193.846051,4239.487076,4239.487076,4226.666563,4210.256307,4222.051179,4238.974255,4238.974255,4253.84605,4223.58964,4207.692205,4271.794767,4234.871691
118,0,4287.179382,4186.666564,4222.051179,4214.871692,4217.948615,4211.281948,4218.974256,4231.794768,4229.230666,4250.256306,4214.871692,4197.948615,4261.538357,4217.948615
119,0,4284.61528,4188.717846,4223.07682,4214.871692,4222.051179,4216.410153,4218.461435,4229.230666,4226.666563,4250.256306,4210.256307,4193.333231,4261.025537,4211.794769
120,0,4290.256305,4185.128103,4230.256307,4227.692204,4221.538358,4216.922974,4221.538358,4237.435794,4235.897332,4253.84605,4214.871692,4199.487077,4265.640921,4221.538358
121,0,4288.717844,4175.897334,4230.769127,4226.666563,4205.128102,4214.871692,4221.025538,4239.487076,4236.922973,4256.922973,4216.410153,4205.128102,4259.999896,4221.538358
122,0,4285.1281,4178.461436,4233.33323,4226.666563,4209.230666,4212.307589,4217.948615,4230.256307,4228.205025,4253.84605,4210.769128,4202.564,4254.871691,4213.33323
123,0,4283.589639,4180.512718,4235.897332,4218.974256,4219.999897,4204.615282,4214.358871,4221.025538,4219.487076,4244.615281,4197.435795,4198.974256,4250.769127,4209.743487
124,0,4276.410152,4170.769129,4232.307589,4206.666564,4215.897333,4198.974256,4208.717846,4221.538358,4218.974256,4244.10246,4192.82041,4198.974256,4243.076819,4209.743487
125,0,4266.666562,4161.025539,4229.743486,4206.666564,4217.948615,4199.999897,4205.640923,4223.07682,4222.563999,4245.640922,4204.615282,4202.051179,4239.999896,4205.128102
126,0,4265.128101,4163.076821,4230.769127,4209.230666,4215.897333,4202.564,4210.256307,4220.512717,4220.512717,4238.461435,4209.743487,4203.07682,4242.563999,4197.948615
127,0,4267.179383,4167.179385,4232.307589,4210.769128,4204.615282,4200.512718,4215.384512,4221.025538,4219.999897,4239.999896,4197.948615,4202.564,4241.538358,4198.461436
128,0,4267.179383,4166.666565,4233.33323,4208.205025,4216.922974,4201.538359,4210.769128,4226.666563,4225.640922,4254.871691,4198.974256,4206.153743,4246.153742,4207.179384
0,0,4266.666562,4163.589642,4235.384512,4198.974256,4227.692204,4203.07682,4203.589641,4227.692204,4228.205025,4261.538357,4214.871692,4209.743487,4253.333229,4205.640923
1,0,4263.076819,4162.564001,4236.922973,4201.538359,4207.692205,4199.999897,4205.128102,4222.563999,4224.102461,4251.794768,4207.692205,4204.102461,4246.153742,4196.922974
2,0,4267.179383,4182.564,4241.025537,4212.307589,4214.871692,4202.564,4214.871692,4227.179384,4226.153743,4247.692204,4198.974256,4202.564,4242.051178,4206.666564
3,0,4270.769126,4194.871692,4242.051178,4202.564,4232.307589,4206.666564,4218.974256,4240.512717,4231.281948,4254.871691,4210.256307,4213.33323,4242.563999,4214.871692
4,0,4257.948614,4181.538359,4235.384512,4187.179385,4219.487076,4203.07682,4214.358871,4242.051178,4227.179384,4256.922973,4214.358871,4215.897333,4239.487076,4199.999897
5,0,4252.820409,4191.281949,4230.256307,4195.897333,4210.769128,4204.102461,4212.307589,4233.33323,4221.538358,4253.333229,4205.128102,4209.743487,4239.487076,4195.897333
6,0,4264.10246,4227.692204,4234.358871,4211.794769,4219.487076,4213.33323,4216.410153,4234.358871,4225.640922,4256.922973,4207.692205,4210.769128,4232.820409,4205.640923
7,0,4257.435793,4230.256307,4233.84605,4210.256307,4224.102461,4214.871692,4218.974256,4241.025537,4226.153743,4253.333229,4209.230666,4210.256307,4209.743487,4188.717846
8,0,4233.33323,4210.256307,4218.974256,4189.743487,4232.307589,4211.794769,4217.948615,4238.974255,4215.384512,4239.999896,4197.435795,4197.435795,4199.999897,4168.205026
9,0,4228.205025,4213.846051,4211.281948,4172.30759,4227.179384,4210.256307,4215.384512,4230.256307,4211.794769,4236.922973,4198.461436,4192.30759,4210.769128,4172.820411
10,0,4236.410153,4223.58964,4218.461435,4181.538359,4196.410154,4205.128102,4213.846051,4226.153743,4219.999897,4243.58964,4210.256307,4201.025538,4210.256307,4179.487077
11,0,4235.897332,4224.102461,4226.153743,4197.435795,4202.051179,4206.666564,4211.794769,4227.179384,4220.512717,4240.512717,4206.666564,4203.07682,4195.897333,4174.871693
12,0,4234.871691,4233.33323,4222.563999,4195.384513,4239.999896,4218.974256,4215.897333,4234.871691,4214.358871,4238.974255,4205.128102,4201.538359,4196.922974,4175.384513
13,0,4236.922973,4236.922973,4215.384512,4185.640923,4242.051178,4223.07682,4221.538358,4239.487076,4217.948615,4245.640922,4210.256307,4199.999897,4204.615282,4176.410154
14,0,4239.487076,4226.153743,4215.384512,4185.640923,4224.102461,4212.307589,4219.487076,4234.358871,4219.999897,4246.153742,4210.256307,4194.358872,4203.589641,4174.871693
15,0,4248.717845,4224.615281,4228.205025,4188.717846,4220.512717,4208.717846,4217.435794,4234.871691,4219.487076,4244.10246,4217.435794,4206.666564,4206.153743,4181.538359
16,0,4251.794768,4228.717845,4234.871691,4187.179385,4213.846051,4214.358871,4219.999897,4242.051178,4222.563999,4243.58964,4226.666563,4221.025538,4209.230666,4186.666564
17,0,4232.820409,4215.897333,4220.512717,4175.384513,4194.871692,4209.230666,4216.410153,4236.410153,4219.487076,4233.84605,4210.769128,4202.564,4192.82041,4172.30759
18,0,4218.974256,4206.153743,4208.717846,4167.179385,4199.999897,4205.128102,4212.82041,4230.769127,4211.794769,4227.692204,4199.487077,4184.102462,4188.205026,4161.025539
19,0,4230.769127,4218.974256,4216.922974,4175.897334,4228.717845,4213.33323,4216.922974,4238.974255,4218.461435,4234.358871,4216.410153,4198.461436,4208.717846,4170.769129
20,0,4237.435794,4223.58964,4226.666563,4181.538359,4235.384512,4214.871692,4217.948615,4244.615281,4224.615281,4241.538358,4223.07682,4211.794769,4209.230666,4178.461436
21,0,4228.205025,4210.256307,4222.563999,4175.897334,4214.871692,4209.230666,4215.384512,4242.563999,4222.563999,4245.640922,4210.256307,4204.615282,4196.922974,4173.333231
22,0,4222.563999,4205.640923,4218.461435,4172.820411,4202.564,4212.82041,4222.051179,4242.563999,4223.07682,4250.256306,4209.230666,4200.512718,4199.999897,4168.717847
23,0,4221.025538,4209.743487,4217.435794,4170.256308,4200.512718,4212.82041,4226.666563,4241.025537,4222.051179,4249.743486,4216.410153,4201.538359,4201.538359,4163.589642
24,0,4216.922974,4203.589641,4217.435794,4167.692206,4204.615282,4207.179384,4223.07682,4235.384512,4218.461435,4240.512717,4216.410153,4199.999897,4196.410154,4158.461437
25,0,4219.999897,4205.128102,4222.563999,4173.333231,4223.07682,4213.846051,4225.640922,4237.948614,4221.538358,4238.974255,4219.487076,4201.025538,4204.102461,4163.589642
26,0,4219.487076,4211.794769,4224.615281,4170.256308,4226.666563,4216.410153,4231.794768,4241.025537,4221.538358,4237.948614,4215.897333,4201.538359,4204.615282,4161.025539
27,0,4206.666564,4201.025538,4217.435794,4166.666565,4208.717846,4206.666564,4225.640922,4231.794768,4211.281948,4228.717845,4204.102461,4192.30759,4186.666564,4144.102463
28,0,4200.512718,4188.717846,4212.82041,4169.743488,4206.153743,4201.538359,4217.435794,4223.07682,4207.692205,4223.58964,4198.461436,4186.153744,4176.922975,4136.922976
29,0,4199.487077,4192.82041,4211.281948,4157.948616,4208.717846,4203.07682,4217.435794,4221.025538,4209.743487,4222.051179,4193.846051,4187.179385,4173.846052,4138.461437
30,0,4192.82041,4194.358872,4208.205025,4144.102463,4207.179384,4204.102461,4218.974256,4221.025538,4206.666564,4214.358871,4188.717846,4192.30759,4166.153744,4134.871694
31,0,4199.999897,4194.871692,4213.846051,4153.333232,4220.512717,4212.307589,4226.153743,4234.871691,4216.410153,4226.153743,4205.128102,4203.589641,4176.922975,4145.128104
32,0,4218.461435,4204.615282,4228.717845,4161.025539,4226.666563,4217.948615,4234.358871,4254.871691,4233.33323,4256.922973,4227.692204,4219.487076,4197.435795,4166.666565
33,0,4221.025538,4212.82041,4233.84605,4154.358873,4214.871692,4215.897333,4234.871691,4257.948614,4230.769127,4260.512716,4230.256307,4226.153743,4203.589641,4171.281949
34,0,4215.384512,4211.794769,4231.281948,4163.076821,4212.307589,4215.897333,4233.84605,4254.871691,4224.615281,4248.717845,4227.692204,4226.153743,4202.564,4168.717847
35,0,4210.256307,4204.102461,4225.640922,4167.692206,4218.974256,4217.435794,4233.84605,4247.692204,4226.666563,4249.230665,4224.102461,4218.461435,4195.384513,4164.615283
36,0,4201.025538,4196.410154,4223.07682,4150.769129,4212.82041,4216.410153,4231.794768,4229.743486,4215.384512,4242.563999,4208.205025,4202.564,4180.512718,4151.79477
37,0,4196.410154,4193.333231,4227.179384,4146.153745,4204.102461,4211.794769,4230.256307,4224.102461,4206.153743,4233.33323,4195.384513,4198.461436,4170.256308,4143.076822
38,0,4196.922974,4191.281949,4227.692204,4153.333232,4215.897333,4207.692205,4230.256307,4232.307589,4216.922974,4235.897332,4199.487077,4206.153743,4167.179385,4148.205027
39,0,4193.846051,4192.82041,4219.999897,4144.615283,4230.769127,4208.205025,4228.717845,4228.717845,4220.512717,4231.794768,4202.564,4204.615282,4163.076821,4146.666565
40,0,4187.179385,4191.794769,4216.922974,4144.102463,4224.102461,4206.153743,4223.58964,4221.538358,4215.897333,4223.58964,4194.358872,4196.922974,4160.512719,4133.846053
41,0,4184.102462,4191.281949,4219.487076,4156.922975,4208.717846,4199.999897,4218.974256,4228.205025,4215.897333,4228.205025,4193.846051,4196.410154,4158.461437,4128.717848
42,0,4192.82041,4203.07682,4225.128102,4153.846052,4221.025538,4207.179384,4227.692204,4238.974255,4215.897333,4240.512717,4206.153743,4207.179384,4164.102462,4143.589642
43,0,4192.82041,4201.538359,4228.717845,4146.666565,4222.563999,4214.358871,4233.84605,4234.358871,4214.871692,4242.051178,4203.589641,4209.743487,4167.692206,4149.230668
44,0,4173.333231,4187.179385,4221.025538,4148.205027,4190.769128,4202.051179,4218.461435,4218.974256,4210.769128,4227.179384,4187.692205,4197.435795,4155.897334,4128.717848
45,0,4163.589642,4192.82041,4213.846051,4140.512719,4196.410154,4195.384513,4210.256307,4217.948615,4204.615282,4213.33323,4184.102462,4191.794769,4147.179386,4118.974258
46,0,4169.230667,4195.897333,4217.948615,4129.230668,4234.358871,4208.205025,4224.102461,4232.820409,4208.717846,4219.999897,4189.743487,4197.948615,4147.179386,4126.666566
47,0,4173.333231,4184.102462,4223.58964,4137.948617,4230.769127,4216.410153,4231.794768,4234.871691,4215.897333,4233.33323,4190.769128,4203.07682,4152.820411,4130.76913
48,0,4174.871693,4194.871692,4220.512717,4146.153745,4213.33323,4211.281948,4227.692204,4227.179384,4213.33323,4235.897332,4194.871692,4199.999897,4161.53836,4134.358873
49,0,4167.179385,4203.589641,4214.358871,4129.230668,4221.538358,4204.615282,4220.512717,4223.58964,4209.230666,4228.717845,4191.281949,4190.256308,4151.28195,4129.743489
50,0,4155.897334,4184.102462,4210.256307,4116.410156,4210.769128,4197.948615,4212.307589,4221.025538,4207.692205,4221.538358,4181.025539,4188.205026,4131.794771,4119.487079
51,0,4167.179385,4184.615282,4220.512717,4130.76913,4195.384513,4199.999897,4213.33323,4223.58964,4211.281948,4224.102461,4185.640923,4201.538359,4136.922976,4127.179386
52,0,4182.05118,4201.538359,4234.358871,4142.564001,4210.256307,4207.692205,4221.538358,4228.205025,4215.384512,4232.307589,4199.487077,4210.769128,4152.307591,4139.999899
53,0,4172.30759,4186.153744,4232.820409,4136.410155,4214.358871,4206.153743,4220.512717,4225.640922,4211.794769,4224.102461,4193.333231,4207.692205,4144.615283,4135.897335
54,0,4162.05118,4172.30759,4223.58964,4131.794771,4210.769128,4203.07682,4215.384512,4227.179384,4209.230666,4212.307589,4175.384513,4203.07682,4132.820412,4129.743489
55,0,4161.53836,4186.666564,4219.487076,4130.76913,4221.025538,4208.717846,4216.922974,4220.512717,4210.256307,4209.743487,4171.79477,4194.871692,4129.230668,4123.589643
56,0,4157.435796,4192.30759,4221.538358,4128.717848,4218.461435,4213.33323,4219.999897,4209.743487,4204.102461,4209.743487,4169.230667,4184.102462,4127.179386,4115.384515
57,0,4152.820411,4177.435795,4219.487076,4123.589643,4214.358871,4212.82041,4220.512717,4250.256306,4201.025538,4214.358871,4164.615283,4184.102462,4129.743489,4116.922976
58,0,4146.666565,4161.025539,4213.846051,4116.410156,4216.922974,4213.846051,4216.410153,4309.743484,4204.102461,4219.999897,4165.128103,4189.743487,4131.794771,4118.974258
59,0,4147.692206,4162.05118,4216.922974,4119.999899,4209.230666,4213.846051,4216.922974,4320.512715,4212.307589,4227.692204,4173.333231,4197.948615,4134.358873,4121.02554
60,0,4161.025539,4179.487077,4226.666563,4127.692207,4205.128102,4215.384512,4230.769127,4317.435792,4223.58964,4237.435794,4183.589641,4207.692205,4143.589642,4129.743489
61,0,4162.564001,4181.538359,4229.743486,4124.102463,4214.871692,4218.974256,4237.948614,4325.128099,4222.563999,4234.871691,4187.179385,4207.692205,4148.717847,4130.76913
62,0,4146.666565,4162.05118,4222.563999,4110.76913,4222.051179,4211.794769,4226.153743,4308.205023,4208.205025,4218.974256,4175.384513,4198.974256,4131.794771,4117.948617
63,0,4145.640924,4161.025539,4219.999897,4112.307592,4225.640922,4203.07682,4221.538358,4295.38451,4207.692205,4224.615281,4170.256308,4198.461436,4126.153745,4117.948617
64,0,4156.922975,4176.922975,4228.205025,4128.717848,4218.461435,4205.640923,4229.743486,4309.743484,4222.563999,4243.58964,4184.615282,4206.666564,4149.743488,4129.743489
65,0,4157.948616,4182.05118,4231.794768,4136.410155,4210.769128,4216.922974,4234.358871,4315.38451,4227.692204,4243.58964,4192.30759,4211.794769,4159.999898,4134.358873
66,0,4156.410155,4177.948616,4226.666563,4123.589643,4223.07682,4229.743486,4235.897332,4314.358869,4227.692204,4239.487076,4186.666564,4216.410153,4147.179386,4135.897335
67,0,4156.922975,4169.743488,4221.025538,4121.538361,4229.230666,4230.256307,4235.897332,4315.38451,4226.666563,4242.051178,4184.615282,4216.922974,4143.076822,4135.897335
68,0,4154.358873,4163.589642,4224.615281,4134.358873,4226.153743,4220.512717,4233.33323,4307.179382,4223.07682,4238.461435,4181.538359,4212.82041,4147.692206,4133.333232
69,0,4153.846052,4168.205026,4226.666563,4128.717848,4235.384512,4218.461435,4232.820409,4295.38451,4219.999897,4232.307589,4175.897334,4210.256307,4141.53836,4133.333232
70,0,4152.820411,4171.79477,4225.128102,4113.846053,4227.692204,4219.999897,4233.33323,4288.205023,4217.948615,4224.615281,4176.922975,4207.692205,4136.410155,4132.307591
71,0,4153.333232,4173.333231,4226.666563,4117.435797,4210.256307,4214.358871,4228.205025,4286.153741,4217.948615,4227.179384,4180.512718,4203.07682,4143.076822,4128.717848
72,0,4157.948616,4175.384513,4229.743486,4120.51272,4223.58964,4213.33323,4226.153743,4290.769126,4222.051179,4245.128101,4177.948616,4203.07682,4148.205027,4130.76913
73,0,4155.897334,4165.640924,4228.205025,4107.692207,4239.999896,4216.410153,4225.640922,4289.230664,4222.051179,4249.230665,4175.384513,4201.025538,4144.102463,4131.794771
74,0,4151.79477,4154.871693,4227.692204,4108.205028,4218.974256,4207.692205,4221.538358,4280.512716,4216.410153,4233.84605,4176.922975,4199.999897,4139.999899,4128.717848
75,0,4157.435796,4166.153744,4231.794768,4119.487079,4205.128102,4198.461436,4216.410153,4279.999895,4216.410153,4232.307589,4180.512718,4208.717846,4145.640924,4134.871694
76,0,4162.564001,4177.948616,4228.205025,4110.76913,4227.692204,4205.128102,4215.384512,4286.153741,4221.025538,4243.076819,4181.538359,4213.33323,4148.717847,4142.051181
77,0,4156.410155,4167.179385,4219.487076,4097.948618,4238.974255,4212.82041,4224.615281,4286.153741,4218.461435,4242.051178,4175.897334,4199.487077,4139.999899,4132.307591
78,0,4144.615283,4154.871693,4212.82041,4098.974259,4228.205025,4210.769128,4229.230666,4273.333229,4209.743487,4224.102461,4158.974257,4182.05118,4124.615284,4114.871694
79,0,4138.461437,4154.871693,4214.358871,4105.128105,4221.538358,4204.615282,4221.025538,4259.487075,4202.051179,4208.205025,4145.640924,4182.564,4113.846053,4110.76913
80,0,4139.487078,4157.435796,4216.922974,4108.205028,4212.82041,4204.615282,4214.871692,4261.538357,4202.564,4211.281948,4148.717847,4191.281949,4111.281951,4119.487079
81,0,4146.153745,4157.435796,4215.897333,4105.640925,4211.281948,4210.256307,4222.051179,4271.281947,4207.179384,4225.128102,4160.512719,4194.358872,4120.51272,4125.128104
82,0,4152.820411,4162.05118,4218.974256,4109.230669,4231.794768,4210.769128,4227.692204,4276.922972,4210.769128,4236.922973,4170.256308,4193.333231,4137.948617,4128.717848
83,0,4154.871693,4161.53836,4225.128102,4118.974258,4229.230666,4203.589641,4221.538358,4275.384511,4213.33323,4232.820409,4169.743488,4193.333231,4138.974258,4134.358873
84,0,4151.79477,4157.948616,4222.051179,4111.281951,4198.461436,4197.435795,4214.871692,4271.794767,4209.230666,4220.512717,4161.025539,4188.205026,4125.128104,4127.692207
85,0,4150.769129,4165.128103,4218.974256,4093.846054,4196.922974,4198.461436,4214.871692,4267.179383,4203.07682,4216.922974,4153.846052,4185.128103,4121.02554,4116.410156
86,0,4154.358873,4178.974257,4224.615281,4102.051182,4221.025538,4203.589641,4216.410153,4267.179383,4204.615282,4224.102461,4158.461437,4193.846051,4135.384514,4124.102463
87,0,4146.666565,4180.512718,4225.640922,4110.25631,4228.205025,4202.564,4210.769128,4264.61528,4206.666564,4226.153743,4159.487078,4193.333231,4131.28195,4125.128104
88,0,4133.846053,4180.512718,4218.461435,4099.487079,4224.102461,4201.025538,4208.205025,4262.563998,4206.153743,4224.102461,4156.410155,4185.640923,4116.922976,4112.307592
89,0,4138.974258,4198.974256,4222.051179,4105.128105,4231.281948,4203.07682,4216.922974,4266.153742,4211.794769,4225.128102,4174.358872,4194.871692,4132.307591,4123.076822
90,0,4152.820411,4213.846051,4226.153743,4115.897335,4227.179384,4205.128102,4221.025538,4264.61528,4214.358871,4219.487076,4184.615282,4204.102461,4141.53836,4144.102463
91,0,4158.974257,4215.384512,4222.051179,4114.871694,4202.051179,4201.025538,4214.871692,4254.35887,4204.615282,4212.82041,4169.743488,4196.922974,4126.153745,4149.230668
92,0,4175.897334,4238.974255,4225.640922,4121.02554,4201.538359,4198.974256,4212.307589,4250.769127,4204.102461,4213.846051,4172.820411,4196.922974,4138.461437,4171.79477
93,0,4214.871692,4284.61528,4240.512717,4137.948617,4223.07682,4208.205025,4219.487076,4259.487075,4216.922974,4220.512717,4207.692205,4214.871692,4183.076821,4223.07682
94,0,4244.10246,4303.589638,4247.692204,4149.743488,4219.999897,4213.33323,4218.974256,4265.128101,4218.461435,4225.128102,4224.615281,4225.640922,4202.564,4259.487075
95,0,4256.922973,4302.563997,4245.128101,4143.076822,4211.281948,4205.640923,4214.871692,4263.076819,4215.384512,4224.615281,4221.025538,4228.717845,4204.102461,4284.102459
96,0,4281.025536,4318.974253,4253.333229,4141.02554,4216.922974,4199.999897,4216.410153,4258.974255,4217.948615,4219.999897,4226.153743,4233.84605,4222.563999,4316.922971
97,0,4306.666561,4343.076817,4264.61528,4155.897334,4215.897333,4201.538359,4218.974256,4254.35887,4216.922974,4212.307589,4230.256307,4237.948614,4231.281948,4339.487073
98,0,4308.205023,4341.025535,4262.563998,4160.512719,4203.589641,4198.974256,4214.358871,4244.10246,4208.205025,4198.974256,4218.461435,4234.358871,4213.846051,4333.846048
99,0,4305.1281,4323.589638,4254.35887,4151.28195,4195.897333,4194.358872,4213.846051,4236.410153,4206.666564,4191.281949,4216.410153,4232.820409,4212.307589,4333.846048
100,0,4318.461433,4324.102458,4258.974255,4151.28195,4207.692205,4197.435795,4222.563999,4238.461435,4211.794769,4198.974256,4237.948614,4245.128101,4238.974255,4352.820406
101,0,4325.64092,4337.948612,4263.589639,4157.948616,4222.563999,4201.025538,4226.666563,4244.10246,4216.410153,4214.358871,4254.35887,4253.333229,4255.897332,4364.615278
102,0,4311.281946,4337.435791,4255.897332,4154.358873,4213.846051,4201.025538,4224.615281,4247.692204,4218.974256,4214.358871,4243.58964,4243.58964,4244.10246,4351.281945
103,0,4294.87169,4321.538356,4254.35887,4153.846052,4206.153743,4201.538359,4227.692204,4249.743486,4214.358871,4207.179384,4230.256307,4231.794768,4225.128102,4328.205022
104,0,4286.153741,4310.769125,4264.61528,4149.743488,4217.948615,4204.615282,4235.897332,4258.974255,4215.897333,4209.743487,4228.205025,4234.871691,4207.692205,4308.717843
105,0,4262.563998,4288.717844,4251.281947,4125.640925,4219.999897,4204.102461,4229.230666,4256.922973,4213.846051,4206.153743,4222.051179,4231.794768,4193.333231,4289.743485
106,0,4229.230666,4256.922973,4224.615281,4106.153746,4211.794769,4199.487077,4216.410153,4244.10246,4206.666564,4198.974256,4212.307589,4218.461435,4189.230667,4266.153742
107,0,4213.846051,4253.333229,4226.666563,4117.948617,4200.512718,4197.948615,4218.461435,4245.640922,4209.743487,4206.666564,4208.205025,4215.897333,4183.589641,4247.692204
108,0,4207.692205,4257.435793,4240.512717,4123.589643,4187.179385,4199.487077,4224.615281,4253.333229,4213.846051,4214.871692,4210.769128,4222.563999,4170.769129,4235.897332
109,0,4189.230667,4234.871691,4233.33323,4096.922977,4193.846051,4198.461436,4223.58964,4245.128101,4204.102461,4209.230666,4207.179384,4218.461435,4160.512719,4218.974256
110,0,4174.358872,4211.794769,4223.58964,4088.205028,4212.82041,4198.461436,4225.128102,4232.820409,4198.974256,4205.640923,4194.871692,4211.281948,4156.410155,4202.051179
111,0,4177.435795,4215.384512,4231.281948,4108.717848,4225.640922,4204.102461,4232.307589,4234.871691,4207.179384,4209.743487,4194.358872,4221.025538,4157.435796,4203.07682
112,0,4175.897334,4214.358871,4235.384512,4109.743489,4222.563999,4207.179384,4232.307589,4240.512717,4210.769128,4210.256307,4201.538359,4227.692204,4154.358873,4201.025538
113,0,4158.974257,4200.512718,4226.153743,4090.769131,4201.025538,4203.07682,4231.281948,4241.538358,4209.743487,4206.666564,4198.461436,4217.435794,4148.205027,4183.076821
122,0,4105.640925,4158.461437,4209.230666,4092.820413,4197.948615,4203.589641,4236.410153,4230.769127,4196.410154,4209.230666,4181.538359,4190.256308,4112.307592,4126.666566
123,0,4100.51272,4157.435796,4211.794769,4079.9999,4227.692204,4210.256307,4237.948614,4245.128101,4201.025538,4211.281948,4179.487077,4194.871692,4110.76913,4124.615284
124,0,4093.846054,4148.717847,4208.205025,4062.051183,4222.051179,4208.717846,4231.794768,4241.538358,4199.999897,4208.205025,4181.538359,4198.461436,4110.25631,4119.487079
125,0,4093.846054,4145.128104,4207.179384,4072.820413,4194.358872,4197.435795,4225.640922,4206.153743,4194.871692,4206.153743,4177.435795,4197.948615,4105.640925,4115.384515
126,0,4098.974259,4147.692206,4216.410153,4075.384516,4189.743487,4195.897333,4228.717845,4188.205026,4198.974256,4213.846051,4173.846052,4199.487077,4104.615284,4114.871694
127,0,4090.25631,4138.974258,4217.948615,4056.410157,4201.025538,4204.102461,4238.974255,4202.051179,4207.179384,4218.974256,4182.564,4204.102461,4115.384515,4111.281951
128,0,4069.23067,4125.640925,4204.102461,4055.384516,4211.794769,4206.666564,4241.025537,4205.640923,4202.564,4211.281948,4179.999898,4197.948615,4116.410156,4098.461438
0,0,4068.717849,4130.256309,4197.948615,4076.922977,4214.358871,4209.743487,4234.358871,4199.999897,4198.461436,4213.846051,4171.281949,4188.205026,4110.76913,4095.384515
1,0,4079.9999,4141.02554,4207.179384,4079.9999,4210.769128,4215.897333,4235.384512,4205.640923,4205.640923,4225.640922,4183.076821,4193.333231,4121.02554,4103.076823
2,0,4075.384516,4139.487078,4208.205025,4061.538362,4217.435794,4218.461435,4240.512717,4210.256307,4208.205025,4228.717845,4188.205026,4197.948615,4128.205027,4101.025541
3,0,4062.564003,4128.717848,4193.846051,4050.769132,4217.948615,4218.461435,4234.871691,4203.07682,4199.999897,4219.999897,4164.102462,4184.615282,4111.281951,4086.666567
4,0,4059.999901,4126.666566,4185.128103,4055.384516,4210.769128,4215.384512,4228.205025,4200.512718,4194.871692,4210.769128,4154.358873,4175.384513,4102.564002,4081.538362
5,0,4069.74349,4134.358873,4196.922974,4059.999901,4221.538358,4215.384512,4233.84605,4207.179384,4204.102461,4217.435794,4175.384513,4187.692205,4118.974258,4095.897336
6,0,4083.589644,4139.487078,4211.794769,4061.538362,4235.897332,4219.999897,4242.051178,4213.846051,4211.281948,4233.33323,4193.333231,4196.922974,4134.871694,4114.358874
7,0,4087.179387,4134.871694,4213.33323,4066.666567,4215.897333,4217.948615,4238.974255,4210.769128,4209.230666,4229.230666,4185.640923,4194.358872,4129.230668,4113.846053
8,0,4087.179387,4143.076822,4210.769128,4082.564003,4200.512718,4212.307589,4233.84605,4211.794769,4207.692205,4223.58964,4184.102462,4196.410154,4126.153745,4111.794771
9,0,4086.153746,4147.179386,4211.794769,4080.512721,4208.205025,4212.307589,4233.84605,4214.871692,4207.692205,4228.205025,4194.871692,4196.410154,4130.256309,4115.897335
10,0,4072.307593,4127.179386,4206.666564,4053.333234,4206.153743,4208.205025,4234.358871,4205.128102,4206.153743,4218.974256,4184.615282,4186.153744,4118.461438,4105.128105
11,0,4063.589644,4111.794771,4205.128102,4045.128106,4203.589641,4198.974256,4230.769127,4197.948615,4198.461436,4206.666564,4166.153744,4184.615282,4105.640925,4096.922977
12,0,4068.717849,4123.589643,4209.230666,4062.051183,4209.230666,4201.025538,4229.743486,4204.615282,4195.897333,4214.358871,4175.384513,4194.871692,4112.820412,4106.153746
13,0,4067.692208,4130.76913,4205.128102,4069.74349,4211.281948,4208.717846,4231.794768,4210.769128,4199.487077,4220.512717,4190.256308,4197.435795,4114.871694,4105.128105
14,0,4058.97426,4122.564002,4199.999897,4068.717849,4213.33323,4207.692205,4232.307589,4212.307589,4205.640923,4215.897333,4185.128103,4192.82041,4111.281951,4092.820413
15,0,4063.076824,4121.02554,4207.179384,4069.74349,4211.794769,4204.102461,4232.307589,4212.307589,4205.640923,4218.974256,4188.205026,4192.82041,4123.589643,4100.51272
16,0,4068.205029,4119.487079,4212.82041,4059.999901,4197.948615,4203.07682,4232.820409,4207.179384,4201.538359,4220.512717,4193.333231,4194.871692,4127.179386,4110.25631
17,0,4067.179388,4119.487079,4211.281948,4055.384516,4187.179385,4201.538359,4232.820409,4206.666564,4201.025538,4219.487076,4182.564,4194.871692,4116.922976,4104.102464
18,0,4063.076824,4115.897335,4209.743487,4059.999901,4192.30759,4197.435795,4229.230666,4206.666564,4200.512718,4223.07682,4174.358872,4187.692205,4114.358874,4099.487079
19,0,4056.410157,4093.846054,4205.128102,4054.358875,4210.769128,4199.999897,4227.692204,4205.640923,4198.461436,4218.461435,4172.820411,4182.564,4107.692207,4094.358874
20,0,4058.97426,4091.794772,4201.538359,4048.71785,4225.128102,4213.33323,4231.281948,4204.615282,4198.974256,4209.743487,4172.820411,4187.692205,4104.615284,4094.358874
21,0,4070.256311,4124.102463,4204.102461,4066.666567,4209.230666,4213.846051,4224.102461,4197.435795,4196.410154,4206.153743,4175.384513,4186.153744,4112.820412,4107.179387
22,0,4070.769131,4138.974258,4205.128102,4081.025541,4198.974256,4199.999897,4213.846051,4187.692205,4190.769128,4201.025538,4169.230667,4175.384513,4101.538361,4107.692207
23,0,4065.128106,4128.717848,4206.666564,4064.102465,4217.948615,4203.07682,4220.512717,4191.794769,4189.743487,4197.435795,4157.948616,4178.461436,4084.615285,4096.410156
24,0,4066.666567,4125.128104,4208.717846,4043.589645,4224.102461,4213.33323,4232.820409,4203.07682,4194.358872,4199.999897,4163.076821,4186.153744,4099.9999,4099.9999
25,0,4069.23067,4126.666566,4206.153743,4054.871696,4214.871692,4211.794769,4228.205025,4205.640923,4194.871692,4208.205025,4178.461436,4182.564,4117.948617,4106.666566
26,0,4066.153747,4127.692207,4206.666564,4075.897336,4220.512717,4208.205025,4219.999897,4201.538359,4196.410154,4213.33323,4170.256308,4178.461436,4105.128105,4097.948618
27,0,4060.512721,4132.307591,4205.640923,4072.820413,4219.487076,4206.153743,4221.025538,4201.025538,4196.922974,4213.33323,4163.076821,4181.025539,4102.564002,4094.358874
28,0,4055.384516,4124.102463,4198.974256,4064.615285,4203.07682,4206.153743,4224.615281,4203.589641,4197.948615,4212.307589,4175.897334,4178.974257,4118.461438,4097.948618
29,0,4049.743491,4114.358874,4191.281949,4062.051183,4208.717846,4209.743487,4223.07682,4203.07682,4196.922974,4215.897333,4172.30759,4171.79477,4113.333233,4093.333233
30,0,4043.076824,4114.358874,4188.717846,4052.307593,4219.487076,4205.640923,4218.974256,4194.871692,4189.743487,4209.230666,4150.256309,4165.640924,4089.74349,4081.538362
31,0,4043.589645,4121.538361,4193.846051,4055.897337,4209.230666,4203.589641,4220.512717,4193.846051,4186.153744,4198.461436,4150.256309,4165.128103,4090.25631,4078.461439
32,0,4059.48708,4132.820412,4208.205025,4076.410157,4213.33323,4216.922974,4231.794768,4205.640923,4194.358872,4213.33323,4168.717847,4176.410154,4110.25631,4092.820413
33,0,4066.666567,4137.435796,4211.794769,4080.512721,4234.358871,4219.487076,4234.358871,4210.256307,4197.948615,4226.153743,4170.769129,4185.128103,4112.307592,4105.128105
34,0,4060.512721,4134.358873,4207.692205,4065.640926,4227.692204,4205.128102,4221.025538,4200.512718,4193.846051,4210.256307,4168.205026,4181.538359,4101.538361,4100.51272
35,0,4059.999901,4131.794771,4208.717846,4069.23067,4198.461436,4198.974256,4211.281948,4198.974256,4188.205026,4199.999897,4173.846052,4178.974257,4098.974259,4095.897336
36,0,4067.179388,4135.897335,4206.666564,4088.205028,4192.82041,4201.538359,4212.307589,4206.153743,4185.128103,4209.743487,4174.871693,4179.999898,4112.307592,4109.230669
37,0,4067.692208,4132.820412,4203.07682,4086.666567,4218.461435,4206.153743,4214.871692,4207.692205,4189.230667,4210.769128,4156.922975,4173.846052,4099.487079,4110.25631
38,0,4050.256311,4114.871694,4201.025538,4064.615285,4241.025537,4209.230666,4217.948615,4208.205025,4189.230667,4197.435795,4130.256309,4163.589642,4050.769132,4078.974259
39,0,4039.487081,4108.205028,4201.025538,4053.333234,4227.179384,4202.564,4216.922974,4206.153743,4180.512718,4188.205026,4136.922976,4160.512719,4056.410157,4071.281952
40,0,4054.871696,4117.948617,4201.538359,4062.051183,4204.615282,4197.435795,4214.358871,4199.487077,4179.487077,4193.333231,4172.820411,4169.230667,4124.615284,4108.205028
41,0,4067.692208,4114.358874,4204.615282,4058.97426,4212.82041,4201.025538,4221.538358,4200.512718,4192.30759,4211.794769,4195.897333,4179.999898,4167.692206,4132.820412
42,0,4071.281952,4107.692207,4210.769128,4052.820414,4205.640923,4203.589641,4228.717845,4214.358871,4209.230666,4233.33323,4212.307589,4186.666564,4192.82041,4140.512719
43,0,4075.384516,4103.076823,4216.410153,4061.538362,4177.948616,4206.666564,4228.205025,4226.666563,4219.487076,4244.615281,4232.820409,4193.333231,4227.179384,4153.846052
44,0,4064.615285,4079.9999,4209.743487,4052.307593,4196.922974,4214.871692,4225.640922,4228.205025,4216.922974,4243.076819,4234.871691,4192.30759,4218.461435,4148.717847
45,0,4046.153747,4067.692208,4199.999897,4027.692209,4228.717845,4217.435794,4222.563999,4218.461435,4208.205025,4230.769127,4216.922974,4182.564,4185.128103,4124.615284
46,0,4044.615286,4087.692208,4202.564,4023.589645,4213.846051,4214.358871,4217.435794,4214.871692,4209.230666,4223.58964,4219.487076,4184.615282,4196.922974,4124.615284
47,0,4053.846055,4101.025541,4211.281948,4042.564004,4200.512718,4216.922974,4217.948615,4223.07682,4217.948615,4227.179384,4237.435794,4198.974256,4214.358871,4137.948617
48,0,4062.051183,4105.128105,4217.435794,4057.435798,4204.615282,4219.999897,4226.666563,4228.205025,4224.102461,4230.256307,4243.58964,4202.564,4209.743487,4146.666565
49,0,4060.512721,4105.640925,4217.435794,4056.922978,4188.205026,4215.897333,4229.743486,4225.640922,4222.051179,4221.025538,4236.410153,4191.281949,4203.07682,4144.102463
50,0,4053.333234,4094.871695,4212.307589,4055.897337,4182.564,4213.33323,4226.666563,4223.58964,4212.307589,4215.897333,4231.794768,4189.743487,4199.999897,4134.358873
51,0,4057.435798,4097.435797,4214.358871,4054.871696,4204.102461,4213.846051,4224.615281,4223.58964,4209.230666,4222.563999,4233.33323,4199.487077,4202.051179,4141.02554
52,0,4065.640926,4118.461438,4215.384512,4051.281952,4218.461435,4217.948615,4227.692204,4227.692204,4216.410153,4227.692204,4233.84605,4204.102461,4207.692205,4156.922975
53,0,4064.615285,4125.640925,4206.666564,4056.410157,4218.974256,4220.512717,4231.794768,4234.871691,4220.512717,4236.410153,4239.487076,4199.487077,4216.410153,4158.461437
54,0,4053.333234,4109.743489,4193.846051,4057.435798,4207.692205,4217.435794,4231.281948,4229.743486,4213.33323,4233.84605,4232.307589,4185.128103,4204.615282,4140.512719
55,0,4039.999901,4095.384515,4188.717846,4043.076824,4189.230667,4213.846051,4226.666563,4214.358871,4203.589641,4217.948615,4207.692205,4167.179385,4181.538359,4124.102463
56,0,4040.512722,4102.051182,4194.871692,4043.076824,4186.153744,4212.307589,4222.563999,4207.179384,4203.07682,4215.384512,4204.102461,4167.179385,4182.05118,4124.102463
57,0,4053.846055,4119.999899,4202.564,4069.74349,4203.589641,4212.82041,4222.051179,4213.33323,4213.33323,4226.153743,4227.692204,4184.102462,4199.487077,4136.922976
58,0,4059.999901,4124.615284,4204.102461,4073.333234,4209.230666,4214.871692,4224.615281,4220.512717,4218.461435,4224.615281,4232.820409,4193.333231,4205.640923,4145.640924
59,0,4061.025542,4120.51272,4204.615282,4052.307593,4209.230666,4217.435794,4227.179384,4221.538358,4214.358871,4218.461435,4225.128102,4194.871692,4205.128102,4148.717847
60,0,4066.666567,4123.076822,4214.358871,4055.384516,4217.948615,4217.948615,4226.666563,4222.051179,4216.410153,4224.615281,4235.384512,4205.640923,4208.205025,4156.922975
61,0,4067.692208,4124.615284,4217.435794,4072.820413,4203.589641,4213.846051,4221.538358,4225.640922,4222.563999,4226.153743,4237.948614,4214.871692,4201.025538,4158.461437
62,0,4065.640926,4119.487079,4213.846051,4066.666567,4173.333231,4208.717846,4220.512717,4225.128102,4218.461435,4219.999897,4223.58964,4211.281948,4190.769128,4151.28195
63,0,4066.666567,4118.461438,4218.461435,4057.948619,4187.692205,4214.871692,4227.179384,4225.640922,4216.410153,4224.102461,4227.179384,4208.205025,4195.897333,4153.333232
64,0,4062.564003,4118.974258,4218.974256,4072.820413,4224.102461,4224.615281,4231.794768,4224.102461,4219.999897,4226.666563,4225.640922,4206.153743,4193.333231,4151.28195
65,0,4054.871696,4118.974258,4207.179384,4083.076823,4228.717845,4225.128102,4231.794768,4217.435794,4218.974256,4226.153743,4212.307589,4197.435795,4183.076821,4140.512719
66,0,4054.358875,4115.897335,4203.07682,4073.333234,4211.794769,4218.974256,4226.153743,4209.743487,4218.974256,4222.563999,4215.384512,4191.794769,4184.615282,4137.948617
67,0,4058.461439,4116.410156,4207.179384,4072.307593,4192.30759,4212.307589,4221.538358,4205.640923,4215.897333,4222.563999,4219.999897,4193.333231,4191.794769,4143.076822
68,0,4066.153747,4122.564002,4211.794769,4081.538362,4187.692205,4210.769128,4223.07682,4207.692205,4215.384512,4229.230666,4216.922974,4203.589641,4195.384513,4149.230668
69,0,4080.512721,4128.205027,4221.025538,4082.051182,4210.769128,4215.384512,4226.666563,4212.82041,4223.07682,4235.384512,4233.84605,4219.999897,4208.205025,4166.153744
70,0,4092.307592,4138.974258,4226.666563,4079.9999,4229.230666,4219.999897,4230.769127,4220.512717,4228.205025,4239.999896,4251.281947,4225.128102,4221.538358,4183.589641
71,0,4090.25631,4151.79477,4219.999897,4089.230669,4214.871692,4219.487076,4233.33323,4222.051179,4224.615281,4234.358871,4240.512717,4214.358871,4216.922974,4178.461436
72,0,4086.666567,4153.333232,4217.435794,4101.538361,4205.640923,4216.922974,4229.743486,4216.410153,4219.999897,4224.102461,4226.153743,4212.307589,4209.743487,4167.179385
73,0,4090.769131,4154.358873,4224.102461,4106.153746,4213.33323,4217.435794,4224.102461,4217.948615,4222.051179,4230.256307,4227.692204,4219.999897,4215.384512,4175.384513
74,0,4094.358874,4162.564001,4225.640922,4103.076823,4208.205025,4218.461435,4226.666563,4226.153743,4226.666563,4240.512717,4228.205025,4213.846051,4216.922974,4183.589641
75,0,4087.692208,4160.512719,4223.07682,4088.717849,4205.640923,4219.999897,4235.384512,4225.128102,4225.128102,4229.230666,4220.512717,4203.07682,4204.102461,4174.871693
76,0,4075.897336,4145.128104,4212.82041,4076.410157,4218.461435,4218.974256,4229.743486,4212.82041,4216.410153,4213.33323,4211.794769,4197.435795,4194.358872,4162.564001
77,0,4064.102465,4135.897335,4198.974256,4075.384516,4219.999897,4216.922974,4215.897333,4206.153743,4211.794769,4215.897333,4208.717846,4187.692205,4193.333231,4149.743488
78,0,4058.461439,4138.461437,4194.358872,4081.538362,4204.615282,4217.948615,4217.948615,4210.256307,4214.358871,4222.051179,4208.717846,4182.05118,4185.128103,4144.102463
79,0,4065.640926,4139.487078,4201.538359,4088.717849,4201.025538,4218.461435,4231.794768,4212.82041,4217.435794,4224.102461,4199.999897,4188.205026,4176.922975,4149.743488
80,0,4073.333234,4140.512719,4205.128102,4095.384515,4201.538359,4217.948615,4230.256307,4209.230666,4214.871692,4216.410153,4198.461436,4190.769128,4184.615282,4151.28195
81,0,4074.871695,4144.102463,4208.205025,4092.820413,4189.743487,4214.871692,4218.974256,4208.205025,4210.769128,4203.589641,4208.205025,4195.384513,4191.794769,4152.307591
82,0,4079.9999,4148.717847,4215.897333,4089.74349,4199.999897,4215.384512,4221.538358,4217.948615,4215.384512,4210.769128,4217.948615,4208.717846,4193.333231,4168.205026
83,0,4087.692208,4153.333232,4217.948615,4094.871695,4226.153743,4224.615281,4229.743486,4221.538358,4222.051179,4225.128102,4221.025538,4209.230666,4202.051179,4179.487077
84,0,4094.871695,4164.102462,4217.435794,4105.128105,4229.230666,4234.358871,4232.820409,4221.538358,4223.07682,4228.717845,4225.128102,4205.128102,4214.871692,4179.487077
85,0,4099.9999,4168.717847,4218.974256,4113.846053,4214.358871,4229.230666,4230.256307,4218.974256,4219.999897,4222.563999,4221.538358,4207.692205,4210.256307,4179.999898
86,0,4094.358874,4158.974257,4211.281948,4117.948617,4212.307589,4216.410153,4219.487076,4206.666564,4208.717846,4215.897333,4201.538359,4197.435795,4196.410154,4172.820411
87,0,4086.153746,4150.769129,4206.153743,4110.25631,4225.640922,4216.922974,4213.33323,4199.999897,4201.538359,4218.974256,4192.82041,4186.666564,4197.948615,4164.102462
88,0,4090.25631,4153.846052,4212.307589,4103.589643,4224.102461,4225.128102,4227.179384,4214.358871,4213.33323,4229.743486,4206.666564,4196.410154,4206.666564,4170.256308
89,0,4098.461438,4164.102462,4214.358871,4106.153746,4206.153743,4222.563999,4234.871691,4226.666563,4225.640922,4234.358871,4217.435794,4208.205025,4211.281948,4183.076821
90,0,4087.179387,4148.205027,4205.640923,4097.948618,4199.999897,4213.846051,4218.461435,4222.051179,4226.666563,4229.230666,4211.281948,4202.564,4205.128102,4174.358872
91,0,4080.512721,4123.589643,4207.179384,4084.102464,4218.974256,4214.358871,4213.33323,4227.692204,4231.281948,4233.33323,4210.256307,4201.025538,4198.974256,4164.102462
92,0,4103.076823,4155.384514,4214.871692,4102.051182,4226.153743,4220.512717,4224.615281,4230.769127,4235.897332,4236.410153,4220.512717,4210.256307,4206.153743,4183.076821
93,0,4120.51272,4204.102461,4214.358871,4138.461437,4216.922974,4219.487076,4226.666563,4219.999897,4230.769127,4227.179384,4214.358871,4212.82041,4199.487077,4195.384513
94,0,4108.205028,4202.051179,4207.692205,4137.435796,4221.025538,4216.922974,4219.487076,4213.846051,4219.999897,4214.871692,4186.666564,4202.051179,4166.153744,4174.871693
95,0,4098.461438,4203.589641,4202.051179,4127.179386,4226.666563,4217.435794,4215.897333,4216.410153,4213.33323,4210.769128,4169.743488,4188.717846,4143.076822,4155.897334
96,0,4101.025541,4228.717845,4201.025538,4139.999899,4214.358871,4218.461435,4221.025538,4215.897333,4212.307589,4202.564,4161.53836,4183.076821,4124.102463,4146.666565
97,0,4094.358874,4217.435794,4195.897333,4137.948617,4210.769128,4218.974256,4225.640922,4209.230666,4208.717846,4190.769128,4147.692206,4180.512718,4100.51272,4134.871694
98,0,4094.871695,4205.640923,4194.871692,4122.051181,4227.692204,4216.410153,4219.999897,4206.666564,4206.666564,4202.564,4148.205027,4182.564,4110.76913,4140.512719
99,0,4104.615284,4226.153743,4199.999897,4128.717848,4239.487076,4218.461435,4213.846051,4213.33323,4215.897333,4224.102461,4166.153744,4190.256308,4136.410155,4159.999898
100,0,4103.589643,4220.512717,4203.589641,4145.128104,4231.794768,4225.128102,4216.922974,4217.948615,4222.051179,4219.999897,4171.79477,4195.897333,4135.897335,4158.974257
101,0,4097.435797,4206.666564,4202.051179,4144.102463,4228.717845,4227.692204,4218.461435,4214.871692,4217.948615,4209.743487,4167.692206,4194.871692,4134.358873,4152.307591
102,0,4094.871695,4216.410153,4200.512718,4135.897335,4233.33323,4227.692204,4217.948615,4215.384512,4218.974256,4214.871692,4165.640924,4188.717846,4134.358873,4150.256309
103,0,4091.281951,4215.384512,4192.30759,4130.256309,4232.307589,4227.692204,4216.410153,4217.948615,4217.948615,4216.410153,4156.922975,4183.589641,4118.461438,4139.487078
104,0,4088.717849,4201.025538,4190.256308,4128.717848,4229.743486,4227.692204,4215.384512,4215.897333,4209.743487,4205.640923,4146.666565,4182.564,4107.179387,4132.307591
105,0,4094.358874,4207.692205,4198.974256,4132.820412,4232.307589,4232.307589,4221.025538,4222.563999,4209.230666,4197.948615,4150.256309,4185.128103,4112.820412,4141.02554
106,0,4097.948618,4211.794769,4199.487077,4135.384514,4233.33323,4232.307589,4227.179384,4226.153743,4210.256307,4196.410154,4159.487078,4186.153744,4121.02554,4150.256309
107,0,4098.461438,4207.179384,4196.410154,4147.692206,4231.794768,4222.051179,4224.615281,4221.538358,4205.640923,4202.564,4160.512719,4190.769128,4125.640925,4156.410155
108,0,4109.230669,4218.974256,4205.128102,4163.076821,4231.281948,4219.999897,4223.07682,4225.128102,4210.256307,4213.846051,4163.076821,4195.384513,4132.820412,4166.666565
109,0,4117.435797,4227.692204,4210.769128,4157.948616,4235.897332,4226.153743,4224.615281,4229.230666,4214.358871,4212.307589,4171.79477,4188.717846,4139.999899,4169.743488
110,0,4113.846053,4218.974256,4206.666564,4141.53836,4242.051178,4224.102461,4222.563999,4226.153743,4209.230666,4199.999897,4165.128103,4183.589641,4132.307591,4162.564001
111,0,4111.794771,4211.794769,4203.589641,4141.02554,4232.820409,4222.563999,4217.948615,4225.128102,4205.640923,4193.333231,4149.743488,4183.076821,4120.51272,4157.948616
112,0,4114.871694,4218.461435,4203.589641,4149.230668,4218.461435,4228.205025,4215.384512,4230.769127,4213.846051,4205.128102,4157.435796,4178.461436,4127.692207,4159.999898
113,0,4114.358874,4219.487076,4202.051179,4146.153745,4221.538358,4229.230666,4218.974256,4235.384512,4221.025538,4221.025538,4172.30759,4174.358872,4139.487078,4158.461437
114,0,4114.358874,4215.384512,4196.410154,4145.640924,4234.358871,4225.640922,4221.538358,4235.897332,4216.922974,4224.102461,4167.179385,4173.333231,4146.153745,4150.769129
115,0,4115.897335,4206.666564,4192.82041,4143.589642,4236.410153,4224.102461,4218.974256,4228.205025,4209.230666,4209.230666,4152.820411,4168.717847,4139.999899,4146.153745
116,0,4128.205027,4211.281948,4201.538359,4137.435796,4237.435794,4226.666563,4221.025538,4224.615281,4209.743487,4201.538359,4162.05118,4176.922975,4142.564001,4163.589642
117,0,4152.820411,4231.281948,4214.358871,4137.435796,4236.410153,4228.205025,4223.07682,4233.84605,4220.512717,4218.461435,4184.102462,4197.435795,4165.128103,4191.794769
118,0,4169.230667,4225.640922,4211.794769,4141.53836,4218.974256,4221.025538,4219.487076,4236.922973,4225.128102,4235.384512,4185.640923,4204.615282,4177.435795,4207.692205
119,0,4192.30759,4240.512717,4209.743487,4150.769129,4214.871692,4219.999897,4213.846051,4223.58964,4218.974256,4228.717845,4180.512718,4202.564,4193.333231,4235.384512
120,0,4239.999896,4307.179382,4224.102461,4169.230667,4245.128101,4229.743486,4212.307589,4214.358871,4215.897333,4215.897333,4194.871692,4210.256307,4223.58964,4285.640921
121,0,4276.922972,4339.487073,4238.461435,4188.205026,4263.589639,4231.281948,4217.435794,4218.974256,4221.538358,4211.281948,4197.435795,4219.487076,4222.563999,4315.89733
122,0,4292.307587,4327.692202,4235.897332,4187.179385,4244.10246,4220.512717,4217.435794,4216.922974,4221.025538,4204.102461,4185.640923,4217.435794,4209.743487,4327.692202
123,0,4319.999894,4358.974252,4234.871691,4182.564,4229.743486,4215.384512,4208.717846,4207.179384,4218.974256,4197.435795,4190.256308,4211.794769,4227.692204,4358.461432
124,0,4356.92297,4417.435789,4244.10246,4199.487077,4235.384512,4218.974256,4203.589641,4206.666564,4221.538358,4201.025538,4197.435795,4218.974256,4240.512717,4392.307585
125,0,4368.717842,4433.333225,4249.230665,4214.871692,4222.563999,4217.435794,4207.179384,4210.256307,4224.102461,4204.615282,4197.948615,4230.256307,4224.102461,4400.512713
126,0,4363.076816,4432.820404,4249.743486,4209.230666,4212.307589,4215.384512,4210.256307,4209.743487,4224.102461,4201.025538,4211.281948,4231.794768,4222.563999,4397.94861
127,0,4365.640919,4441.025532,4253.84605,4212.307589,4231.281948,4215.897333,4209.230666,4210.256307,4225.640922,4203.589641,4218.974256,4231.794768,4228.717845,4403.076815
128,0,4369.743483,4447.179378,4251.794768,4226.666563,4239.999896,4216.410153,4208.717846,4210.256307,4225.128102,4209.230666,4210.256307,4231.794768,4223.58964,4405.640918
0,0,4355.384509,4449.23066,4242.563999,4220.512717,4227.692204,4218.461435,4209.230666,4207.179384,4219.487076,4197.948615,4201.025538,4224.102461,4205.640923,4388.205021
1,0,4327.692202,4435.897327,4231.281948,4204.615282,4213.846051,4213.33323,4204.615282,4197.435795,4205.128102,4172.820411,4180.512718,4210.256307,4167.179385,4350.769124
2,0,4316.410151,4410.769123,4224.102461,4193.333231,4201.025538,4205.640923,4197.435795,4193.333231,4197.948615,4172.30759,4171.79477,4204.102461,4156.922975,4334.358868
3,0,4320.512715,4384.102457,4225.128102,4184.102462,4208.717846,4208.205025,4196.922974,4203.07682,4208.205025,4197.435795,4196.410154,4211.281948,4193.846051,4348.717842
4,0,4316.922971,4372.820406,4229.230666,4189.230667,4232.820409,4216.922974,4202.564,4214.358871,4215.384512,4212.82041,4215.384512,4214.871692,4224.102461,4353.333227
5,0,4301.538356,4366.66656,4228.205025,4192.82041,4229.743486,4218.974256,4203.07682,4211.281948,4211.794769,4209.743487,4207.179384,4205.640923,4213.846051,4332.820407
6,0,4288.717844,4349.230663,4227.692204,4176.410154,4210.769128,4215.384512,4199.487077,4204.615282,4209.230666,4204.102461,4208.205025,4198.974256,4193.333231,4312.307587
7,0,4281.538357,4324.615279,4227.179384,4162.05118,4211.794769,4212.307589,4197.948615,4205.128102,4209.230666,4202.051179,4213.33323,4201.025538,4188.717846,4303.076818
8,0,4272.820408,4314.358869,4221.025538,4167.179385,4223.07682,4216.410153,4204.615282,4213.846051,4211.281948,4203.589641,4209.743487,4198.461436,4192.82041,4296.410151
9,0,4269.230665,4322.563997,4224.102461,4169.230667,4215.897333,4226.153743,4214.871692,4224.615281,4218.461435,4213.846051,4217.435794,4204.102461,4198.461436,4292.820408
10,0,4262.051178,4311.794766,4225.128102,4161.53836,4198.461436,4223.58964,4213.846051,4231.281948,4222.051179,4222.051179,4215.384512,4213.846051,4193.846051,4286.153741
11,0,4244.615281,4277.948613,4215.897333,4157.948616,4208.205025,4218.461435,4211.281948,4234.358871,4219.487076,4214.358871,4191.794769,4207.179384,4174.871693,4266.153742
12,0,4236.922973,4278.461434,4214.358871,4164.615283,4232.307589,4227.692204,4218.461435,4241.025537,4219.487076,4215.384512,4187.692205,4198.461436,4177.948616,4255.384511
13,0,4240.512717,4297.435792,4223.58964,4168.205026,4227.179384,4235.897332,4225.640922,4244.615281,4222.563999,4227.692204,4211.794769,4199.487077,4191.794769,4255.384511
14,0,4230.256307,4279.487075,4217.948615,4154.358873,4214.871692,4230.256307,4219.487076,4232.307589,4218.974256,4224.102461,4225.128102,4195.384513,4179.999898,4242.051178
15,0,4210.256307,4253.333229,4205.640923,4133.333232,4219.999897,4220.512717,4212.307589,4213.33323,4208.717846,4209.743487,4207.179384,4185.640923,4161.025539,4223.07682
16,0,4199.487077,4250.769127,4203.589641,4137.948617,4208.205025,4217.435794,4209.743487,4205.128102,4199.487077,4206.153743,4193.846051,4182.564,4151.79477,4212.82041
17,0,4194.358872,4246.153742,4204.615282,4162.05118,4192.30759,4216.922974,4207.179384,4206.153743,4201.538359,4206.666564,4192.82041,4186.153744,4143.076822,4203.589641
18,0,4184.615282,4235.384512,4203.589641,4151.28195,4203.07682,4214.871692,4208.717846,4208.205025,4202.051179,4207.692205,4184.102462,4183.076821,4146.153745,4193.846051
19,0,4177.435795,4229.743486,4205.128102,4117.435797,4212.307589,4217.435794,4216.410153,4213.846051,4199.487077,4210.256307,4171.79477,4173.333231,4154.871693,4189.743487
20,0,4177.435795,4222.563999,4207.179384,4118.974258,4196.922974,4222.051179,4217.948615,4219.999897,4202.564,4206.153743,4171.281949,4175.897334,4139.999899,4183.589641
21,0,4178.974257,4224.102461,4205.128102,4143.589642,4188.717846,4223.58964,4217.435794,4224.615281,4205.128102,4207.179384,4171.79477,4186.153744,4129.230668,4181.025539
22,0,4179.487077,4229.743486,4205.128102,4155.384514,4199.487077,4228.717845,4224.102461,4231.794768,4206.666564,4214.871692,4167.692206,4184.102462,4133.846053,4185.640923
23,0,4182.05118,4231.794768,4211.794769,4156.922975,4203.589641,4234.358871,4230.256307,4235.897332,4212.82041,4218.461435,4176.922975,4185.640923,4134.871694,4189.230667
24,0,4178.461436,4227.692204,4213.33323,4142.564001,4208.717846,4233.33323,4228.205025,4228.717845,4209.743487,4207.179384,4174.358872,4188.205026,4133.333232,4181.538359
25,0,4161.53836,4215.897333,4199.999897,4125.128104,4208.205025,4231.794768,4223.58964,4219.999897,4197.948615,4190.769128,4167.692206,4172.820411,4128.205027,4164.615283
26,0,4151.28195,4208.717846,4189.743487,4131.794771,4192.30759,4234.358871,4225.128102,4221.025538,4199.999897,4195.897333,4160.512719,4165.640924,4116.922976,4155.384514
27,0,4163.076821,4217.948615,4198.461436,4151.79477,4200.512718,4234.871691,4233.33323,4230.769127,4210.769128,4217.435794,4153.846052,4184.615282,4121.538361,4169.230667
28,0,4172.820411,4220.512717,4211.794769,4161.53836,4223.58964,4234.358871,4236.410153,4237.435794,4215.384512,4221.025538,4175.384513,4193.333231,4138.461437,4179.487077
29,0,4167.179385,4215.384512,4207.692205,4148.205027,4212.307589,4235.897332,4228.205025,4239.999896,4223.07682,4227.179384,4190.256308,4187.179385,4144.615283,4173.333231
30,0,4157.948616,4215.897333,4199.999897,4129.230668,4199.999897,4232.820409,4220.512717,4235.897332,4225.640922,4242.563999,4153.846052,4185.128103,4136.922976,4164.102462
31,0,4151.79477,4212.307589,4202.051179,4135.384514,4206.153743,4233.84605,4223.58964,4225.128102,4215.384512,4233.33323,4144.102463,4183.589641,4130.256309,4162.05118
32,0,4152.307591,4208.717846,4206.153743,4153.846052,4205.128102,4242.563999,4229.743486,4220.512717,4213.846051,4217.948615,4186.666564,4182.564,4135.384514,4163.076821
33,0,4153.333232,4213.33323,4205.128102,4160.512719,4214.358871,4246.153742,4227.179384,4225.640922,4219.487076,4225.128102,4174.871693,4185.128103,4138.974258,4162.05118
34,0,4146.153745,4206.153743,4201.025538,4153.333232,4228.717845,4236.922973,4222.051179,4224.102461,4213.33323,4222.051179,4141.53836,4184.102462,4126.666566,4154.358873
35,0,4142.051181,4196.922974,4202.564,4143.076822,4216.922974,4228.205025,4223.58964,4218.974256,4206.666564,4203.07682,4170.256308,4181.025539,4124.615284,4155.897334
36,0,4153.333232,4209.230666,4211.281948,4151.28195,4198.461436,4228.205025,4223.58964,4230.256307,4214.358871,4203.07682,4195.384513,4186.153744,4132.307591,4172.30759
37,0,4166.153744,4226.153743,4221.538358,4169.230667,4202.051179,4231.794768,4224.615281,4242.051178,4220.512717,4219.999897,4181.538359,4196.922974,4132.307591,4184.615282
38,0,4166.153744,4217.435794,4220.512717,4163.076821,4213.846051,4233.33323,4227.692204,4235.384512,4217.948615,4229.230666,4176.410154,4200.512718,4133.846053,4182.05118
39,0,4162.564001,4197.435795,4216.922974,4149.743488,4218.974256,4231.794768,4227.692204,4224.102461,4213.846051,4223.58964,4173.333231,4197.435795,4142.051181,4175.384513
40,0,4166.153744,4205.128102,4224.102461,4154.871693,4230.256307,4233.84605,4229.230666,4232.307589,4211.794769,4222.563999,4172.30759,4203.589641,4152.820411,4181.538359
41,0,4163.076821,4215.384512,4223.07682,4156.410155,4230.769127,4234.358871,4226.666563,4233.84605,4208.205025,4226.666563,4181.538359,4204.102461,4143.076822,4182.05118
42,0,4146.666565,4204.102461,4208.205025,4149.230668,4212.82041,4226.153743,4217.435794,4212.307589,4201.538359,4217.948615,4191.281949,4189.230667,4124.615284,4165.128103
43,0,4139.999899,4196.410154,4203.589641,4154.871693,4201.538359,4224.102461,4213.846051,4207.179384,4199.999897,4207.179384,4177.948616,4181.538359,4125.640925,4152.820411
44,0,4143.589642,4203.589641,4206.153743,4165.640924,4219.999897,4229.230666,4219.487076,4224.615281,4205.128102,4215.897333,4139.487078,4179.487077,4135.384514,4155.897334
45,0,4147.179386,4206.153743,4208.717846,4159.999898,4232.307589,4229.743486,4220.512717,4229.743486,4210.769128,4229.743486,4156.410155,4185.640923,4131.794771,4165.640924
46,0,4155.384514,4210.769128,4213.846051,4157.948616,4219.999897,4229.743486,4222.051179,4230.256307,4213.846051,4235.384512,4197.435795,4198.461436,4135.384514,4177.948616
47,0,4160.512719,4217.435794,4214.358871,4163.589642,4217.948615,4232.307589,4230.256307,4241.025537,4216.410153,4234.871691,4175.897334,4194.358872,4154.871693,4181.025539
48,0,4155.897334,4207.179384,4213.33323,4171.281949,4225.128102,4233.84605,4233.84605,4244.10246,4220.512717,4238.461435,4176.410154,4187.179385,4158.974257,4178.461436
49,0,4157.948616,4194.871692,4219.999897,4176.922975,4225.128102,4231.281948,4226.153743,4232.307589,4223.07682,4237.435794,4228.717845,4200.512718,4157.435796,4190.769128
50,0,4161.53836,4201.538359,4224.615281,4167.692206,4228.205025,4227.179384,4214.871692,4223.07682,4217.435794,4227.179384,4217.435794,4209.230666,4157.948616,4198.974256
51,0,4153.846052,4196.410154,4225.640922,4148.205027,4241.025537,4227.692204,4220.512717,4224.615281,4211.281948,4227.179384,4165.128103,4202.051179,4145.128104,4186.153744
52,0,4150.769129,4187.692205,4228.205025,4151.28195,4232.820409,4229.230666,4230.769127,4229.743486,4212.82041,4238.461435,4170.769129,4201.538359,4148.717847,4182.05118
53,0,4162.564001,4210.769128,4224.102461,4177.948616,4214.358871,4227.179384,4225.640922,4227.692204,4212.82041,4235.897332,4182.05118,4205.128102,4168.205026,4197.435795
54,0,4162.05118,4227.692204,4222.563999,4193.333231,4233.84605,4229.230666,4223.07682,4225.640922,4213.846051,4223.58964,4184.102462,4205.128102,4155.897334,4195.897333
55,0,4138.461437,4205.128102,4221.538358,4178.461436,4257.948614,4234.358871,4226.153743,4226.153743,4215.384512,4224.615281,4184.102462,4197.948615,4123.589643,4166.153744
56,0,4121.02554,4185.128103,4207.179384,4148.205027,4245.640922,4230.256307,4220.512717,4217.948615,4205.640923,4222.563999,4157.948616,4183.076821,4109.230669,4144.102463
57,0,4129.230668,4195.897333,4198.461436,4151.79477,4235.897332,4229.230666,4218.974256,4218.974256,4200.512718,4215.384512,4150.256309,4181.538359,4117.435797,4156.410155
58,0,4136.410155,4202.051179,4203.07682,4173.846052,4235.897332,4230.256307,4223.07682,4231.794768,4212.307589,4216.410153,4174.358872,4189.230667,4130.256309,4168.205026
59,0,4129.230668,4194.358872,4203.589641,4172.30759,4218.974256,4221.538358,4217.948615,4233.84605,4217.948615,4223.07682,4188.717846,4187.179385,4131.794771,4163.589642
60,0,4128.205027,4184.615282,4206.666564,4165.640924,4216.922974,4217.435794,4213.846051,4226.153743,4212.307589,4223.58964,4169.743488,4184.615282,4124.615284,4163.589642
61,0,4139.487078,4186.153744,4212.82041,4163.076821,4243.076819,4226.666563,4218.461435,4227.692204,4213.33323,4221.538358,4150.256309,4189.230667,4136.410155,4173.333231
62,0,4150.769129,4202.051179,4217.435794,4165.640924,4255.384511,4233.84605,4225.640922,4236.922973,4219.999897,4227.692204,4175.897334,4199.487077,4156.410155,4187.692205
63,0,4149.743488,4204.615282,4219.999897,4173.333231,4247.692204,4231.794768,4229.743486,4235.897332,4217.435794,4229.230666,4217.435794,4202.564,4135.897335,4191.281949
64,0,4147.179386,4195.897333,4222.563999,4181.025539,4229.230666,4224.615281,4223.07682,4227.179384,4212.82041,4224.102461,4196.922974,4195.384513,4117.435797,4182.05118
65,0,4147.692206,4193.846051,4215.897333,4181.025539,4214.871692,4218.461435,4211.794769,4217.435794,4207.179384,4221.025538,4147.692206,4183.589641,4139.999899,4175.384513
66,0,4142.051181,4196.922974,4212.307589,4172.820411,4232.307589,4222.563999,4215.384512,4214.358871,4204.615282,4219.999897,4159.487078,4178.974257,4144.102463,4173.846052
67,0,4146.666565,4205.128102,4219.999897,4178.461436,4244.615281,4232.307589,4226.666563,4227.179384,4216.410153,4229.230666,4201.538359,4192.30759,4135.384514,4183.589641
68,0,4150.769129,4206.153743,4222.051179,4183.589641,4221.025538,4231.281948,4225.640922,4238.974255,4226.666563,4236.922973,4197.435795,4199.487077,4145.640924,4187.179385
69,0,4139.487078,4191.794769,4212.82041,4175.384513,4221.538358,4226.153743,4218.974256,4242.051178,4219.999897,4229.230666,4176.410154,4188.205026,4150.769129,4179.487077
69,0,4139.487078,4191.794769,4212.82041,4175.384513,4221.538358,4226.153743,4218.974256,4242.051178,4219.999897,4229.230666,4176.410154,4188.205026,4150.769129,4179.487077
70,0,4134.358873,4183.076821,4210.256307,4171.79477,4255.384511,4227.179384,4219.487076,4236.410153,4216.410153,4224.102461,4181.025539,4181.025539,4130.76913,4175.384513
71,0,4137.435796,4190.256308,4211.794769,4175.384513,4258.974255,4225.128102,4219.999897,4228.205025,4218.974256,4223.58964,4190.769128,4184.615282,4121.538361,4176.410154
72,0,4137.435796,4193.846051,4209.230666,4171.79477,4227.179384,4220.512717,4210.769128,4223.58964,4214.358871,4217.948615,4191.281949,4185.128103,4129.743489,4177.435795
73,0,4144.615283,4193.846051,4211.281948,4174.871693,4215.897333,4221.538358,4207.179384,4224.102461,4209.230666,4218.974256,4171.281949,4181.025539,4137.948617,4182.564
74,0,4153.333232,4196.922974,4218.974256,4190.256308,4243.58964,4226.153743,4213.33323,4227.692204,4214.871692,4230.769127,4168.205026,4185.640923,4149.743488,4193.333231
75,0,4148.717847,4193.846051,4223.07682,4185.128103,4262.563998,4231.281948,4214.871692,4228.205025,4218.461435,4232.820409,4195.897333,4195.384513,4148.205027,4192.30759
76,0,4146.153745,4195.384513,4222.051179,4174.358872,4250.769127,4233.84605,4208.717846,4227.179384,4219.487076,4227.692204,4202.051179,4197.435795,4137.435796,4190.769128
77,0,4145.128104,4204.615282,4218.461435,4181.025539,4232.820409,4226.666563,4210.256307,4226.153743,4220.512717,4225.640922,4184.102462,4191.794769,4135.897335,4191.794769
78,0,4135.897335,4212.307589,4213.846051,4188.205026,4223.07682,4219.487076,4211.794769,4225.128102,4216.410153,4225.128102,4194.871692,4186.153744,4137.435796,4187.179385
79,0,4129.743489,4209.230666,4208.717846,4178.461436,4227.179384,4221.025538,4203.07682,4216.922974,4209.743487,4216.922974,4191.281949,4179.487077,4119.487079,4172.30759
80,0,4129.230668,4208.205025,4205.128102,4165.640924,4250.769127,4223.58964,4204.102461,4216.922974,4209.743487,4212.82041,4170.769129,4178.461436,4109.230669,4168.717847
81,0,4130.76913,4215.897333,4207.692205,4171.79477,4254.35887,4222.563999,4216.410153,4227.179384,4215.897333,4214.871692,4191.281949,4187.692205,4125.128104,4181.025539
82,0,4134.358873,4224.102461,4210.769128,4186.153744,4232.307589,4228.205025,4217.435794,4225.640922,4214.871692,4217.435794,4211.794769,4187.179385,4127.179386,4185.128103
83,0,4138.974258,4230.769127,4213.33323,4185.128103,4231.281948,4236.922973,4213.846051,4230.256307,4216.410153,4224.615281,4206.666564,4184.615282,4115.897335,4182.564
84,0,4147.179386,4236.410153,4212.307589,4186.153744,4250.769127,4236.922973,4219.487076,4244.10246,4224.615281,4229.230666,4217.435794,4192.30759,4123.076822,4192.30759
85,0,4154.871693,4232.820409,4213.846051,4195.897333,4249.743486,4234.358871,4221.538358,4237.435794,4226.153743,4221.538358,4226.666563,4194.871692,4132.820412,4200.512718
86,0,4154.358873,4224.102461,4215.897333,4190.256308,4234.871691,4229.230666,4216.410153,4220.512717,4216.922974,4217.948615,4210.769128,4189.230667,4135.897335,4194.871692
87,0,4149.743488,4222.051179,4216.410153,4176.922975,4231.281948,4219.999897,4215.384512,4221.538358,4212.307589,4221.538358,4210.256307,4188.205026,4136.922976,4189.230667
88,0,4143.589642,4216.410153,4213.33323,4175.897334,4231.281948,4219.999897,4213.846051,4226.153743,4212.82041,4214.871692,4219.487076,4182.564,4127.179386,4184.102462
89,0,4141.53836,4211.281948,4207.692205,4180.512718,4235.384512,4230.769127,4215.897333,4227.692204,4216.922974,4208.717846,4216.410153,4178.461436,4118.461438,4182.564
90,0,4142.564001,4208.717846,4203.07682,4176.922975,4243.58964,4233.33323,4219.487076,4229.230666,4222.563999,4208.717846,4217.948615,4181.025539,4123.589643,4185.128103
91,0,4141.53836,4197.435795,4202.051179,4171.79477,4236.922973,4226.153743,4219.487076,4229.230666,4218.461435,4210.256307,4212.82041,4181.025539,4134.871694,4182.564
92,0,4143.076822,4198.974256,4204.615282,4161.53836,4229.230666,4223.58964,4217.948615,4231.794768,4211.281948,4218.461435,4210.256307,4182.05118,4144.102463,4183.076821
93,0,4144.102463,4209.230666,4202.564,4156.410155,4232.820409,4223.58964,4218.461435,4233.33323,4211.794769,4215.384512,4209.743487,4178.461436,4142.051181,4184.102462
94,0,4142.564001,4206.153743,4203.07682,4170.256308,4221.538358,4222.563999,4219.999897,4226.153743,4214.871692,4203.07682,4206.666564,4168.717847,4136.922976,4182.05118
95,0,4145.128104,4208.205025,4208.717846,4178.461436,4208.205025,4226.666563,4219.999897,4225.640922,4215.897333,4211.794769,4210.256307,4172.820411,4141.02554,4186.153744
96,0,4150.769129,4216.922974,4213.33323,4176.922975,4229.743486,4230.256307,4219.487076,4231.794768,4218.461435,4226.666563,4213.33323,4185.128103,4148.205027,4193.846051
97,0,4152.307591,4214.871692,4210.769128,4177.948616,4252.307588,4229.743486,4215.897333,4229.230666,4219.487076,4218.974256,4219.487076,4182.05118,4155.384514,4195.897333
98,0,4155.897334,4213.846051,4211.794769,4176.922975,4246.153742,4228.717845,4217.948615,4226.666563,4221.538358,4208.205025,4222.051179,4181.538359,4163.076821,4198.461436
99,0,4169.230667,4224.102461,4223.58964,4184.102462,4241.025537,4232.820409,4223.58964,4237.435794,4227.179384,4222.051179,4218.461435,4196.922974,4166.666565,4209.743487
100,0,4176.410154,4225.640922,4231.794768,4191.794769,4248.205024,4234.358871,4223.58964,4239.487076,4229.230666,4235.897332,4214.871692,4196.922974,4161.025539,4212.307589
101,0,4168.205026,4219.487076,4221.025538,4190.256308,4236.410153,4230.769127,4222.563999,4230.769127,4225.640922,4231.794768,4228.717845,4182.564,4157.435796,4204.615282
102,0,4158.461437,4217.948615,4212.82041,4193.333231,4224.615281,4230.769127,4227.692204,4233.84605,4225.640922,4222.563999,4234.358871,4182.564,4159.999898,4201.025538
103,0,4162.564001,4218.461435,4215.897333,4189.743487,4245.128101,4234.358871,4231.281948,4242.563999,4231.281948,4224.615281,4214.871692,4194.871692,4170.769129,4202.051179
104,0,4171.79477,4213.33323,4217.948615,4175.897334,4262.051178,4234.871691,4231.281948,4241.538358,4235.384512,4236.410153,4223.07682,4201.538359,4177.948616,4206.153743
105,0,4170.256308,4206.666564,4214.358871,4178.974257,4241.025537,4232.820409,4231.281948,4238.461435,4230.769127,4242.051178,4245.128101,4198.974256,4176.410154,4209.743487
106,0,4170.769129,4216.410153,4221.538358,4196.410154,4229.743486,4232.820409,4231.281948,4244.10246,4233.84605,4241.538358,4234.871691,4203.589641,4186.666564,4215.897333
106,0,4170.769129,4216.410153,4221.538358,4196.410154,4229.743486,4232.820409,4231.281948,4244.10246,4233.84605,4241.538358,4234.871691,4203.589641,4186.666564,4215.897333
107,0,4171.281949,4223.58964,4226.666563,4196.410154,4237.435794,4233.33323,4230.256307,4240.512717,4236.922973,4232.820409,4222.563999,4204.102461,4189.230667,4216.410153
108,0,4161.025539,4205.640923,4217.948615,4182.05118,4229.230666,4230.769127,4230.256307,4228.205025,4224.615281,4218.974256,4230.769127,4189.743487,4166.666565,4205.128102
109,0,4156.410155,4197.948615,4215.384512,4175.897334,4231.794768,4229.743486,4231.794768,4227.179384,4220.512717,4222.051179,4228.205025,4186.153744,4164.102462,4199.999897
110,0,4165.640924,4210.769128,4222.051179,4183.589641,4252.307588,4233.33323,4230.769127,4233.33323,4228.717845,4240.512717,4223.58964,4197.948615,4193.846051,4211.794769
111,0,4161.53836,4211.794769,4218.974256,4193.333231,4248.717845,4232.820409,4225.640922,4231.281948,4229.230666,4241.538358,4229.230666,4191.794769,4189.230667,4213.846051
112,0,4150.256309,4206.666564,4216.410153,4191.794769,4239.999896,4232.820409,4227.692204,4234.871691,4226.666563,4225.128102,4215.384512,4182.05118,4152.820411,4191.794769
113,0,4161.53836,4211.794769,4226.666563,4189.743487,4250.256306,4237.948614,4231.794768,4246.153742,4232.307589,4226.153743,4215.897333,4200.512718,4162.05118,4194.358872
114,0,4187.692205,4218.974256,4236.410153,4202.564,4258.461434,4238.461435,4231.281948,4252.820409,4242.051178,4250.769127,4256.410152,4222.563999,4217.948615,4237.948614
115,0,4200.512718,4218.974256,4240.512717,4208.205025,4249.743486,4234.871691,4231.794768,4253.84605,4248.717845,4259.487075,4271.794767,4224.102461,4249.743486,4262.051178
116,0,4192.30759,4206.153743,4237.948614,4190.769128,4234.871691,4231.794768,4233.84605,4248.205024,4246.153742,4240.512717,4259.487075,4215.897333,4237.948614,4246.666563
117,0,4181.538359,4187.179385,4228.717845,4170.769129,4221.538358,4228.717845,4231.281948,4235.897332,4233.84605,4225.128102,4254.871691,4210.769128,4222.051179,4233.84605
118,0,4178.461436,4184.102462,4222.563999,4170.769129,4224.615281,4228.205025,4228.717845,4230.256307,4228.205025,4233.84605,4239.999896,4209.743487,4226.153743,4237.435794
119,0,4177.435795,4187.179385,4225.128102,4178.461436,4243.076819,4231.281948,4228.205025,4231.794768,4233.33323,4244.615281,4240.512717,4210.256307,4226.153743,4234.871691
120,0,4178.974257,4186.666564,4227.692204,4181.538359,4251.281947,4232.820409,4229.743486,4237.948614,4238.461435,4248.205024,4269.230665,4209.230666,4222.051179,4233.33323
121,0,4186.666564,4189.230667,4227.692204,4179.999898,4236.922973,4234.358871,4233.33323,4242.563999,4237.435794,4251.794768,4270.769126,4210.256307,4232.307589,4241.538358
122,0,4191.794769,4199.999897,4230.769127,4178.974257,4226.153743,4236.410153,4236.922973,4245.640922,4239.999896,4258.974255,4247.692204,4215.897333,4249.743486,4249.230665
123,0,4182.564,4201.025538,4227.692204,4177.948616,4236.410153,4232.820409,4230.256307,4240.512717,4243.076819,4253.84605,4243.58964,4210.256307,4241.538358,4244.10246
124,0,4176.922975,4189.743487,4218.974256,4176.410154,4247.179383,4227.179384,4220.512717,4231.281948,4234.358871,4236.922973,4252.307588,4204.102461,4222.051179,4235.384512
125,0,4185.640923,4183.076821,4221.025538,4183.589641,4243.076819,4229.230666,4223.07682,4228.205025,4230.256307,4232.820409,4259.487075,4212.307589,4227.692204,4241.025537
126,0,4190.769128,4185.128103,4228.717845,4189.743487,4226.666563,4230.256307,4230.769127,4229.230666,4231.794768,4238.974255,4256.410152,4221.538358,4235.897332,4248.717845
127,0,4181.025539,4182.05118,4228.717845,4181.025539,4209.743487,4222.563999,4230.256307,4224.615281,4223.58964,4229.230666,4239.487076,4215.384512,4228.717845,4237.948614
128,0,4168.205026,4172.30759,4224.102461,4169.743488,4216.410153,4218.974256,4228.717845,4219.999897,4215.897333,4216.410153,4225.128102,4204.102461,4213.846051,4220.512717
0,0,4168.205026,4172.30759,4220.512717,4167.692206,4234.871691,4227.179384,4227.179384,4226.153743,4221.538358,4226.153743,4230.256307,4203.07682,4207.692205,4221.538358
1,0,4169.230667,4172.820411,4217.435794,4166.666565,4235.384512,4228.717845,4225.128102,4231.794768,4226.153743,4236.922973,4234.871691,4207.692205,4215.897333,4229.743486
2,0,4170.769129,4169.230667,4222.051179,4172.820411,4223.58964,4225.128102,4229.230666,4236.922973,4228.717845,4235.384512,4235.384512,4213.846051,4232.307589,4231.281948
3,0,4178.974257,4173.846052,4227.692204,4181.538359,4218.974256,4229.230666,4232.307589,4246.666563,4233.33323,4234.871691,4256.410152,4217.948615,4244.10246,4236.410153
4,0,4181.538359,4182.564,4222.563999,4170.256308,4221.025538,4232.307589,4229.743486,4252.820409,4235.897332,4245.128101,4274.87169,4216.922974,4246.666563,4246.153742
5,0,4168.205026,4177.948616,4217.435794,4155.897334,4216.410153,4229.743486,4230.769127,4246.153742,4233.33323,4249.230665,4234.358871,4208.717846,4237.948614,4237.435794
6,0,4162.564001,4168.205026,4218.461435,4162.05118,4214.358871,4228.205025,4231.281948,4236.922973,4228.717845,4242.051178,4209.230666,4204.102461,4224.615281,4226.153743
7,0,4173.333231,4171.281949,4222.051179,4173.333231,4227.179384,4231.281948,4228.717845,4240.512717,4232.307589,4238.974255,4269.230665,4215.384512,4226.153743,4233.84605
8,0,4170.769129,4175.384513,4218.974256,4171.79477,4225.640922,4231.281948,4226.153743,4246.153742,4239.999896,4242.051178,4295.38451,4217.435794,4229.230666,4236.410153
9,0,4156.410155,4162.564001,4215.384512,4163.076821,4203.07682,4220.512717,4222.563999,4234.871691,4229.230666,4236.410153,4221.025538,4199.487077,4223.07682,4222.563999
10,0,4161.025539,4153.333232,4216.410153,4158.974257,4208.205025,4216.410153,4216.410153,4227.692204,4218.461435,4228.717845,4196.922974,4199.487077,4219.487076,4219.999897
11,0,4171.79477,4157.435796,4217.948615,4165.128103,4223.58964,4226.666563,4218.461435,4235.384512,4231.281948,4232.820409,4255.384511,4220.512717,4210.256307,4226.666563
12,0,4168.717847,4158.461437,4218.461435,4168.205026,4217.435794,4230.256307,4226.153743,4234.871691,4235.384512,4233.84605,4265.128101,4217.948615,4214.358871,4229.230666
13,0,4166.666565,4153.333232,4222.563999,4159.999898,4216.922974,4225.640922,4225.640922,4222.051179,4223.07682,4222.563999,4226.666563,4201.538359,4224.615281,4228.717845
14,0,4169.230667,4156.410155,4225.640922,4160.512719,4213.846051,4226.666563,4224.615281,4225.128102,4222.051179,4224.102461,4228.717845,4205.640923,4214.871692,4229.230666
15,0,4162.05118,4163.589642,4219.487076,4167.692206,4205.640923,4227.692204,4228.205025,4230.769127,4225.128102,4228.717845,4249.230665,4208.717846,4210.769128,4228.717845
16,0,4158.974257,4162.564001,4213.33323,4159.487078,4222.051179,4228.205025,4230.256307,4222.563999,4221.025538,4221.025538,4242.051178,4197.435795,4221.538358,4229.743486
17,0,4171.79477,4164.102462,4217.948615,4163.076821,4242.051178,4234.358871,4231.281948,4224.102461,4223.58964,4223.58964,4235.897332,4196.922974,4229.743486,4235.897332
18,0,4174.358872,4165.640924,4220.512717,4178.461436,4230.769127,4233.33323,4231.281948,4230.769127,4229.230666,4232.820409,4244.615281,4203.07682,4228.717845,4237.948614
19,0,4162.05118,4167.179385,4214.358871,4168.717847,4221.025538,4233.33323,4229.743486,4229.743486,4230.256307,4238.461435,4235.897332,4196.922974,4225.128102,4229.743486
20,0,4162.564001,4173.333231,4211.794769,4156.410155,4233.84605,4243.58964,4230.256307,4234.358871,4234.871691,4249.743486,4221.025538,4190.769128,4228.205025,4225.128102
21,0,4167.692206,4170.256308,4210.769128,4169.230667,4225.640922,4240.512717,4228.717845,4241.538358,4232.307589,4250.256306,4228.717845,4188.717846,4235.897332,4226.666563
22,0,4162.05118,4157.435796,4208.717846,4165.640924,4201.025538,4229.743486,4225.640922,4236.410153,4225.640922,4234.871691,4227.692204,4184.102462,4227.692204,4222.563999
23,0,4164.102462,4161.025539,4212.82041,4162.05118,4207.692205,4232.820409,4228.205025,4230.256307,4226.666563,4232.307589,4222.563999,4188.205026,4220.512717,4224.102461
24,0,4172.30759,4163.076821,4219.487076,4172.820411,4231.794768,4236.410153,4225.128102,4225.128102,4225.128102,4230.769127,4225.128102,4195.384513,4219.999897,4226.666563
25,0,4166.153744,4146.153745,4214.871692,4159.999898,4227.179384,4226.153743,4214.358871,4218.974256,4217.948615,4219.999897,4211.794769,4193.333231,4209.743487,4221.025538
26,0,4163.076821,4145.640924,4212.307589,4145.640924,4213.33323,4222.563999,4218.974256,4223.07682,4219.999897,4225.640922,4208.717846,4194.871692,4219.487076,4223.58964
27,0,4173.333231,4164.102462,4217.435794,4167.179385,4227.179384,4229.743486,4226.153743,4230.769127,4226.153743,4243.076819,4231.281948,4202.051179,4236.410153,4237.948614
28,0,4176.922975,4164.615283,4221.025538,4174.871693,4234.871691,4232.820409,4223.58964,4232.820409,4227.179384,4242.051178,4240.512717,4205.640923,4221.025538,4243.076819
29,0,4174.871693,4156.922975,4221.025538,4162.05118,4224.102461,4231.281948,4223.58964,4236.922973,4228.205025,4236.410153,4229.230666,4207.179384,4222.051179,4241.538358
30,0,4177.948616,4164.615283,4226.666563,4173.333231,4221.025538,4231.794768,4225.640922,4240.512717,4234.358871,4242.051178,4230.769127,4208.717846,4246.666563,4241.025537
31,0,4180.512718,4175.384513,4226.666563,4180.512718,4220.512717,4233.33323,4226.666563,4241.025537,4238.461435,4247.692204,4238.974255,4206.666564,4248.205024,4243.58964
32,0,4177.948616,4177.948616,4219.487076,4159.487078,4219.999897,4234.871691,4229.230666,4242.563999,4238.974255,4243.076819,4241.025537,4205.640923,4231.281948,4246.153742
33,0,4171.281949,4175.897334,4216.922974,4157.435796,4225.640922,4235.384512,4227.179384,4243.58964,4234.358871,4235.897332,4249.230665,4202.051179,4221.025538,4238.461435
34,0,4164.615283,4181.025539,4216.922974,4171.79477,4235.384512,4234.358871,4220.512717,4235.384512,4226.153743,4230.256307,4233.33323,4190.256308,4217.948615,4226.153743
35,0,4162.564001,4188.205026,4213.846051,4164.615283,4241.538358,4236.410153,4225.640922,4226.666563,4224.102461,4225.128102,4217.948615,4189.230667,4216.922974,4222.563999
36,0,4162.05118,4181.538359,4217.948615,4163.589642,4233.84605,4239.487076,4234.358871,4230.769127,4228.205025,4228.205025,4242.051178,4202.564,4213.846051,4227.179384
37,0,4162.05118,4188.717846,4224.102461,4181.025539,4222.563999,4235.897332,4225.128102,4234.871691,4228.205025,4233.33323,4269.230665,4210.256307,4210.256307,4233.33323
38,0,4167.692206,4216.410153,4221.025538,4179.487077,4226.666563,4231.281948,4215.897333,4235.384512,4227.692204,4232.307589,4249.230665,4203.589641,4212.82041,4235.897332
39,0,4176.410154,4230.769127,4219.999897,4172.820411,4230.256307,4231.794768,4217.435794,4238.974255,4230.256307,4231.281948,4223.58964,4196.410154,4211.794769,4233.84605
40,0,4183.076821,4236.410153,4223.58964,4185.640923,4213.846051,4231.794768,4214.871692,4235.897332,4232.820409,4230.256307,4267.692203,4201.538359,4189.230667,4233.84605
41,0,4175.897334,4234.871691,4215.897333,4187.179385,4203.07682,4229.230666,4207.692205,4221.538358,4224.102461,4218.461435,4269.743485,4193.333231,4163.076821,4221.538358
42,0,4160.512719,4217.948615,4202.564,4179.487077,4215.897333,4228.717845,4208.717846,4217.948615,4211.794769,4211.794769,4204.615282,4174.358872,4172.820411,4202.051179
43,0,4161.025539,4214.871692,4206.666564,4178.461436,4231.281948,4232.307589,4217.948615,4226.153743,4217.948615,4218.974256,4202.051179,4175.384513,4200.512718,4208.205025
44,0,4170.769129,4228.717845,4212.82041,4176.922975,4235.384512,4240.512717,4226.153743,4230.769127,4229.230666,4222.051179,4247.692204,4188.205026,4195.384513,4224.615281
45,0,4164.615283,4214.871692,4207.692205,4184.615282,4219.999897,4243.076819,4225.128102,4231.794768,4227.179384,4221.025538,4256.410152,4187.692205,4169.743488,4218.461435
46,0,4152.820411,4199.487077,4201.538359,4184.615282,4198.974256,4232.307589,4217.435794,4229.230666,4220.512717,4219.999897,4241.538358,4184.102462,4176.922975,4207.179384
47,0,4152.307591,4207.179384,4202.564,4164.615283,4196.410154,4224.102461,4213.33323,4223.07682,4220.512717,4212.307589,4234.358871,4184.615282,4185.128103,4205.128102
48,0,4158.461437,4213.846051,4201.538359,4165.128103,4211.281948,4228.717845,4215.897333,4222.563999,4219.487076,4216.922974,4226.666563,4183.589641,4175.384513,4210.769128
49,0,4166.153744,4215.384512,4206.666564,4188.205026,4217.948615,4233.33323,4217.948615,4228.205025,4219.487076,4229.743486,4261.025537,4189.743487,4180.512718,4223.58964
50,0,4176.922975,4223.07682,4216.922974,4198.974256,4215.384512,4232.307589,4215.384512,4237.435794,4227.179384,4224.615281,4281.025536,4203.589641,4186.666564,4232.820409
51,0,4185.128103,4233.33323,4223.58964,4208.205025,4225.128102,4233.33323,4216.922974,4240.512717,4230.769127,4221.538358,4208.717846,4205.640923,4185.128103,4231.794768
52,0,4186.153744,4236.410153,4229.230666,4215.897333,4234.358871,4233.84605,4224.102461,4239.487076,4228.205025,4236.410153,4177.435795,4199.487077,4192.30759,4233.84605
53,0,4189.743487,4233.84605,4233.33323,4206.666564,4223.07682,4234.358871,4226.153743,4242.051178,4230.256307,4235.384512,4241.025537,4202.564,4206.153743,4243.58964
54,0,4185.128103,4223.07682,4221.025538,4195.384513,4206.666564,4229.743486,4215.897333,4236.922973,4231.281948,4215.384512,4268.205024,4201.538359,4204.102461,4238.461435
55,0,4173.846052,4213.846051,4206.666564,4190.256308,4202.051179,4221.025538,4211.281948,4225.640922,4221.538358,4208.205025,4230.256307,4191.281949,4177.948616,4223.58964
56,0,4173.333231,4219.487076,4211.281948,4187.179385,4201.025538,4221.025538,4215.384512,4231.281948,4216.922974,4208.205025,4216.922974,4191.281949,4156.410155,4221.025538
57,0,4177.435795,4228.205025,4217.435794,4188.717846,4201.538359,4229.230666,4218.461435,4246.666563,4227.179384,4208.205025,4210.256307,4198.461436,4176.410154,4227.179384
58,0,4173.333231,4221.538358,4212.307589,4200.512718,4198.461436,4229.743486,4217.435794,4244.10246,4232.307589,4213.846051,4198.461436,4198.461436,4197.948615,4224.102461
59,0,4174.358872,4213.33323,4212.307589,4209.743487,4199.999897,4227.692204,4215.384512,4235.384512,4228.205025,4224.102461,4236.410153,4201.025538,4188.205026,4225.640922
60,0,4176.922975,4213.33323,4214.358871,4194.358872,4210.256307,4231.794768,4219.999897,4235.384512,4226.666563,4225.128102,4254.871691,4205.128102,4185.128103,4229.743486
61,0,4165.640924,4208.205025,4207.692205,4178.974257,4205.640923,4233.33323,4223.58964,4238.974255,4223.07682,4216.922974,4214.358871,4193.333231,4189.743487,4216.922974
62,0,4161.53836,4204.102461,4206.666564,4186.666564,4189.743487,4230.769127,4223.58964,4238.974255,4222.051179,4215.897333,4194.871692,4186.666564,4176.922975,4207.692205
63,0,4167.179385,4211.794769,4209.743487,4194.871692,4189.230667,4231.281948,4223.07682,4238.461435,4225.128102,4225.640922,4211.794769,4198.461436,4176.410154,4215.897333
64,0,4165.128103,4216.410153,4208.717846,4183.589641,4205.128102,4231.281948,4221.025538,4235.384512,4223.58964,4218.974256,4219.999897,4204.615282,4181.538359,4216.922974
65,0,4167.179385,4216.922974,4210.256307,4188.717846,4215.384512,4230.769127,4215.384512,4231.794768,4220.512717,4203.07682,4216.922974,4199.999897,4190.769128,4215.897333
66,0,4180.512718,4221.025538,4221.538358,4208.205025,4213.33323,4232.307589,4215.897333,4233.84605,4222.563999,4212.307589,4202.564,4203.589641,4211.794769,4228.717845
67,0,4186.153744,4222.051179,4227.179384,4203.589641,4195.384513,4230.769127,4225.640922,4239.999896,4229.743486,4235.384512,4201.025538,4212.82041,4206.153743,4241.025537
68,0,4178.974257,4215.897333,4222.563999,4187.179385,4186.666564,4227.179384,4231.794768,4241.538358,4236.922973,4233.84605,4235.897332,4209.230666,4189.743487,4234.871691
69,0,4172.820411,4212.82041,4215.384512,4190.769128,4205.128102,4227.179384,4227.692204,4237.948614,4232.307589,4218.974256,4238.461435,4201.538359,4197.948615,4223.58964
70,0,4176.410154,4221.025538,4214.358871,4198.974256,4222.051179,4229.743486,4221.025538,4239.487076,4230.769127,4227.179384,4209.230666,4210.256307,4205.640923,4230.769127
71,0,4178.461436,4225.128102,4216.922974,4191.794769,4211.281948,4229.743486,4219.999897,4246.153742,4239.487076,4245.128101,4218.974256,4218.461435,4206.153743,4242.563999
72,0,4172.30759,4215.897333,4215.897333,4189.743487,4195.384513,4227.179384,4218.974256,4241.538358,4236.922973,4231.794768,4218.461435,4206.153743,4205.128102,4231.281948
73,0,4166.153744,4208.205025,4212.307589,4190.769128,4194.871692,4225.128102,4217.948615,4227.179384,4221.538358,4202.051179,4187.179385,4195.384513,4195.384513,4217.435794
74,0,4168.717847,4210.769128,4210.256307,4189.230667,4198.974256,4226.666563,4222.051179,4228.205025,4224.102461,4203.589641,4202.051179,4201.025538,4185.128103,4222.563999
75,0,4172.820411,4213.846051,4209.230666,4191.281949,4211.281948,4231.281948,4223.07682,4239.487076,4236.922973,4222.563999,4217.435794,4205.128102,4190.769128,4227.179384
76,0,4167.692206,4211.281948,4201.025538,4184.615282,4219.999897,4231.794768,4218.461435,4233.33323,4228.717845,4216.410153,4190.769128,4194.358872,4196.922974,4222.051179
77,0,4162.05118,4205.640923,4197.435795,4188.717846,4206.153743,4227.179384,4215.897333,4219.487076,4216.922974,4199.487077,4192.30759,4186.153744,4190.256308,4218.974256
78,0,4169.743488,4208.717846,4205.640923,4207.692205,4196.410154,4227.692204,4219.487076,4227.692204,4220.512717,4209.230666,4215.384512,4194.871692,4195.384513,4222.563999
79,0,4172.820411,4209.743487,4208.717846,4197.435795,4210.256307,4231.281948,4221.025538,4238.974255,4224.615281,4224.102461,4212.307589,4202.051179,4202.051179,4223.07682
80,0,4165.640924,4206.666564,4201.025538,4175.897334,4216.922974,4229.743486,4215.384512,4237.435794,4219.487076,4215.897333,4222.563999,4203.589641,4199.487077,4224.615281
81,0,4170.769129,4208.205025,4205.640923,4186.666564,4206.666564,4228.717845,4217.435794,4232.820409,4218.974256,4199.999897,4229.230666,4210.256307,4202.051179,4227.692204
82,0,4187.692205,4215.897333,4219.487076,4205.640923,4205.640923,4231.281948,4227.692204,4233.84605,4223.07682,4202.564,4197.948615,4213.846051,4213.33323,4230.256307
83,0,4192.30759,4217.948615,4222.051179,4209.230666,4203.589641,4231.794768,4230.769127,4234.358871,4222.051179,4214.871692,4179.487077,4213.846051,4211.281948,4231.794768
84,0,4183.076821,4212.307589,4219.999897,4209.230666,4201.538359,4229.743486,4223.58964,4233.84605,4223.58964,4217.435794,4201.025538,4216.922974,4198.974256,4230.256307
85,0,4183.076821,4207.692205,4225.128102,4202.051179,4215.384512,4229.743486,4225.128102,4236.922973,4230.769127,4212.307589,4226.666563,4221.025538,4205.128102,4233.33323
86,0,4193.333231,4213.33323,4226.666563,4198.461436,4227.692204,4231.794768,4234.358871,4246.666563,4235.384512,4219.487076,4224.102461,4222.563999,4218.974256,4239.999896
87,0,4189.230667,4212.307589,4222.051179,4208.717846,4219.999897,4233.33323,4232.307589,4255.384511,4237.948614,4229.230666,4228.717845,4218.461435,4208.717846,4231.794768
88,0,4167.179385,4199.999897,4211.281948,4209.743487,4213.846051,4231.281948,4221.538358,4244.10246,4232.307589,4221.025538,4238.974255,4205.128102,4189.743487,4211.281948
89,0,4167.179385,4207.179384,4205.640923,4205.640923,4219.487076,4228.205025,4216.410153,4229.230666,4221.538358,4212.82041,4198.461436,4196.410154,4199.487077,4211.794769
90,0,4190.256308,4227.179384,4213.846051,4209.743487,4219.999897,4229.743486,4216.922974,4233.33323,4220.512717,4219.487076,4167.179385,4205.640923,4212.82041,4230.256307
91,0,4195.384513,4227.692204,4218.974256,4209.743487,4218.974256,4232.307589,4217.435794,4237.948614,4227.179384,4226.666563,4214.358871,4215.897333,4204.102461,4235.897332
92,0,4184.102462,4218.974256,4216.922974,4207.179384,4219.487076,4232.307589,4218.461435,4234.871691,4228.717845,4229.230666,4256.922973,4215.897333,4208.717846,4233.84605
93,0,4185.640923,4224.615281,4217.435794,4221.538358,4226.153743,4231.281948,4217.948615,4236.410153,4227.179384,4230.769127,4229.230666,4213.846051,4226.666563,4236.922973
94,0,4196.410154,4234.358871,4218.974256,4229.230666,4229.230666,4231.281948,4216.410153,4232.820409,4226.153743,4222.563999,4215.897333,4215.384512,4225.128102,4240.512717
95,0,4197.948615,4237.435794,4220.512717,4215.384512,4222.563999,4233.33323,4222.051179,4232.820409,4227.179384,4224.615281,4231.281948,4217.435794,4221.538358,4244.10246
96,0,4189.230667,4229.743486,4217.948615,4208.205025,4223.07682,4233.33323,4222.051179,4238.461435,4229.230666,4233.84605,4229.230666,4206.666564,4227.179384,4239.487076
97,0,4174.871693,4219.487076,4203.07682,4205.640923,4233.84605,4229.230666,4212.82041,4231.794768,4228.205025,4229.743486,4223.07682,4190.769128,4226.666563,4230.256307
98,0,4174.358872,4218.461435,4198.974256,4203.07682,4235.384512,4227.692204,4210.256307,4218.974256,4224.615281,4225.128102,4215.384512,4187.179385,4219.999897,4225.640922
99,0,4183.076821,4222.051179,4211.794769,4210.769128,4232.307589,4232.307589,4216.410153,4225.128102,4228.205025,4234.358871,4214.871692,4196.922974,4227.692204,4233.84605
100,0,4191.281949,4233.33323,4216.922974,4216.410153,4237.435794,4234.871691,4218.974256,4237.435794,4235.897332,4240.512717,4237.435794,4212.307589,4241.538358,4244.10246
101,0,4193.846051,4240.512717,4212.82041,4213.846051,4233.84605,4230.769127,4216.922974,4235.897332,4233.84605,4226.153743,4243.58964,4212.82041,4232.307589,4238.461435
102,0,4189.743487,4229.743486,4210.256307,4210.256307,4222.051179,4227.179384,4216.922974,4226.153743,4221.025538,4207.179384,4207.179384,4198.974256,4211.794769,4224.615281
103,0,4188.717846,4222.051179,4210.769128,4202.564,4224.102461,4228.717845,4218.461435,4229.743486,4217.948615,4210.256307,4195.384513,4198.461436,4217.435794,4227.692204
104,0,4196.410154,4229.743486,4222.563999,4210.256307,4231.794768,4229.743486,4218.461435,4242.563999,4231.281948,4232.307589,4232.307589,4218.461435,4236.922973,4244.615281
105,0,4203.589641,4239.487076,4229.743486,4232.820409,4229.230666,4228.205025,4221.025538,4239.487076,4233.84605,4237.948614,4243.58964,4219.999897,4236.410153,4248.205024
106,0,4201.538359,4237.948614,4220.512717,4222.563999,4225.128102,4228.717845,4228.205025,4229.743486,4226.666563,4225.128102,4227.692204,4203.07682,4231.281948,4239.999896
107,0,4199.487077,4238.974255,4216.410153,4206.153743,4230.769127,4234.358871,4233.33323,4236.410153,4228.717845,4232.820409,4232.307589,4205.128102,4242.051178,4245.640922
108,0,4202.051179,4241.538358,4223.07682,4222.051179,4239.999896,4235.384512,4232.307589,4244.10246,4235.897332,4243.076819,4241.538358,4213.33323,4250.256306,4255.384511
109,0,4199.487077,4232.307589,4221.538358,4219.999897,4238.974255,4231.281948,4231.794768,4242.563999,4232.820409,4226.666563,4233.33323,4204.615282,4239.999896,4246.666563
110,0,4195.897333,4222.563999,4213.33323,4197.435795,4233.84605,4231.794768,4231.794768,4246.666563,4229.743486,4222.563999,4229.743486,4200.512718,4235.384512,4239.999896
111,0,4198.974256,4227.692204,4216.922974,4211.794769,4227.692204,4234.358871,4232.820409,4255.897332,4238.461435,4248.717845,4241.025537,4214.358871,4249.230665,4251.281947
112,0,4199.999897,4233.84605,4221.025538,4227.179384,4223.58964,4230.769127,4229.743486,4257.948614,4244.615281,4253.84605,4240.512717,4214.358871,4251.281947,4252.307588
113,0,4193.846051,4221.538358,4215.897333,4213.33323,4226.153743,4224.102461,4221.025538,4244.615281,4234.358871,4229.230666,4223.58964,4197.948615,4233.84605,4235.897332
114,0,4194.358872,4215.897333,4213.846051,4211.794769,4227.692204,4223.58964,4218.974256,4236.922973,4226.153743,4224.615281,4219.999897,4197.435795,4230.256307,4237.948614
115,0,4206.153743,4228.717845,4221.538358,4217.948615,4235.384512,4229.743486,4225.640922,4248.717845,4235.897332,4235.384512,4235.384512,4205.640923,4250.769127,4255.897332
116,0,4212.307589,4235.384512,4222.563999,4216.410153,4239.487076,4233.33323,4226.153743,4255.897332,4242.563999,4235.897332,4240.512717,4205.128102,4256.922973,4256.922973
117,0,4204.615282,4222.051179,4216.410153,4219.487076,4219.487076,4228.205025,4218.461435,4240.512717,4233.84605,4228.717845,4221.538358,4197.948615,4240.512717,4241.025537
118,0,4199.487077,4215.897333,4214.871692,4220.512717,4213.846051,4224.615281,4214.871692,4232.307589,4228.205025,4229.743486,4219.487076,4197.435795,4243.58964,4242.563999
119,0,4203.589641,4227.692204,4217.948615,4209.743487,4246.153742,4229.743486,4217.948615,4241.025537,4234.358871,4235.897332,4237.948614,4202.051179,4253.84605,4255.897332
120,0,4203.589641,4230.769127,4213.846051,4207.179384,4247.179383,4232.307589,4221.025538,4241.025537,4233.33323,4234.358871,4235.897332,4197.948615,4239.999896,4249.743486
121,0,4199.999897,4224.615281,4209.743487,4205.640923,4212.307589,4225.640922,4217.948615,4229.743486,4226.666563,4223.07682,4207.179384,4189.743487,4223.07682,4235.384512
122,0,4198.461436,4229.743486,4215.384512,4200.512718,4217.435794,4220.512717,4212.82041,4228.717845,4225.128102,4219.999897,4202.051179,4193.333231,4225.640922,4238.461435
123,0,4194.871692,4229.230666,4223.07682,4214.358871,4231.281948,4225.640922,4217.435794,4239.487076,4226.153743,4225.640922,4230.256307,4197.948615,4225.128102,4243.58964
124,0,4187.179385,4226.153743,4221.538358,4217.435794,4215.897333,4228.717845,4223.07682,4238.461435,4224.102461,4222.051179,4231.281948,4191.794769,4218.461435,4236.410153
125,0,4188.717846,4246.153742,4221.025538,4200.512718,4214.358871,4226.153743,4221.538358,4229.743486,4222.563999,4213.846051,4207.179384,4193.846051,4219.487076,4235.897332
126,0,4195.384513,4261.538357,4227.692204,4200.512718,4227.692204,4228.205025,4217.948615,4233.84605,4227.179384,4218.974256,4218.974256,4203.07682,4223.58964,4245.640922
127,0,4192.82041,4249.230665,4227.692204,4208.205025,4226.666563,4233.84605,4219.487076,4243.076819,4233.33323,4226.153743,4249.230665,4204.615282,4218.461435,4247.692204
128,0,4184.102462,4245.128101,4219.487076,4201.538359,4221.538358,4233.84605,4218.461435,4240.512717,4231.794768,4221.538358,4237.948614,4196.922974,4207.179384,4238.461435
0,0,4183.076821,4256.922973,4213.846051,4199.487077,4229.230666,4232.307589,4214.871692,4235.384512,4227.179384,4216.410153,4225.640922,4188.717846,4209.743487,4231.281948
1,0,4186.153744,4255.384511,4214.358871,4206.666564,4222.051179,4233.33323,4216.410153,4242.051178,4230.256307,4221.538358,4244.615281,4187.692205,4221.025538,4232.820409
2,0,4185.640923,4251.281947,4217.435794,4216.410153,4205.640923,4232.820409,4218.974256,4250.769127,4236.922973,4228.205025,4253.333229,4190.769128,4227.179384,4238.461435
3,0,4184.102462,4252.307588,4216.410153,4221.025538,4209.743487,4230.769127,4217.948615,4244.10246,4231.794768,4218.974256,4238.974255,4184.102462,4221.025538,4235.384512
4,0,4191.794769,4257.948614,4213.33323,4214.358871,4229.230666,4235.384512,4222.051179,4243.076819,4225.640922,4218.974256,4237.435794,4182.05118,4222.563999,4235.897332
5,0,4199.487077,4265.640921,4216.410153,4210.769128,4240.512717,4242.563999,4231.794768,4255.384511,4233.84605,4235.384512,4245.128101,4192.82041,4236.922973,4245.640922
6,0,4198.461436,4263.589639,4217.435794,4218.461435,4234.358871,4238.461435,4227.692204,4253.333229,4246.153742,4240.512717,4248.717845,4198.974256,4245.640922,4250.769127
7,0,4207.179384,4265.128101,4221.538358,4224.102461,4222.563999,4230.256307,4218.461435,4238.974255,4245.640922,4232.307589,4258.974255,4203.589641,4248.205024,4255.897332
8,0,4224.102461,4280.512716,4233.33323,4233.84605,4220.512717,4231.794768,4224.615281,4245.640922,4243.076819,4229.743486,4275.897331,4218.461435,4262.563998,4270.769126
9,0,4226.666563,4282.563998,4236.410153,4241.025537,4219.487076,4233.33323,4225.640922,4253.333229,4250.769127,4229.230666,4270.256306,4223.07682,4266.153742,4274.35887
10,0,4218.974256,4267.692203,4226.666563,4224.615281,4218.974256,4228.717845,4218.461435,4242.051178,4246.666563,4229.743486,4247.179383,4204.615282,4245.640922,4260.512716
11,0,4220.512717,4264.61528,4228.205025,4218.461435,4231.281948,4230.256307,4225.640922,4242.051178,4240.512717,4235.384512,4241.538358,4194.871692,4243.58964,4255.897332
12,0,4221.538358,4265.640921,4231.794768,4232.307589,4243.58964,4235.384512,4236.410153,4253.84605,4244.615281,4234.358871,4257.435793,4200.512718,4258.974255,4258.974255
13,0,4214.871692,4258.461434,4223.07682,4226.666563,4228.717845,4234.358871,4232.820409,4250.256306,4242.563999,4234.871691,4261.538357,4195.384513,4258.974255,4254.35887
14,0,4212.307589,4256.922973,4218.461435,4209.743487,4199.487077,4229.230666,4227.179384,4237.948614,4235.384512,4238.461435,4251.281947,4189.230667,4249.743486,4251.281947
15,0,4217.948615,4261.025537,4227.692204,4216.410153,4201.025538,4226.666563,4228.717845,4238.974255,4235.897332,4230.256307,4246.666563,4199.487077,4248.717845,4255.897332
16,0,4222.563999,4263.076819,4231.281948,4226.153743,4231.794768,4232.307589,4227.179384,4242.051178,4236.922973,4223.07682,4250.256306,4203.07682,4253.333229,4259.487075
17,0,4213.846051,4256.922973,4221.025538,4214.871692,4232.820409,4230.256307,4218.461435,4233.84605,4232.820409,4226.153743,4259.999896,4196.922974,4253.84605,4253.333229
18,0,4211.281948,4252.307588,4219.487076,4217.435794,4201.025538,4216.922974,4213.33323,4225.640922,4235.384512,4230.256307,4265.640921,4202.564,4253.333229,4251.281947
19,0,4224.102461,4260.512716,4231.281948,4238.461435,4205.640923,4215.384512,4219.487076,4228.717845,4239.487076,4231.281948,4257.435793,4208.717846,4254.871691,4255.897332
20,0,4222.051179,4263.076819,4231.794768,4234.871691,4229.230666,4224.102461,4226.153743,4226.153743,4233.33323,4229.230666,4246.153742,4201.025538,4251.794768,4250.256306
21,0,4213.33323,4257.948614,4224.615281,4225.128102,4218.974256,4228.205025,4226.153743,4220.512717,4229.230666,4227.692204,4251.281947,4200.512718,4253.84605,4248.205024
22,0,4217.948615,4253.333229,4226.666563,4227.692204,4214.871692,4230.769127,4224.102461,4223.07682,4235.897332,4222.563999,4255.897332,4206.666564,4259.487075,4255.384511
23,0,4211.281948,4247.692204,4216.922974,4219.999897,4226.153743,4233.84605,4219.487076,4219.487076,4234.871691,4213.846051,4240.512717,4196.410154,4250.256306,4247.692204
24,0,4200.512718,4245.640922,4205.640923,4208.717846,4216.922974,4232.820409,4215.384512,4206.666564,4218.461435,4208.205025,4229.230666,4187.692205,4238.461435,4231.794768
25,0,4207.179384,4249.230665,4212.82041,4213.33323,4213.846051,4232.820409,4217.948615,4206.153743,4212.307589,4213.33323,4233.84605,4192.30759,4247.692204,4237.435794
26,0,4210.256307,4241.025537,4216.922974,4213.33323,4228.205025,4233.33323,4218.974256,4215.384512,4222.563999,4209.230666,4230.769127,4190.256308,4250.256306,4244.10246
27,0,4202.564,4233.84605,4211.281948,4209.743487,4219.487076,4232.307589,4215.384512,4222.051179,4226.666563,4201.538359,4229.743486,4187.179385,4242.051178,4236.410153
28,0,4205.640923,4241.538358,4214.358871,4223.58964,4197.435795,4231.794768,4218.461435,4225.128102,4227.179384,4210.256307,4245.640922,4198.974256,4254.871691,4238.461435
29,0,4214.871692,4247.692204,4220.512717,4231.281948,4208.205025,4232.307589,4226.666563,4228.205025,4229.743486,4221.025538,4253.84605,4204.102461,4271.281947,4247.692204
30,0,4216.922974,4246.153742,4223.58964,4222.051179,4232.820409,4238.461435,4227.692204,4233.84605,4233.33323,4225.128102,4246.153742,4200.512718,4264.10246,4249.230665
31,0,4217.435794,4249.743486,4225.640922,4221.025538,4234.871691,4243.076819,4228.205025,4243.076819,4238.461435,4233.33323,4243.076819,4209.230666,4255.897332,4250.256306
32,0,4219.487076,4255.897332,4228.205025,4229.743486,4233.33323,4237.948614,4229.743486,4244.10246,4242.051178,4235.897332,4254.35887,4218.974256,4264.61528,4255.897332
33,0,4215.897333,4252.307588,4224.615281,4226.153743,4230.769127,4231.794768,4221.538358,4223.07682,4232.820409,4219.999897,4253.84605,4209.230666,4267.179383,4251.281947
34,0,4214.358871,4237.948614,4215.897333,4221.025538,4208.717846,4230.769127,4213.33323,4197.948615,4219.999897,4203.07682,4233.33323,4197.435795,4254.871691,4240.512717
35,0,4215.897333,4230.769127,4208.205025,4226.153743,4202.564,4230.769127,4216.410153,4196.410154,4219.487076,4204.615282,4217.948615,4192.82041,4249.230665,4237.948614
36,0,4207.692205,4239.487076,4210.256307,4224.615281,4219.487076,4231.794768,4222.051179,4208.717846,4222.563999,4215.384512,4226.666563,4190.769128,4259.487075,4237.948614
37,0,4197.948615,4239.487076,4209.743487,4210.769128,4216.410153,4227.692204,4218.461435,4206.666564,4216.410153,4210.256307,4233.84605,4189.230667,4263.076819,4231.794768
38,0,4208.717846,4236.922973,4203.589641,4205.640923,4204.102461,4219.999897,4212.82041,4199.487077,4211.794769,4197.948615,4222.051179,4189.743487,4264.10246,4238.461435
39,0,4228.717845,4256.410152,4210.769128,4218.461435,4212.307589,4225.640922,4218.974256,4208.205025,4216.410153,4204.102461,4226.153743,4193.846051,4282.051177,4260.512716
40,0,4245.640922,4278.461434,4226.666563,4237.948614,4230.256307,4235.384512,4226.666563,4223.07682,4227.692204,4221.538358,4242.051178,4205.640923,4300.512715,4281.538357
41,0,4277.435793,4292.820408,4237.948614,4248.717845,4239.999896,4234.358871,4225.128102,4226.666563,4232.820409,4222.563999,4247.692204,4223.07682,4311.281946,4314.358869
42,0,4314.358869,4316.922971,4238.974255,4251.794768,4238.461435,4232.307589,4223.07682,4223.07682,4231.281948,4213.846051,4262.051178,4233.33323,4335.89733,4363.076816
43,0,4335.384509,4335.384509,4242.051178,4253.84605,4231.794768,4232.307589,4227.179384,4224.615281,4236.410153,4213.846051,4273.333229,4237.948614,4352.307586,4393.333226
44,0,4347.179381,4340.512714,4246.666563,4255.897332,4227.692204,4229.230666,4223.58964,4231.281948,4244.615281,4227.692204,4265.128101,4242.563999,4353.333227,4404.615277
45,0,4363.589637,4350.256304,4246.666563,4266.153742,4213.33323,4227.692204,4216.922974,4227.692204,4242.051178,4233.84605,4269.230665,4238.974255,4375.897329,4423.589635
46,0,4377.948611,4365.128098,4244.615281,4279.999895,4203.589641,4224.102461,4218.974256,4221.538358,4237.948614,4218.974256,4284.102459,4234.358871,4402.051174,4445.128096
