title:V                                                                               , recorded:06.07.20 13.32.00, sampling:128, subject:B                                                                               , labels:COUNTER INTERPOLATED AF3 F7 F3 FC5 T7 P7 O1 O2 P8 T8 FC6 F4 F8 AF4,, units:emotiv,,,,,,,,,
23,0,4236.922973,4279.487075,4237.435794,4265.640921,4210.769128,4228.717845,4208.717846,4207.692205,4208.205025,4231.794768,4207.692205,4196.922974,4247.692204,4235.384512
24,0,4231.794768,4264.61528,4226.153743,4251.281947,4207.692205,4227.179384,4206.153743,4199.999897,4203.07682,4215.384512,4208.717846,4187.692205,4246.153742,4223.58964
25,0,4234.871691,4246.153742,4227.179384,4239.487076,4214.871692,4226.153743,4202.564,4202.564,4199.999897,4211.281948,4197.948615,4177.948616,4239.487076,4212.307589
26,0,4226.666563,4249.743486,4217.948615,4242.563999,4218.461435,4223.07682,4206.666564,4205.128102,4204.615282,4223.58964,4179.999898,4167.179385,4230.256307,4206.153743
27,0,4206.666564,4256.410152,4218.974256,4242.051178,4207.692205,4222.051179,4209.743487,4203.07682,4197.948615,4217.948615,4174.358872,4165.128103,4217.948615,4196.922974
28,0,4211.281948,4259.999896,4214.871692,4242.051178,4208.205025,4224.615281,4211.794769,4205.128102,4196.922974,4209.230666,4187.692205,4161.53836,4221.538358,4200.512718
29,0,4230.769127,4268.205024,4221.538358,4246.666563,4215.384512,4226.666563,4210.256307,4210.769128,4211.281948,4217.435794,4199.487077,4169.743488,4235.897332,4213.33323
30,0,4238.461435,4271.281947,4222.051179,4249.230665,4215.897333,4226.153743,4211.281948,4216.922974,4221.025538,4236.922973,4216.410153,4182.05118,4256.410152,4232.820409
31,0,4235.897332,4262.563998,4233.84605,4249.743486,4212.307589,4227.692204,4212.82041,4221.538358,4216.922974,4250.256306,4222.563999,4195.384513,4263.076819,4241.025537
32,0,4243.076819,4270.256306,4232.307589,4253.84605,4212.82041,4226.153743,4212.307589,4215.897333,4212.82041,4249.230665,4206.666564,4188.205026,4248.717845,4231.281948
33,0,4247.692204,4279.999895,4226.153743,4254.871691,4215.384512,4223.58964,4205.640923,4205.128102,4206.666564,4228.717845,4197.435795,4179.487077,4231.794768,4230.769127
34,0,4233.84605,4263.589639,4218.974256,4247.179383,4212.82041,4224.102461,4203.07682,4197.948615,4199.999897,4217.948615,4205.128102,4175.897334,4231.794768,4235.384512
35,0,4223.58964,4247.179383,4219.999897,4241.538358,4207.692205,4226.153743,4211.281948,4206.666564,4202.051179,4219.999897,4198.974256,4177.948616,4235.384512,4220.512717
36,0,4234.871691,4262.563998,4219.487076,4246.666563,4214.871692,4227.179384,4223.07682,4221.538358,4207.179384,4220.512717,4191.794769,4179.487077,4236.410153,4219.487076
37,0,4229.743486,4269.230665,4215.384512,4248.717845,4219.999897,4227.692204,4224.615281,4220.512717,4207.692205,4222.051179,4193.333231,4177.435795,4234.358871,4228.205025
38,0,4206.153743,4251.794768,4216.410153,4238.461435,4209.230666,4224.102461,4215.384512,4210.256307,4207.692205,4218.974256,4187.692205,4171.281949,4223.58964,4213.33323
39,0,4217.948615,4253.84605,4215.897333,4235.384512,4205.128102,4224.615281,4211.281948,4209.230666,4215.384512,4230.769127,4195.384513,4171.79477,4230.769127,4216.410153
40,0,4244.10246,4267.179383,4219.999897,4241.025537,4210.769128,4230.256307,4214.358871,4213.846051,4217.948615,4245.640922,4207.692205,4182.564,4249.230665,4246.153742
41,0,4244.10246,4267.179383,4218.461435,4245.640922,4213.846051,4230.256307,4217.435794,4214.358871,4213.33323,4240.512717,4206.153743,4185.128103,4250.256306,4264.61528
42,0,4242.563999,4267.179383,4227.692204,4245.128101,4217.435794,4225.640922,4214.358871,4214.871692,4207.692205,4228.717845,4201.538359,4183.589641,4239.487076,4262.563998
43,0,4266.153742,4279.999895,4225.128102,4245.640922,4221.538358,4223.58964,4214.871692,4212.307589,4206.666564,4233.33323,4203.07682,4182.564,4232.820409,4266.666562
44,0,4283.589639,4282.563998,4229.743486,4249.743486,4209.743487,4223.58964,4216.410153,4212.307589,4210.256307,4232.820409,4197.948615,4191.281949,4224.102461,4277.948613
45,0,4286.666562,4283.076818,4228.205025,4256.410152,4202.051179,4222.051179,4212.307589,4215.384512,4215.384512,4227.692204,4204.615282,4193.846051,4231.794768,4295.38451
46,0,4292.820408,4291.281946,4237.948614,4259.487075,4213.846051,4222.563999,4207.179384,4213.33323,4212.82041,4236.922973,4218.974256,4198.461436,4253.84605,4309.743484
47,0,4307.692202,4303.076818,4234.871691,4262.563998,4224.102461,4225.128102,4208.717846,4208.205025,4207.692205,4244.10246,4218.461435,4195.384513,4256.922973,4311.794766
48,0,4311.281946,4303.076818,4238.974255,4262.563998,4216.922974,4223.58964,4208.717846,4207.179384,4204.615282,4233.84605,4210.769128,4196.410154,4241.538358,4299.487074
49,0,4293.333228,4286.666562,4231.794768,4255.897332,4213.33323,4221.025538,4207.179384,4207.179384,4203.589641,4227.692204,4209.743487,4191.794769,4236.410153,4290.256305
50,0,4270.256306,4271.794767,4226.153743,4245.128101,4215.384512,4221.538358,4204.102461,4206.153743,4201.025538,4223.58964,4202.051179,4186.666564,4235.384512,4280.512716
51,0,4259.999896,4276.410152,4216.410153,4243.076819,4211.281948,4221.025538,4204.615282,4205.128102,4198.974256,4226.153743,4197.948615,4176.410154,4232.307589,4259.999896
52,0,4253.333229,4277.435793,4220.512717,4246.153742,4207.179384,4221.025538,4207.692205,4212.307589,4203.07682,4230.769127,4201.025538,4177.435795,4233.33323,4245.128101
53,0,4260.512716,4272.307588,4223.07682,4250.256306,4215.897333,4222.563999,4212.82041,4221.025538,4212.307589,4229.230666,4203.589641,4183.589641,4239.487076,4261.025537
54,0,4270.256306,4272.307588,4222.051179,4250.769127,4222.051179,4225.640922,4213.33323,4218.974256,4212.82041,4221.538358,4202.051179,4183.589641,4235.384512,4270.769126
55,0,4259.487075,4270.769126,4223.07682,4243.076819,4211.794769,4224.102461,4206.153743,4207.692205,4204.102461,4221.538358,4195.897333,4177.948616,4225.640922,4249.743486
56,0,4248.717845,4263.076819,4221.538358,4234.358871,4200.512718,4218.974256,4198.974256,4203.07682,4198.974256,4220.512717,4186.666564,4178.974257,4219.487076,4242.563999
57,0,4258.461434,4255.897332,4222.051179,4235.384512,4206.666564,4217.948615,4201.538359,4207.692205,4199.487077,4207.179384,4193.846051,4185.128103,4218.461435,4260.512716
58,0,4274.35887,4257.948614,4225.640922,4246.666563,4215.384512,4224.615281,4210.769128,4209.743487,4200.512718,4213.846051,4212.307589,4188.717846,4228.205025,4268.205024
59,0,4279.999895,4272.307588,4236.410153,4255.897332,4215.897333,4226.666563,4212.307589,4208.717846,4197.948615,4234.358871,4210.769128,4192.82041,4235.384512,4259.999896
60,0,4273.846049,4279.999895,4229.743486,4252.820409,4217.435794,4219.999897,4209.230666,4213.33323,4201.025538,4234.871691,4208.717846,4192.30759,4235.897332,4260.512716
61,0,4259.487075,4261.538357,4229.743486,4241.538358,4209.743487,4217.435794,4209.230666,4219.999897,4205.640923,4223.07682,4216.922974,4193.333231,4236.922973,4264.61528
62,0,4259.487075,4250.769127,4225.128102,4241.538358,4199.999897,4220.512717,4210.769128,4215.897333,4207.179384,4228.717845,4215.897333,4188.717846,4239.487076,4258.461434
63,0,4266.153742,4261.538357,4229.743486,4245.640922,4204.615282,4223.07682,4206.666564,4210.256307,4206.153743,4233.84605,4205.128102,4187.692205,4233.84605,4245.640922
64,0,4265.640921,4271.794767,4223.58964,4246.153742,4217.948615,4221.025538,4205.128102,4210.769128,4206.666564,4238.461435,4205.640923,4183.076821,4232.820409,4247.179383
65,0,4263.589639,4268.717844,4229.743486,4244.615281,4219.487076,4219.487076,4206.153743,4212.307589,4203.589641,4251.794768,4208.717846,4186.666564,4233.33323,4247.692204
66,0,4263.076819,4266.666562,4224.102461,4241.538358,4209.743487,4219.999897,4207.179384,4210.256307,4201.025538,4251.281947,4199.999897,4183.076821,4230.769127,4241.025537
67,0,4257.948614,4263.589639,4225.128102,4237.435794,4201.538359,4218.974256,4203.07682,4210.256307,4197.435795,4224.102461,4194.871692,4186.153744,4231.281948,4245.128101
68,0,4261.025537,4262.563998,4224.615281,4241.025537,4212.82041,4214.871692,4203.07682,4207.179384,4195.384513,4214.871692,4205.128102,4191.794769,4236.410153,4258.974255
69,0,4266.153742,4262.051178,4231.281948,4245.128101,4220.512717,4218.974256,4205.128102,4204.615282,4196.922974,4226.153743,4209.743487,4195.384513,4234.358871,4251.794768
70,0,4260.512716,4261.025537,4228.717845,4242.051178,4214.871692,4223.07682,4208.205025,4209.230666,4196.922974,4220.512717,4206.153743,4187.692205,4230.256307,4238.461435
71,0,4260.512716,4259.999896,4229.743486,4238.461435,4215.384512,4219.999897,4208.717846,4214.871692,4195.384513,4211.794769,4206.666564,4188.205026,4230.769127,4245.640922
72,0,4264.61528,4258.974255,4231.281948,4241.538358,4212.307589,4215.897333,4211.281948,4214.358871,4199.487077,4223.07682,4209.743487,4192.30759,4234.358871,4261.025537
73,0,4261.538357,4256.410152,4232.307589,4246.153742,4203.07682,4216.922974,4211.794769,4213.846051,4202.564,4225.640922,4209.743487,4195.384513,4235.384512,4261.538357
74,0,4261.025537,4257.435793,4235.384512,4245.640922,4212.307589,4218.461435,4209.230666,4215.384512,4201.538359,4224.615281,4211.794769,4198.461436,4233.33323,4250.769127
75,0,4266.666562,4254.871691,4232.820409,4239.487076,4223.07682,4217.435794,4207.692205,4213.33323,4202.564,4233.33323,4213.33323,4194.871692,4235.384512,4246.666563
76,0,4267.179383,4251.281947,4229.743486,4234.871691,4209.230666,4214.871692,4206.153743,4209.743487,4201.025538,4225.128102,4208.205025,4187.692205,4233.33323,4245.128101
77,0,4270.256306,4257.435793,4222.563999,4239.999896,4198.461436,4217.948615,4206.666564,4207.692205,4200.512718,4222.051179,4206.666564,4186.666564,4234.871691,4251.794768
78,0,4266.153742,4260.512716,4224.102461,4244.10246,4206.153743,4219.487076,4206.153743,4207.692205,4202.051179,4233.84605,4205.128102,4193.846051,4241.538358,4258.974255
79,0,4239.999896,4247.692204,4217.435794,4236.410153,4211.281948,4216.922974,4207.692205,4204.102461,4202.051179,4226.153743,4202.564,4189.230667,4233.84605,4242.563999
80,0,4225.128102,4230.769127,4221.538358,4225.128102,4212.82041,4217.435794,4206.153743,4205.640923,4204.102461,4205.640923,4205.640923,4184.102462,4222.051179,4222.051179
81,0,4250.769127,4239.487076,4221.538358,4229.230666,4216.922974,4221.025538,4208.717846,4216.922974,4214.871692,4229.743486,4225.128102,4184.102462,4248.205024,4247.179383
82,0,4273.846049,4249.743486,4232.307589,4234.358871,4208.205025,4220.512717,4213.33323,4227.179384,4217.948615,4259.999896,4238.461435,4195.897333,4281.538357,4278.974254
83,0,4273.846049,4244.10246,4226.666563,4229.743486,4196.410154,4217.435794,4212.307589,4223.07682,4211.281948,4248.717845,4237.435794,4195.897333,4283.076818,4278.461434
84,0,4266.153742,4235.897332,4230.256307,4227.179384,4205.640923,4216.410153,4208.205025,4219.487076,4208.205025,4234.358871,4233.84605,4195.897333,4275.384511,4270.256306
85,0,4257.435793,4237.435794,4226.666563,4231.281948,4219.999897,4218.461435,4212.82041,4224.102461,4214.358871,4256.410152,4234.871691,4194.358872,4282.051177,4271.281947
86,0,4243.58964,4228.205025,4229.230666,4227.179384,4217.948615,4222.563999,4216.410153,4225.640922,4216.922974,4265.640921,4233.84605,4195.897333,4282.563998,4262.563998
87,0,4238.461435,4217.948615,4224.102461,4223.07682,4211.794769,4223.58964,4215.897333,4223.07682,4216.922974,4242.563999,4234.871691,4189.743487,4277.948613,4255.897332
88,0,4246.153742,4220.512717,4229.230666,4228.717845,4204.102461,4222.563999,4214.358871,4223.07682,4218.461435,4235.897332,4236.410153,4193.846051,4275.384511,4257.948614
89,0,4260.512716,4227.179384,4231.794768,4231.794768,4206.153743,4221.538358,4212.307589,4222.051179,4219.487076,4247.179383,4239.487076,4199.487077,4274.35887,4264.61528
90,0,4262.051178,4230.769127,4233.84605,4229.230666,4219.487076,4221.025538,4209.230666,4221.025538,4215.897333,4239.487076,4239.487076,4202.564,4272.307588,4266.666562
91,0,4257.948614,4237.948614,4232.820409,4234.358871,4224.102461,4220.512717,4211.794769,4222.051179,4215.384512,4237.435794,4234.358871,4202.564,4275.897331,4262.563998
92,0,4263.076819,4241.025537,4229.743486,4238.461435,4214.871692,4219.487076,4212.307589,4220.512717,4218.974256,4248.717845,4229.743486,4203.07682,4279.487075,4263.589639
93,0,4258.974255,4231.794768,4226.153743,4229.743486,4206.666564,4216.410153,4207.179384,4216.410153,4215.384512,4245.640922,4229.743486,4196.922974,4269.743485,4267.692203
94,0,4254.35887,4229.230666,4221.025538,4226.666563,4206.666564,4214.871692,4205.640923,4213.33323,4208.717846,4231.794768,4230.769127,4190.769128,4260.512716,4263.076819
95,0,4258.974255,4236.922973,4229.743486,4231.794768,4215.897333,4215.384512,4208.205025,4213.846051,4205.128102,4223.07682,4221.538358,4192.30759,4261.538357,4253.84605
96,0,4259.487075,4238.461435,4232.820409,4233.84605,4221.538358,4217.435794,4212.82041,4214.871692,4206.666564,4224.102461,4211.794769,4190.769128,4262.051178,4257.948614
97,0,4256.410152,4228.717845,4234.358871,4231.794768,4212.307589,4218.974256,4212.307589,4212.82041,4206.666564,4225.128102,4210.769128,4190.256308,4253.84605,4255.384511
98,0,4259.487075,4227.692204,4225.640922,4229.743486,4214.358871,4219.487076,4211.794769,4214.358871,4206.666564,4227.692204,4218.974256,4188.717846,4252.307588,4250.769127
99,0,4256.922973,4231.794768,4233.84605,4228.717845,4221.025538,4221.025538,4214.871692,4221.538358,4210.769128,4226.153743,4226.153743,4195.384513,4254.35887,4257.435793
100,0,4254.871691,4228.205025,4233.33323,4233.84605,4216.410153,4221.025538,4216.410153,4222.051179,4215.384512,4228.205025,4223.58964,4197.435795,4255.384511,4256.922973
101,0,4258.974255,4219.999897,4234.358871,4228.717845,4217.948615,4217.435794,4210.769128,4216.410153,4213.846051,4231.794768,4214.871692,4201.538359,4255.384511,4246.666563
102,0,4264.10246,4228.205025,4227.692204,4223.07682,4228.205025,4217.435794,4215.897333,4218.461435,4213.846051,4236.922973,4218.461435,4201.025538,4262.051178,4259.999896
103,0,4270.256306,4248.205024,4242.051178,4235.897332,4231.281948,4223.58964,4227.179384,4233.33323,4217.435794,4231.794768,4234.871691,4208.717846,4270.769126,4280.512716
104,0,4273.846049,4254.35887,4243.076819,4250.256306,4231.794768,4221.025538,4225.640922,4235.384512,4218.461435,4234.358871,4248.205024,4210.769128,4276.410152,4281.538357
105,0,4263.589639,4242.563999,4239.999896,4240.512717,4225.640922,4215.384512,4216.922974,4225.640922,4216.410153,4253.84605,4245.128101,4211.281948,4273.846049,4271.794767
106,0,4260.512716,4235.897332,4233.84605,4227.692204,4215.897333,4215.897333,4217.948615,4222.563999,4214.871692,4256.410152,4234.871691,4204.102461,4266.153742,4269.230665
107,0,4267.179383,4231.281948,4238.974255,4229.230666,4215.897333,4217.948615,4215.897333,4224.102461,4211.794769,4232.307589,4225.640922,4199.999897,4257.948614,4268.717844
108,0,4266.666562,4227.692204,4236.410153,4232.820409,4216.410153,4215.897333,4213.33323,4220.512717,4212.307589,4226.666563,4227.692204,4197.435795,4259.999896,4269.230665
109,0,4253.333229,4229.230666,4231.794768,4230.256307,4211.281948,4217.435794,4214.358871,4216.922974,4212.82041,4231.794768,4231.281948,4197.948615,4262.051178,4265.128101
110,0,4240.512717,4227.692204,4228.717845,4227.692204,4205.640923,4217.435794,4211.281948,4215.384512,4207.179384,4219.487076,4223.07682,4194.871692,4255.384511,4253.333229
111,0,4243.076819,4214.871692,4223.58964,4225.640922,4200.512718,4212.82041,4204.102461,4209.230666,4201.025538,4214.871692,4207.692205,4191.281949,4246.666563,4244.615281
112,0,4257.435793,4213.846051,4224.615281,4224.615281,4206.153743,4213.846051,4203.07682,4208.717846,4203.07682,4227.179384,4208.205025,4192.82041,4248.717845,4253.333229
113,0,4268.205024,4230.769127,4225.640922,4228.717845,4216.922974,4215.897333,4207.179384,4208.717846,4205.640923,4224.615281,4221.025538,4194.871692,4252.820409,4266.153742
114,0,4258.461434,4229.743486,4231.281948,4231.794768,4212.307589,4214.358871,4206.153743,4205.640923,4201.025538,4213.846051,4225.128102,4194.871692,4246.153742,4258.974255
115,0,4249.230665,4221.025538,4229.230666,4235.897332,4209.743487,4215.384512,4209.230666,4207.692205,4205.128102,4224.615281,4229.743486,4194.871692,4250.769127,4258.974255
116,0,4259.999896,4227.179384,4233.84605,4239.487076,4217.948615,4221.025538,4215.384512,4212.82041,4211.281948,4237.948614,4231.281948,4200.512718,4255.897332,4267.179383
117,0,4273.846049,4237.948614,4225.128102,4239.999896,4218.461435,4218.974256,4216.410153,4213.33323,4207.179384,4237.948614,4225.128102,4197.435795,4253.333229,4259.487075
118,0,4265.128101,4231.281948,4228.205025,4239.487076,4212.82041,4215.384512,4211.281948,4209.230666,4204.615282,4231.281948,4228.205025,4199.487077,4255.384511,4253.84605
119,0,4254.35887,4228.205025,4226.666563,4243.58964,4216.410153,4217.948615,4213.33323,4208.717846,4213.33323,4233.33323,4243.076819,4201.538359,4265.640921,4269.743485
120,0,4255.384511,4233.33323,4235.384512,4242.563999,4221.538358,4217.948615,4216.922974,4216.410153,4215.384512,4233.84605,4242.563999,4204.102461,4264.61528,4278.461434
121,0,4265.640921,4241.025537,4232.820409,4244.10246,4224.615281,4214.871692,4219.487076,4222.563999,4213.846051,4242.051178,4238.461435,4201.538359,4267.179383,4281.538357
122,0,4272.820408,4242.051178,4237.435794,4248.205024,4219.487076,4216.922974,4219.487076,4224.615281,4218.461435,4250.256306,4243.076819,4208.717846,4274.87169,4281.538357
123,0,4267.179383,4232.307589,4230.769127,4242.051178,4208.717846,4217.948615,4214.871692,4219.487076,4219.999897,4239.487076,4245.128101,4209.230666,4270.769126,4271.281947
124,0,4258.461434,4226.153743,4232.820409,4233.84605,4207.179384,4217.435794,4212.82041,4212.82041,4216.410153,4225.640922,4241.025537,4209.230666,4261.025537,4265.640921
125,0,4256.922973,4230.769127,4231.281948,4235.897332,4213.846051,4216.410153,4217.948615,4211.281948,4216.410153,4231.794768,4238.461435,4201.538359,4258.461434,4273.846049
126,0,4246.666563,4220.512717,4226.153743,4230.769127,4207.179384,4213.846051,4213.846051,4210.256307,4215.897333,4238.974255,4225.640922,4192.82041,4249.743486,4263.076819
127,0,4231.794768,4203.589641,4212.307589,4218.974256,4196.410154,4208.717846,4205.128102,4206.153743,4211.281948,4230.256307,4210.769128,4184.102462,4237.948614,4239.487076
128,0,4230.256307,4202.051179,4208.717846,4215.897333,4199.487077,4209.743487,4204.615282,4203.07682,4206.666564,4215.897333,4213.33323,4185.128103,4231.794768,4235.384512
0,0,4236.922973,4204.615282,4215.897333,4220.512717,4207.179384,4214.358871,4208.205025,4206.666564,4206.153743,4210.256307,4224.615281,4189.230667,4237.435794,4249.743486
1,0,4242.051178,4209.743487,4217.948615,4226.666563,4204.102461,4216.410153,4208.717846,4207.179384,4208.205025,4217.435794,4231.281948,4193.846051,4249.743486,4263.589639
2,0,4248.717845,4224.102461,4224.615281,4231.281948,4198.461436,4211.794769,4208.205025,4205.640923,4213.846051,4225.640922,4234.871691,4200.512718,4258.974255,4268.205024
3,0,4257.948614,4227.179384,4228.717845,4233.84605,4198.974256,4209.743487,4206.666564,4207.692205,4218.461435,4221.025538,4238.974255,4203.589641,4257.435793,4269.230665
4,0,4265.128101,4215.384512,4232.820409,4236.410153,4208.205025,4211.794769,4203.589641,4207.692205,4213.33323,4217.435794,4237.435794,4203.589641,4250.769127,4270.256306
5,0,4266.666562,4216.410153,4223.58964,4235.384512,4217.435794,4211.794769,4204.102461,4203.589641,4209.230666,4230.256307,4237.435794,4199.487077,4253.333229,4273.333229
6,0,4247.692204,4221.025538,4224.615281,4227.179384,4204.615282,4209.743487,4202.564,4202.051179,4208.205025,4226.666563,4233.33323,4199.487077,4249.743486,4266.153742
7,0,4232.307589,4218.461435,4218.461435,4228.205025,4192.30759,4207.692205,4203.07682,4202.051179,4207.692205,4212.307589,4223.07682,4192.82041,4239.487076,4255.384511
8,0,4239.999896,4211.281948,4221.025538,4231.281948,4204.102461,4211.794769,4206.666564,4204.102461,4209.743487,4211.281948,4214.871692,4192.30759,4234.358871,4247.179383
9,0,4248.205024,4209.230666,4211.794769,4222.563999,4217.948615,4216.922974,4208.717846,4205.640923,4214.871692,4224.102461,4218.461435,4186.666564,4240.512717,4250.256306
10,0,4240.512717,4213.33323,4215.897333,4217.435794,4210.769128,4214.358871,4202.051179,4205.640923,4214.358871,4220.512717,4222.563999,4186.666564,4242.051178,4252.307588
11,0,4242.563999,4225.128102,4215.897333,4231.794768,4201.538359,4208.717846,4203.07682,4206.153743,4213.33323,4212.82041,4227.692204,4189.743487,4244.10246,4257.948614
12,0,4251.281947,4228.205025,4225.640922,4238.974255,4199.999897,4210.256307,4208.205025,4209.230666,4214.358871,4216.922974,4232.307589,4199.999897,4246.153742,4263.589639
13,0,4253.333229,4224.102461,4224.102461,4234.358871,4208.205025,4211.281948,4209.743487,4209.230666,4216.922974,4225.640922,4230.256307,4196.922974,4242.051178,4264.10246
14,0,4250.769127,4221.025538,4221.538358,4231.281948,4216.922974,4209.230666,4206.153743,4206.666564,4213.846051,4222.051179,4222.051179,4191.281949,4237.435794,4259.487075
15,0,4245.640922,4222.051179,4214.871692,4226.153743,4209.230666,4210.256307,4206.153743,4206.153743,4209.230666,4215.897333,4223.07682,4186.666564,4238.461435,4255.897332
16,0,4241.025537,4215.384512,4217.435794,4224.102461,4196.410154,4212.307589,4206.666564,4206.153743,4208.205025,4219.487076,4224.615281,4188.205026,4239.999896,4254.35887
17,0,4236.922973,4202.564,4216.922974,4225.640922,4195.897333,4210.256307,4206.153743,4206.666564,4212.82041,4217.435794,4215.384512,4187.179385,4231.794768,4247.179383
18,0,4230.769127,4203.07682,4217.435794,4222.563999,4202.051179,4209.230666,4208.717846,4213.846051,4217.435794,4207.179384,4218.461435,4192.30759,4228.205025,4246.153742
19,0,4245.640922,4223.07682,4224.615281,4225.640922,4213.33323,4211.794769,4215.897333,4219.487076,4217.435794,4214.871692,4235.897332,4201.538359,4244.10246,4258.461434
20,0,4263.589639,4238.461435,4224.615281,4235.897332,4223.07682,4213.846051,4218.461435,4216.922974,4216.922974,4231.281948,4235.897332,4204.102461,4248.205024,4264.10246
21,0,4245.640922,4229.230666,4221.538358,4233.84605,4215.384512,4210.256307,4212.82041,4212.307589,4215.897333,4219.999897,4221.025538,4198.461436,4228.717845,4256.922973
22,0,4230.769127,4218.974256,4213.846051,4226.153743,4205.640923,4209.743487,4209.230666,4207.179384,4210.769128,4203.07682,4213.846051,4192.30759,4219.999897,4255.384511
23,0,4246.153742,4225.640922,4218.461435,4229.230666,4203.589641,4211.794769,4207.692205,4205.128102,4207.692205,4207.692205,4210.256307,4192.82041,4219.999897,4253.84605
24,0,4253.333229,4235.384512,4219.999897,4238.974255,4206.153743,4209.743487,4209.230666,4209.743487,4210.256307,4222.051179,4208.205025,4193.333231,4213.33323,4244.615281
25,0,4241.538358,4234.871691,4228.717845,4241.538358,4213.846051,4214.358871,4213.33323,4211.281948,4210.769128,4219.487076,4214.358871,4201.025538,4208.205025,4241.025537
26,0,4250.256306,4237.948614,4222.563999,4236.922973,4220.512717,4219.999897,4216.922974,4208.717846,4211.281948,4214.358871,4222.051179,4202.051179,4214.358871,4249.230665
27,0,4268.205024,4240.512717,4230.769127,4233.33323,4216.410153,4214.358871,4216.410153,4215.384512,4212.82041,4219.999897,4219.999897,4205.128102,4216.922974,4256.410152
28,0,4274.87169,4244.10246,4230.256307,4244.615281,4217.435794,4210.256307,4222.563999,4224.102461,4215.384512,4233.33323,4222.051179,4203.589641,4222.051179,4261.538357
29,0,4266.666562,4242.563999,4232.307589,4249.230665,4219.487076,4213.33323,4223.07682,4220.512717,4214.871692,4232.820409,4224.615281,4210.256307,4222.563999,4256.410152
30,0,4251.281947,4235.384512,4224.615281,4239.487076,4209.743487,4210.256307,4215.384512,4214.358871,4214.871692,4220.512717,4219.487076,4212.307589,4218.461435,4250.769127
31,0,4239.999896,4226.666563,4228.205025,4233.33323,4207.179384,4211.794769,4212.307589,4215.897333,4213.33323,4212.307589,4211.281948,4209.743487,4213.846051,4246.153742
32,0,4248.717845,4227.179384,4224.615281,4235.897332,4217.948615,4216.922974,4218.461435,4215.897333,4213.846051,4215.897333,4215.384512,4204.102461,4214.871692,4247.179383
33,0,4261.025537,4230.769127,4226.666563,4238.461435,4218.974256,4214.358871,4218.461435,4211.281948,4213.33323,4216.410153,4222.051179,4208.717846,4218.461435,4250.769127
34,0,4252.820409,4229.743486,4224.102461,4236.410153,4216.410153,4212.307589,4210.769128,4208.717846,4210.769128,4210.769128,4213.846051,4203.589641,4216.922974,4243.58964
35,0,4237.948614,4225.640922,4223.07682,4231.794768,4216.922974,4214.871692,4207.179384,4210.256307,4211.281948,4210.769128,4203.07682,4201.025538,4210.769128,4231.794768
36,0,4243.076819,4230.256307,4223.07682,4232.307589,4206.666564,4211.794769,4210.769128,4212.307589,4217.948615,4220.512717,4209.230666,4208.205025,4217.948615,4239.999896
37,0,4255.897332,4235.897332,4224.615281,4235.384512,4201.538359,4210.769128,4212.82041,4218.461435,4222.563999,4227.179384,4221.538358,4215.897333,4232.820409,4255.384511
38,0,4258.461434,4229.230666,4228.205025,4235.897332,4212.82041,4211.281948,4210.769128,4220.512717,4219.487076,4223.58964,4221.538358,4208.717846,4226.153743,4254.871691
39,0,4255.897332,4225.128102,4221.538358,4234.358871,4217.435794,4212.307589,4210.256307,4212.82041,4216.922974,4212.307589,4212.82041,4200.512718,4214.358871,4251.794768
40,0,4251.281947,4231.794768,4220.512717,4232.820409,4215.384512,4212.82041,4212.307589,4212.82041,4212.82041,4198.461436,4209.230666,4205.128102,4218.461435,4249.743486
41,0,4249.743486,4234.871691,4220.512717,4233.33323,4213.33323,4211.281948,4214.358871,4215.897333,4207.179384,4204.102461,4212.82041,4205.640923,4221.538358,4242.563999
42,0,4251.281947,4228.717845,4228.205025,4235.384512,4208.205025,4210.256307,4212.307589,4212.82041,4207.179384,4216.410153,4210.256307,4204.615282,4210.769128,4235.384512
43,0,4248.205024,4230.256307,4219.487076,4235.384512,4210.256307,4211.794769,4210.769128,4209.743487,4214.358871,4214.871692,4208.205025,4201.538359,4207.692205,4237.948614
44,0,4240.512717,4228.205025,4221.025538,4229.743486,4215.384512,4209.743487,4207.179384,4208.717846,4212.82041,4205.640923,4209.743487,4202.564,4210.769128,4237.435794
45,0,4242.563999,4225.128102,4216.922974,4228.717845,4214.871692,4207.692205,4206.666564,4205.640923,4206.666564,4203.589641,4209.743487,4198.461436,4211.794769,4232.820409
46,0,4245.128101,4224.615281,4224.102461,4229.743486,4207.692205,4209.743487,4202.051179,4205.640923,4205.640923,4197.435795,4206.153743,4202.051179,4210.256307,4229.743486
47,0,4244.615281,4221.538358,4217.948615,4229.230666,4201.538359,4208.717846,4197.948615,4206.666564,4207.692205,4202.051179,4207.179384,4198.974256,4213.33323,4232.820409
48,0,4243.076819,4215.897333,4218.461435,4224.615281,4198.974256,4206.153743,4196.922974,4205.128102,4208.205025,4206.666564,4201.025538,4194.871692,4209.230666,4232.307589
49,0,4241.538358,4222.563999,4212.307589,4223.58964,4210.256307,4205.128102,4204.102461,4207.692205,4214.358871,4203.589641,4195.384513,4188.717846,4202.564,4228.205025
50,0,4239.487076,4228.205025,4217.948615,4227.179384,4218.461435,4211.281948,4210.256307,4215.384512,4218.461435,4207.692205,4198.974256,4195.897333,4202.564,4222.563999
51,0,4245.128101,4223.07682,4214.358871,4225.128102,4219.487076,4215.897333,4211.281948,4216.922974,4213.33323,4212.82041,4204.102461,4194.871692,4209.743487,4223.58964
52,0,4245.640922,4219.487076,4214.358871,4219.999897,4215.384512,4212.82041,4209.230666,4210.256307,4204.102461,4207.692205,4202.051179,4192.82041,4209.743487,4230.256307
53,0,4238.461435,4220.512717,4212.82041,4226.666563,4207.692205,4208.717846,4207.692205,4205.128102,4202.051179,4206.153743,4198.974256,4192.30759,4202.564,4229.743486
54,0,4239.999896,4216.410153,4212.307589,4228.717845,4206.666564,4209.743487,4205.128102,4204.615282,4202.564,4200.512718,4194.358872,4193.846051,4200.512718,4222.051179
55,0,4248.205024,4218.974256,4213.33323,4223.07682,4217.435794,4211.281948,4207.179384,4206.153743,4201.538359,4193.846051,4191.281949,4194.358872,4207.179384,4227.179384
56,0,4255.384511,4231.794768,4213.33323,4229.743486,4227.692204,4212.82041,4214.358871,4209.743487,4197.948615,4192.30759,4199.487077,4195.384513,4209.743487,4242.563999
57,0,4245.128101,4227.692204,4209.743487,4231.794768,4220.512717,4212.307589,4214.358871,4208.717846,4201.025538,4189.743487,4204.615282,4189.230667,4203.589641,4240.512717
58,0,4234.871691,4216.410153,4202.051179,4223.58964,4210.256307,4212.82041,4214.358871,4210.256307,4213.33323,4209.230666,4203.589641,4182.564,4208.205025,4230.256307
59,0,4247.179383,4227.179384,4205.128102,4227.179384,4216.922974,4213.846051,4221.538358,4217.948615,4218.974256,4232.307589,4208.205025,4189.230667,4219.487076,4232.820409
60,0,4266.666562,4244.10246,4195.384513,4237.435794,4232.820409,4212.307589,4225.128102,4216.410153,4213.33323,4228.717845,4218.461435,4185.640923,4223.07682,4243.58964
61,0,4265.640921,4240.512717,4188.205026,4235.897332,4233.33323,4211.281948,4220.512717,4210.256307,4208.717846,4210.256307,4220.512717,4180.512718,4228.205025,4248.717845
62,0,4245.640922,4229.743486,4186.666564,4231.281948,4221.538358,4212.307589,4219.999897,4213.846051,4214.871692,4207.179384,4218.974256,4181.538359,4229.743486,4245.640922
63,0,4228.717845,4222.051179,4204.102461,4226.666563,4210.256307,4212.307589,4218.974256,4219.487076,4216.922974,4215.897333,4216.922974,4191.281949,4215.897333,4231.794768
64,0,4248.717845,4228.717845,4206.153743,4227.692204,4211.794769,4212.307589,4219.487076,4220.512717,4221.538358,4237.435794,4224.615281,4199.999897,4228.205025,4243.58964
65,0,4279.999895,4242.051178,4221.025538,4234.358871,4227.692204,4216.922974,4222.563999,4226.666563,4227.179384,4249.743486,4241.025537,4212.82041,4257.948614,4271.794767
66,0,4274.87169,4242.563999,4225.640922,4235.384512,4235.384512,4218.461435,4224.102461,4228.205025,4224.102461,4235.897332,4247.179383,4211.281948,4264.10246,4275.897331
67,0,4254.35887,4224.102461,4227.692204,4228.717845,4224.615281,4221.025538,4224.102461,4223.07682,4215.897333,4217.435794,4237.435794,4212.307589,4254.35887,4259.999896
68,0,4251.794768,4208.205025,4217.948615,4222.051179,4219.487076,4221.025538,4227.179384,4225.640922,4217.948615,4221.538358,4237.948614,4212.307589,4260.512716,4256.410152
69,0,4238.461435,4194.358872,4223.07682,4214.358871,4215.384512,4215.897333,4221.538358,4227.179384,4218.974256,4233.84605,4240.512717,4209.230666,4259.999896,4250.256306
70,0,4224.102461,4187.692205,4224.615281,4211.281948,4210.769128,4213.846051,4211.794769,4215.897333,4212.82041,4232.307589,4230.769127,4200.512718,4247.179383,4241.538358
71,0,4235.384512,4193.846051,4224.102461,4215.897333,4215.384512,4215.384512,4210.769128,4211.794769,4212.307589,4216.410153,4221.538358,4203.589641,4241.025537,4239.999896
72,0,4250.256306,4203.07682,4222.563999,4219.999897,4221.025538,4216.922974,4218.974256,4222.051179,4218.974256,4218.974256,4224.102461,4206.666564,4245.128101,4239.487076
73,0,4251.281947,4204.615282,4228.717845,4219.487076,4216.922974,4220.512717,4222.563999,4227.179384,4220.512717,4233.84605,4229.743486,4212.307589,4253.84605,4246.153742
74,0,4241.538358,4199.487077,4233.33323,4220.512717,4212.307589,4222.051179,4219.999897,4223.58964,4216.922974,4233.84605,4236.922973,4214.358871,4258.974255,4257.435793
75,0,4238.461435,4202.051179,4228.717845,4222.563999,4219.999897,4217.948615,4217.948615,4223.58964,4219.487076,4227.179384,4244.615281,4213.846051,4261.538357,4257.948614
76,0,4250.769127,4216.410153,4230.769127,4223.07682,4231.794768,4217.435794,4218.974256,4229.230666,4226.153743,4230.256307,4245.640922,4214.871692,4261.538357,4250.769127
77,0,4257.948614,4225.640922,4225.128102,4226.666563,4229.743486,4221.025538,4221.025538,4229.743486,4227.692204,4240.512717,4241.025537,4209.230666,4261.538357,4248.205024
78,0,4249.230665,4218.974256,4223.58964,4227.692204,4223.07682,4219.999897,4221.538358,4228.717845,4222.051179,4240.512717,4232.820409,4205.640923,4255.384511,4245.640922
79,0,4239.487076,4211.281948,4218.461435,4223.58964,4225.640922,4221.538358,4223.07682,4225.640922,4216.922974,4231.794768,4226.153743,4202.564,4246.666563,4242.563999
80,0,4227.179384,4202.051179,4221.025538,4215.384512,4221.538358,4222.563999,4218.974256,4221.025538,4213.33323,4215.384512,4222.051179,4200.512718,4242.051178,4236.410153
81,0,4223.07682,4197.435795,4211.794769,4214.358871,4217.435794,4218.461435,4216.922974,4220.512717,4213.33323,4207.692205,4223.07682,4195.897333,4245.640922,4231.794768
82,0,4233.84605,4202.051179,4219.999897,4215.897333,4217.948615,4217.948615,4218.974256,4225.640922,4215.384512,4219.487076,4221.025538,4200.512718,4245.640922,4230.256307
83,0,4244.10246,4211.794769,4220.512717,4216.922974,4216.922974,4221.538358,4222.563999,4229.743486,4219.487076,4227.692204,4224.615281,4200.512718,4244.615281,4235.897332
84,0,4241.025537,4211.794769,4227.692204,4222.051179,4221.538358,4222.051179,4221.025538,4231.794768,4222.563999,4224.615281,4231.281948,4205.128102,4247.179383,4241.538358
85,0,4241.538358,4216.410153,4228.205025,4229.230666,4230.256307,4220.512717,4222.563999,4236.410153,4226.666563,4237.948614,4237.948614,4211.794769,4254.871691,4251.281947
86,0,4243.076819,4221.025538,4232.820409,4229.230666,4219.487076,4222.051179,4225.640922,4237.435794,4228.205025,4244.615281,4238.461435,4217.435794,4254.871691,4253.84605
87,0,4242.051178,4214.358871,4224.102461,4225.128102,4211.794769,4222.563999,4225.640922,4230.256307,4223.07682,4231.281948,4234.871691,4207.692205,4247.692204,4243.076819
88,0,4241.025537,4210.256307,4224.615281,4221.538358,4218.461435,4222.051179,4220.512717,4223.58964,4216.410153,4220.512717,4222.051179,4202.051179,4239.999896,4229.743486
89,0,4243.076819,4216.410153,4225.128102,4225.640922,4219.999897,4223.58964,4221.538358,4226.153743,4216.922974,4223.58964,4211.281948,4200.512718,4239.999896,4228.717845
90,0,4243.58964,4215.384512,4232.307589,4237.948614,4221.538358,4225.640922,4229.230666,4230.769127,4222.051179,4222.051179,4214.871692,4206.153743,4241.025537,4234.871691
91,0,4241.025537,4211.281948,4234.871691,4240.512717,4233.84605,4225.640922,4229.743486,4228.717845,4222.563999,4215.384512,4221.538358,4206.153743,4239.487076,4237.435794
92,0,4236.922973,4214.358871,4227.179384,4231.281948,4231.281948,4225.128102,4221.538358,4223.07682,4217.948615,4212.307589,4222.051179,4204.102461,4242.563999,4235.897332
93,0,4236.922973,4211.794769,4225.128102,4230.256307,4212.82041,4222.051179,4216.410153,4221.025538,4215.897333,4214.358871,4222.051179,4202.051179,4247.692204,4236.410153
94,0,4243.076819,4206.666564,4228.717845,4237.435794,4208.717846,4218.974256,4219.999897,4221.538358,4217.948615,4225.128102,4226.666563,4202.564,4250.769127,4243.58964
95,0,4244.615281,4209.230666,4229.230666,4234.871691,4219.999897,4219.487076,4224.615281,4221.025538,4219.487076,4231.281948,4230.769127,4206.153743,4251.281947,4245.128101
96,0,4239.487076,4210.769128,4216.922974,4231.281948,4224.102461,4222.563999,4227.179384,4221.025538,4219.487076,4226.666563,4233.33323,4205.128102,4245.640922,4240.512717
97,0,4234.871691,4201.025538,4218.974256,4228.717845,4215.897333,4223.58964,4218.461435,4216.410153,4214.871692,4212.307589,4228.717845,4202.564,4235.384512,4239.999896
98,0,4237.435794,4200.512718,4221.538358,4228.717845,4214.358871,4222.051179,4213.33323,4214.871692,4213.33323,4207.179384,4227.692204,4198.461436,4238.461435,4244.615281
99,0,4235.897332,4206.153743,4233.84605,4231.281948,4215.897333,4221.538358,4215.897333,4219.487076,4216.410153,4211.794769,4227.692204,4203.07682,4241.538358,4238.974255
100,0,4236.410153,4202.051179,4231.281948,4233.33323,4211.794769,4222.051179,4214.871692,4215.897333,4217.948615,4216.922974,4219.487076,4199.487077,4236.922973,4233.33323
101,0,4236.410153,4190.256308,4237.435794,4226.153743,4212.82041,4224.615281,4213.33323,4215.897333,4215.897333,4216.410153,4212.82041,4200.512718,4234.358871,4229.743486
102,0,4231.281948,4197.435795,4238.974255,4223.07682,4221.538358,4226.666563,4217.948615,4225.640922,4215.897333,4216.922974,4226.153743,4204.615282,4242.563999,4234.358871
103,0,4235.384512,4214.871692,4247.692204,4229.743486,4221.025538,4225.640922,4218.974256,4227.692204,4215.897333,4219.487076,4234.871691,4211.281948,4244.615281,4245.128101
104,0,4251.281947,4225.128102,4239.487076,4237.948614,4217.948615,4223.58964,4220.512717,4221.538358,4215.897333,4223.07682,4229.743486,4205.128102,4235.897332,4249.230665
105,0,4251.794768,4226.153743,4235.897332,4240.512717,4217.435794,4225.128102,4219.999897,4222.563999,4215.897333,4218.974256,4219.487076,4200.512718,4219.999897,4235.384512
106,0,4242.563999,4233.33323,4226.666563,4242.051178,4214.358871,4224.102461,4215.384512,4217.948615,4213.846051,4210.256307,4210.256307,4194.871692,4210.256307,4227.179384
107,0,4249.230665,4241.538358,4230.769127,4248.205024,4212.82041,4221.538358,4215.897333,4211.794769,4211.794769,4206.153743,4207.692205,4200.512718,4209.743487,4238.461435
108,0,4262.051178,4245.640922,4235.897332,4253.84605,4221.538358,4222.563999,4225.128102,4219.999897,4217.948615,4218.461435,4219.999897,4208.717846,4220.512717,4247.692204
109,0,4269.743485,4249.743486,4238.461435,4255.897332,4230.769127,4225.640922,4226.666563,4224.102461,4222.563999,4233.84605,4234.358871,4213.33323,4231.281948,4248.717845
110,0,4277.948613,4255.384511,4238.974255,4256.410152,4235.384512,4224.102461,4223.58964,4219.487076,4219.487076,4230.256307,4237.948614,4210.256307,4230.769127,4250.256306
111,0,4282.563998,4256.410152,4238.461435,4255.897332,4231.794768,4224.102461,4222.051179,4216.922974,4214.871692,4215.897333,4230.256307,4208.717846,4223.07682,4252.307588
112,0,4273.333229,4247.692204,4239.487076,4253.333229,4221.025538,4226.153743,4222.051179,4217.948615,4215.384512,4214.871692,4222.563999,4209.743487,4221.538358,4250.256306
113,0,4265.128101,4240.512717,4236.922973,4253.333229,4213.33323,4225.640922,4225.128102,4221.025538,4217.435794,4217.948615,4223.58964,4209.230666,4223.58964,4246.666563
114,0,4265.640921,4244.615281,4239.999896,4255.384511,4218.974256,4225.640922,4223.58964,4223.07682,4216.922974,4212.82041,4223.07682,4210.769128,4221.025538,4243.58964
115,0,4263.589639,4250.256306,4231.281948,4252.307588,4231.794768,4226.666563,4217.435794,4221.025538,4217.948615,4217.948615,4223.07682,4207.692205,4223.58964,4237.435794
116,0,4258.461434,4241.025537,4227.692204,4245.640922,4229.743486,4224.102461,4211.794769,4222.051179,4221.025538,4225.128102,4224.102461,4206.153743,4224.615281,4233.33323
117,0,4257.948614,4230.256307,4221.025538,4243.076819,4219.999897,4219.999897,4211.281948,4223.58964,4221.538358,4219.487076,4219.999897,4201.538359,4218.974256,4239.487076
118,0,4256.410152,4230.256307,4228.717845,4243.58964,4217.948615,4221.025538,4215.897333,4222.563999,4217.435794,4212.307589,4211.794769,4205.640923,4210.769128,4237.948614
119,0,4251.794768,4230.256307,4219.999897,4244.615281,4216.410153,4223.07682,4220.512717,4222.051179,4218.461435,4221.025538,4212.82041,4203.589641,4209.743487,4228.205025
120,0,4248.717845,4221.025538,4218.974256,4239.487076,4211.281948,4223.07682,4215.384512,4223.07682,4219.999897,4217.948615,4213.33323,4199.487077,4206.666564,4223.58964
121,0,4250.769127,4222.051179,4220.512717,4233.84605,4218.461435,4223.07682,4213.33323,4224.615281,4218.461435,4210.769128,4212.307589,4198.461436,4208.205025,4231.281948
122,0,4243.58964,4223.58964,4230.256307,4232.820409,4224.102461,4223.58964,4214.358871,4224.102461,4217.435794,4218.974256,4217.435794,4207.179384,4212.82041,4235.384512
123,0,4239.999896,4215.384512,4222.563999,4233.84605,4218.974256,4219.999897,4213.33323,4217.435794,4217.435794,4214.358871,4221.538358,4205.128102,4212.307589,4231.794768
124,0,4241.025537,4205.128102,4218.974256,4230.256307,4212.307589,4217.948615,4209.743487,4214.358871,4213.846051,4193.333231,4212.82041,4201.538359,4205.128102,4221.025538
125,0,4241.025537,4210.769128,4211.281948,4229.230666,4213.846051,4221.025538,4215.384512,4218.974256,4216.410153,4208.717846,4209.743487,4195.897333,4204.615282,4221.025538
126,0,4244.615281,4222.563999,4212.307589,4235.384512,4226.666563,4226.666563,4224.615281,4224.102461,4224.102461,4238.461435,4218.974256,4199.487077,4213.846051,4233.33323
127,0,4248.717845,4218.461435,4213.33323,4236.922973,4233.84605,4223.58964,4223.58964,4221.538358,4223.58964,4228.205025,4217.948615,4199.487077,4214.358871,4231.281948
128,0,4237.435794,4205.128102,4213.846051,4231.281948,4218.461435,4216.922974,4212.307589,4213.846051,4212.82041,4197.435795,4200.512718,4195.897333,4197.948615,4213.846051
0,0,4227.179384,4207.692205,4212.82041,4228.717845,4207.179384,4215.897333,4202.564,4205.640923,4204.102461,4188.205026,4191.281949,4189.743487,4184.615282,4209.230666
1,0,4241.538358,4221.025538,4211.794769,4234.358871,4212.307589,4218.461435,4204.615282,4205.128102,4207.692205,4197.948615,4198.461436,4195.384513,4193.333231,4217.435794
2,0,4253.333229,4226.153743,4219.487076,4239.999896,4216.410153,4217.435794,4208.717846,4212.307589,4213.846051,4201.538359,4207.692205,4206.666564,4206.153743,4226.153743
3,0,4246.666563,4223.07682,4220.512717,4236.922973,4217.435794,4216.922974,4207.692205,4212.82041,4212.82041,4196.410154,4211.281948,4205.640923,4207.179384,4231.794768
4,0,4243.58964,4216.410153,4219.487076,4228.717845,4218.974256,4219.999897,4205.640923,4206.666564,4206.153743,4198.461436,4212.82041,4200.512718,4205.640923,4224.102461
5,0,4248.717845,4215.897333,4209.743487,4231.281948,4221.538358,4219.487076,4203.07682,4204.615282,4209.743487,4205.640923,4215.897333,4196.410154,4209.743487,4217.948615
6,0,4241.025537,4221.025538,4212.307589,4236.410153,4221.025538,4216.922974,4201.538359,4207.692205,4211.281948,4202.051179,4212.307589,4200.512718,4210.256307,4220.512717
7,0,4230.256307,4224.615281,4204.615282,4233.33323,4215.384512,4217.435794,4205.128102,4207.692205,4205.640923,4206.666564,4210.769128,4194.871692,4210.769128,4220.512717
8,0,4234.358871,4210.769128,4207.179384,4226.153743,4207.179384,4216.410153,4204.102461,4206.153743,4205.128102,4212.307589,4214.358871,4190.769128,4213.33323,4217.948615
9,0,4245.128101,4202.564,4205.128102,4226.666563,4212.307589,4211.281948,4202.051179,4211.281948,4216.410153,4212.82041,4218.461435,4189.743487,4217.948615,4224.102461
10,0,4249.230665,4214.871692,4212.82041,4231.281948,4216.410153,4211.794769,4204.102461,4216.410153,4220.512717,4217.948615,4221.025538,4197.948615,4219.999897,4230.256307
11,0,4256.922973,4227.692204,4210.256307,4236.922973,4218.974256,4215.897333,4212.82041,4217.435794,4218.461435,4230.256307,4228.205025,4200.512718,4227.692204,4234.871691
12,0,4258.461434,4221.538358,4213.33323,4234.871691,4229.230666,4215.897333,4215.384512,4218.974256,4219.999897,4228.205025,4228.205025,4203.07682,4226.666563,4237.435794
13,0,4252.820409,4222.051179,4206.666564,4232.307589,4232.820409,4216.410153,4213.33323,4215.897333,4224.102461,4222.563999,4226.153743,4197.948615,4223.07682,4244.615281
14,0,4263.076819,4233.33323,4207.179384,4237.948614,4222.051179,4217.435794,4211.281948,4211.281948,4219.999897,4214.358871,4228.717845,4197.948615,4223.58964,4248.205024
15,0,4277.435793,4235.897332,4201.538359,4239.487076,4218.974256,4210.769128,4209.230666,4210.769128,4213.846051,4204.102461,4224.615281,4195.384513,4219.999897,4245.128101
16,0,4266.666562,4231.281948,4201.025538,4234.358871,4221.538358,4207.179384,4203.07682,4210.769128,4213.846051,4205.640923,4212.82041,4193.333231,4208.205025,4241.538358
17,0,4252.820409,4226.153743,4198.461436,4233.84605,4216.922974,4208.717846,4199.999897,4206.153743,4217.948615,4210.769128,4209.743487,4189.230667,4201.025538,4234.358871
18,0,4261.025537,4226.153743,4198.974256,4239.487076,4220.512717,4210.256307,4207.692205,4209.743487,4216.922974,4203.07682,4209.230666,4191.794769,4199.999897,4220.512717
19,0,4263.076819,4235.897332,4204.615282,4241.025537,4228.205025,4214.358871,4214.358871,4216.410153,4213.846051,4186.666564,4202.051179,4196.410154,4198.974256,4217.948615
20,0,4248.717845,4235.897332,4202.051179,4237.948614,4222.051179,4218.461435,4212.307589,4211.794769,4212.82041,4176.922975,4202.564,4195.897333,4196.922974,4227.179384
21,0,4237.948614,4219.999897,4197.948615,4233.84605,4222.051179,4217.435794,4208.717846,4208.205025,4214.871692,4170.256308,4205.640923,4190.256308,4191.281949,4221.538358
22,0,4243.076819,4215.897333,4197.435795,4231.281948,4232.820409,4213.846051,4210.769128,4208.205025,4217.435794,4166.666565,4201.538359,4185.128103,4185.640923,4210.769128
23,0,4244.10246,4215.897333,4203.589641,4228.717845,4230.769127,4211.281948,4208.717846,4206.666564,4212.307589,4157.948616,4196.410154,4188.205026,4184.102462,4204.615282
24,0,4233.84605,4213.33323,4192.30759,4223.58964,4224.615281,4212.307589,4203.589641,4203.07682,4207.179384,4152.307591,4193.333231,4188.205026,4189.230667,4205.640923
25,0,4230.769127,4215.384512,4198.974256,4218.461435,4221.025538,4212.82041,4201.538359,4206.666564,4207.179384,4157.948616,4190.256308,4191.281949,4191.794769,4210.256307
26,0,4235.897332,4216.410153,4202.564,4220.512717,4215.384512,4211.794769,4202.564,4211.794769,4206.153743,4158.974257,4200.512718,4189.230667,4192.30759,4212.82041
27,0,4234.871691,4204.615282,4206.153743,4218.974256,4215.384512,4210.256307,4197.948615,4207.692205,4197.948615,4145.640924,4207.692205,4190.769128,4188.205026,4207.179384
28,0,4243.58964,4204.615282,4203.589641,4216.922974,4224.615281,4208.717846,4196.922974,4206.153743,4201.538359,4146.153745,4204.102461,4192.30759,4189.230667,4206.153743
29,0,4251.281947,4219.487076,4219.999897,4222.051179,4230.256307,4212.307589,4204.615282,4215.384512,4211.281948,4158.974257,4204.102461,4203.589641,4196.410154,4215.384512
30,0,4244.615281,4224.102461,4214.871692,4225.128102,4226.666563,4216.922974,4209.743487,4216.922974,4211.794769,4158.461437,4213.33323,4204.615282,4201.025538,4223.07682
31,0,4235.384512,4207.692205,4207.179384,4216.410153,4215.384512,4214.871692,4202.564,4208.205025,4208.205025,4149.230668,4208.205025,4201.025538,4193.333231,4219.487076
32,0,4240.512717,4201.538359,4203.589641,4214.358871,4215.384512,4208.717846,4202.051179,4209.743487,4212.82041,4158.461437,4206.153743,4194.358872,4194.358872,4219.999897
33,0,4253.333229,4215.384512,4212.307589,4223.07682,4226.666563,4212.82041,4208.205025,4219.487076,4217.948615,4174.358872,4216.410153,4197.435795,4205.128102,4223.58964
34,0,4262.051178,4224.102461,4208.205025,4228.205025,4231.794768,4219.487076,4210.769128,4218.461435,4216.922974,4171.79477,4219.487076,4198.461436,4210.769128,4223.07682
35,0,4253.84605,4213.846051,4207.692205,4224.102461,4228.717845,4216.922974,4210.256307,4216.410153,4214.871692,4152.307591,4214.871692,4198.974256,4208.717846,4221.538358
36,0,4247.179383,4212.82041,4210.769128,4222.563999,4227.179384,4216.410153,4212.307589,4218.461435,4216.410153,4152.307591,4216.922974,4195.384513,4209.230666,4226.666563
37,0,4256.410152,4223.58964,4208.717846,4226.666563,4227.692204,4221.538358,4213.33323,4218.974256,4216.922974,4172.30759,4217.435794,4191.794769,4208.205025,4229.743486
38,0,4250.769127,4220.512717,4206.153743,4227.179384,4231.794768,4221.025538,4210.769128,4214.358871,4216.410153,4175.384513,4207.179384,4188.205026,4199.999897,4219.999897
39,0,4232.820409,4208.205025,4207.179384,4226.666563,4237.948614,4217.435794,4210.769128,4214.358871,4217.948615,4166.153744,4202.564,4189.743487,4199.487077,4211.794769
40,0,4238.461435,4205.640923,4216.922974,4227.692204,4229.743486,4217.435794,4211.794769,4219.999897,4216.410153,4164.615283,4204.102461,4196.922974,4204.102461,4211.794769
41,0,4250.769127,4210.256307,4213.33323,4228.717845,4216.410153,4217.948615,4208.717846,4216.410153,4208.717846,4166.153744,4204.102461,4195.384513,4202.564,4223.58964
42,0,4243.58964,4210.256307,4213.846051,4224.615281,4225.640922,4218.974256,4204.102461,4210.769128,4206.153743,4154.871693,4208.205025,4193.846051,4201.538359,4232.307589
43,0,4242.051178,4211.281948,4214.358871,4221.538358,4241.025537,4221.538358,4209.743487,4216.410153,4213.33323,4155.897334,4218.974256,4195.897333,4211.794769,4229.230666
44,0,4243.076819,4203.07682,4224.615281,4216.922974,4230.769127,4219.999897,4210.256307,4221.025538,4212.82041,4158.974257,4213.846051,4199.487077,4211.794769,4219.487076
45,0,4236.922973,4197.435795,4215.384512,4217.435794,4216.410153,4219.487076,4203.07682,4218.974256,4211.281948,4161.53836,4204.615282,4193.846051,4204.615282,4221.025538
46,0,4236.922973,4207.692205,4221.025538,4222.051179,4222.051179,4222.563999,4206.666564,4228.205025,4217.948615,4176.922975,4215.384512,4199.999897,4208.717846,4231.794768
47,0,4246.153742,4215.384512,4222.051179,4223.07682,4231.281948,4222.051179,4214.871692,4235.384512,4225.128102,4190.256308,4229.743486,4203.07682,4215.384512,4236.922973
48,0,4244.615281,4205.128102,4224.102461,4216.410153,4225.640922,4220.512717,4209.230666,4224.615281,4220.512717,4182.564,4217.948615,4201.025538,4204.102461,4227.692204
49,0,4243.58964,4203.589641,4212.82041,4217.948615,4225.128102,4222.051179,4205.640923,4215.384512,4212.82041,4168.717847,4204.615282,4194.358872,4195.897333,4219.487076
50,0,4243.58964,4211.794769,4217.948615,4227.179384,4229.230666,4222.563999,4209.230666,4218.461435,4211.281948,4156.922975,4203.589641,4197.948615,4199.999897,4221.025538
51,0,4232.820409,4207.179384,4218.461435,4226.153743,4225.640922,4221.025538,4207.692205,4221.538358,4214.358871,4157.435796,4205.128102,4195.384513,4202.051179,4224.102461
52,0,4225.640922,4198.461436,4216.922974,4215.384512,4222.563999,4219.487076,4203.07682,4220.512717,4215.897333,4171.281949,4204.615282,4192.82041,4196.922974,4214.871692
53,0,4229.230666,4201.025538,4212.307589,4216.922974,4228.205025,4218.461435,4206.153743,4220.512717,4214.358871,4176.922975,4204.102461,4190.256308,4198.974256,4206.153743
54,0,4231.281948,4205.640923,4215.897333,4226.666563,4231.281948,4221.025538,4208.205025,4221.025538,4213.33323,4164.102462,4203.589641,4193.333231,4205.128102,4212.82041
55,0,4227.179384,4204.102461,4214.358871,4222.051179,4227.692204,4223.07682,4203.07682,4218.461435,4209.230666,4156.922975,4202.564,4191.794769,4201.025538,4222.051179
56,0,4222.051179,4199.999897,4203.589641,4213.33323,4221.538358,4217.948615,4195.384513,4212.307589,4205.128102,4159.999898,4196.922974,4187.692205,4191.794769,4217.948615
57,0,4220.512717,4205.128102,4203.07682,4217.435794,4219.999897,4214.358871,4195.897333,4213.33323,4210.769128,4169.230667,4197.435795,4187.179385,4191.281949,4212.307589
58,0,4226.153743,4211.281948,4204.102461,4226.153743,4229.743486,4217.948615,4199.999897,4216.410153,4213.33323,4170.769129,4206.153743,4187.692205,4196.410154,4218.461435
59,0,4226.666563,4207.179384,4208.717846,4227.692204,4234.358871,4219.999897,4198.461436,4217.435794,4207.179384,4157.948616,4204.102461,4191.794769,4193.846051,4223.07682
60,0,4226.666563,4202.051179,4210.256307,4226.153743,4232.820409,4219.999897,4203.589641,4221.025538,4210.256307,4170.256308,4201.538359,4197.435795,4198.461436,4224.102461
61,0,4236.410153,4205.128102,4218.974256,4227.692204,4234.871691,4223.07682,4209.743487,4225.640922,4217.435794,4187.692205,4208.205025,4206.153743,4208.717846,4227.179384
62,0,4239.487076,4209.743487,4210.256307,4224.102461,4228.717845,4221.025538,4207.179384,4223.58964,4213.846051,4174.871693,4211.794769,4199.999897,4207.179384,4231.794768
63,0,4230.769127,4201.538359,4211.281948,4221.025538,4217.435794,4218.461435,4204.102461,4223.07682,4210.256307,4165.128103,4208.205025,4193.846051,4200.512718,4231.794768
64,0,4230.769127,4199.487077,4207.692205,4225.128102,4223.58964,4222.051179,4209.230666,4224.615281,4217.435794,4178.974257,4208.205025,4192.30759,4207.179384,4230.256307
65,0,4231.281948,4203.07682,4210.256307,4223.07682,4226.153743,4223.07682,4207.179384,4220.512717,4212.82041,4178.974257,4202.564,4194.871692,4206.666564,4221.538358
66,0,4233.33323,4205.640923,4203.589641,4221.538358,4225.128102,4219.487076,4203.589641,4216.922974,4205.640923,4174.358872,4201.538359,4189.743487,4197.948615,4217.948615
67,0,4237.435794,4201.538359,4211.281948,4228.717845,4232.307589,4220.512717,4206.153743,4221.538358,4209.743487,4175.897334,4204.615282,4192.82041,4193.846051,4223.58964
68,0,4234.358871,4198.974256,4205.640923,4229.743486,4227.692204,4223.07682,4206.666564,4219.487076,4208.717846,4170.256308,4198.974256,4188.717846,4193.846051,4228.205025
69,0,4219.999897,4194.358872,4202.051179,4218.461435,4217.948615,4222.051179,4199.999897,4209.230666,4203.07682,4163.076821,4189.230667,4185.640923,4191.281949,4223.58964
70,0,4215.897333,4196.922974,4197.948615,4220.512717,4221.025538,4219.487076,4201.538359,4209.230666,4210.769128,4171.79477,4189.743487,4185.640923,4196.922974,4222.051179
71,0,4223.07682,4196.410154,4198.974256,4228.205025,4223.07682,4218.974256,4205.128102,4213.33323,4215.384512,4173.333231,4190.256308,4188.717846,4200.512718,4222.563999
72,0,4222.563999,4183.589641,4194.871692,4221.025538,4215.897333,4219.999897,4200.512718,4204.102461,4205.128102,4163.589642,4188.205026,4182.05118,4194.358872,4218.974256
73,0,4215.897333,4176.922975,4193.333231,4214.358871,4211.794769,4220.512717,4194.871692,4198.461436,4200.512718,4160.512719,4190.769128,4180.512718,4190.256308,4218.461435
74,0,4209.743487,4182.564,4190.769128,4214.871692,4212.82041,4219.999897,4198.461436,4201.538359,4203.589641,4165.128103,4193.333231,4182.05118,4194.871692,4222.563999
75,0,4212.307589,4190.256308,4184.615282,4218.461435,4217.948615,4221.538358,4202.564,4203.589641,4206.666564,4168.717847,4193.846051,4178.461436,4200.512718,4222.051179
76,0,4213.846051,4186.666564,4184.102462,4219.999897,4216.410153,4219.999897,4195.897333,4201.025538,4210.769128,4169.743488,4187.179385,4171.281949,4193.846051,4212.307589
77,0,4202.051179,4175.897334,4178.974257,4217.435794,4211.281948,4216.922974,4189.743487,4199.999897,4210.256307,4171.281949,4178.461436,4167.692206,4182.05118,4205.640923
78,0,4197.435795,4176.922975,4179.487077,4212.307589,4211.794769,4213.846051,4189.743487,4197.948615,4209.230666,4175.384513,4182.564,4172.820411,4185.128103,4211.794769
79,0,4211.794769,4187.179385,4176.922975,4213.33323,4206.153743,4210.769128,4190.256308,4198.461436,4214.871692,4184.615282,4198.461436,4173.846052,4202.564,4225.128102
80,0,4218.461435,4182.564,4185.640923,4221.025538,4203.07682,4215.897333,4194.358872,4201.538359,4215.897333,4185.128103,4205.640923,4174.358872,4211.794769,4231.281948
81,0,4216.410153,4179.999898,4187.179385,4226.153743,4218.974256,4222.563999,4206.666564,4201.025538,4214.358871,4181.538359,4206.153743,4172.820411,4217.948615,4236.922973
82,0,4217.948615,4186.153744,4194.871692,4222.563999,4225.640922,4219.487076,4206.666564,4202.564,4213.846051,4173.333231,4203.589641,4175.897334,4224.102461,4238.974255
83,0,4217.948615,4179.999898,4188.205026,4222.051179,4219.999897,4216.922974,4201.538359,4204.102461,4211.794769,4166.666565,4205.640923,4175.384513,4226.666563,4243.076819
84,0,4208.717846,4168.717847,4193.333231,4224.102461,4211.794769,4221.025538,4204.102461,4205.640923,4212.307589,4170.769129,4211.794769,4180.512718,4223.07682,4247.179383
85,0,4204.615282,4175.384513,4191.794769,4221.538358,4203.07682,4220.512717,4203.589641,4206.153743,4217.435794,4188.205026,4215.897333,4178.974257,4223.58964,4243.58964
86,0,4206.153743,4181.025539,4197.948615,4217.948615,4205.640923,4219.487076,4198.461436,4204.615282,4217.435794,4190.256308,4215.897333,4182.05118,4224.102461,4236.410153
87,0,4218.461435,4180.512718,4197.435795,4220.512717,4222.563999,4220.512717,4202.051179,4207.179384,4222.051179,4182.564,4218.974256,4182.564,4228.717845,4247.179383
88,0,4230.769127,4179.999898,4206.666564,4224.102461,4219.999897,4220.512717,4207.692205,4217.948615,4228.205025,4190.769128,4215.384512,4185.640923,4230.769127,4257.435793
89,0,4224.615281,4177.948616,4206.153743,4225.128102,4209.230666,4219.487076,4209.230666,4219.999897,4225.128102,4201.538359,4209.743487,4183.589641,4227.692204,4249.743486
90,0,4200.512718,4165.640924,4198.974256,4216.410153,4205.128102,4216.922974,4202.051179,4206.666564,4217.435794,4191.281949,4204.615282,4177.948616,4220.512717,4232.820409
91,0,4181.538359,4157.435796,4189.743487,4205.128102,4198.461436,4210.769128,4192.30759,4198.974256,4212.82041,4176.922975,4196.410154,4166.153744,4212.82041,4219.999897
92,0,4186.153744,4156.410155,4187.179385,4209.230666,4202.051179,4210.256307,4190.769128,4197.948615,4207.692205,4175.384513,4189.743487,4164.615283,4207.692205,4217.435794
93,0,4198.461436,4158.461437,4187.179385,4218.461435,4215.384512,4216.410153,4195.897333,4194.871692,4204.615282,4173.846052,4189.230667,4170.256308,4209.743487,4222.051179
94,0,4202.051179,4161.025539,4189.230667,4224.615281,4215.384512,4217.948615,4201.025538,4197.948615,4210.256307,4175.384513,4197.435795,4172.820411,4218.461435,4228.717845
95,0,4202.051179,4163.076821,4198.974256,4239.999896,4204.615282,4214.871692,4204.615282,4203.07682,4216.410153,4187.179385,4210.769128,4178.461436,4223.58964,4235.384512
96,0,4204.102461,4167.179385,4199.487077,4263.589639,4202.564,4216.922974,4206.153743,4201.538359,4216.410153,4197.435795,4219.487076,4184.102462,4227.179384,4242.051178
97,0,4206.666564,4175.897334,4205.640923,4278.461434,4208.717846,4218.974256,4205.640923,4202.051179,4215.897333,4192.30759,4218.461435,4187.179385,4232.820409,4247.179383
98,0,4216.410153,4185.128103,4203.07682,4281.025536,4217.948615,4214.871692,4205.640923,4207.179384,4219.487076,4182.05118,4216.922974,4185.128103,4237.435794,4256.922973
99,0,4223.07682,4178.461436,4208.205025,4276.410152,4221.025538,4212.82041,4201.025538,4205.640923,4219.487076,4186.153744,4211.281948,4186.153744,4232.307589,4253.84605
100,0,4217.435794,4170.256308,4206.666564,4270.256306,4212.82041,4214.871692,4202.051179,4202.564,4218.461435,4206.666564,4213.846051,4184.615282,4227.179384,4247.692204
101,0,4208.717846,4169.743488,4210.256307,4260.512716,4207.179384,4214.358871,4205.640923,4201.538359,4216.410153,4208.205025,4216.922974,4185.128103,4224.102461,4246.666563
102,0,4210.256307,4176.922975,4199.999897,4256.922973,4208.717846,4215.897333,4205.640923,4198.974256,4216.922974,4196.922974,4212.307589,4183.076821,4221.538358,4246.153742
103,0,4213.846051,4181.025539,4209.230666,4260.512716,4207.692205,4220.512717,4205.128102,4200.512718,4219.487076,4192.82041,4206.666564,4191.794769,4215.897333,4244.10246
104,0,4212.82041,4183.589641,4212.82041,4258.461434,4213.33323,4218.974256,4209.230666,4207.179384,4221.025538,4197.948615,4209.743487,4190.256308,4218.461435,4247.179383
105,0,4213.33323,4184.102462,4211.794769,4248.717845,4216.410153,4214.871692,4209.230666,4205.640923,4219.487076,4198.461436,4214.871692,4185.640923,4225.128102,4243.58964
106,0,4216.410153,4182.564,4206.153743,4247.692204,4214.358871,4214.871692,4207.179384,4198.461436,4216.410153,4195.897333,4217.948615,4181.538359,4227.179384,4239.999896
107,0,4213.33323,4178.974257,4216.922974,4253.84605,4218.461435,4221.538358,4207.179384,4200.512718,4216.410153,4194.871692,4216.922974,4187.179385,4226.153743,4249.743486
108,0,4216.922974,4179.999898,4220.512717,4251.281947,4219.487076,4222.563999,4208.205025,4202.051179,4221.538358,4199.487077,4219.487076,4187.692205,4228.717845,4262.563998
109,0,4224.615281,4186.153744,4216.410153,4245.128101,4211.794769,4217.948615,4210.256307,4201.025538,4224.615281,4204.615282,4225.640922,4195.897333,4233.33323,4267.179383
110,0,4217.948615,4185.640923,4211.794769,4243.58964,4214.358871,4215.897333,4210.256307,4203.07682,4219.487076,4205.128102,4228.205025,4201.538359,4235.384512,4259.487075
111,0,4204.615282,4178.974257,4211.794769,4241.025537,4213.33323,4214.358871,4203.589641,4198.974256,4214.358871,4209.743487,4226.666563,4193.333231,4232.307589,4248.717845
112,0,4209.743487,4178.461436,4212.307589,4235.384512,4206.153743,4213.846051,4199.999897,4193.846051,4217.948615,4212.307589,4223.58964,4188.717846,4227.179384,4248.717845
113,0,4219.999897,4181.025539,4206.153743,4230.769127,4212.82041,4215.897333,4207.692205,4199.487077,4221.538358,4210.256307,4223.07682,4191.281949,4228.205025,4252.307588
114,0,4211.281948,4175.384513,4206.666564,4225.128102,4209.743487,4216.922974,4209.743487,4204.102461,4219.999897,4209.743487,4217.948615,4190.769128,4226.666563,4249.743486
115,0,4205.128102,4175.384513,4205.128102,4225.128102,4198.461436,4215.897333,4205.640923,4200.512718,4219.999897,4210.769128,4216.922974,4189.230667,4226.153743,4251.281947
116,0,4213.33323,4183.589641,4207.692205,4232.820409,4209.743487,4221.025538,4207.692205,4201.025538,4219.487076,4214.358871,4224.615281,4198.461436,4231.794768,4259.487075
117,0,4215.384512,4187.179385,4193.846051,4232.820409,4222.051179,4222.051179,4212.82041,4203.589641,4221.538358,4214.358871,4228.205025,4197.435795,4229.230666,4257.948614
118,0,4207.179384,4180.512718,4191.281949,4224.102461,4215.897333,4213.846051,4207.179384,4202.564,4219.999897,4199.999897,4222.051179,4193.333231,4223.07682,4248.717845
119,0,4213.846051,4181.025539,4188.717846,4225.128102,4210.256307,4208.717846,4202.051179,4198.461436,4216.410153,4198.974256,4223.58964,4193.846051,4236.922973,4254.35887
120,0,4220.512717,4184.615282,4202.051179,4229.230666,4205.128102,4213.33323,4204.102461,4199.999897,4218.461435,4218.461435,4229.230666,4203.589641,4245.640922,4263.589639
121,0,4221.025538,4181.538359,4201.025538,4227.179384,4204.102461,4220.512717,4214.358871,4203.589641,4228.205025,4232.307589,4234.358871,4203.589641,4241.538358,4267.179383
122,0,4221.538358,4174.358872,4199.487077,4222.051179,4212.307589,4219.999897,4215.384512,4204.102461,4227.692204,4218.974256,4235.897332,4205.128102,4238.974255,4264.10246
123,0,4217.948615,4176.410154,4191.281949,4222.563999,4219.999897,4217.435794,4211.281948,4203.589641,4222.051179,4210.769128,4236.410153,4200.512718,4244.615281,4263.589639
124,0,4209.230666,4177.948616,4196.922974,4221.538358,4215.897333,4220.512717,4210.256307,4205.128102,4222.563999,4216.410153,4237.948614,4196.922974,4246.153742,4261.025537
125,0,4206.666564,4174.871693,4191.794769,4217.435794,4204.615282,4218.461435,4212.82041,4208.717846,4225.640922,4216.410153,4236.922973,4190.769128,4246.666563,4256.922973
126,0,4208.205025,4174.358872,4192.82041,4216.410153,4198.974256,4214.871692,4213.846051,4212.307589,4226.153743,4213.33323,4229.230666,4193.333231,4245.640922,4255.384511
127,0,4207.692205,4178.974257,4193.333231,4221.538358,4207.179384,4214.871692,4217.435794,4213.846051,4227.179384,4218.974256,4227.692204,4193.333231,4245.640922,4259.999896
128,0,4204.615282,4178.461436,4190.769128,4223.07682,4207.692205,4215.384512,4216.410153,4209.230666,4227.179384,4219.999897,4230.256307,4191.281949,4246.153742,4255.897332
0,0,4200.512718,4175.897334,4188.717846,4220.512717,4206.153743,4214.871692,4212.82041,4207.179384,4226.153743,4216.410153,4231.281948,4189.230667,4243.58964,4246.153742
1,0,4207.179384,4180.512718,4198.974256,4224.102461,4217.948615,4219.487076,4220.512717,4213.846051,4231.794768,4229.743486,4237.435794,4198.461436,4247.179383,4257.435793
2,0,4217.435794,4184.615282,4208.717846,4226.153743,4214.358871,4221.538358,4227.692204,4216.922974,4233.33323,4233.84605,4237.435794,4208.717846,4245.640922,4265.640921
3,0,4211.281948,4182.564,4198.974256,4223.58964,4204.615282,4218.461435,4220.512717,4211.281948,4223.58964,4217.435794,4226.666563,4203.07682,4234.871691,4252.307588
4,0,4196.922974,4175.384513,4195.384513,4220.512717,4209.230666,4218.974256,4213.846051,4206.153743,4218.461435,4207.692205,4222.051179,4196.410154,4229.230666,4243.076819
5,0,4194.871692,4173.333231,4196.410154,4222.563999,4211.281948,4218.461435,4220.512717,4210.769128,4224.615281,4215.384512,4229.230666,4197.948615,4233.84605,4249.743486
6,0,4197.948615,4176.410154,4207.692205,4222.563999,4208.717846,4216.410153,4225.128102,4217.948615,4226.153743,4221.025538,4232.307589,4205.640923,4238.974255,4251.794768
7,0,4206.153743,4184.102462,4204.615282,4221.025538,4212.307589,4220.512717,4223.58964,4220.512717,4226.153743,4226.153743,4236.410153,4205.640923,4240.512717,4252.307588
8,0,4217.948615,4183.589641,4210.256307,4224.102461,4214.871692,4223.07682,4223.07682,4219.999897,4232.307589,4233.84605,4237.948614,4207.692205,4238.461435,4255.384511
9,0,4222.563999,4186.153744,4209.230666,4231.281948,4221.538358,4221.025538,4227.692204,4221.538358,4238.974255,4244.10246,4237.948614,4205.128102,4242.563999,4261.538357
10,0,4216.410153,4192.82041,4214.871692,4231.794768,4224.615281,4221.025538,4225.640922,4222.563999,4233.84605,4237.948614,4237.948614,4204.615282,4245.640922,4259.487075
11,0,4212.82041,4191.794769,4204.615282,4224.102461,4213.33323,4222.051179,4222.563999,4216.410153,4223.58964,4221.538358,4234.358871,4196.922974,4239.487076,4250.256306
12,0,4198.974256,4183.076821,4202.051179,4219.487076,4204.615282,4220.512717,4222.051179,4212.307589,4218.974256,4214.871692,4223.07682,4195.897333,4227.179384,4237.435794
13,0,4189.743487,4181.025539,4199.999897,4218.461435,4211.281948,4219.999897,4222.563999,4214.358871,4222.563999,4217.948615,4215.384512,4192.30759,4223.58964,4226.153743
14,0,4203.589641,4180.512718,4210.256307,4218.461435,4219.487076,4221.025538,4218.461435,4208.205025,4218.974256,4209.230666,4208.717846,4194.358872,4221.538358,4225.128102
15,0,4217.435794,4186.666564,4216.922974,4225.128102,4223.58964,4220.512717,4219.487076,4205.640923,4215.897333,4202.051179,4212.307589,4198.974256,4225.128102,4244.615281
16,0,4212.82041,4192.30759,4225.128102,4230.256307,4217.948615,4222.563999,4224.102461,4215.897333,4223.07682,4212.307589,4224.615281,4208.205025,4232.820409,4251.281947
17,0,4203.07682,4186.153744,4226.666563,4223.07682,4213.33323,4223.07682,4224.615281,4219.999897,4227.179384,4227.179384,4229.743486,4209.743487,4234.871691,4234.871691
18,0,4199.487077,4182.564,4223.58964,4213.846051,4216.410153,4221.025538,4221.538358,4215.384512,4222.051179,4230.256307,4225.128102,4210.256307,4232.820409,4234.871691
19,0,4201.538359,4191.794769,4216.410153,4217.435794,4218.461435,4220.512717,4223.07682,4216.410153,4223.07682,4225.640922,4227.692204,4206.666564,4234.871691,4249.230665
20,0,4206.666564,4190.769128,4210.256307,4221.025538,4220.512717,4224.102461,4228.717845,4222.563999,4229.743486,4223.58964,4234.871691,4200.512718,4238.461435,4252.820409
21,0,4206.153743,4182.05118,4214.871692,4213.33323,4216.410153,4221.538358,4229.743486,4220.512717,4231.794768,4226.153743,4236.410153,4199.999897,4237.948614,4247.179383
22,0,4205.128102,4191.794769,4214.358871,4212.82041,4212.307589,4217.948615,4227.692204,4217.948615,4232.820409,4239.487076,4242.051178,4200.512718,4246.153742,4243.58964
23,0,4201.538359,4201.538359,4214.871692,4218.974256,4216.410153,4221.538358,4225.640922,4218.461435,4230.256307,4239.999896,4243.58964,4199.999897,4253.333229,4246.666563
24,0,4204.615282,4194.871692,4210.256307,4220.512717,4218.974256,4222.563999,4224.615281,4215.384512,4224.102461,4226.666563,4236.410153,4197.435795,4247.179383,4251.794768
25,0,4212.307589,4186.153744,4215.897333,4214.358871,4215.897333,4218.461435,4221.538358,4213.846051,4224.615281,4222.563999,4225.128102,4198.461436,4234.871691,4248.205024
26,0,4213.33323,4184.615282,4212.82041,4209.743487,4215.897333,4217.435794,4222.051179,4216.922974,4232.820409,4234.358871,4224.102461,4194.358872,4234.871691,4243.076819
27,0,4205.640923,4186.153744,4219.487076,4210.769128,4213.33323,4221.025538,4222.563999,4221.025538,4231.794768,4236.410153,4230.256307,4195.897333,4235.384512,4239.999896
28,0,4207.692205,4195.384513,4214.358871,4218.461435,4210.256307,4217.948615,4220.512717,4217.948615,4228.205025,4235.384512,4231.281948,4191.794769,4232.820409,4239.999896
29,0,4212.307589,4193.333231,4215.897333,4215.384512,4212.307589,4213.846051,4219.487076,4217.948615,4230.256307,4235.384512,4226.666563,4192.30759,4231.281948,4239.487076
30,0,4209.743487,4178.974257,4206.666564,4202.051179,4216.922974,4216.922974,4221.538358,4216.922974,4229.230666,4227.692204,4225.128102,4187.179385,4230.769127,4239.999896
31,0,4207.179384,4179.487077,4207.692205,4199.999897,4216.410153,4221.025538,4217.435794,4206.666564,4219.999897,4209.743487,4221.025538,4187.179385,4224.102461,4232.820409
32,0,4209.230666,4198.461436,4205.128102,4209.230666,4215.384512,4219.999897,4215.384512,4203.589641,4218.974256,4209.230666,4219.487076,4186.153744,4221.025538,4229.230666
33,0,4208.205025,4199.487077,4213.33323,4209.230666,4216.922974,4219.487076,4219.487076,4211.281948,4224.102461,4223.58964,4222.051179,4191.794769,4227.179384,4232.307589
34,0,4205.128102,4189.743487,4214.358871,4205.640923,4221.025538,4219.487076,4222.563999,4215.384512,4228.205025,4231.281948,4226.666563,4193.846051,4236.922973,4238.461435
35,0,4210.256307,4195.384513,4214.871692,4210.769128,4217.948615,4218.461435,4221.538358,4213.846051,4231.281948,4231.281948,4232.820409,4198.974256,4243.076819,4244.615281
36,0,4221.025538,4207.692205,4217.435794,4219.487076,4213.846051,4218.461435,4226.153743,4220.512717,4235.384512,4246.153742,4239.487076,4200.512718,4245.640922,4244.615281
37,0,4218.974256,4203.07682,4218.974256,4217.948615,4214.358871,4220.512717,4228.717845,4225.640922,4232.820409,4252.820409,4237.948614,4197.948615,4243.58964,4243.076819
38,0,4207.692205,4195.897333,4216.922974,4207.692205,4212.82041,4220.512717,4227.179384,4225.128102,4228.717845,4232.307589,4236.410153,4194.358872,4240.512717,4242.051178
39,0,4202.564,4198.974256,4214.358871,4203.07682,4212.82041,4218.974256,4228.717845,4226.153743,4233.33323,4229.743486,4241.025537,4195.384513,4240.512717,4238.974255
40,0,4206.666564,4198.461436,4215.897333,4204.615282,4216.410153,4217.435794,4228.717845,4226.153743,4235.897332,4248.205024,4233.33323,4194.358872,4238.974255,4236.410153
41,0,4207.692205,4195.384513,4209.743487,4208.717846,4214.358871,4220.512717,4228.717845,4224.615281,4228.717845,4242.051178,4223.58964,4189.230667,4234.871691,4233.33323
42,0,4188.205026,4189.230667,4210.256307,4204.102461,4201.538359,4219.999897,4226.666563,4218.974256,4218.461435,4218.461435,4218.974256,4187.179385,4225.640922,4220.512717
43,0,4172.30759,4182.05118,4201.025538,4197.435795,4201.025538,4213.846051,4220.512717,4209.743487,4216.922974,4214.871692,4211.794769,4179.999898,4216.922974,4211.794769
44,0,4180.512718,4183.076821,4205.640923,4194.871692,4213.33323,4211.794769,4217.435794,4211.281948,4218.974256,4220.512717,4211.794769,4184.615282,4214.871692,4216.922974
45,0,4196.922974,4193.846051,4207.179384,4198.461436,4217.435794,4212.307589,4222.563999,4215.384512,4217.948615,4218.461435,4222.051179,4191.794769,4220.512717,4223.58964
46,0,4196.410154,4195.897333,4217.435794,4205.640923,4211.281948,4215.384512,4221.025538,4211.794769,4215.897333,4215.897333,4219.999897,4192.82041,4222.563999,4226.153743
47,0,4197.948615,4196.410154,4214.358871,4216.410153,4207.179384,4217.435794,4217.435794,4207.179384,4219.487076,4220.512717,4218.974256,4184.102462,4224.615281,4228.205025
48,0,4194.358872,4197.435795,4216.922974,4214.358871,4198.974256,4216.410153,4215.384512,4204.615282,4218.461435,4220.512717,4219.487076,4185.128103,4218.461435,4214.358871
49,0,4177.948616,4197.435795,4206.153743,4207.179384,4193.846051,4217.435794,4216.922974,4199.487077,4215.897333,4222.051179,4215.384512,4182.564,4214.358871,4207.692205
50,0,4178.974257,4198.461436,4208.205025,4210.256307,4204.615282,4218.461435,4219.487076,4199.999897,4214.358871,4218.461435,4212.307589,4181.538359,4221.025538,4220.512717
51,0,4196.922974,4204.615282,4208.205025,4215.897333,4221.025538,4216.922974,4217.948615,4201.538359,4212.82041,4210.256307,4212.82041,4176.410154,4223.58964,4227.179384
52,0,4199.487077,4205.128102,4208.205025,4214.871692,4220.512717,4220.512717,4212.307589,4198.974256,4212.82041,4216.410153,4210.256307,4174.871693,4215.384512,4218.974256
53,0,4187.179385,4197.435795,4201.538359,4212.82041,4200.512718,4216.922974,4212.307589,4195.897333,4215.897333,4228.717845,4212.82041,4172.820411,4212.307589,4215.384512
54,0,4179.999898,4193.846051,4201.025538,4212.82041,4193.333231,4210.769128,4215.897333,4198.461436,4215.384512,4217.435794,4215.384512,4174.358872,4212.82041,4212.82041
55,0,4184.615282,4201.538359,4205.640923,4214.871692,4209.230666,4218.461435,4222.051179,4205.640923,4214.871692,4205.128102,4209.743487,4176.922975,4215.384512,4211.281948
56,0,4193.846051,4201.538359,4208.717846,4214.358871,4216.922974,4223.58964,4226.153743,4212.307589,4222.563999,4219.487076,4213.33323,4185.128103,4225.128102,4221.025538
57,0,4195.897333,4193.333231,4209.743487,4206.666564,4210.769128,4215.897333,4221.538358,4211.794769,4225.640922,4232.307589,4226.153743,4185.640923,4226.153743,4227.692204
58,0,4189.230667,4190.769128,4206.666564,4204.102461,4196.922974,4212.82041,4216.410153,4206.153743,4224.102461,4232.820409,4229.230666,4182.564,4218.974256,4222.563999
59,0,4182.05118,4191.794769,4214.871692,4206.666564,4184.102462,4217.948615,4218.974256,4207.692205,4226.153743,4234.358871,4219.487076,4190.769128,4217.948615,4219.999897
60,0,4180.512718,4189.230667,4215.384512,4203.589641,4192.82041,4221.025538,4225.128102,4213.33323,4229.743486,4232.820409,4218.461435,4198.974256,4224.102461,4229.743486
61,0,4185.128103,4190.256308,4221.025538,4202.051179,4211.281948,4222.051179,4228.205025,4215.897333,4227.179384,4234.358871,4231.281948,4203.589641,4231.281948,4236.922973
62,0,4195.897333,4204.615282,4218.461435,4211.281948,4215.897333,4222.563999,4233.84605,4214.358871,4227.692204,4243.076819,4245.128101,4203.589641,4241.025537,4238.461435
63,0,4196.410154,4208.205025,4224.615281,4214.358871,4205.640923,4222.051179,4232.307589,4212.82041,4230.256307,4237.435794,4242.563999,4204.615282,4241.025537,4237.435794
64,0,4192.82041,4196.922974,4218.974256,4208.717846,4195.897333,4217.435794,4225.640922,4207.692205,4225.640922,4228.205025,4228.717845,4198.974256,4232.820409,4236.922973
65,0,4188.717846,4188.205026,4224.102461,4204.615282,4192.30759,4214.358871,4221.025538,4202.051179,4217.435794,4226.666563,4215.384512,4202.051179,4226.153743,4231.794768
66,0,4183.076821,4194.871692,4219.999897,4206.153743,4201.538359,4215.384512,4222.051179,4204.102461,4219.487076,4227.692204,4218.461435,4198.974256,4228.717845,4228.205025
67,0,4184.615282,4200.512718,4218.974256,4204.615282,4207.692205,4218.461435,4219.999897,4206.666564,4226.153743,4224.615281,4226.153743,4192.82041,4224.615281,4221.538358
68,0,4190.769128,4199.999897,4209.230666,4205.640923,4208.205025,4219.487076,4219.999897,4203.589641,4229.230666,4229.743486,4222.563999,4182.564,4217.435794,4215.384512
69,0,4188.205026,4195.897333,4212.307589,4205.640923,4207.179384,4217.435794,4221.538358,4198.461436,4221.538358,4229.743486,4210.769128,4181.538359,4214.871692,4212.82041
70,0,4183.076821,4192.30759,4211.281948,4199.487077,4199.999897,4215.384512,4219.487076,4193.846051,4212.307589,4206.666564,4202.051179,4178.974257,4209.230666,4208.717846
71,0,4182.05118,4191.794769,4214.358871,4200.512718,4197.435795,4220.512717,4216.410153,4197.948615,4214.358871,4192.82041,4202.051179,4181.025539,4203.07682,4204.615282
72,0,4184.615282,4193.846051,4214.871692,4204.615282,4206.666564,4222.051179,4217.948615,4203.07682,4223.58964,4216.410153,4210.256307,4181.538359,4206.666564,4208.205025
73,0,4187.179385,4191.281949,4216.410153,4199.487077,4209.230666,4215.897333,4221.538358,4202.051179,4223.58964,4235.384512,4213.33323,4185.128103,4210.256307,4212.307589
74,0,4187.692205,4188.717846,4218.461435,4200.512718,4207.692205,4215.384512,4224.615281,4202.564,4217.948615,4223.58964,4210.769128,4187.692205,4210.256307,4216.922974
75,0,4190.769128,4198.461436,4224.102461,4213.33323,4210.256307,4221.025538,4227.179384,4211.281948,4224.102461,4218.974256,4211.794769,4190.769128,4216.410153,4227.179384
76,0,4197.435795,4204.102461,4231.281948,4213.846051,4210.769128,4219.487076,4230.256307,4216.410153,4233.84605,4228.205025,4213.33323,4192.82041,4221.025538,4224.102461
77,0,4190.256308,4194.871692,4223.58964,4208.205025,4208.205025,4216.410153,4232.820409,4213.846051,4231.794768,4218.461435,4212.82041,4188.205026,4215.897333,4208.205025
78,0,4177.435795,4188.717846,4222.051179,4206.666564,4210.256307,4219.487076,4229.743486,4212.307589,4223.58964,4205.128102,4211.794769,4182.564,4210.256307,4206.666564
79,0,4186.666564,4193.846051,4217.948615,4204.615282,4213.33323,4220.512717,4224.102461,4209.230666,4223.07682,4222.051179,4212.307589,4179.487077,4213.846051,4221.538358
80,0,4194.871692,4194.358872,4225.128102,4201.025538,4214.358871,4219.999897,4221.538358,4207.179384,4224.615281,4235.384512,4210.256307,4185.128103,4218.461435,4222.051179
81,0,4191.794769,4193.846051,4222.563999,4205.640923,4216.922974,4222.563999,4226.153743,4208.717846,4229.230666,4234.358871,4213.846051,4187.692205,4222.563999,4214.358871
82,0,4183.589641,4191.794769,4223.58964,4204.102461,4206.666564,4223.58964,4222.563999,4209.230666,4230.256307,4233.84605,4217.948615,4188.717846,4222.563999,4213.33323
83,0,4186.666564,4191.281949,4217.435794,4201.025538,4200.512718,4221.538358,4218.974256,4204.102461,4225.128102,4236.410153,4223.58964,4184.102462,4221.538358,4218.974256
84,0,4202.051179,4197.948615,4229.743486,4206.153743,4216.922974,4222.051179,4223.07682,4207.692205,4223.58964,4233.33323,4226.666563,4188.717846,4223.58964,4220.512717
85,0,4206.153743,4203.589641,4228.717845,4210.256307,4233.33323,4224.615281,4226.666563,4212.82041,4229.230666,4235.384512,4223.07682,4186.153744,4228.205025,4225.640922
86,0,4189.230667,4194.358872,4224.102461,4202.051179,4226.666563,4223.58964,4223.07682,4205.640923,4226.666563,4228.205025,4215.384512,4183.076821,4221.025538,4226.666563
87,0,4180.512718,4192.82041,4213.33323,4197.435795,4208.717846,4218.461435,4224.102461,4205.128102,4221.538358,4222.563999,4216.410153,4178.461436,4216.410153,4213.846051
88,0,4188.717846,4196.922974,4219.999897,4201.025538,4198.974256,4217.435794,4225.640922,4214.871692,4225.640922,4236.922973,4225.640922,4182.05118,4223.07682,4203.589641
89,0,4195.897333,4193.846051,4223.07682,4203.07682,4205.128102,4220.512717,4222.563999,4214.358871,4229.743486,4246.153742,4229.230666,4183.589641,4228.717845,4213.33323
90,0,4204.102461,4195.384513,4227.692204,4205.128102,4219.487076,4224.102461,4223.58964,4209.743487,4226.666563,4230.256307,4226.666563,4189.743487,4228.205025,4225.128102
91,0,4208.717846,4205.128102,4227.179384,4207.692205,4224.102461,4223.07682,4227.692204,4211.794769,4225.640922,4221.538358,4226.153743,4191.794769,4230.256307,4226.153743
92,0,4203.07682,4207.179384,4228.205025,4206.153743,4215.384512,4221.025538,4225.128102,4212.82041,4226.666563,4232.820409,4223.58964,4190.769128,4230.769127,4227.179384
93,0,4202.564,4202.051179,4228.717845,4205.640923,4206.666564,4221.025538,4223.58964,4211.794769,4227.692204,4241.025537,4224.102461,4187.692205,4227.692204,4225.128102
94,0,4203.07682,4194.871692,4220.512717,4198.461436,4201.538359,4219.999897,4219.487076,4208.205025,4226.666563,4231.794768,4225.128102,4183.589641,4223.07682,4215.384512
95,0,4197.435795,4188.205026,4221.538358,4192.30759,4205.128102,4217.948615,4215.384512,4208.205025,4227.692204,4217.435794,4222.563999,4184.102462,4220.512717,4212.82041
96,0,4196.922974,4196.922974,4223.58964,4196.410154,4216.922974,4221.538358,4224.102461,4213.846051,4232.820409,4225.128102,4227.692204,4187.179385,4226.153743,4221.025538
97,0,4195.384513,4201.538359,4222.563999,4197.435795,4218.461435,4225.128102,4230.256307,4214.871692,4234.358871,4237.948614,4225.640922,4187.692205,4223.58964,4218.461435
98,0,4189.230667,4187.692205,4211.281948,4186.666564,4211.281948,4220.512717,4225.128102,4210.769128,4230.256307,4232.307589,4210.769128,4179.999898,4213.846051,4205.640923
99,0,4183.589641,4178.461436,4215.897333,4183.076821,4203.07682,4219.999897,4217.948615,4210.769128,4227.179384,4218.974256,4204.615282,4179.487077,4211.794769,4194.358872
100,0,4188.205026,4189.743487,4213.846051,4192.30759,4203.07682,4223.58964,4222.563999,4213.33323,4234.358871,4223.07682,4219.487076,4184.102462,4223.07682,4202.564
101,0,4193.846051,4198.461436,4220.512717,4195.384513,4207.179384,4223.58964,4225.128102,4216.410153,4233.84605,4232.820409,4227.692204,4190.256308,4229.230666,4216.922974
102,0,4202.564,4200.512718,4216.922974,4194.871692,4213.846051,4223.07682,4225.640922,4215.384512,4229.743486,4238.974255,4225.128102,4185.640923,4229.743486,4217.435794
103,0,4207.179384,4199.999897,4219.487076,4195.384513,4219.487076,4223.07682,4225.128102,4209.230666,4230.769127,4239.999896,4221.538358,4185.640923,4226.666563,4208.205025
104,0,4207.179384,4200.512718,4212.307589,4198.461436,4216.922974,4222.051179,4225.640922,4207.692205,4228.717845,4226.153743,4222.051179,4183.589641,4223.58964,4207.692205
105,0,4205.128102,4202.051179,4219.999897,4202.051179,4210.256307,4222.563999,4225.640922,4212.82041,4225.128102,4209.743487,4225.640922,4190.769128,4222.051179,4211.281948
106,0,4209.743487,4209.743487,4225.640922,4205.128102,4213.846051,4224.615281,4231.281948,4218.974256,4231.794768,4226.666563,4231.794768,4193.333231,4228.717845,4218.461435
107,0,4215.897333,4214.871692,4234.358871,4204.615282,4222.051179,4224.615281,4235.897332,4225.128102,4237.435794,4250.256306,4233.84605,4197.948615,4233.33323,4218.974256
108,0,4213.846051,4213.33323,4229.230666,4203.07682,4221.025538,4222.563999,4231.281948,4221.025538,4234.358871,4242.563999,4225.640922,4194.358872,4225.128102,4208.205025
109,0,4209.230666,4210.256307,4228.205025,4203.589641,4213.846051,4221.025538,4223.07682,4212.307589,4226.666563,4225.640922,4214.358871,4191.794769,4215.897333,4202.564
110,0,4208.717846,4202.564,4230.769127,4199.999897,4207.179384,4221.538358,4222.563999,4212.82041,4219.999897,4220.512717,4214.358871,4193.846051,4213.846051,4208.205025
111,0,4198.974256,4193.333231,4232.307589,4194.358872,4199.999897,4221.538358,4223.58964,4213.33323,4219.999897,4214.358871,4218.461435,4196.410154,4208.717846,4203.07682
112,0,4190.256308,4195.384513,4229.230666,4188.717846,4197.948615,4217.948615,4220.512717,4206.153743,4218.974256,4209.743487,4216.922974,4193.846051,4202.564,4193.333231
113,0,4202.564,4204.615282,4224.615281,4188.205026,4205.128102,4217.948615,4218.461435,4206.153743,4214.358871,4214.871692,4216.922974,4189.230667,4209.743487,4198.974256
114,0,4209.743487,4201.538359,4232.820409,4191.281949,4212.307589,4220.512717,4221.025538,4214.358871,4220.512717,4223.58964,4214.358871,4192.30759,4215.384512,4202.564
115,0,4198.974256,4194.871692,4233.84605,4192.82041,4217.435794,4220.512717,4224.102461,4218.461435,4231.281948,4235.897332,4216.922974,4193.846051,4214.358871,4198.461436
116,0,4191.281949,4196.410154,4237.948614,4192.30759,4215.897333,4219.487076,4222.051179,4217.948615,4228.717845,4234.871691,4223.07682,4195.384513,4213.846051,4201.025538
117,0,4193.846051,4203.589641,4232.820409,4191.794769,4208.717846,4216.922974,4222.563999,4218.974256,4224.615281,4228.205025,4222.563999,4194.871692,4217.948615,4205.128102
118,0,4201.025538,4201.025538,4237.435794,4190.256308,4207.692205,4218.461435,4224.615281,4219.999897,4224.102461,4231.794768,4217.948615,4197.435795,4218.974256,4199.487077
119,0,4210.769128,4193.846051,4229.743486,4193.333231,4215.384512,4220.512717,4223.07682,4216.922974,4227.692204,4239.487076,4222.051179,4195.384513,4219.487076,4201.025538
120,0,4204.615282,4197.948615,4231.281948,4197.948615,4221.025538,4221.538358,4221.538358,4215.384512,4232.307589,4235.897332,4221.538358,4197.948615,4217.948615,4205.128102
121,0,4194.358872,4210.256307,4225.128102,4198.461436,4218.974256,4222.051179,4226.153743,4219.999897,4229.743486,4224.102461,4218.974256,4194.871692,4218.974256,4201.538359
122,0,4192.30759,4199.487077,4227.179384,4190.256308,4211.281948,4221.538358,4223.58964,4221.025538,4216.922974,4207.692205,4215.897333,4189.230667,4214.871692,4190.769128
123,0,4190.769128,4190.256308,4222.051179,4185.128103,4212.82041,4220.512717,4221.538358,4213.846051,4216.410153,4210.256307,4211.281948,4182.05118,4213.33323,4185.128103
124,0,4191.794769,4195.384513,4224.102461,4190.256308,4221.025538,4221.538358,4225.128102,4215.384512,4229.743486,4223.58964,4214.871692,4190.769128,4216.410153,4189.743487
125,0,4198.461436,4198.974256,4219.999897,4193.333231,4220.512717,4220.512717,4226.666563,4223.07682,4230.256307,4220.512717,4223.07682,4189.743487,4221.025538,4197.948615
126,0,4195.897333,4196.410154,4222.563999,4188.717846,4215.384512,4222.051179,4222.563999,4219.999897,4218.974256,4212.307589,4216.922974,4184.615282,4217.435794,4195.384513
127,0,4194.358872,4201.025538,4221.025538,4190.256308,4220.512717,4224.615281,4224.615281,4212.307589,4217.948615,4219.487076,4211.281948,4183.076821,4214.871692,4188.717846
128,0,4200.512718,4206.666564,4221.025538,4192.82041,4214.871692,4219.999897,4226.153743,4213.846051,4220.512717,4214.358871,4214.358871,4186.666564,4213.846051,4183.589641
0,0,4194.358872,4209.743487,4221.538358,4188.717846,4205.128102,4215.384512,4223.07682,4216.922974,4217.948615,4199.999897,4212.82041,4185.128103,4211.281948,4181.025539
1,0,4185.128103,4208.205025,4225.640922,4192.82041,4213.846051,4220.512717,4225.128102,4218.974256,4222.563999,4206.153743,4208.205025,4187.179385,4210.769128,4187.179385
2,0,4193.846051,4204.615282,4232.820409,4199.487077,4227.179384,4223.58964,4227.179384,4224.615281,4226.666563,4210.769128,4208.205025,4188.205026,4211.794769,4192.30759
3,0,4205.128102,4214.871692,4231.281948,4197.435795,4225.128102,4222.051179,4226.153743,4224.615281,4221.538358,4208.205025,4214.871692,4188.205026,4215.384512,4190.769128
4,0,4205.640923,4224.615281,4234.871691,4193.846051,4215.897333,4221.025538,4225.128102,4223.07682,4222.051179,4220.512717,4222.051179,4192.82041,4223.58964,4193.333231
5,0,4202.564,4215.384512,4235.384512,4195.897333,4215.384512,4220.512717,4226.153743,4226.153743,4230.256307,4236.922973,4225.128102,4194.358872,4227.692204,4202.051179
6,0,4196.410154,4205.128102,4240.512717,4195.897333,4216.410153,4219.999897,4225.128102,4224.615281,4228.205025,4222.051179,4221.538358,4200.512718,4223.07682,4205.640923
7,0,4198.974256,4213.33323,4233.33323,4197.948615,4216.410153,4220.512717,4224.615281,4218.974256,4224.102461,4206.153743,4223.07682,4201.538359,4222.563999,4204.615282
8,0,4212.307589,4220.512717,4238.461435,4201.025538,4217.435794,4221.025538,4221.025538,4218.974256,4222.051179,4209.743487,4229.230666,4200.512718,4226.153743,4201.538359
9,0,4213.33323,4215.384512,4235.897332,4199.999897,4218.974256,4222.563999,4222.563999,4218.974256,4219.487076,4215.384512,4230.256307,4194.871692,4228.717845,4200.512718
10,0,4197.948615,4205.640923,4234.871691,4194.358872,4214.871692,4222.563999,4222.051179,4214.871692,4219.999897,4213.33323,4213.33323,4197.948615,4221.025538,4195.384513
11,0,4197.435795,4210.256307,4225.640922,4192.30759,4215.384512,4219.999897,4222.051179,4219.999897,4228.717845,4223.58964,4212.82041,4201.538359,4219.487076,4199.999897
12,0,4206.153743,4219.487076,4234.358871,4191.794769,4220.512717,4222.563999,4228.717845,4232.307589,4231.794768,4240.512717,4234.358871,4208.717846,4230.256307,4208.205025
13,0,4209.230666,4215.897333,4231.794768,4189.230667,4221.025538,4226.666563,4232.307589,4233.84605,4231.281948,4236.922973,4240.512717,4203.589641,4236.410153,4212.307589
14,0,4206.153743,4204.615282,4231.281948,4188.205026,4220.512717,4226.666563,4228.205025,4229.230666,4231.281948,4216.410153,4225.640922,4203.07682,4228.205025,4210.256307
15,0,4201.025538,4204.615282,4228.717845,4187.692205,4214.871692,4222.051179,4230.256307,4230.769127,4229.743486,4213.33323,4216.922974,4202.564,4224.102461,4206.153743
16,0,4198.974256,4206.666564,4232.820409,4182.564,4210.256307,4220.512717,4230.769127,4233.33323,4226.153743,4215.384512,4218.461435,4202.564,4225.640922,4201.538359
17,0,4198.974256,4202.051179,4233.84605,4180.512718,4222.051179,4222.563999,4231.281948,4231.794768,4229.743486,4221.025538,4226.666563,4201.538359,4226.666563,4202.051179
18,0,4196.922974,4199.487077,4237.948614,4185.640923,4230.769127,4224.102461,4234.871691,4230.256307,4230.769127,4234.871691,4228.205025,4205.128102,4228.205025,4206.666564
19,0,4199.487077,4203.589641,4237.435794,4187.692205,4218.461435,4223.07682,4231.794768,4227.692204,4221.025538,4232.307589,4215.384512,4205.640923,4224.615281,4211.281948
20,0,4214.871692,4213.846051,4234.358871,4190.769128,4213.33323,4223.07682,4229.230666,4224.102461,4220.512717,4217.435794,4214.871692,4206.666564,4226.153743,4219.487076
21,0,4217.948615,4219.487076,4239.999896,4194.358872,4224.102461,4224.102461,4232.820409,4226.666563,4229.743486,4214.358871,4231.281948,4208.205025,4234.358871,4220.512717
22,0,4201.025538,4209.743487,4235.897332,4193.333231,4226.153743,4225.640922,4234.358871,4229.230666,4228.205025,4215.897333,4234.871691,4207.692205,4232.307589,4209.230666
23,0,4199.999897,4202.051179,4231.281948,4188.205026,4217.948615,4224.102461,4229.230666,4229.230666,4223.07682,4213.846051,4221.538358,4209.743487,4219.999897,4203.07682
24,0,4212.82041,4208.717846,4225.640922,4189.230667,4215.384512,4221.538358,4226.153743,4227.179384,4228.717845,4218.974256,4210.769128,4205.128102,4215.897333,4208.717846
25,0,4209.743487,4210.256307,4236.410153,4193.333231,4219.487076,4222.051179,4222.563999,4226.666563,4228.717845,4222.563999,4207.692205,4202.564,4216.410153,4210.769128
26,0,4208.717846,4205.128102,4233.84605,4194.871692,4223.58964,4224.102461,4223.58964,4226.666563,4226.153743,4224.102461,4218.974256,4203.07682,4221.538358,4214.358871
27,0,4209.743487,4206.666564,4234.871691,4196.410154,4215.384512,4223.07682,4225.640922,4225.128102,4226.666563,4222.051179,4225.128102,4212.82041,4222.563999,4211.794769
28,0,4203.589641,4213.33323,4231.281948,4198.461436,4209.743487,4221.025538,4223.58964,4223.58964,4219.999897,4215.384512,4212.307589,4213.846051,4218.974256,4207.179384
29,0,4203.589641,4210.256307,4241.538358,4197.948615,4218.974256,4223.07682,4221.538358,4218.461435,4210.256307,4203.07682,4202.051179,4214.871692,4213.33323,4209.230666
30,0,4216.922974,4206.666564,4235.897332,4202.564,4226.153743,4222.563999,4222.051179,4213.846051,4210.769128,4203.589641,4214.871692,4208.205025,4217.948615,4219.999897
31,0,4211.281948,4199.999897,4233.33323,4203.589641,4213.846051,4218.461435,4216.922974,4214.358871,4212.82041,4219.487076,4222.563999,4207.179384,4221.025538,4221.025538
32,0,4191.281949,4193.333231,4228.205025,4196.410154,4211.281948,4218.974256,4215.897333,4215.897333,4215.897333,4231.794768,4214.871692,4207.179384,4219.999897,4216.410153
33,0,4187.692205,4193.846051,4232.820409,4196.410154,4218.974256,4223.58964,4218.461435,4216.922974,4220.512717,4230.256307,4215.897333,4210.256307,4217.435794,4217.435794
34,0,4206.153743,4204.615282,4228.205025,4206.153743,4217.435794,4223.07682,4219.999897,4216.410153,4222.051179,4235.897332,4228.205025,4203.07682,4222.051179,4226.153743
35,0,4212.307589,4208.205025,4224.102461,4205.640923,4215.897333,4221.538358,4215.897333,4215.384512,4220.512717,4237.435794,4226.666563,4198.974256,4224.615281,4229.230666
36,0,4195.384513,4205.640923,4221.025538,4205.640923,4223.07682,4224.615281,4217.435794,4214.871692,4222.563999,4219.487076,4216.410153,4198.974256,4224.102461,4227.692204
37,0,4190.256308,4202.564,4222.563999,4210.769128,4224.615281,4227.692204,4223.58964,4214.358871,4225.128102,4214.871692,4214.358871,4199.487077,4221.538358,4232.307589
38,0,4196.922974,4201.025538,4222.051179,4208.205025,4215.897333,4223.58964,4223.58964,4211.281948,4222.563999,4220.512717,4212.307589,4196.410154,4219.487076,4223.58964
39,0,4198.974256,4210.256307,4219.999897,4213.846051,4217.435794,4224.102461,4225.640922,4214.358871,4224.615281,4218.974256,4213.33323,4199.487077,4224.102461,4214.871692
40,0,4201.538359,4213.846051,4221.538358,4220.512717,4223.07682,4227.692204,4227.179384,4217.435794,4226.666563,4216.922974,4218.461435,4201.538359,4227.692204,4232.820409
41,0,4198.974256,4198.974256,4210.769128,4211.281948,4214.358871,4226.153743,4221.538358,4211.281948,4221.025538,4212.82041,4214.871692,4194.871692,4221.025538,4245.128101
42,0,4184.615282,4185.128103,4210.769128,4201.538359,4207.692205,4223.58964,4218.461435,4213.846051,4222.563999,4211.281948,4209.230666,4194.358872,4215.897333,4230.769127
43,0,4190.769128,4193.846051,4218.461435,4207.179384,4218.461435,4225.128102,4228.717845,4222.563999,4233.84605,4227.179384,4221.538358,4198.461436,4227.179384,4232.307589
44,0,4210.256307,4202.051179,4231.794768,4210.256307,4219.999897,4226.666563,4230.769127,4221.538358,4231.794768,4233.84605,4230.769127,4206.666564,4235.384512,4249.743486
45,0,4204.615282,4193.333231,4223.58964,4208.205025,4212.82041,4225.640922,4221.538358,4213.846051,4221.025538,4215.897333,4224.102461,4208.205025,4228.717845,4247.692204
46,0,4186.153744,4180.512718,4228.205025,4205.640923,4214.871692,4224.615281,4217.948615,4209.743487,4215.897333,4204.102461,4218.461435,4214.871692,4215.897333,4235.384512
47,0,4193.333231,4179.999898,4227.692204,4204.615282,4211.281948,4223.58964,4220.512717,4208.717846,4213.846051,4209.743487,4221.538358,4210.769128,4210.769128,4237.948614
48,0,4204.102461,4179.999898,4232.307589,4202.564,4196.922974,4222.563999,4215.897333,4205.640923,4212.307589,4202.051179,4215.897333,4208.205025,4208.717846,4240.512717
49,0,4194.871692,4174.358872,4222.563999,4202.051179,4196.410154,4220.512717,4209.743487,4199.487077,4210.256307,4196.922974,4208.205025,4207.179384,4206.666564,4236.922973
50,0,4182.564,4170.769129,4222.051179,4199.999897,4199.487077,4219.999897,4207.692205,4196.922974,4205.128102,4199.487077,4210.256307,4213.846051,4204.615282,4231.281948
51,0,4180.512718,4175.384513,4221.538358,4196.922974,4205.128102,4219.999897,4207.179384,4200.512718,4204.615282,4191.794769,4217.948615,4215.897333,4209.230666,4234.358871
52,0,4177.435795,4177.435795,4227.692204,4194.871692,4213.846051,4221.538358,4206.153743,4199.487077,4208.717846,4187.692205,4213.846051,4219.999897,4209.743487,4236.922973
53,0,4175.384513,4171.79477,4217.435794,4195.897333,4205.640923,4220.512717,4205.640923,4193.846051,4205.128102,4200.512718,4202.564,4212.82041,4202.051179,4226.153743
54,0,4178.974257,4166.666565,4211.281948,4196.922974,4196.410154,4219.487076,4204.102461,4195.384513,4199.999897,4206.666564,4205.640923,4210.769128,4198.461436,4216.922974
55,0,4180.512718,4176.922975,4219.487076,4198.461436,4209.230666,4220.512717,4206.666564,4203.589641,4208.717846,4201.538359,4221.538358,4216.922974,4210.256307,4230.769127
56,0,4176.410154,4185.640923,4223.58964,4195.897333,4214.358871,4223.58964,4211.794769,4206.666564,4215.384512,4205.128102,4227.692204,4218.974256,4221.025538,4246.666563
57,0,4174.358872,4176.922975,4210.769128,4190.769128,4205.640923,4223.07682,4211.281948,4202.051179,4207.692205,4209.230666,4221.025538,4214.358871,4217.435794,4243.58964
58,0,4175.384513,4164.615283,4195.897333,4192.82041,4204.615282,4222.051179,4209.743487,4200.512718,4203.07682,4201.025538,4218.974256,4214.358871,4213.846051,4240.512717
59,0,4167.179385,4158.461437,4196.410154,4193.333231,4199.487077,4221.538358,4209.743487,4202.564,4203.589641,4193.846051,4222.051179,4212.82041,4217.948615,4238.461435
60,0,4163.076821,4164.102462,4191.281949,4188.717846,4194.358872,4218.461435,4210.769128,4201.025538,4205.640923,4203.589641,4225.128102,4210.769128,4223.07682,4241.025537
61,0,4167.692206,4169.743488,4192.82041,4185.640923,4201.025538,4219.999897,4212.307589,4203.07682,4211.794769,4210.769128,4228.717845,4217.948615,4224.615281,4254.35887
62,0,4169.743488,4166.666565,4185.640923,4185.128103,4206.666564,4224.102461,4215.384512,4209.230666,4218.461435,4208.205025,4231.794768,4215.384512,4226.153743,4262.563998
63,0,4161.025539,4160.512719,4184.102462,4185.640923,4199.999897,4223.58964,4214.871692,4210.256307,4213.33323,4209.743487,4226.153743,4213.846051,4223.07682,4251.281947
64,0,4158.461437,4167.692206,4177.435795,4189.230667,4193.333231,4221.025538,4211.794769,4205.640923,4210.256307,4216.410153,4223.58964,4212.82041,4221.025538,4247.692204
65,0,4164.615283,4168.717847,4186.153744,4187.692205,4195.897333,4222.563999,4209.743487,4206.153743,4212.307589,4207.179384,4231.794768,4215.384512,4223.07682,4251.794768
66,0,4164.615283,4163.076821,4181.025539,4186.666564,4208.205025,4223.58964,4214.871692,4210.769128,4215.897333,4207.179384,4242.051178,4212.307589,4227.179384,4250.256306
67,0,4155.384514,4167.179385,4183.589641,4191.281949,4210.256307,4223.07682,4217.435794,4210.769128,4217.435794,4217.435794,4234.871691,4215.384512,4227.179384,4247.179383
68,0,4151.79477,4172.30759,4179.487077,4191.281949,4205.128102,4221.538358,4213.846051,4203.589641,4213.33323,4209.743487,4224.615281,4212.307589,4226.666563,4251.281947
69,0,4149.743488,4162.05118,4177.948616,4184.102462,4199.487077,4219.487076,4207.179384,4196.922974,4205.640923,4195.897333,4220.512717,4210.769128,4218.461435,4249.230665
70,0,4152.307591,4161.53836,4175.897334,4188.205026,4195.384513,4219.487076,4207.179384,4193.846051,4204.102461,4201.538359,4221.538358,4209.743487,4211.794769,4247.692204
71,0,4157.948616,4171.79477,4184.615282,4194.871692,4200.512718,4222.563999,4206.666564,4192.30759,4205.640923,4206.153743,4223.07682,4213.846051,4215.897333,4251.281947
72,0,4152.820411,4171.281949,4179.999898,4188.205026,4209.230666,4221.025538,4205.128102,4192.82041,4204.615282,4203.589641,4223.58964,4211.794769,4223.07682,4251.281947
73,0,4146.153745,4159.999898,4178.974257,4184.102462,4210.256307,4221.025538,4207.179384,4195.897333,4206.153743,4207.692205,4223.07682,4209.743487,4226.153743,4251.281947
74,0,4145.128104,4158.461437,4187.179385,4189.743487,4210.256307,4224.615281,4211.794769,4198.974256,4207.179384,4208.717846,4220.512717,4208.205025,4222.051179,4252.307588
75,0,4133.846053,4155.897334,4184.615282,4186.666564,4198.974256,4221.025538,4206.153743,4192.82041,4199.999897,4196.410154,4212.307589,4200.512718,4209.230666,4242.051178
76,0,4121.02554,4148.205027,4179.487077,4179.999898,4185.128103,4213.846051,4195.897333,4187.179385,4195.384513,4187.692205,4205.640923,4191.281949,4202.564,4229.743486
77,0,4128.205027,4151.79477,4182.05118,4187.179385,4197.948615,4218.461435,4203.07682,4193.333231,4204.615282,4195.384513,4209.743487,4197.435795,4209.743487,4237.435794
78,0,4124.615284,4153.333232,4187.179385,4189.230667,4209.230666,4222.563999,4205.128102,4192.30759,4206.666564,4199.999897,4206.153743,4203.589641,4207.179384,4241.538358
79,0,4108.717848,4142.564001,4177.435795,4182.564,4201.538359,4217.948615,4195.384513,4182.05118,4198.461436,4195.384513,4204.615282,4192.82041,4200.512718,4230.256307
80,0,4102.564002,4141.02554,4180.512718,4182.564,4201.538359,4218.461435,4198.461436,4183.589641,4196.410154,4185.128103,4211.281948,4192.82041,4202.051179,4226.666563
81,0,4107.692207,4152.307591,4180.512718,4189.230667,4202.051179,4223.58964,4207.179384,4192.82041,4203.589641,4190.256308,4213.33323,4200.512718,4208.205025,4235.384512
82,0,4111.281951,4146.666565,4185.640923,4188.717846,4196.410154,4224.102461,4200.512718,4189.230667,4204.615282,4196.410154,4208.717846,4202.564,4209.230666,4244.615281
83,0,4108.717848,4139.487078,4178.974257,4183.589641,4203.589641,4218.974256,4198.461436,4186.666564,4199.487077,4193.333231,4211.281948,4192.30759,4210.256307,4248.205024
84,0,4104.102464,4149.743488,4188.717846,4184.615282,4205.128102,4215.897333,4205.128102,4198.974256,4199.487077,4197.948615,4215.897333,4199.487077,4210.769128,4242.563999
85,0,4111.281951,4162.05118,4191.281949,4193.846051,4202.051179,4217.948615,4208.205025,4203.07682,4207.179384,4215.384512,4224.102461,4205.640923,4221.025538,4244.615281
86,0,4117.948617,4155.897334,4197.435795,4203.07682,4205.128102,4223.07682,4206.666564,4195.897333,4208.205025,4209.743487,4230.256307,4208.717846,4227.692204,4255.384511
87,0,4111.281951,4147.692206,4192.82041,4201.538359,4202.051179,4218.974256,4205.128102,4189.743487,4198.974256,4179.999898,4219.487076,4201.538359,4220.512717,4257.435793
88,0,4103.589643,4150.256309,4193.846051,4192.30759,4197.435795,4213.846051,4199.487077,4189.743487,4192.30759,4165.640924,4205.128102,4198.461436,4209.743487,4242.563999
89,0,4109.230669,4159.487078,4191.794769,4192.30759,4205.640923,4216.410153,4202.564,4189.743487,4195.897333,4176.410154,4209.743487,4197.948615,4211.281948,4240.512717
90,0,4111.794771,4154.358873,4197.435795,4195.384513,4204.615282,4216.922974,4204.102461,4188.717846,4195.897333,4184.615282,4213.846051,4203.589641,4211.794769,4251.281947
91,0,4103.589643,4140.512719,4194.358872,4193.846051,4190.256308,4209.743487,4193.846051,4185.128103,4190.256308,4184.615282,4204.615282,4201.025538,4203.589641,4246.666563
92,0,4096.410156,4141.02554,4192.30759,4194.358872,4185.640923,4210.256307,4189.230667,4182.564,4192.30759,4184.615282,4201.538359,4199.487077,4202.564,4236.410153
93,0,4102.051182,4151.79477,4198.461436,4196.410154,4200.512718,4217.948615,4198.461436,4189.230667,4200.512718,4184.102462,4215.897333,4205.128102,4214.871692,4242.563999
94,0,4108.205028,4153.846052,4199.999897,4198.461436,4209.743487,4221.025538,4206.666564,4195.897333,4201.025538,4181.538359,4226.153743,4210.256307,4222.051179,4255.384511
95,0,4110.76913,4152.307591,4201.025538,4201.538359,4206.153743,4219.487076,4208.205025,4198.974256,4202.051179,4196.922974,4227.179384,4209.230666,4222.051179,4258.974255
96,0,4108.205028,4159.999898,4202.564,4205.640923,4209.230666,4219.999897,4207.179384,4202.564,4209.743487,4217.948615,4225.640922,4207.692205,4226.153743,4255.897332
97,0,4093.846054,4153.846052,4205.128102,4199.487077,4205.128102,4220.512717,4202.051179,4201.025538,4206.666564,4208.205025,4214.358871,4205.128102,4217.948615,4245.128101
98,0,4093.333233,4137.435796,4194.358872,4193.333231,4190.256308,4217.948615,4195.384513,4190.256308,4196.410154,4190.769128,4207.692205,4198.974256,4205.640923,4234.871691
99,0,4103.076823,4134.871694,4198.974256,4192.30759,4190.256308,4216.922974,4195.897333,4187.179385,4191.794769,4188.717846,4209.230666,4201.025538,4209.743487,4238.974255
100,0,4101.025541,4148.717847,4197.435795,4195.384513,4201.025538,4218.974256,4203.07682,4195.897333,4195.897333,4195.384513,4213.33323,4199.487077,4221.025538,4254.35887
101,0,4096.922977,4155.897334,4201.025538,4197.435795,4202.051179,4216.922974,4203.589641,4197.948615,4201.538359,4200.512718,4218.974256,4205.128102,4219.999897,4256.922973
102,0,4098.461438,4150.769129,4191.281949,4196.922974,4197.948615,4211.794769,4195.384513,4187.692205,4200.512718,4202.051179,4222.563999,4205.128102,4215.897333,4247.179383
103,0,4088.205028,4139.999899,4194.871692,4195.384513,4191.281949,4213.846051,4187.179385,4182.564,4189.743487,4187.692205,4212.82041,4202.564,4213.33323,4239.999896
104,0,4090.769131,4142.051181,4194.871692,4196.922974,4193.333231,4218.461435,4190.769128,4186.666564,4187.692205,4179.999898,4211.281948,4197.948615,4216.922974,4245.640922
105,0,4108.717848,4151.79477,4204.615282,4198.974256,4205.128102,4218.461435,4196.410154,4189.743487,4194.358872,4187.692205,4216.922974,4207.692205,4219.487076,4248.717845
106,0,4106.666566,4157.435796,4203.589641,4201.025538,4209.230666,4219.999897,4195.384513,4190.256308,4197.435795,4192.82041,4214.871692,4208.205025,4218.974256,4246.153742
107,0,4091.281951,4153.846052,4202.051179,4203.07682,4203.589641,4223.58964,4193.333231,4192.30759,4198.974256,4196.410154,4210.256307,4206.666564,4216.410153,4242.051178
108,0,4096.410156,4150.256309,4196.410154,4204.615282,4204.102461,4220.512717,4202.564,4193.846051,4197.435795,4202.564,4213.33323,4205.128102,4216.922974,4241.538358
109,0,4106.153746,4145.640924,4202.051179,4198.461436,4204.102461,4219.999897,4205.640923,4193.333231,4189.230667,4193.846051,4211.794769,4206.666564,4211.794769,4243.58964
110,0,4089.230669,4137.435796,4197.948615,4188.205026,4203.589641,4221.025538,4196.922974,4186.666564,4187.692205,4183.076821,4205.128102,4202.051179,4201.538359,4238.974255
111,0,4069.74349,4131.28195,4188.205026,4187.179385,4202.051179,4215.384512,4191.281949,4181.538359,4193.846051,4189.230667,4197.948615,4199.999897,4195.897333,4228.717845
112,0,4075.897336,4137.435796,4192.30759,4195.384513,4196.410154,4212.307589,4196.922974,4188.205026,4197.948615,4204.102461,4201.538359,4202.051179,4205.128102,4228.205025
113,0,4092.307592,4149.743488,4200.512718,4202.564,4194.871692,4218.461435,4205.128102,4200.512718,4199.487077,4212.307589,4221.538358,4211.794769,4221.025538,4244.10246
114,0,4097.948618,4154.871693,4203.589641,4201.025538,4198.974256,4221.538358,4206.666564,4203.589641,4197.435795,4210.256307,4230.256307,4222.563999,4227.179384,4258.461434
115,0,4097.435797,4155.897334,4196.922974,4197.948615,4206.153743,4220.512717,4204.615282,4203.589641,4199.999897,4206.666564,4226.153743,4221.025538,4226.153743,4260.512716
116,0,4092.307592,4157.435796,4202.051179,4200.512718,4209.230666,4220.512717,4202.051179,4205.640923,4203.07682,4199.487077,4227.179384,4214.871692,4224.615281,4252.820409
117,0,4087.179387,4157.948616,4197.948615,4204.102461,4206.666564,4219.487076,4202.564,4201.025538,4196.410154,4194.358872,4227.692204,4209.230666,4223.07682,4244.10246
118,0,4079.9999,4149.230668,4197.948615,4197.948615,4198.974256,4219.999897,4199.487077,4191.794769,4187.179385,4198.461436,4217.948615,4208.717846,4215.897333,4234.871691
119,0,4079.9999,4145.640924,4190.256308,4192.30759,4197.948615,4221.025538,4194.358872,4186.153744,4190.769128,4205.640923,4215.897333,4202.564,4209.743487,4235.384512
120,0,4086.666567,4151.79477,4196.922974,4195.384513,4204.615282,4221.538358,4191.794769,4184.615282,4192.30759,4197.948615,4212.82041,4203.07682,4204.615282,4243.58964
121,0,4092.307592,4153.846052,4196.410154,4198.974256,4209.230666,4222.051179,4191.794769,4183.589641,4186.666564,4192.30759,4208.205025,4203.589641,4204.615282,4243.58964
122,0,4089.74349,4144.102463,4205.128102,4198.461436,4201.538359,4221.538358,4193.333231,4190.769128,4184.102462,4192.30759,4211.794769,4213.33323,4208.205025,4235.897332
123,0,4090.769131,4147.179386,4204.615282,4202.051179,4192.82041,4217.948615,4201.538359,4203.07682,4193.846051,4205.128102,4223.58964,4218.461435,4218.974256,4245.128101
124,0,4093.846054,4153.846052,4210.769128,4198.461436,4190.769128,4218.461435,4205.128102,4210.256307,4203.589641,4216.410153,4227.692204,4220.512717,4227.179384,4257.435793
125,0,4097.435797,4153.333232,4207.692205,4193.333231,4196.922974,4221.025538,4202.051179,4207.692205,4199.999897,4206.666564,4228.205025,4217.948615,4228.205025,4258.461434
126,0,4099.9999,4153.333232,4212.307589,4198.461436,4206.153743,4222.563999,4200.512718,4204.102461,4192.30759,4195.384513,4233.33323,4224.615281,4224.615281,4254.35887
127,0,4093.333233,4155.384514,4210.256307,4201.538359,4206.666564,4219.999897,4202.051179,4205.128102,4190.769128,4203.589641,4235.897332,4223.07682,4220.512717,4252.820409
128,0,4086.666567,4154.871693,4208.717846,4201.025538,4194.358872,4213.846051,4196.410154,4198.974256,4185.128103,4199.487077,4223.07682,4215.897333,4215.897333,4251.281947
0,0,4078.974259,4150.256309,4207.179384,4201.025538,4186.666564,4213.33323,4190.769128,4191.281949,4177.435795,4181.538359,4209.743487,4211.794769,4209.230666,4247.179383
1,0,4073.333234,4143.076822,4209.230666,4196.922974,4194.871692,4222.563999,4196.922974,4194.358872,4182.564,4178.461436,4211.794769,4216.922974,4202.051179,4240.512717
2,0,4086.666567,4151.79477,4210.256307,4196.922974,4205.640923,4223.07682,4202.564,4197.948615,4185.128103,4182.05118,4213.846051,4218.461435,4198.974256,4235.897332
3,0,4099.487079,4173.846052,4202.051179,4208.205025,4205.640923,4214.871692,4198.974256,4192.30759,4179.487077,4183.589641,4211.281948,4210.769128,4200.512718,4238.974255
4,0,4095.384515,4177.435795,4201.538359,4209.230666,4203.589641,4215.897333,4193.846051,4192.82041,4179.487077,4187.692205,4211.281948,4206.153743,4196.410154,4239.999896
5,0,4090.769131,4170.256308,4200.512718,4199.999897,4198.461436,4219.487076,4192.82041,4194.358872,4182.564,4184.615282,4208.717846,4206.666564,4191.281949,4240.512717
6,0,4082.051182,4171.79477,4202.051179,4198.461436,4186.666564,4213.33323,4190.769128,4190.256308,4180.512718,4179.487077,4200.512718,4209.230666,4186.153744,4232.820409
7,0,4075.384516,4172.820411,4192.30759,4204.615282,4193.333231,4208.717846,4190.256308,4190.769128,4184.102462,4189.743487,4197.435795,4205.128102,4180.512718,4226.153743
8,0,4087.692208,4169.743488,4202.051179,4210.256307,4209.743487,4215.897333,4190.769128,4198.974256,4189.743487,4194.871692,4202.051179,4209.743487,4179.999898,4230.769127
9,0,4097.435797,4177.948616,4203.589641,4215.384512,4210.769128,4222.563999,4192.82041,4198.974256,4188.717846,4194.358872,4211.281948,4210.256307,4190.256308,4233.84605
10,0,4079.48708,4179.487077,4202.564,4210.769128,4198.974256,4221.025538,4191.281949,4191.794769,4184.102462,4195.897333,4208.205025,4205.640923,4190.256308,4221.538358
11,0,4068.205029,4169.230667,4190.769128,4201.538359,4190.769128,4219.999897,4190.256308,4191.794769,4186.666564,4201.025538,4192.82041,4195.384513,4179.487077,4217.435794
12,0,4072.820413,4158.974257,4193.846051,4199.999897,4187.692205,4222.563999,4192.82041,4196.410154,4187.179385,4191.794769,4185.128103,4198.974256,4174.871693,4222.563999
13,0,4072.820413,4161.025539,4192.30759,4204.615282,4193.846051,4222.563999,4196.410154,4195.897333,4184.615282,4179.999898,4194.358872,4199.487077,4178.974257,4220.512717
14,0,4075.897336,4169.230667,4198.461436,4204.615282,4200.512718,4221.025538,4196.410154,4199.487077,4187.692205,4188.205026,4199.487077,4199.487077,4179.487077,4216.922974
15,0,4085.128105,4175.897334,4193.846051,4206.666564,4196.410154,4221.538358,4201.025538,4205.128102,4193.333231,4203.589641,4196.922974,4196.410154,4179.487077,4220.512717
16,0,4081.538362,4167.692206,4189.743487,4207.692205,4185.128103,4222.051179,4202.051179,4202.051179,4189.743487,4196.410154,4194.871692,4195.384513,4176.410154,4212.82041
17,0,4072.307593,4160.512719,4187.179385,4203.589641,4182.564,4221.025538,4201.538359,4197.435795,4188.205026,4186.153744,4193.333231,4192.30759,4174.358872,4204.615282
18,0,4079.48708,4171.79477,4193.333231,4203.07682,4192.30759,4223.58964,4203.589641,4199.487077,4192.30759,4195.897333,4186.666564,4193.846051,4175.897334,4212.82041
19,0,4083.589644,4178.461436,4191.794769,4205.640923,4197.948615,4224.615281,4201.025538,4192.30759,4188.717846,4196.922974,4183.076821,4186.666564,4168.717847,4208.205025
20,0,4068.205029,4167.692206,4185.640923,4202.051179,4190.769128,4222.563999,4192.30759,4182.564,4181.538359,4178.974257,4184.102462,4177.435795,4161.025539,4189.230667
21,0,4073.846054,4169.743488,4192.30759,4202.564,4184.102462,4221.025538,4193.333231,4186.666564,4182.05118,4177.948616,4187.692205,4180.512718,4173.333231,4198.461436
22,0,4089.74349,4176.410154,4196.410154,4206.666564,4184.102462,4219.999897,4197.948615,4194.358872,4188.205026,4187.179385,4194.358872,4183.589641,4177.948616,4210.256307
23,0,4078.974259,4162.564001,4195.384513,4201.538359,4187.179385,4221.025538,4196.410154,4195.384513,4189.743487,4183.589641,4189.230667,4182.564,4156.922975,4179.999898
24,0,4082.051182,4167.179385,4190.769128,4202.051179,4191.281949,4223.58964,4199.999897,4194.358872,4191.281949,4192.30759,4188.717846,4186.153744,4169.230667,4186.153744
25,0,4107.692207,4189.743487,4202.564,4212.82041,4194.871692,4223.07682,4203.589641,4196.410154,4193.333231,4213.846051,4204.615282,4194.871692,4210.769128,4234.871691
26,0,4110.76913,4188.717846,4198.461436,4211.794769,4195.384513,4223.58964,4203.589641,4196.922974,4194.871692,4219.999897,4219.487076,4192.82041,4226.153743,4245.128101
27,0,4101.538361,4171.79477,4200.512718,4202.564,4191.281949,4227.179384,4203.589641,4195.897333,4193.846051,4210.256307,4223.58964,4194.358872,4229.743486,4230.769127
28,0,4106.666566,4169.230667,4200.512718,4207.692205,4192.82041,4226.666563,4206.666564,4195.897333,4196.922974,4215.384512,4231.281948,4198.974256,4252.820409,4248.717845
29,0,4103.076823,4164.615283,4206.666564,4210.256307,4199.487077,4225.128102,4208.717846,4202.051179,4200.512718,4223.07682,4235.897332,4206.666564,4265.128101,4255.897332
30,0,4099.9999,4153.846052,4199.999897,4198.974256,4201.025538,4226.153743,4212.82041,4207.179384,4201.025538,4219.999897,4238.974255,4201.538359,4259.999896,4235.384512
31,0,4102.051182,4147.692206,4202.051179,4193.333231,4190.769128,4224.102461,4210.256307,4206.153743,4201.025538,4212.307589,4237.948614,4202.051179,4256.410152,4229.230666
32,0,4095.897336,4151.28195,4196.922974,4196.922974,4189.230667,4222.563999,4207.692205,4206.153743,4204.615282,4214.871692,4229.230666,4201.538359,4257.948614,4232.820409
33,0,4093.333233,4158.461437,4201.025538,4194.871692,4198.974256,4226.666563,4209.743487,4207.692205,4204.615282,4224.102461,4227.179384,4202.564,4253.333229,4228.205025
34,0,4095.384515,4163.589642,4202.564,4194.358872,4194.871692,4226.153743,4210.769128,4202.564,4201.025538,4224.102461,4237.948614,4202.564,4249.743486,4229.230666
35,0,4094.358874,4159.487078,4207.179384,4199.487077,4184.102462,4221.538358,4205.640923,4197.948615,4198.974256,4216.922974,4239.487076,4205.640923,4249.743486,4229.230666
36,0,4104.102464,4155.897334,4206.153743,4198.974256,4190.769128,4222.051179,4205.128102,4203.07682,4203.07682,4219.487076,4231.794768,4200.512718,4248.205024,4219.487076
37,0,4112.820412,4160.512719,4206.153743,4197.948615,4198.461436,4225.128102,4208.717846,4207.692205,4204.615282,4214.871692,4225.640922,4197.435795,4244.10246,4216.410153
38,0,4109.230669,4169.743488,4209.743487,4200.512718,4195.384513,4224.102461,4210.256307,4206.153743,4202.051179,4196.922974,4229.230666,4199.487077,4245.640922,4228.205025
39,0,4107.179387,4167.692206,4209.230666,4199.999897,4194.358872,4222.563999,4211.281948,4207.179384,4198.974256,4196.410154,4234.871691,4197.435795,4243.58964,4228.205025
40,0,4105.640925,4154.871693,4206.153743,4195.897333,4192.30759,4222.563999,4211.281948,4210.256307,4197.948615,4214.871692,4229.743486,4194.871692,4235.384512,4213.846051
41,0,4105.128105,4158.974257,4197.948615,4196.922974,4185.640923,4225.128102,4210.769128,4208.205025,4199.999897,4227.692204,4229.230666,4192.82041,4243.58964,4211.281948
42,0,4107.692207,4171.79477,4202.564,4196.922974,4187.179385,4227.692204,4208.205025,4206.666564,4201.025538,4221.025538,4232.307589,4193.333231,4254.871691,4216.410153
43,0,4107.692207,4174.358872,4197.435795,4197.435795,4196.410154,4227.179384,4207.179384,4206.153743,4204.102461,4212.307589,4230.769127,4191.281949,4253.333229,4214.871692
44,0,4107.692207,4169.230667,4200.512718,4199.487077,4202.564,4227.692204,4207.179384,4206.153743,4206.666564,4218.974256,4231.794768,4196.922974,4249.743486,4214.358871
45,0,4117.435797,4170.769129,4197.948615,4199.999897,4199.999897,4229.230666,4209.743487,4206.153743,4206.666564,4228.205025,4241.538358,4199.999897,4254.871691,4225.128102
46,0,4113.333233,4169.743488,4202.564,4198.974256,4188.717846,4227.692204,4206.153743,4203.07682,4199.487077,4210.769128,4239.999896,4201.025538,4252.307588,4219.487076
47,0,4111.281951,4172.820411,4199.487077,4202.051179,4189.743487,4225.640922,4204.102461,4200.512718,4197.948615,4209.230666,4237.948614,4195.897333,4249.743486,4208.205025
48,0,4125.640925,4181.025539,4208.205025,4207.179384,4198.461436,4228.717845,4207.179384,4205.128102,4204.615282,4234.871691,4238.461435,4199.487077,4251.794768,4211.794769
49,0,4130.256309,4182.564,4205.640923,4207.179384,4200.512718,4227.179384,4210.769128,4210.256307,4208.717846,4239.999896,4235.384512,4201.025538,4252.820409,4219.999897
50,0,4121.538361,4177.435795,4210.769128,4202.564,4200.512718,4223.07682,4209.230666,4210.256307,4208.717846,4229.743486,4236.922973,4205.128102,4248.717845,4217.435794
51,0,4130.256309,4181.025539,4211.281948,4207.179384,4206.666564,4225.128102,4211.794769,4207.179384,4210.769128,4234.871691,4248.205024,4205.640923,4252.820409,4215.384512
52,0,4136.410155,4187.179385,4215.897333,4215.384512,4203.589641,4227.179384,4212.307589,4203.589641,4205.128102,4226.666563,4247.692204,4208.205025,4254.871691,4210.769128
53,0,4129.743489,4187.692205,4212.82041,4215.384512,4193.333231,4223.58964,4210.256307,4202.051179,4196.922974,4215.897333,4233.33323,4204.615282,4250.769127,4206.666564
54,0,4133.333232,4187.179385,4220.512717,4215.384512,4198.974256,4225.640922,4212.82041,4208.205025,4199.999897,4230.769127,4230.256307,4207.179384,4248.717845,4207.692205
55,0,4145.640924,4195.897333,4226.153743,4217.948615,4213.33323,4229.743486,4217.435794,4213.33323,4210.256307,4237.435794,4244.10246,4209.743487,4251.794768,4210.256307
56,0,4148.205027,4200.512718,4221.538358,4216.410153,4212.307589,4228.205025,4215.897333,4212.82041,4213.846051,4233.84605,4251.281947,4212.82041,4252.820409,4210.256307
57,0,4138.461437,4187.692205,4213.33323,4213.846051,4199.487077,4224.102461,4210.256307,4211.794769,4207.179384,4231.794768,4241.025537,4210.769128,4246.666563,4205.128102
58,0,4139.487078,4185.640923,4210.769128,4216.410153,4197.435795,4224.102461,4206.666564,4208.205025,4197.948615,4218.974256,4235.384512,4207.692205,4246.153742,4199.487077
59,0,4152.307591,4198.461436,4219.487076,4219.487076,4203.589641,4226.666563,4208.205025,4207.692205,4199.487077,4216.410153,4243.076819,4210.769128,4254.35887,4205.128102
60,0,4157.435796,4197.435795,4214.871692,4217.948615,4204.615282,4228.205025,4210.769128,4211.794769,4206.153743,4235.384512,4242.563999,4210.769128,4257.948614,4211.794769
61,0,4153.333232,4191.794769,4211.281948,4212.307589,4204.615282,4225.640922,4207.179384,4211.281948,4205.640923,4236.922973,4232.307589,4207.692205,4250.769127,4206.153743
62,0,4155.384514,4202.051179,4207.692205,4213.33323,4207.692205,4224.615281,4207.179384,4211.281948,4204.615282,4225.128102,4237.948614,4203.07682,4250.256306,4202.564
63,0,4161.025539,4201.025538,4216.922974,4218.461435,4204.102461,4227.179384,4209.743487,4218.974256,4205.128102,4224.615281,4242.051178,4207.179384,4250.256306,4202.564
64,0,4163.589642,4193.333231,4210.256307,4216.410153,4195.897333,4227.179384,4210.769128,4217.435794,4204.102461,4223.07682,4231.794768,4204.615282,4243.58964,4198.974256
65,0,4166.153744,4196.922974,4214.358871,4209.230666,4197.435795,4225.640922,4208.205025,4209.230666,4199.999897,4202.564,4229.230666,4206.153743,4239.999896,4192.82041
66,0,4170.256308,4203.07682,4213.33323,4210.769128,4208.717846,4225.128102,4209.743487,4210.769128,4204.102461,4204.615282,4240.512717,4207.179384,4247.179383,4202.564
67,0,4167.692206,4198.974256,4221.025538,4212.82041,4212.307589,4226.666563,4210.256307,4212.307589,4210.256307,4229.230666,4237.948614,4209.743487,4245.128101,4206.153743
68,0,4166.153744,4196.410154,4217.435794,4213.33323,4207.179384,4225.128102,4210.769128,4208.205025,4206.666564,4238.974255,4233.84605,4207.179384,4241.025537,4190.256308
69,0,4166.666565,4195.897333,4224.615281,4212.82041,4203.07682,4223.07682,4212.307589,4209.230666,4200.512718,4226.666563,4235.897332,4212.307589,4242.563999,4182.05118
70,0,4173.333231,4202.051179,4225.640922,4211.794769,4202.051179,4223.07682,4210.769128,4210.256307,4202.564,4220.512717,4234.358871,4210.256307,4243.58964,4195.384513
71,0,4170.769129,4207.692205,4228.717845,4208.717846,4199.999897,4224.615281,4208.717846,4206.153743,4202.564,4210.256307,4229.230666,4208.717846,4239.999896,4200.512718
72,0,4169.743488,4203.589641,4222.051179,4206.666564,4207.179384,4225.640922,4213.846051,4208.717846,4199.999897,4205.640923,4228.205025,4206.153743,4237.948614,4190.256308
73,0,4178.461436,4196.922974,4215.384512,4205.128102,4211.794769,4227.179384,4215.384512,4216.410153,4205.128102,4226.153743,4229.230666,4205.640923,4239.999896,4184.102462
74,0,4181.538359,4203.589641,4213.846051,4206.666564,4205.640923,4226.666563,4209.743487,4215.897333,4209.743487,4236.410153,4234.871691,4204.102461,4246.666563,4188.717846
75,0,4183.076821,4210.769128,4213.846051,4213.33323,4204.615282,4224.615281,4209.743487,4214.358871,4207.692205,4228.205025,4241.025537,4205.640923,4251.281947,4194.358872
