title:V                                                                               , recorded:06.07.20 13.34.01, sampling:128, subject:B                                                                               , labels:COUNTER INTERPOLATED AF3 F7 F3 FC5 T7 P7 O1 O2 P8 T8 FC6 F4 F8 AF4,, units:emotiv,,,,,,,,,
110,0,4481.538352,4382.051175,4288.717844,4266.666562,4284.61528,4271.281947,4287.179382,4326.15374,4284.102459,4314.871689,4232.307589,4285.1281,4370.769124,4356.41015
111,0,4482.563993,4404.102456,4287.692203,4269.230665,4287.179382,4269.743485,4292.307587,4330.256304,4291.281946,4322.563997,4239.999896,4287.179382,4377.43579,4353.846047
112,0,4486.153736,4407.179379,4289.230664,4273.846049,4288.717844,4269.230665,4292.307587,4335.384509,4293.333228,4320.512715,4240.512717,4286.666562,4381.025534,4352.307586
113,0,4474.358865,4398.974251,4286.666562,4275.384511,4285.640921,4264.61528,4290.769126,4339.487073,4289.230664,4326.666561,4238.974255,4282.563998,4378.461431,4343.589637
114,0,4463.076814,4401.025533,4285.640921,4283.076818,4287.179382,4263.589639,4295.897331,4342.051176,4292.307587,4332.307586,4228.717845,4277.948613,4379.487072,4337.948612
115,0,4468.717839,4408.20502,4278.974254,4295.897331,4290.769126,4266.666562,4297.435792,4342.051176,4297.435792,4325.64092,4223.58964,4269.230665,4386.666559,4337.435791
116,0,4473.333224,4406.153738,4282.051177,4294.358869,4286.153741,4267.692203,4291.281946,4341.025535,4291.794767,4320.512715,4228.205025,4265.128101,4382.563995,4336.41015
117,0,4475.384506,4409.743482,4284.102459,4292.307587,4289.230664,4265.128101,4294.87169,4345.640919,4291.281946,4322.051176,4227.179384,4266.666562,4381.538354,4344.615278
118,0,4478.974249,4416.410148,4288.205023,4302.563997,4295.38451,4265.128101,4299.999895,4350.256304,4296.922972,4321.538356,4223.58964,4268.717844,4385.128098,4345.640919
119,0,4474.358865,4414.871687,4275.897331,4311.281946,4292.820408,4265.640921,4295.897331,4347.692201,4294.358869,4323.076817,4225.128102,4258.974255,4384.615277,4334.871689
120,0,4463.589634,4407.179379,4278.461434,4302.563997,4288.205023,4269.743485,4293.846049,4348.205022,4287.692203,4312.307587,4211.794769,4258.974255,4381.025534,4328.717843
121,0,4466.666557,4405.128097,4276.410152,4291.794767,4290.256305,4269.743485,4298.974254,4357.948611,4293.333228,4302.051177,4198.461436,4259.999896,4379.999893,4330.256304
122,0,4471.794762,4406.153738,4284.102459,4292.307587,4290.256305,4263.076819,4294.358869,4367.17938,4297.435792,4310.769125,4209.743487,4264.61528,4379.999893,4325.64092
123,0,4474.358865,4417.435789,4288.205023,4297.948613,4292.820408,4262.563998,4290.769126,4367.17938,4297.948613,4320.512715,4226.666563,4270.256306,4389.743482,4327.692202
124,0,4481.538352,4427.179379,4301.025536,4303.076818,4299.999895,4269.743485,4296.922972,4365.128098,4302.563997,4322.051176,4229.230666,4282.051177,4399.487072,4335.384509
125,0,4486.666557,4425.128097,4298.461433,4308.205023,4302.051177,4270.256306,4303.076818,4364.102457,4304.102459,4334.871689,4228.717845,4282.563998,4403.076815,4334.871689
126,0,4485.128095,4418.46143,4299.999895,4309.743484,4296.922972,4266.666562,4302.051177,4366.66656,4299.487074,4338.974253,4227.179384,4283.589639,4396.410149,4329.743484
127,0,4489.230659,4420.512712,4297.948613,4310.256305,4295.38451,4265.640921,4299.999895,4369.230662,4297.948613,4328.717843,4226.666563,4282.563998,4389.743482,4331.281945
128,0,4494.871685,4420.512712,4299.487074,4309.743484,4295.897331,4266.153742,4298.974254,4370.769124,4299.487074,4311.794766,4216.410153,4281.538357,4388.717841,4331.794766
0,0,4492.820403,4411.281943,4296.922972,4307.179382,4290.769126,4261.025537,4293.846049,4367.692201,4296.410151,4300.512715,4199.999897,4275.384511,4391.794764,4323.589638
1,0,4492.820403,4406.153738,4295.38451,4304.615279,4286.153741,4258.974255,4293.846049,4364.102457,4291.281946,4312.820407,4208.205025,4272.307588,4397.94861,4315.89733
2,0,4496.410146,4408.717841,4298.974254,4305.64092,4288.717844,4263.589639,4299.999895,4367.17938,4293.846049,4324.615279,4223.58964,4275.897331,4405.128097,4317.435792
3,0,4493.333223,4408.717841,4294.87169,4306.153741,4293.333228,4265.640921,4299.999895,4370.769124,4299.487074,4309.230664,4217.435794,4275.384511,4404.102456,4316.410151
4,0,4495.384505,4405.640918,4289.230664,4306.666561,4294.358869,4264.61528,4294.358869,4369.743483,4298.974254,4305.64092,4215.384512,4267.692203,4403.076815,4307.179382
5,0,4504.615274,4408.717841,4286.666562,4314.358869,4292.820408,4264.61528,4297.435792,4372.820406,4297.948613,4325.128099,4226.153743,4265.128101,4417.94861,4310.769125
6,0,4506.666556,4416.410148,4297.435792,4323.076817,4295.897331,4266.153742,4304.615279,4378.461431,4302.051177,4319.999894,4223.07682,4275.897331,4428.71784,4325.64092
7,0,4508.717838,4422.563994,4295.897331,4323.589638,4301.538356,4266.666562,4308.205023,4381.538354,4309.230664,4314.871689,4229.230666,4278.974254,4429.743481,4331.281945
8,0,4513.846043,4422.051174,4301.538356,4323.589638,4300.512715,4267.179383,4308.717843,4386.666559,4311.281946,4328.717843,4243.076819,4281.025536,4432.307584,4326.666561
9,0,4517.948607,4426.153738,4298.461433,4333.333227,4298.974254,4268.717844,4310.769125,4384.615277,4308.205023,4335.89733,4239.487076,4280.512716,4437.435789,4325.64092
10,0,4517.948607,4436.410148,4303.076818,4339.487073,4303.076818,4270.256306,4313.333228,4381.025534,4308.205023,4334.871689,4237.435794,4282.563998,4438.97425,4327.692202
11,0,4522.051171,4438.46143,4299.999895,4336.41015,4304.615279,4269.230665,4316.410151,4386.153739,4311.794766,4331.794766,4246.666563,4281.025536,4439.487071,4333.333227
12,0,4516.922966,4423.076815,4304.102459,4327.179381,4296.410151,4266.666562,4311.281946,4390.769123,4307.179382,4313.333228,4233.33323,4286.666562,4431.794763,4331.281945
13,0,4509.230659,4419.487071,4296.410151,4327.692202,4293.333228,4266.666562,4307.692202,4391.281944,4296.410151,4302.563997,4215.384512,4286.153741,4425.128097,4323.589638
14,0,4511.794761,4430.256302,4298.974254,4335.384509,4296.410151,4266.153742,4306.153741,4389.743482,4298.974254,4319.487074,4233.33323,4286.153741,4430.769122,4323.589638
15,0,4513.846043,4430.769122,4295.38451,4331.794766,4297.435792,4262.563998,4304.615279,4382.563995,4308.717843,4335.89733,4256.410152,4279.999895,4441.538353,4329.743484
16,0,4508.205018,4415.897328,4298.461433,4323.589638,4295.897331,4265.128101,4307.179382,4380.512713,4305.64092,4335.89733,4244.615281,4284.102459,4442.051173,4326.666561
17,0,4513.846043,4417.94861,4299.999895,4336.41015,4297.435792,4266.153742,4312.307587,4384.615277,4301.025536,4333.846048,4234.358871,4289.230664,4441.538353,4328.205022
18,0,4527.692197,4435.897327,4301.538356,4349.743483,4300.512715,4264.10246,4309.743484,4378.461431,4303.076818,4322.563997,4238.974255,4285.1281,4444.102455,4336.41015
19,0,4528.717838,4441.025532,4296.922972,4345.128099,4297.435792,4262.051178,4304.102459,4370.769124,4301.538356,4313.846048,4232.820409,4273.333229,4436.410148,4335.89733
20,0,4522.563992,4433.846045,4290.256305,4344.615278,4294.358869,4262.563998,4305.1281,4377.948611,4292.820408,4319.487074,4225.640922,4272.820408,4426.666558,4330.769125
21,0,4519.999889,4431.281943,4290.769126,4346.15374,4293.846049,4261.538357,4305.1281,4382.563995,4290.256305,4308.205023,4224.102461,4277.435793,4428.20502,4324.615279
22,0,4518.461428,4434.358866,4292.307587,4341.538355,4292.307587,4260.512716,4299.487074,4375.384508,4292.307587,4286.666562,4220.512717,4274.87169,4429.230661,4315.89733
23,0,4518.461428,4438.46143,4295.38451,4345.128099,4287.179382,4259.999896,4295.897331,4370.256303,4291.281946,4301.538356,4221.025538,4274.35887,4425.128097,4315.89733
24,0,4514.871684,4440.512712,4292.307587,4351.281945,4284.61528,4259.999896,4297.948613,4371.281944,4292.307587,4342.563996,4224.102461,4273.333229,4429.743481,4319.487074
25,0,4506.153736,4433.333225,4298.461433,4345.640919,4289.230664,4259.487075,4296.922972,4373.846047,4289.743485,4325.128099,4218.461435,4272.307588,4428.71784,4313.333228
26,0,4505.640915,4432.307584,4294.358869,4345.128099,4292.820408,4257.948614,4295.897331,4371.794765,4290.769126,4282.051177,4218.461435,4270.769126,4427.179379,4314.871689
27,0,4506.666556,4438.46143,4295.38451,4351.281945,4290.769126,4260.512716,4294.358869,4369.230662,4292.307587,4304.615279,4218.974256,4277.948613,4434.358866,4316.922971
28,0,4506.666556,4444.102455,4289.743485,4353.846047,4291.281946,4262.051178,4295.38451,4371.281944,4291.281946,4351.794765,4217.435794,4276.922972,4445.640917,4313.333228
29,0,4506.666556,4445.128096,4299.999895,4358.461432,4290.769126,4261.025537,4297.435792,4378.974252,4297.435792,4356.92297,4224.615281,4279.999895,4454.871686,4317.948612
30,0,4510.2563,4446.666558,4301.538356,4365.128098,4290.769126,4262.051178,4303.589638,4385.128098,4306.666561,4340.512714,4247.692204,4283.076818,4468.717839,4333.333227
31,0,4507.692197,4441.538353,4304.615279,4362.563996,4291.281946,4264.61528,4304.615279,4386.153739,4301.538356,4327.179381,4252.820409,4288.717844,4469.23066,4328.717843
32,0,4497.435787,4436.410148,4291.794767,4356.92297,4290.256305,4261.538357,4299.487074,4379.999893,4291.794767,4334.358868,4233.84605,4278.461434,4456.922968,4311.281946
33,0,4489.230659,4437.435789,4290.769126,4359.999893,4287.179382,4261.025537,4296.410151,4374.871688,4291.794767,4357.948611,4221.025538,4272.820408,4449.743481,4305.64092
34,0,4490.769121,4439.999891,4290.256305,4366.153739,4291.281946,4265.640921,4298.974254,4378.461431,4290.769126,4349.230663,4226.153743,4271.281947,4453.333224,4309.743484
35,0,4489.74348,4438.97425,4292.307587,4365.128098,4290.769126,4265.640921,4297.435792,4377.948611,4288.205023,4308.205023,4225.128102,4273.846049,4455.384506,4307.179382
36,0,4485.128095,4436.922968,4287.692203,4363.076816,4283.589639,4257.435793,4291.794767,4369.230662,4289.230664,4304.102459,4217.435794,4269.230665,4453.333224,4303.076818
37,0,4478.974249,4436.922968,4285.640921,4361.538355,4281.538357,4255.384511,4286.666562,4366.66656,4284.61528,4308.205023,4212.307589,4266.153742,4450.256301,4302.051177
38,0,4471.794762,4438.46143,4284.61528,4358.974252,4285.1281,4258.974255,4286.153741,4363.589637,4278.974254,4292.307587,4210.256307,4264.10246,4447.179378,4299.999895
39,0,4471.281942,4436.410148,4286.666562,4361.538355,4285.1281,4261.025537,4288.717844,4357.435791,4281.025536,4288.717844,4215.384512,4264.10246,4450.256301,4303.589638
40,0,4476.922967,4433.846045,4292.820408,4367.17938,4284.102459,4258.461434,4291.794767,4366.153739,4285.640921,4301.538356,4222.051179,4266.666562,4456.922968,4311.281946
41,0,4475.897326,4436.922968,4285.1281,4367.17938,4284.61528,4258.974255,4291.794767,4372.820406,4287.692203,4311.281946,4223.07682,4267.179383,4461.025532,4309.230664
42,0,4462.051173,4436.922968,4279.999895,4365.128098,4283.076818,4262.563998,4288.717844,4363.589637,4287.692203,4297.435792,4223.58964,4266.153742,4458.97425,4296.410151
43,0,4457.948609,4433.333225,4276.922972,4371.794765,4281.538357,4264.61528,4290.769126,4365.640919,4291.281946,4289.743485,4228.205025,4265.640921,4462.563993,4290.256305
44,0,4463.589634,4431.794763,4284.102459,4367.692201,4281.025536,4263.589639,4290.769126,4374.358867,4292.307587,4305.64092,4228.717845,4267.692203,4465.640916,4288.205023
45,0,4466.666557,4432.307584,4280.512716,4363.589637,4284.61528,4262.563998,4288.717844,4366.66656,4289.743485,4315.89733,4228.205025,4263.589639,4465.128096,4288.205023
46,0,4463.076814,4428.20502,4286.153741,4370.769124,4286.666562,4266.153742,4292.307587,4365.640919,4291.281946,4310.256305,4216.410153,4265.128101,4461.025532,4286.153741
47,0,4460.512711,4426.153738,4279.999895,4374.358867,4285.1281,4265.640921,4299.487074,4372.820406,4295.897331,4295.897331,4196.922974,4259.487075,4463.076814,4279.999895
48,0,4456.922968,4421.025533,4281.025536,4366.153739,4279.999895,4261.025537,4293.846049,4369.743483,4294.358869,4281.538357,4188.717846,4256.922973,4465.128096,4274.87169
49,0,4455.897327,4414.871687,4276.410152,4357.435791,4278.974254,4262.563998,4285.640921,4367.17938,4291.794767,4295.897331,4191.794769,4255.384511,4467.692198,4279.999895
50,0,4458.461429,4416.922969,4278.974254,4352.820406,4278.974254,4267.692203,4288.205023,4373.846047,4294.358869,4312.820407,4188.717846,4258.974255,4470.769121,4286.153741
51,0,4463.076814,4421.025533,4272.307588,4357.948611,4279.487075,4266.666562,4292.307587,4378.461431,4298.461433,4309.230664,4189.743487,4259.999896,4476.922967,4295.897331
52,0,4464.102455,4405.640918,4278.461434,4372.307585,4281.025536,4265.128101,4288.205023,4376.92297,4292.307587,4301.538356,4188.717846,4268.205024,4481.538352,4302.563997
53,0,4455.897327,4399.487072,4274.87169,4370.256303,4278.974254,4267.179383,4285.640921,4370.256303,4285.1281,4305.64092,4177.948616,4262.051178,4479.48707,4299.999895
54,0,4447.179378,4418.974251,4271.794767,4353.846047,4274.87169,4267.179383,4287.692203,4368.205021,4290.256305,4311.281946,4172.30759,4255.897332,4477.948608,4299.999895
55,0,4453.333224,4431.794763,4269.743485,4352.307586,4278.461434,4264.61528,4292.307587,4376.410149,4297.948613,4313.846048,4178.974257,4263.076819,4482.563993,4316.410151
56,0,4461.025532,4425.128097,4270.769126,4366.66656,4279.999895,4265.640921,4292.307587,4381.025534,4294.358869,4309.230664,4181.025539,4273.333229,4484.615275,4330.256304
57,0,4455.897327,4421.538353,4267.179383,4365.640919,4269.230665,4266.666562,4286.666562,4373.333226,4286.153741,4294.87169,4169.230667,4265.128101,4477.948608,4324.102458
58,0,4447.179378,4420.512712,4264.61528,4345.640919,4258.461434,4262.051178,4282.051177,4366.66656,4278.461434,4283.076818,4155.897334,4255.384511,4470.256301,4311.281946
59,0,4445.128096,4416.410148,4268.205024,4347.179381,4263.589639,4257.435793,4283.076818,4364.615278,4271.794767,4268.717844,4149.230668,4255.384511,4464.615275,4303.076818
60,0,4449.23066,4422.563994,4261.025537,4365.640919,4268.717844,4260.512716,4283.589639,4364.615278,4268.717844,4269.230665,4149.230668,4251.794768,4464.615275,4304.102459
61,0,4446.666558,4422.051174,4264.10246,4360.512714,4262.563998,4261.538357,4278.461434,4369.743483,4269.230665,4274.87169,4147.179386,4249.230665,4467.692198,4305.1281
62,0,4443.589635,4416.410148,4266.666562,4349.230663,4259.999896,4258.974255,4277.435793,4373.846047,4272.307588,4275.897331,4144.615283,4250.256306,4467.692198,4308.717843
63,0,4443.589635,4414.871687,4271.281947,4349.743483,4261.538357,4257.948614,4274.35887,4369.230662,4266.666562,4274.35887,4142.051181,4255.384511,4460.512711,4311.794766
64,0,4444.615276,4412.307584,4261.538357,4348.717842,4258.974255,4256.410152,4266.666562,4363.076816,4256.922973,4265.128101,4141.02554,4253.333229,4453.846045,4310.769125
65,0,4446.666558,4408.717841,4267.179383,4347.179381,4256.922973,4256.922973,4269.743485,4366.66656,4256.922973,4266.153742,4143.076822,4255.897332,4456.410147,4316.922971
66,0,4452.820404,4417.94861,4267.179383,4357.948611,4262.051178,4260.512716,4280.512716,4372.820406,4259.999896,4288.205023,4149.230668,4255.897332,4465.640916,4334.358868
67,0,4453.846045,4421.025533,4272.307588,4358.974252,4264.10246,4263.589639,4277.435793,4376.92297,4254.871691,4288.717844,4148.717847,4258.461434,4463.589634,4337.948612
68,0,4456.410147,4417.435789,4265.128101,4353.846047,4263.589639,4262.563998,4272.307588,4379.487072,4255.897332,4275.897331,4146.153745,4253.333229,4461.538352,4333.846048
69,0,4456.410147,4420.512712,4265.640921,4362.051175,4262.051178,4262.051178,4272.820408,4377.948611,4257.948614,4278.974254,4140.512719,4252.820409,4462.563993,4332.820407
70,0,4455.384506,4428.71784,4261.538357,4372.307585,4263.589639,4261.025537,4272.820408,4374.358867,4252.307588,4284.61528,4139.999899,4251.794768,4465.128096,4342.051176
71,0,4457.435788,4424.615276,4266.153742,4367.17938,4266.666562,4261.538357,4271.281947,4374.871688,4249.230665,4271.794767,4139.487078,4254.871691,4462.051173,4345.128099
72,0,4450.769122,4410.769123,4259.487075,4356.41015,4264.10246,4259.999896,4269.230665,4373.846047,4247.692204,4265.128101,4129.743489,4250.769127,4447.692199,4324.102458
73,0,4441.025532,4401.025533,4254.35887,4355.384509,4256.922973,4259.999896,4264.61528,4370.256303,4246.153742,4277.948613,4121.538361,4253.84605,4438.97425,4309.230664
74,0,4443.076814,4402.051174,4255.384511,4356.92297,4257.948614,4262.051178,4268.717844,4377.948611,4248.717845,4293.333228,4132.307591,4260.512716,4456.410147,4321.025535
75,0,4442.563994,4402.051174,4255.897332,4356.92297,4263.589639,4260.512716,4269.230665,4388.205021,4250.256306,4292.820408,4144.615283,4261.538357,4476.922967,4325.64092
76,0,4439.487071,4395.897328,4254.35887,4352.307586,4264.10246,4261.025537,4265.128101,4389.230662,4250.769127,4290.769126,4145.640924,4257.435793,4480.512711,4312.307587
77,0,4449.743481,4394.358867,4260.512716,4344.615278,4256.922973,4269.743485,4278.461434,4392.820405,4256.922973,4294.358869,4153.333232,4263.076819,4491.281941,4315.89733
78,0,4453.333224,4385.640918,4271.794767,4351.794765,4254.871691,4266.666562,4286.666562,4397.43579,4257.435793,4295.897331,4163.076821,4273.846049,4508.205018,4326.666561
79,0,4437.435789,4355.897329,4261.025537,4352.307586,4256.922973,4251.794768,4261.025537,4382.051175,4246.666563,4290.769126,4155.897334,4265.640921,4501.538351,4313.846048
80,0,4431.281943,4355.384509,4257.435793,4344.102458,4261.025537,4255.897332,4255.897332,4378.461431,4246.153742,4287.692203,4148.205027,4260.512716,4490.769121,4306.666561
81,0,4443.589635,4383.076816,4264.61528,4347.179381,4254.35887,4270.256306,4284.61528,4397.43579,4257.948614,4294.358869,4159.487078,4263.076819,4496.410146,4317.435792
82,0,4441.538353,4355.897329,4275.897331,4332.820407,4235.384512,4261.538357,4275.384511,4391.794764,4250.256306,4287.692203,4157.435796,4263.076819,4487.179377,4310.256305
83,0,4423.589635,4329.743484,4253.84605,4321.538356,4242.563999,4249.230665,4246.153742,4369.230662,4235.897332,4269.743485,4142.051181,4252.820409,4470.769121,4292.820408
84,0,4420.512712,4357.435791,4251.281947,4345.128099,4256.922973,4254.871691,4257.948614,4374.358867,4240.512717,4266.666562,4144.615283,4256.410152,4474.871685,4295.897331
85,0,4433.333225,4382.563995,4264.61528,4367.692201,4262.563998,4258.974255,4286.666562,4392.307585,4252.307588,4290.256305,4164.615283,4262.051178,4491.794762,4318.974253
86,0,4424.102456,4375.384508,4271.794767,4343.589637,4257.948614,4255.897332,4279.487075,4391.794764,4248.717845,4299.487074,4163.589642,4263.589639,4486.153736,4321.538356
87,0,4406.153738,4368.717842,4253.84605,4310.769125,4247.179383,4252.820409,4259.999896,4381.538354,4240.512717,4283.076818,4148.717847,4251.281947,4475.384506,4306.153741
88,0,4403.076815,4372.307585,4258.461434,4313.846048,4252.820409,4251.794768,4259.999896,4382.051175,4240.512717,4272.307588,4145.128104,4248.717845,4476.410147,4296.922972
89,0,4406.153738,4395.897328,4257.948614,4335.89733,4271.281947,4252.820409,4272.820408,4387.6922,4242.563999,4285.640921,4150.256309,4248.717845,4481.025531,4303.076818
90,0,4407.6922,4414.871687,4254.871691,4335.89733,4275.897331,4257.435793,4278.461434,4389.743482,4244.10246,4293.333228,4153.333232,4250.769127,4480.512711,4308.205023
91,0,4406.666559,4393.846046,4252.820409,4313.333228,4269.230665,4255.384511,4273.333229,4384.615277,4242.051178,4275.897331,4153.846052,4247.692204,4472.820403,4297.948613
92,0,4405.128097,4383.589636,4263.589639,4312.820407,4278.461434,4254.871691,4275.897331,4385.640918,4243.58964,4269.743485,4156.410155,4255.384511,4476.922967,4296.922972
93,0,4406.153738,4388.205021,4271.281947,4333.846048,4287.179382,4257.435793,4277.948613,4386.666559,4244.615281,4288.717844,4156.922975,4257.948614,4487.179377,4299.999895
94,0,4401.538354,4378.974252,4269.230665,4335.384509,4284.61528,4258.974255,4273.333229,4384.615277,4245.640922,4302.563997,4162.564001,4252.820409,4482.051172,4291.794767
95,0,4389.743482,4392.820405,4260.512716,4318.974253,4288.717844,4258.461434,4276.922972,4391.794764,4251.281947,4298.461433,4164.615283,4251.794768,4472.820403,4290.256305
96,0,4382.051175,4395.384508,4250.769127,4329.230663,4290.769126,4253.84605,4274.35887,4386.153739,4246.153742,4293.333228,4150.256309,4246.153742,4477.435788,4289.230664
97,0,4373.846047,4358.974252,4252.307588,4365.640919,4292.820408,4250.256306,4261.538357,4368.717842,4236.922973,4286.666562,4135.897335,4231.794768,4483.076813,4273.846049
98,0,4363.076816,4340.512714,4246.666563,4375.384508,4292.820408,4252.820409,4262.051178,4367.692201,4242.563999,4275.897331,4149.230668,4229.743486,4472.820403,4266.666562
99,0,4363.076816,4347.692201,4255.384511,4364.102457,4281.025536,4255.384511,4273.846049,4381.538354,4245.640922,4277.435793,4167.179385,4248.205024,4457.948609,4272.820408
100,0,4373.333226,4332.820407,4266.666562,4379.487072,4267.179383,4256.410152,4278.461434,4384.102457,4239.999896,4289.743485,4153.846052,4251.794768,4465.640916,4268.717844
101,0,4366.66656,4333.846048,4270.256306,4381.025534,4270.769126,4257.948614,4270.769126,4374.871688,4237.435794,4288.717844,4126.666566,4241.538358,4479.48707,4253.84605
102,0,4348.717842,4378.974252,4245.128101,4369.743483,4303.076818,4254.35887,4257.435793,4359.999893,4237.948614,4280.512716,4151.28195,4226.666563,4484.615275,4255.897332
103,0,4346.15374,4376.92297,4247.692204,4386.153739,4291.794767,4250.256306,4250.769127,4355.384509,4227.179384,4259.999896,4176.410154,4232.820409,4469.23066,4259.999896
104,0,4357.948611,4333.846048,4265.640921,4379.487072,4243.076819,4253.333229,4262.051178,4362.563996,4219.487076,4244.10246,4129.743489,4243.58964,4449.743481,4252.820409
105,0,4356.92297,4335.384509,4275.897331,4355.384509,4252.307588,4256.922973,4265.640921,4363.589637,4228.205025,4265.128101,4108.205028,4245.640922,4456.922968,4250.256306
106,0,4347.692201,4369.743483,4253.84605,4366.153739,4295.38451,4252.307588,4258.974255,4359.487073,4234.871691,4291.281946,4166.666565,4231.281948,4487.692198,4263.076819
107,0,4342.563996,4372.820406,4244.10246,4392.820405,4293.333228,4248.205024,4252.820409,4354.871688,4226.153743,4276.410152,4208.717846,4230.769127,4494.871685,4260.512716
108,0,4338.974253,4353.333227,4244.615281,4390.769123,4267.179383,4245.640922,4247.692204,4350.256304,4223.58964,4270.256306,4211.281948,4238.974255,4475.897326,4252.307588
109,0,4339.999894,4328.205022,4262.051178,4360.512714,4256.410152,4246.153742,4247.692204,4359.999893,4229.230666,4251.794768,4191.794769,4251.794768,4460.512711,4255.384511
110,0,4341.025535,4326.666561,4262.563998,4351.794765,4262.051178,4247.179383,4251.281947,4361.538355,4228.205025,4250.769127,4181.538359,4239.487076,4474.358865,4247.179383
111,0,4334.358868,4374.358867,4252.307588,4366.66656,4281.538357,4245.640922,4248.205024,4343.076817,4224.102461,4327.179381,4241.538358,4221.025538,4506.666556,4239.487076
112,0,4344.615278,4370.256303,4263.076819,4362.051175,4276.922972,4245.640922,4261.025537,4360.512714,4225.128102,4274.87169,4273.846049,4246.666563,4493.333223,4267.692203
113,0,4351.281945,4331.794766,4274.87169,4354.871688,4250.769127,4247.179383,4272.307588,4389.743482,4226.153743,4154.871693,4207.692205,4268.717844,4461.025532,4274.87169
114,0,4325.128099,4362.051175,4247.692204,4370.769124,4258.974255,4242.563999,4246.153742,4354.871688,4218.974256,4225.128102,4203.589641,4223.07682,4478.974249,4227.179384
115,0,4304.615279,4384.615277,4219.487076,4362.563996,4273.846049,4237.435794,4227.179384,4314.358869,4211.281948,4318.461433,4272.307588,4189.743487,4493.846044,4200.512718
116,0,4315.38451,4386.666559,4225.128102,4355.384509,4278.974254,4241.025537,4239.487076,4327.692202,4212.307589,4291.794767,4286.666562,4207.692205,4489.74348,4216.410153
117,0,4330.256304,4387.6922,4233.33323,4358.974252,4267.692203,4244.10246,4247.179383,4337.435791,4219.999897,4291.794767,4255.897332,4216.922974,4492.307582,4226.666563
118,0,4326.666561,4320.512715,4252.820409,4330.256304,4242.563999,4244.10246,4246.666563,4347.692201,4209.743487,4244.615281,4197.435795,4241.025537,4429.230661,4219.999897
119,0,4311.794766,4278.461434,4247.692204,4322.051176,4236.410153,4245.640922,4251.281947,4368.205021,4195.897333,4115.384515,4134.871694,4264.61528,4347.179381,4209.230666
120,0,4296.410151,4333.846048,4234.358871,4335.384509,4246.666563,4244.10246,4240.512717,4352.820406,4204.615282,4149.230668,4151.79477,4241.025537,4387.17938,4203.589641
121,0,4293.333228,4346.15374,4222.563999,4344.102458,4251.794768,4237.948614,4226.153743,4321.025535,4205.128102,4271.281947,4198.974256,4213.33323,4460.512711,4211.794769
122,0,4290.256305,4294.87169,4229.743486,4346.15374,4249.230665,4239.487076,4227.692204,4325.64092,4191.794769,4245.640922,4169.743488,4230.256307,4436.922968,4204.615282
123,0,4298.461433,4311.794766,4231.794768,4334.358868,4262.051178,4246.153742,4244.615281,4352.820406,4207.692205,4183.076821,4132.820412,4248.205024,4409.743482,4194.871692
124,0,4314.358869,4320.512715,4249.230665,4331.281945,4235.897332,4244.615281,4245.128101,4346.15374,4226.153743,4191.281949,4212.307589,4244.615281,4439.999891,4202.564
125,0,4311.794766,4310.769125,4237.948614,4409.743482,4205.640923,4237.948614,4230.256307,4318.974253,4210.256307,4246.153742,4333.846048,4215.897333,4468.717839,4208.205025
126,0,4288.205023,4307.692202,4221.025538,4350.256304,4201.025538,4237.948614,4217.948615,4310.256305,4191.794769,4274.35887,4372.307585,4202.051179,4462.051173,4192.30759
127,0,4281.538357,4323.076817,4222.051179,4158.461437,4227.692204,4242.563999,4221.538358,4315.38451,4200.512718,4281.025536,4428.20502,4201.025538,4479.99989,4185.640923
128,0,4316.410151,4340.512714,4244.10246,4209.230666,4251.281947,4247.179383,4234.871691,4326.666561,4209.743487,4277.435793,4534.871684,4201.025538,4524.102453,4199.999897
128,0,4316.410151,4340.512714,4244.10246,4209.230666,4251.281947,4247.179383,4234.871691,4326.666561,4209.743487,4277.435793,4534.871684,4201.025538,4524.102453,4199.999897
0,0,4327.692202,4280.512716,4249.743486,4268.205024,4178.974257,4243.58964,4235.897332,4326.15374,4203.07682,4253.84605,4448.205019,4199.999897,4511.794761,4192.82041
1,0,4301.538356,4231.794768,4250.769127,4175.384513,4120.51272,4239.999896,4229.230666,4320.512715,4196.922974,4238.461435,4276.922972,4218.974256,4474.871685,4173.333231
2,0,4308.717843,4259.487075,4263.076819,4209.743487,4191.281949,4241.538358,4230.256307,4324.615279,4200.512718,4209.743487,4373.333226,4227.179384,4478.974249,4188.717846
3,0,4339.999894,4313.333228,4267.179383,4324.615279,4248.205024,4246.153742,4245.128101,4334.358868,4206.666564,4226.153743,4530.76912,4225.128102,4491.794762,4220.512717
4,0,4324.615279,4329.230663,4253.84605,4304.615279,4153.846052,4247.179383,4247.179383,4331.794766,4210.256307,4265.128101,4453.846045,4227.179384,4475.384506,4219.487076
5,0,4306.666561,4389.743482,4239.487076,4321.025535,4171.79477,4252.820409,4249.743486,4354.358868,4227.692204,4253.84605,4385.640918,4241.538358,4493.333223,4230.769127
6,0,4315.89733,4521.02553,4232.307589,4451.281942,4373.846047,4253.333229,4250.769127,4378.974252,4244.615281,4276.410152,4488.205018,4244.615281,4556.410145,4257.435793
7,0,4291.794767,4540.512709,4204.102461,4449.23066,4396.410149,4240.512717,4219.487076,4334.358868,4227.179384,4321.538356,4544.615273,4208.205025,4550.769119,4236.410153
8,0,4264.61528,4428.71784,4203.589641,4398.461431,4257.435793,4236.410153,4198.461436,4298.461433,4202.051179,4274.35887,4483.076813,4188.717846,4491.281941,4199.999897
9,0,4278.461434,4377.948611,4221.538358,4401.025533,4232.820409,4245.640922,4219.999897,4315.38451,4206.153743,4230.769127,4476.922967,4198.461436,4482.563993,4203.07682
10,0,4284.61528,4414.871687,4238.974255,4386.666559,4270.256306,4250.769127,4236.922973,4319.487074,4212.82041,4266.153742,4487.179377,4213.846051,4494.358864,4213.33323
11,0,4266.153742,4374.871688,4226.153743,4383.076816,4224.102461,4242.563999,4219.487076,4299.487074,4199.999897,4218.461435,4424.615276,4203.07682,4457.435788,4193.846051
12,0,4246.153742,4347.692201,4214.358871,4434.871686,4221.538358,4238.461435,4204.615282,4296.410151,4193.846051,4166.666565,4415.897328,4189.743487,4424.615276,4167.692206
13,0,4250.256306,4410.256302,4212.82041,4470.256301,4263.589639,4244.10246,4215.897333,4304.615279,4205.640923,4246.153742,4479.48707,4185.128103,4438.97425,4178.974257
14,0,4259.999896,4385.128098,4231.281948,4411.281943,4213.33323,4248.717845,4224.102461,4299.487074,4203.07682,4270.256306,4445.128096,4193.333231,4424.102456,4192.82041
15,0,4262.051178,4349.230663,4222.563999,4408.717841,4206.153743,4247.692204,4222.563999,4296.922972,4197.948615,4225.128102,4383.076816,4187.692205,4403.589636,4187.179385
16,0,4255.897332,4416.922969,4204.615282,4473.846044,4281.025536,4245.640922,4212.82041,4303.589638,4199.999897,4213.846051,4410.769123,4183.076821,4394.871687,4182.564
17,0,4251.794768,4428.20502,4209.743487,4433.846045,4272.307588,4239.487076,4209.230666,4299.999895,4198.461436,4213.33323,4422.563994,4185.640923,4373.333226,4187.179385
18,0,4248.717845,4334.871689,4232.307589,4347.179381,4199.487077,4236.922973,4211.281948,4291.794767,4192.82041,4202.051179,4374.358867,4184.102462,4344.102458,4179.487077
19,0,4241.025537,4334.358868,4221.025538,4363.076816,4215.897333,4237.948614,4208.717846,4297.948613,4190.256308,4211.281948,4364.102457,4177.948616,4323.076817,4172.820411
20,0,4243.58964,4407.6922,4205.128102,4432.820404,4262.563998,4237.948614,4211.281948,4307.179382,4196.410154,4219.999897,4387.6922,4188.205026,4323.589638,4181.025539
21,0,4257.948614,4379.999893,4216.922974,4446.666558,4246.153742,4235.897332,4215.384512,4299.487074,4202.051179,4215.384512,4394.358867,4194.871692,4333.846048,4183.076821
22,0,4266.153742,4320.512715,4223.58964,4417.94861,4228.717845,4235.897332,4209.230666,4288.205023,4201.538359,4206.666564,4377.948611,4190.256308,4332.307586,4181.025539
23,0,4259.487075,4335.89733,4220.512717,4408.717841,4232.820409,4234.871691,4209.743487,4288.717844,4201.538359,4209.743487,4375.897329,4189.230667,4331.794766,4184.615282
24,0,4251.281947,4347.179381,4218.461435,4407.6922,4218.974256,4233.84605,4218.974256,4293.333228,4202.564,4229.230666,4398.461431,4190.769128,4345.128099,4188.717846
25,0,4250.769127,4313.846048,4230.256307,4402.563995,4200.512718,4232.820409,4214.871692,4295.38451,4201.025538,4211.794769,4394.871687,4193.333231,4342.563996,4185.640923
26,0,4256.410152,4306.666561,4229.743486,4419.487071,4207.692205,4229.743486,4210.769128,4295.38451,4202.051179,4184.615282,4379.487072,4195.897333,4331.794766,4185.128103
27,0,4245.128101,4329.743484,4230.256307,4397.43579,4214.358871,4230.769127,4213.846051,4296.410151,4201.025538,4204.615282,4378.974252,4198.974256,4334.358868,4181.538359
28,0,4230.769127,4311.281946,4222.051179,4355.384509,4196.922974,4231.281948,4210.769128,4293.846049,4193.333231,4214.358871,4369.743483,4189.743487,4328.717843,4171.79477
29,0,4236.410153,4263.589639,4233.33323,4355.897329,4194.358872,4228.717845,4204.102461,4290.769126,4189.230667,4181.538359,4346.15374,4194.871692,4311.794766,4168.205026
30,0,4243.076819,4279.999895,4225.640922,4361.025534,4224.615281,4227.692204,4206.153743,4291.281946,4194.358872,4182.05118,4347.179381,4197.948615,4316.410151,4177.948616
31,0,4230.256307,4314.871689,4217.435794,4348.205022,4239.999896,4228.717845,4206.666564,4289.743485,4194.871692,4202.564,4356.41015,4194.871692,4325.64092,4181.538359
32,0,4223.07682,4299.487074,4212.82041,4368.717842,4228.205025,4229.230666,4204.615282,4288.717844,4193.846051,4200.512718,4330.256304,4190.256308,4325.64092,4182.05118
33,0,4227.179384,4275.384511,4222.051179,4379.487072,4215.897333,4227.692204,4198.461436,4288.205023,4192.30759,4181.538359,4268.205024,4193.846051,4310.256305,4182.05118
34,0,4236.922973,4291.281946,4221.538358,4344.102458,4214.358871,4227.179384,4203.07682,4292.307587,4192.82041,4184.102462,4236.410153,4195.384513,4301.025536,4187.692205
35,0,4237.948614,4298.974254,4222.563999,4331.281945,4209.743487,4227.179384,4206.666564,4293.846049,4192.82041,4194.358872,4235.384512,4194.358872,4305.64092,4189.743487
36,0,4224.615281,4283.589639,4211.794769,4341.025535,4203.589641,4222.051179,4195.897333,4282.051177,4189.230667,4183.076821,4213.33323,4185.128103,4300.512715,4183.076821
37,0,4222.051179,4277.948613,4209.743487,4330.769125,4201.538359,4218.461435,4191.794769,4277.435793,4184.102462,4175.384513,4191.281949,4187.179385,4289.743485,4177.435795
38,0,4227.179384,4277.435793,4216.922974,4325.128099,4197.948615,4217.435794,4194.871692,4280.512716,4180.512718,4174.871693,4182.05118,4189.230667,4284.102459,4174.871693
39,0,4217.948615,4274.87169,4215.384512,4324.102458,4191.281949,4215.897333,4188.205026,4271.281947,4183.076821,4167.692206,4170.769129,4182.05118,4281.538357,4168.717847
40,0,4210.256307,4268.717844,4212.307589,4320.512715,4191.281949,4214.871692,4188.205026,4270.256306,4181.025539,4172.30759,4159.999898,4178.461436,4278.461434,4163.589642
41,0,4214.358871,4262.051178,4213.846051,4315.38451,4194.358872,4218.461435,4201.538359,4290.769126,4183.589641,4183.076821,4151.79477,4181.025539,4274.35887,4165.640924
42,0,4214.358871,4261.025537,4217.948615,4302.563997,4193.846051,4217.948615,4204.102461,4290.769126,4194.871692,4183.076821,4149.743488,4177.435795,4281.538357,4170.256308
43,0,4212.307589,4260.512716,4210.256307,4289.743485,4192.82041,4215.897333,4197.435795,4272.820408,4195.897333,4184.615282,4137.948617,4175.384513,4284.61528,4168.717847
44,0,4205.640923,4241.025537,4212.82041,4275.897331,4192.30759,4219.999897,4198.461436,4277.435793,4186.666564,4184.615282,4108.717848,4186.666564,4247.692204,4154.358873
45,0,4200.512718,4220.512717,4211.281948,4273.333229,4189.743487,4219.487076,4206.666564,4296.410151,4189.230667,4171.79477,4111.794771,4184.102462,4235.897332,4159.487078
46,0,4210.256307,4222.563999,4216.410153,4285.640921,4185.640923,4214.358871,4206.153743,4304.102459,4185.128103,4163.076821,4098.974259,4185.128103,4279.999895,4185.640923
47,0,4227.179384,4233.84605,4213.33323,4296.410151,4184.102462,4213.846051,4201.538359,4296.410151,4179.999898,4179.999898,4071.281952,4191.794769,4304.615279,4197.948615
48,0,4232.820409,4241.538358,4223.58964,4300.512715,4184.102462,4218.461435,4207.179384,4289.230664,4200.512718,4229.743486,4144.102463,4190.256308,4316.410151,4195.384513
49,0,4229.743486,4255.897332,4216.922974,4306.666561,4183.076821,4215.384512,4204.102461,4283.076818,4210.256307,4251.794768,4237.435794,4174.358872,4346.15374,4202.564
50,0,4224.102461,4253.84605,4213.846051,4305.1281,4175.384513,4208.205025,4183.076821,4270.769126,4186.666564,4227.179384,4207.692205,4176.410154,4338.974253,4201.025538
51,0,4222.563999,4238.461435,4209.743487,4286.666562,4171.281949,4207.692205,4182.564,4266.153742,4177.948616,4217.948615,4158.461437,4180.512718,4320.512715,4189.743487
52,0,4220.512717,4239.999896,4216.410153,4266.666562,4177.948616,4210.256307,4197.948615,4290.769126,4186.153744,4182.564,4146.666565,4188.717846,4317.435792,4184.615282
53,0,4219.487076,4257.948614,4209.743487,4269.743485,4189.230667,4210.256307,4198.461436,4298.974254,4191.281949,4173.846052,4152.307591,4188.205026,4314.871689,4187.179385
54,0,4224.102461,4256.410152,4206.153743,4277.435793,4190.769128,4210.256307,4193.333231,4281.538357,4198.974256,4242.563999,4203.589641,4181.025539,4326.15374,4194.358872
55,0,4228.717845,4244.10246,4204.615282,4268.717844,4186.666564,4209.743487,4195.897333,4283.589639,4199.999897,4271.794767,4225.640922,4172.820411,4339.487073,4196.410154
56,0,4229.743486,4245.640922,4207.179384,4254.871691,4187.179385,4210.769128,4193.846051,4288.717844,4194.358872,4228.205025,4183.076821,4177.948616,4327.692202,4192.30759
57,0,4229.743486,4248.717845,4210.769128,4251.794768,4186.153744,4210.256307,4192.82041,4275.384511,4194.871692,4221.538358,4190.256308,4183.076821,4318.461433,4201.538359
58,0,4224.102461,4242.563999,4207.692205,4260.512716,4184.615282,4207.179384,4191.794769,4274.87169,4188.717846,4219.487076,4213.33323,4183.076821,4319.487074,4208.717846
59,0,4222.051179,4244.615281,4203.589641,4279.487075,4188.717846,4205.640923,4187.179385,4287.692203,4184.615282,4189.230667,4187.692205,4181.025539,4321.025535,4196.922974
60,0,4233.33323,4251.281947,4204.615282,4282.051177,4187.179385,4209.230666,4190.769128,4284.61528,4192.82041,4214.871692,4195.384513,4183.076821,4328.205022,4194.871692
61,0,4237.948614,4251.281947,4215.897333,4267.179383,4185.128103,4208.205025,4198.461436,4282.051177,4195.384513,4245.128101,4224.615281,4193.846051,4325.128099,4208.205025
62,0,4232.820409,4254.871691,4208.205025,4277.435793,4193.846051,4205.640923,4196.410154,4290.769126,4193.333231,4233.33323,4206.153743,4192.82041,4328.717843,4215.897333
63,0,4236.922973,4249.743486,4211.281948,4295.897331,4193.846051,4208.717846,4194.871692,4293.333228,4198.461436,4214.871692,4189.230667,4189.743487,4349.743483,4217.948615
64,0,4246.666563,4246.153742,4214.358871,4294.87169,4185.640923,4208.205025,4202.564,4289.743485,4202.051179,4229.743486,4222.051179,4187.179385,4362.051175,4221.538358
65,0,4233.84605,4247.692204,4210.769128,4291.794767,4189.230667,4201.538359,4195.384513,4287.692203,4192.82041,4244.615281,4225.128102,4186.666564,4347.179381,4212.82041
66,0,4219.999897,4234.871691,4199.487077,4295.897331,4188.717846,4202.051179,4188.205026,4289.230664,4185.128103,4227.692204,4184.102462,4186.666564,4328.717843,4202.564
67,0,4219.999897,4227.179384,4210.769128,4289.743485,4177.948616,4206.153743,4189.743487,4288.717844,4185.640923,4213.33323,4177.435795,4193.333231,4332.307586,4202.051179
68,0,4219.487076,4255.897332,4197.435795,4283.589639,4186.666564,4204.102461,4186.666564,4284.61528,4192.82041,4209.743487,4207.692205,4181.025539,4349.230663,4204.615282
69,0,4219.999897,4269.743485,4197.948615,4287.692203,4202.051179,4205.128102,4191.281949,4293.846049,4203.07682,4213.846051,4224.615281,4177.948616,4357.435791,4208.717846
70,0,4228.717845,4246.153742,4212.307589,4294.87169,4197.948615,4208.205025,4207.179384,4302.051177,4207.179384,4241.538358,4192.82041,4191.281949,4358.974252,4216.410153
71,0,4221.025538,4245.640922,4210.256307,4292.307587,4191.281949,4210.769128,4203.07682,4294.87169,4196.410154,4239.999896,4167.179385,4197.948615,4346.66656,4208.205025
72,0,4210.769128,4268.717844,4190.769128,4284.102459,4191.794769,4210.256307,4192.30759,4285.640921,4190.769128,4193.333231,4195.384513,4179.487077,4330.256304,4193.846051
73,0,4216.922974,4261.025537,4198.974256,4291.794767,4186.153744,4208.717846,4194.358872,4277.435793,4195.384513,4189.230667,4214.358871,4170.769129,4329.230663,4187.692205
74,0,4221.538358,4253.84605,4203.07682,4297.948613,4194.358872,4209.230666,4199.999897,4273.333229,4196.410154,4217.948615,4193.333231,4177.948616,4331.281945,4188.205026
75,0,4218.974256,4270.256306,4197.948615,4282.051177,4209.230666,4211.794769,4199.487077,4280.512716,4192.30759,4210.256307,4167.692206,4187.692205,4330.256304,4189.743487
76,0,4219.999897,4279.487075,4201.538359,4262.563998,4190.769128,4209.743487,4197.435795,4284.102459,4193.846051,4201.025538,4183.589641,4186.666564,4337.948612,4197.435795
77,0,4219.487076,4278.974254,4202.564,4256.922973,4171.79477,4208.205025,4194.358872,4277.435793,4197.948615,4205.640923,4224.615281,4179.999898,4345.128099,4206.666564
78,0,4211.281948,4257.435793,4199.999897,4259.487075,4174.871693,4208.205025,4188.205026,4269.230665,4190.769128,4192.30759,4217.948615,4168.717847,4341.025535,4197.948615
79,0,4205.640923,4216.410153,4197.948615,4260.512716,4177.948616,4202.564,4176.410154,4269.230665,4178.461436,4162.05118,4162.564001,4169.743488,4319.999894,4181.025539
80,0,4201.538359,4242.563999,4198.974256,4252.820409,4180.512718,4202.564,4172.820411,4273.846049,4180.512718,4152.820411,4145.640924,4187.692205,4297.435792,4184.615282
81,0,4210.769128,4309.230664,4194.871692,4249.230665,4192.82041,4211.281948,4193.333231,4279.487075,4204.102461,4204.615282,4196.922974,4190.769128,4327.692202,4215.897333
82,0,4216.410153,4263.076819,4210.769128,4254.871691,4177.948616,4209.743487,4193.333231,4282.563998,4199.999897,4198.974256,4196.922974,4176.922975,4351.794765,4211.794769
83,0,4208.205025,4207.179384,4211.794769,4256.410152,4162.05118,4205.640923,4178.461436,4279.487075,4176.410154,4138.974258,4166.666565,4173.333231,4318.974253,4185.640923
84,0,4201.538359,4266.153742,4201.025538,4250.256306,4191.794769,4209.230666,4186.153744,4273.333229,4186.153744,4181.538359,4196.410154,4186.666564,4315.89733,4198.461436
85,0,4199.999897,4314.358869,4181.538359,4241.025537,4213.846051,4209.743487,4192.82041,4267.692203,4209.230666,4266.666562,4251.794768,4167.692206,4375.384508,4212.307589
86,0,4188.717846,4290.769126,4187.692205,4225.128102,4187.692205,4207.179384,4183.589641,4269.743485,4209.743487,4244.615281,4254.35887,4152.307591,4389.230662,4184.615282
87,0,4186.153744,4272.307588,4191.794769,4240.512717,4183.076821,4204.615282,4181.025539,4271.281947,4202.564,4201.538359,4226.153743,4166.153744,4349.743483,4177.948616
88,0,4209.230666,4241.025537,4212.82041,4269.230665,4177.948616,4205.128102,4186.666564,4274.35887,4196.410154,4189.230667,4213.33323,4190.769128,4324.102458,4206.153743
89,0,4223.58964,4218.974256,4218.461435,4230.256307,4143.076822,4205.640923,4185.128103,4271.281947,4190.256308,4173.333231,4202.564,4186.666564,4317.948612,4212.307589
90,0,4213.846051,4271.281947,4209.230666,4199.487077,4153.846052,4205.640923,4177.948616,4262.051178,4189.230667,4183.589641,4216.922974,4173.333231,4315.38451,4203.589641
91,0,4223.07682,4309.743484,4209.743487,4262.051178,4209.230666,4205.640923,4185.640923,4271.281947,4187.692205,4173.846052,4214.871692,4173.846052,4310.769125,4214.358871
92,0,4233.33323,4281.538357,4228.205025,4273.333229,4204.102461,4210.769128,4192.30759,4275.897331,4182.564,4146.666565,4176.410154,4177.435795,4307.179382,4209.230666
93,0,4209.230666,4286.153741,4213.33323,4192.82041,4165.640924,4209.230666,4179.487077,4248.717845,4182.05118,4172.820411,4203.07682,4162.564001,4307.692202,4188.205026
94,0,4192.30759,4336.922971,4191.281949,4206.153743,4189.743487,4206.153743,4170.256308,4237.948614,4189.230667,4208.205025,4239.999896,4159.487078,4306.666561,4192.30759
95,0,4214.358871,4327.692202,4208.205025,4281.025536,4214.871692,4207.179384,4182.05118,4256.922973,4193.333231,4203.07682,4224.615281,4169.230667,4303.076818,4198.974256
96,0,4225.640922,4286.666562,4219.487076,4279.999895,4199.999897,4206.153743,4187.179385,4262.563998,4188.205026,4170.256308,4229.743486,4167.179385,4304.615279,4187.692205
97,0,4212.307589,4293.333228,4209.230666,4261.538357,4180.512718,4209.230666,4177.948616,4256.410152,4178.974257,4155.384514,4250.256306,4163.076821,4301.538356,4184.615282
98,0,4214.871692,4330.769125,4204.102461,4266.153742,4180.512718,4215.897333,4182.564,4263.076819,4182.05118,4176.410154,4232.307589,4173.846052,4296.922972,4194.358872
99,0,4226.153743,4351.794765,4214.871692,4276.922972,4200.512718,4212.307589,4186.666564,4270.256306,4187.692205,4196.922974,4240.512717,4181.538359,4299.999895,4201.025538
100,0,4213.33323,4322.051176,4204.615282,4308.717843,4194.358872,4203.589641,4174.358872,4261.538357,4179.487077,4162.564001,4267.179383,4162.05118,4302.051177,4193.333231
101,0,4193.846051,4296.922972,4202.564,4322.051176,4181.538359,4207.179384,4175.384513,4258.461434,4181.025539,4134.871694,4245.128101,4161.53836,4305.64092,4183.589641
102,0,4209.230666,4319.999894,4210.256307,4267.692203,4182.05118,4215.384512,4196.922974,4266.666562,4196.410154,4188.717846,4266.153742,4176.410154,4318.461433,4196.922974
103,0,4222.563999,4333.333227,4219.999897,4222.051179,4188.717846,4211.281948,4190.769128,4262.563998,4188.205026,4213.33323,4297.435792,4178.461436,4313.846048,4205.128102
104,0,4203.07682,4335.89733,4194.358872,4254.35887,4191.281949,4202.564,4167.692206,4254.871691,4170.256308,4165.640924,4258.461434,4165.128103,4288.717844,4186.666564
105,0,4189.230667,4344.102458,4195.897333,4301.025536,4188.717846,4205.640923,4174.358872,4260.512716,4178.461436,4150.256309,4226.153743,4171.79477,4277.435793,4172.820411
106,0,4201.025538,4341.025535,4209.743487,4304.615279,4192.82041,4208.717846,4187.179385,4256.922973,4189.743487,4194.358872,4257.435793,4168.717847,4301.538356,4182.05118
107,0,4198.461436,4330.256304,4203.589641,4270.256306,4187.692205,4204.102461,4171.79477,4244.615281,4175.384513,4200.512718,4284.61528,4153.846052,4314.358869,4178.974257
108,0,4189.743487,4354.871688,4185.128103,4249.230665,4198.461436,4204.615282,4169.743488,4261.538357,4167.692206,4150.256309,4274.87169,4154.358873,4301.538356,4175.384513
109,0,4202.051179,4334.358868,4205.128102,4252.820409,4198.461436,4211.281948,4184.615282,4272.820408,4172.30759,4125.128104,4259.487075,4165.128103,4291.281946,4173.846052
110,0,4203.589641,4293.846049,4210.256307,4258.974255,4177.948616,4206.666564,4179.487077,4250.256306,4168.205026,4145.128104,4236.410153,4157.435796,4285.1281,4164.102462
111,0,4190.769128,4325.64092,4199.999897,4250.769127,4173.333231,4202.564,4169.743488,4241.025537,4162.05118,4169.743488,4231.794768,4156.922975,4277.435793,4164.102462
112,0,4189.743487,4334.871689,4199.999897,4244.10246,4176.922975,4205.128102,4171.281949,4237.948614,4161.025539,4175.384513,4268.205024,4156.410155,4283.589639,4166.153744
113,0,4195.897333,4296.410151,4201.538359,4253.84605,4175.384513,4206.153743,4171.79477,4228.205025,4159.487078,4169.230667,4286.666562,4157.948616,4292.307587,4162.05118
114,0,4200.512718,4311.794766,4197.948615,4257.948614,4180.512718,4205.640923,4170.769129,4235.384512,4159.999898,4170.769129,4269.230665,4167.692206,4283.589639,4169.230667
115,0,4208.205025,4347.692201,4196.410154,4276.922972,4198.974256,4206.666564,4176.410154,4253.84605,4162.05118,4159.999898,4247.179383,4177.435795,4272.820408,4178.974257
116,0,4209.743487,4338.461432,4202.564,4282.563998,4201.025538,4208.205025,4183.076821,4268.205024,4160.512719,4151.28195,4245.128101,4176.922975,4280.512716,4175.897334
117,0,4205.640923,4304.615279,4195.897333,4282.051177,4169.230667,4205.640923,4179.999898,4260.512716,4157.435796,4171.79477,4260.512716,4161.53836,4301.025536,4167.692206
118,0,4210.256307,4281.538357,4195.897333,4297.435792,4140.512719,4204.102461,4172.820411,4244.10246,4156.410155,4162.05118,4272.307588,4158.974257,4296.922972,4165.640924
119,0,4208.717846,4307.179382,4193.846051,4262.051178,4156.922975,4202.051179,4172.30759,4243.076819,4155.897334,4130.76913,4283.076818,4158.974257,4287.179382,4166.666565
120,0,4198.461436,4331.281945,4196.410154,4229.743486,4191.794769,4197.435795,4165.640924,4249.743486,4150.256309,4141.53836,4266.153742,4155.897334,4287.692203,4165.128103
121,0,4207.179384,4291.281946,4185.128103,4277.435793,4183.589641,4195.897333,4158.461437,4245.640922,4148.205027,4188.717846,4236.410153,4156.922975,4284.102459,4168.205026
122,0,4207.179384,4285.1281,4183.589641,4310.769125,4169.230667,4197.948615,4155.897334,4246.666563,4144.102463,4167.692206,4230.769127,4164.102462,4276.922972,4159.487078
123,0,4199.999897,4344.615278,4179.487077,4278.461434,4187.179385,4204.615282,4167.692206,4257.435793,4146.666565,4135.897335,4250.769127,4157.435796,4291.281946,4157.435796
124,0,4209.230666,4318.974253,4196.410154,4276.922972,4177.948616,4209.743487,4175.897334,4255.384511,4153.333232,4162.564001,4281.538357,4157.435796,4305.64092,4166.153744
125,0,4211.281948,4277.435793,4191.794769,4299.999895,4158.974257,4203.07682,4168.717847,4248.205024,4151.28195,4171.79477,4284.102459,4155.897334,4298.461433,4163.076821
126,0,4197.948615,4321.025535,4175.897334,4289.230664,4174.358872,4198.461436,4156.922975,4248.205024,4143.076822,4135.384514,4249.743486,4151.28195,4297.435792,4154.871693
127,0,4202.564,4327.692202,4174.358872,4280.512716,4186.153744,4202.564,4163.589642,4253.333229,4143.076822,4111.794771,4233.84605,4151.79477,4279.487075,4151.28195
128,0,4208.205025,4283.076818,4194.871692,4268.205024,4172.820411,4206.666564,4174.358872,4255.897332,4153.333232,4137.435796,4255.384511,4165.128103,4255.384511,4147.179386
0,0,4210.769128,4302.051177,4193.846051,4268.205024,4163.076821,4204.102461,4174.871693,4252.307588,4159.999898,4178.974257,4286.666562,4158.974257,4302.563997,4159.487078
1,0,4228.205025,4349.743483,4191.281949,4301.025536,4174.358872,4201.538359,4172.30759,4258.974255,4159.487078,4184.615282,4292.307587,4162.564001,4354.358868,4191.794769
2,0,4228.205025,4336.41015,4191.281949,4311.281946,4180.512718,4198.461436,4165.128103,4261.025537,4159.999898,4174.358872,4292.307587,4168.717847,4346.66656,4201.538359
3,0,4218.461435,4294.358869,4187.692205,4268.717844,4175.384513,4200.512718,4163.076821,4255.897332,4163.589642,4194.871692,4294.358869,4160.512719,4354.358868,4194.871692
4,0,4225.640922,4287.692203,4192.30759,4248.717845,4171.281949,4205.128102,4173.846052,4263.076819,4164.615283,4194.358872,4305.64092,4153.333232,4388.717841,4194.358872
5,0,4218.974256,4296.922972,4189.230667,4282.051177,4162.05118,4201.538359,4173.846052,4269.230665,4156.410155,4126.666566,4266.153742,4166.153744,4334.871689,4188.717846
6,0,4210.769128,4298.974254,4186.666564,4298.974254,4157.948616,4201.025538,4168.205026,4257.948614,4159.487078,4137.948617,4220.512717,4179.487077,4296.922972,4186.153744
7,0,4219.487076,4300.512715,4181.538359,4289.230664,4167.179385,4203.589641,4174.871693,4258.461434,4167.179385,4205.640923,4283.589639,4158.461437,4368.717842,4186.666564
8,0,4206.153743,4294.358869,4186.666564,4265.128101,4161.025539,4198.974256,4174.358872,4285.640921,4147.692206,4148.205027,4201.025538,4177.948616,4289.230664,4188.205026
9,0,4195.384513,4290.769126,4179.487077,4261.538357,4150.769129,4196.410154,4162.564001,4275.897331,4143.589642,4092.307592,4086.666567,4196.410154,4184.615282,4189.230667
10,0,4208.205025,4285.1281,4184.615282,4289.743485,4155.897334,4197.435795,4162.564001,4247.692204,4152.820411,4129.230668,4192.30759,4163.076821,4295.897331,4171.281949
11,0,4209.230666,4281.538357,4189.743487,4294.358869,4158.974257,4193.333231,4171.79477,4268.717844,4136.410155,4106.153746,4189.743487,4158.461437,4325.128099,4168.205026
12,0,4200.512718,4304.102459,4192.30759,4263.076819,4148.717847,4194.358872,4168.205026,4276.410152,4131.794771,4107.692207,4114.358874,4180.512718,4236.410153,4184.102462
13,0,4207.692205,4335.384509,4173.333231,4277.948613,4152.307591,4201.538359,4162.564001,4226.153743,4165.640924,4247.692204,4340.512714,4132.307591,4345.128099,4176.410154
14,0,4213.846051,4328.717843,4177.435795,4321.538356,4162.564001,4202.051179,4161.025539,4212.82041,4172.30759,4289.743485,4556.410145,4103.076823,4465.640916,4157.435796
15,0,4227.179384,4300.512715,4198.461436,4304.102459,4155.897334,4196.922974,4169.743488,4259.999896,4147.692206,4187.179385,4424.615276,4150.769129,4378.461431,4174.358872
16,0,4239.999896,4303.076818,4215.897333,4282.563998,4142.051181,4199.487077,4183.076821,4285.1281,4151.79477,4144.102463,4286.666562,4186.666564,4315.89733,4188.717846
17,0,4222.051179,4318.974253,4197.435795,4303.076818,4144.615283,4199.999897,4176.410154,4269.230665,4163.589642,4166.153744,4332.307586,4171.281949,4326.15374,4176.922975
18,0,4200.512718,4297.435792,4179.999898,4316.922971,4154.358873,4195.897333,4157.435796,4250.256306,4154.871693,4167.179385,4356.92297,4158.974257,4305.64092,4165.640924
19,0,4208.205025,4288.717844,4179.487077,4302.051177,4158.974257,4196.410154,4162.05118,4249.743486,4145.128104,4195.384513,4357.948611,4148.717847,4329.743484,4163.589642
20,0,4210.769128,4317.435792,4186.666564,4282.051177,4156.922975,4199.999897,4170.769129,4252.820409,4146.153745,4239.487076,4374.871688,4148.205027,4338.974253,4160.512719
21,0,4196.922974,4303.589638,4180.512718,4287.692203,4136.922976,4194.871692,4155.384514,4238.974255,4148.717847,4196.922974,4419.487071,4135.384514,4323.589638,4155.384514
22,0,4196.410154,4290.256305,4171.281949,4300.512715,4131.794771,4192.30759,4151.79477,4241.538358,4143.076822,4129.743489,4391.281944,4133.333232,4354.871688,4170.769129
23,0,4213.846051,4328.205022,4178.461436,4306.153741,4156.922975,4201.025538,4177.948616,4266.666562,4151.79477,4172.820411,4316.922971,4159.487078,4383.076816,4191.281949
24,0,4227.692204,4344.615278,4182.05118,4316.922971,4161.53836,4205.640923,4193.333231,4269.743485,4168.205026,4246.666563,4376.410149,4171.281949,4387.6922,4190.769128
25,0,4220.512717,4322.051176,4180.512718,4326.15374,4146.153745,4197.435795,4176.410154,4250.769127,4162.564001,4217.435794,4446.666558,4158.461437,4391.281944,4177.435795
26,0,4204.102461,4316.410151,4171.281949,4319.999894,4147.692206,4191.281949,4158.974257,4246.153742,4147.692206,4150.256309,4411.794764,4144.102463,4383.076816,4177.948616
27,0,4203.589641,4319.487074,4182.564,4297.948613,4152.307591,4195.384513,4168.717847,4258.461434,4153.846052,4171.281949,4367.692201,4155.897334,4357.948611,4186.153744
28,0,4221.025538,4321.538356,4184.102462,4294.358869,4144.102463,4198.461436,4181.538359,4264.10246,4163.589642,4174.358872,4366.153739,4165.640924,4363.589637,4187.692205
29,0,4225.640922,4323.076817,4184.615282,4303.589638,4138.974258,4191.794769,4166.153744,4254.35887,4148.205027,4103.076823,4376.92297,4158.461437,4371.794765,4181.538359
30,0,4210.769128,4318.974253,4176.410154,4323.076817,4141.02554,4188.717846,4155.384514,4239.999896,4144.615283,4133.333232,4384.102457,4144.102463,4350.769124,4173.333231
31,0,4205.640923,4319.999894,4179.999898,4343.076817,4145.128104,4195.897333,4168.205026,4239.487076,4161.025539,4234.358871,4365.128098,4151.28195,4351.794765,4176.410154
32,0,4224.102461,4296.922972,4178.461436,4343.076817,4137.435796,4195.384513,4171.281949,4242.563999,4159.999898,4222.051179,4350.256304,4153.846052,4368.205021,4194.358872
33,0,4232.820409,4264.61528,4185.640923,4315.38451,4122.051181,4189.230667,4157.948616,4236.922973,4149.230668,4158.461437,4403.076815,4145.640924,4384.615277,4195.384513
34,0,4227.179384,4295.897331,4181.538359,4288.717844,4128.205027,4192.82041,4162.05118,4234.871691,4153.333232,4192.30759,4404.615277,4151.28195,4396.922969,4194.358872
35,0,4228.717845,4315.38451,4186.666564,4310.769125,4140.512719,4197.435795,4174.358872,4249.743486,4156.922975,4208.717846,4335.89733,4180.512718,4382.051175,4211.281948
36,0,4230.256307,4285.640921,4184.102462,4346.66656,4140.512719,4193.333231,4172.30759,4255.897332,4161.025539,4148.717847,4355.384509,4169.230667,4386.666559,4215.384512
37,0,4218.974256,4274.87169,4174.871693,4336.922971,4115.897335,4192.82041,4161.025539,4238.974255,4162.05118,4129.743489,4411.281943,4140.512719,4400.512713,4195.384513
38,0,4218.461435,4291.281946,4174.871693,4307.179382,4106.666566,4196.922974,4165.640924,4236.922973,4151.79477,4161.53836,4419.487071,4152.820411,4389.743482,4197.948615
39,0,4231.794768,4286.153741,4187.179385,4310.256305,4142.051181,4195.897333,4173.846052,4251.281947,4152.307591,4176.922975,4382.051175,4186.153744,4368.205021,4212.82041
40,0,4232.820409,4280.512716,4187.179385,4333.846048,4156.922975,4193.846051,4175.897334,4249.230665,4169.230667,4167.692206,4350.256304,4173.846052,4377.43579,4199.999897
41,0,4228.205025,4307.179382,4181.538359,4331.794766,4136.410155,4199.999897,4187.692205,4242.563999,4174.871693,4203.07682,4355.384509,4153.846052,4406.153738,4195.897333
42,0,4227.179384,4309.743484,4187.692205,4313.846048,4130.256309,4199.487077,4186.153744,4243.58964,4166.666565,4208.717846,4368.205021,4169.230667,4382.051175,4210.769128
43,0,4217.948615,4290.256305,4178.974257,4293.846049,4138.461437,4192.82041,4169.230667,4242.563999,4165.128103,4126.666566,4363.076816,4169.230667,4354.358868,4203.07682
44,0,4207.179384,4281.025536,4175.897334,4301.025536,4128.205027,4193.333231,4165.128103,4244.615281,4157.948616,4093.846054,4323.589638,4153.333232,4361.025534,4178.974257
45,0,4219.487076,4270.256306,4178.461436,4339.487073,4128.205027,4196.410154,4175.384513,4245.128101,4148.717847,4154.358873,4329.743484,4160.512719,4358.974252,4181.538359
46,0,4237.948614,4286.153741,4185.640923,4347.692201,4154.358873,4200.512718,4182.05118,4236.922973,4161.53836,4193.846051,4395.897328,4173.846052,4364.615278,4205.128102
47,0,4223.07682,4310.256305,4174.358872,4307.692202,4141.53836,4198.461436,4179.487077,4229.230666,4171.79477,4167.179385,4356.41015,4160.512719,4372.307585,4195.897333
48,0,4205.640923,4288.205023,4178.974257,4284.61528,4110.76913,4195.384513,4176.922975,4240.512717,4161.025539,4137.948617,4264.61528,4161.025539,4353.846047,4169.743488
49,0,4229.743486,4271.281947,4184.102462,4313.846048,4136.410155,4198.461436,4185.128103,4250.769127,4168.205026,4166.153744,4365.128098,4165.640924,4365.128098,4192.30759
50,0,4236.410153,4296.922972,4184.615282,4324.102458,4162.05118,4197.948615,4181.025539,4240.512717,4181.538359,4174.358872,4452.820404,4158.974257,4376.410149,4219.999897
51,0,4218.461435,4312.820407,4166.666565,4315.38451,4141.53836,4189.743487,4164.615283,4230.256307,4169.743488,4145.640924,4335.384509,4149.743488,4338.974253,4211.281948
52,0,4225.128102,4303.076818,4170.256308,4328.205022,4139.999899,4193.333231,4171.79477,4243.076819,4165.640924,4156.922975,4301.538356,4162.564001,4343.589637,4199.487077
53,0,4234.358871,4289.743485,4175.897334,4327.179381,4156.410155,4199.487077,4188.205026,4250.769127,4173.333231,4190.769128,4381.025534,4163.076821,4380.512713,4200.512718
54,0,4213.846051,4267.692203,4175.897334,4307.179382,4137.435796,4191.794769,4173.846052,4233.33323,4157.948616,4183.589641,4372.820406,4143.589642,4362.563996,4184.102462
55,0,4199.999897,4272.307588,4163.076821,4294.87169,4128.717848,4188.205026,4161.025539,4224.615281,4152.820411,4145.128104,4331.794766,4133.846053,4338.974253,4172.30759
56,0,4211.281948,4303.589638,4165.640924,4299.487074,4147.179386,4196.922974,4171.79477,4235.384512,4170.769129,4135.384514,4329.230663,4160.512719,4332.307586,4189.230667
57,0,4219.999897,4310.769125,4174.871693,4300.512715,4153.333232,4199.999897,4182.564,4237.435794,4175.384513,4159.487078,4334.871689,4166.153744,4330.256304,4198.974256
58,0,4217.948615,4312.307587,4173.333231,4308.717843,4156.410155,4196.410154,4177.948616,4231.794768,4168.717847,4159.487078,4350.256304,4141.53836,4349.743483,4197.435795
59,0,4213.33323,4306.153741,4167.692206,4326.666561,4142.564001,4189.230667,4166.153744,4226.666563,4161.53836,4131.28195,4351.794765,4137.948617,4335.89733,4187.692205
60,0,4221.025538,4276.410152,4171.79477,4310.769125,4117.948617,4185.128103,4168.717847,4219.487076,4157.435796,4138.974258,4309.743484,4156.922975,4305.1281,4173.333231
61,0,4224.102461,4281.538357,4177.948616,4283.076818,4132.820412,4187.179385,4175.897334,4216.922974,4166.153744,4166.153744,4297.948613,4158.461437,4329.230663,4174.358872
62,0,4221.025538,4321.025535,4167.692206,4300.512715,4161.53836,4192.82041,4176.922975,4233.33323,4179.487077,4159.999898,4343.589637,4143.076822,4359.487073,4189.230667
63,0,4227.692204,4319.487074,4176.922975,4329.743484,4154.871693,4195.897333,4180.512718,4248.717845,4176.922975,4176.922975,4361.025534,4154.871693,4333.846048,4197.435795
64,0,4225.128102,4293.333228,4174.358872,4312.820407,4137.948617,4189.230667,4177.435795,4231.794768,4168.205026,4168.717847,4332.307586,4164.615283,4298.974254,4187.179385
65,0,4222.051179,4303.589638,4175.384513,4288.717844,4135.897335,4191.794769,4173.846052,4222.563999,4167.179385,4117.435797,4301.025536,4154.871693,4323.076817,4172.30759
66,0,4236.410153,4308.205023,4175.897334,4297.435792,4133.846053,4198.461436,4184.102462,4238.974255,4173.333231,4155.897334,4313.333228,4143.076822,4366.66656,4177.948616
67,0,4225.128102,4280.512716,4174.358872,4298.974254,4134.358873,4190.256308,4175.384513,4228.205025,4173.846052,4203.589641,4368.205021,4143.589642,4351.281945,4184.615282
68,0,4210.769128,4283.076818,4158.461437,4294.358869,4146.153745,4180.512718,4157.948616,4202.564,4166.666565,4162.564001,4388.717841,4136.410155,4322.563997,4181.025539
69,0,4232.307589,4289.743485,4177.435795,4292.307587,4137.948617,4186.153744,4164.102462,4211.281948,4155.897334,4128.717848,4317.435792,4147.692206,4305.1281,4174.871693
70,0,4256.410152,4302.563997,4183.589641,4300.512715,4136.922976,4191.281949,4179.999898,4227.692204,4159.487078,4139.999899,4298.461433,4153.333232,4306.153741,4181.025539
71,0,4254.35887,4319.999894,4173.846052,4325.128099,4153.333232,4188.717846,4173.333231,4211.281948,4162.564001,4134.358873,4318.974253,4142.051181,4305.64092,4179.487077
72,0,4243.58964,4321.025535,4167.179385,4314.358869,4146.153745,4185.640923,4161.025539,4187.179385,4150.256309,4108.717848,4269.743485,4134.871694,4276.922972,4163.589642
73,0,4238.461435,4329.230663,4171.281949,4295.897331,4142.564001,4192.30759,4172.30759,4197.948615,4152.820411,4099.487079,4291.281946,4144.102463,4265.640921,4165.128103
74,0,4235.897332,4328.717843,4166.666565,4306.153741,4157.435796,4193.333231,4179.999898,4218.461435,4156.922975,4108.205028,4310.256305,4142.564001,4263.589639,4167.179385
75,0,4225.128102,4305.64092,4159.487078,4285.1281,4135.897335,4181.538359,4156.410155,4203.589641,4142.564001,4122.564002,4255.384511,4130.76913,4253.84605,4142.051181
76,0,4221.025538,4290.256305,4156.410155,4270.769126,4120.51272,4176.922975,4141.53836,4180.512718,4144.102463,4134.358873,4285.640921,4127.692207,4260.512716,4139.487078
77,0,4242.563999,4299.999895,4161.53836,4323.589638,4148.717847,4183.076821,4160.512719,4198.974256,4158.461437,4129.743489,4344.615278,4144.102463,4271.794767,4175.897334
78,0,4251.281947,4315.38451,4170.256308,4330.769125,4150.769129,4182.05118,4169.743488,4212.82041,4154.871693,4121.538361,4327.692202,4153.333232,4277.948613,4183.076821
79,0,4236.410153,4331.794766,4167.692206,4271.281947,4133.846053,4179.487077,4164.102462,4198.461436,4152.307591,4132.820412,4297.435792,4147.692206,4291.281946,4162.564001
80,0,4232.820409,4317.948612,4174.358872,4265.640921,4147.692206,4185.128103,4166.153744,4201.538359,4158.461437,4131.794771,4292.820408,4147.692206,4279.487075,4165.640924
81,0,4241.538358,4296.922972,4169.743488,4302.051177,4158.974257,4187.692205,4171.281949,4214.871692,4161.025539,4113.333233,4313.846048,4145.128104,4272.307588,4174.358872
82,0,4235.897332,4321.538356,4163.589642,4300.512715,4151.28195,4185.128103,4169.743488,4206.153743,4163.076821,4132.307591,4334.358868,4143.076822,4303.076818,4170.256308
83,0,4230.769127,4326.15374,4162.05118,4293.846049,4156.922975,4186.666564,4170.256308,4198.974256,4163.589642,4177.435795,4302.051177,4144.615283,4307.692202,4176.922975
84,0,4237.435794,4297.435792,4176.410154,4298.461433,4158.461437,4188.717846,4170.769129,4203.589641,4156.410155,4149.230668,4288.205023,4151.28195,4280.512716,4184.102462
85,0,4239.487076,4306.153741,4168.717847,4275.897331,4148.205027,4186.153744,4172.820411,4203.07682,4152.820411,4104.615284,4327.692202,4148.717847,4281.025536,4188.717846
86,0,4232.307589,4318.974253,4173.333231,4248.717845,4148.205027,4182.564,4169.743488,4199.999897,4153.333232,4147.179386,4308.717843,4150.256309,4293.333228,4185.128103
87,0,4237.435794,4307.179382,4179.999898,4281.538357,4161.025539,4186.153744,4174.871693,4203.07682,4162.05118,4174.358872,4312.820407,4146.153745,4302.563997,4189.230667
88,0,4244.615281,4302.563997,4184.102462,4321.538356,4161.025539,4189.743487,4185.128103,4213.846051,4167.692206,4110.25631,4340.512714,4152.307591,4301.025536,4202.051179
89,0,4239.999896,4315.89733,4166.666565,4301.538356,4157.948616,4185.640923,4184.102462,4215.384512,4162.05118,4097.435797,4298.974254,4153.846052,4299.999895,4199.999897
90,0,4229.743486,4322.563997,4165.640924,4270.256306,4167.692206,4184.102462,4174.358872,4202.051179,4159.487078,4172.30759,4287.179382,4145.640924,4304.102459,4182.564
91,0,4222.563999,4310.256305,4165.640924,4259.999896,4162.564001,4184.615282,4169.230667,4192.30759,4160.512719,4175.384513,4334.358868,4130.76913,4288.205023,4172.820411
92,0,4217.435794,4277.948613,4161.53836,4261.538357,4147.179386,4180.512718,4163.076821,4190.256308,4156.410155,4104.615284,4324.615279,4129.743489,4265.640921,4169.743488
93,0,4217.948615,4266.666562,4158.461437,4272.820408,4148.205027,4179.487077,4165.640924,4187.179385,4155.897334,4102.564002,4264.10246,4130.76913,4281.538357,4169.230667
94,0,4221.538358,4288.205023,4167.692206,4249.743486,4140.512719,4184.102462,4175.897334,4188.717846,4156.410155,4131.28195,4254.871691,4138.461437,4283.076818,4178.461436
95,0,4226.666563,4294.358869,4175.384513,4230.769127,4139.487078,4182.05118,4173.846052,4196.922974,4150.256309,4133.846053,4297.435792,4145.128104,4254.35887,4191.794769
96,0,4223.07682,4287.692203,4166.153744,4267.179383,4166.666565,4177.948616,4166.666565,4197.435795,4150.769129,4115.897335,4310.769125,4136.922976,4262.051178,4196.922974
97,0,4199.999897,4287.692203,4152.307591,4277.948613,4168.205026,4177.435795,4163.076821,4189.743487,4152.307591,4087.692208,4273.333229,4118.461438,4288.205023,4185.640923
98,0,4188.205026,4275.384511,4146.666565,4249.743486,4144.102463,4176.922975,4159.487078,4184.102462,4149.743488,4111.281951,4251.794768,4115.897335,4279.999895,4178.461436
99,0,4197.435795,4255.897332,4163.589642,4253.84605,4147.692206,4178.461436,4161.025539,4184.615282,4155.897334,4149.743488,4283.589639,4132.307591,4252.820409,4188.717846
100,0,4198.461436,4248.205024,4167.179385,4252.820409,4158.461437,4182.564,4172.820411,4191.281949,4167.179385,4148.205027,4299.999895,4134.358873,4264.61528,4196.922974
101,0,4193.333231,4254.871691,4165.640924,4223.07682,4155.384514,4184.102462,4180.512718,4200.512718,4164.615283,4143.076822,4281.538357,4134.358873,4282.051177,4198.461436
102,0,4201.025538,4272.307588,4159.487078,4235.897332,4159.999898,4182.564,4176.410154,4205.128102,4158.461437,4162.564001,4283.589639,4136.410155,4273.846049,4205.128102
103,0,4204.615282,4264.61528,4170.256308,4240.512717,4153.846052,4181.538359,4171.79477,4201.025538,4155.897334,4151.28195,4278.461434,4139.487078,4267.692203,4208.205025
104,0,4193.333231,4228.205025,4161.53836,4218.974256,4142.564001,4177.435795,4164.615283,4187.179385,4154.358873,4122.051181,4270.769126,4130.256309,4269.743485,4206.666564
105,0,4187.179385,4202.564,4157.948616,4227.179384,4144.615283,4176.922975,4154.358873,4178.974257,4158.461437,4118.461438,4292.307587,4129.743489,4266.666562,4203.07682
106,0,4183.589641,4209.230666,4152.820411,4210.256307,4139.999899,4178.974257,4156.410155,4178.974257,4160.512719,4130.76913,4283.076818,4129.743489,4255.897332,4203.07682
107,0,4166.153744,4211.281948,4157.948616,4166.666565,4125.640925,4177.435795,4161.025539,4175.384513,4152.820411,4148.205027,4262.051178,4130.256309,4246.666563,4197.435795
108,0,4169.743488,4224.102461,4152.307591,4199.999897,4150.769129,4176.410154,4168.717847,4182.05118,4161.025539,4167.179385,4291.794767,4129.230668,4265.640921,4197.435795
109,0,4184.615282,4231.794768,4151.28195,4256.410152,4177.948616,4178.461436,4168.205026,4193.846051,4172.820411,4155.897334,4293.333228,4141.02554,4279.999895,4208.205025
110,0,4172.820411,4194.871692,4151.28195,4230.256307,4151.28195,4176.922975,4155.384514,4186.666564,4156.922975,4115.897335,4246.666563,4140.512719,4248.205024,4206.153743
111,0,4156.922975,4177.948616,4157.435796,4191.281949,4135.384514,4178.461436,4150.769129,4171.79477,4149.230668,4121.02554,4256.922973,4130.256309,4233.84605,4189.743487
112,0,4163.589642,4191.794769,4158.974257,4194.871692,4158.461437,4180.512718,4161.53836,4176.410154,4164.102462,4163.076821,4307.692202,4126.666566,4268.717844,4191.794769
113,0,4162.564001,4178.461436,4161.53836,4191.281949,4159.999898,4179.999898,4165.128103,4188.717846,4161.025539,4135.384514,4274.87169,4141.02554,4254.35887,4207.692205
114,0,4150.256309,4158.461437,4160.512719,4179.487077,4146.153745,4176.410154,4153.846052,4176.922975,4149.230668,4092.820413,4232.820409,4141.02554,4219.487076,4205.640923
115,0,4149.230668,4164.615283,4153.333232,4185.128103,4147.179386,4172.820411,4147.692206,4164.615283,4156.410155,4127.692207,4278.461434,4128.205027,4245.128101,4200.512718
116,0,4150.256309,4158.974257,4159.999898,4198.461436,4142.051181,4171.281949,4150.769129,4173.333231,4158.461437,4162.564001,4306.666561,4132.820412,4253.84605,4200.512718
117,0,4154.871693,4162.05118,4162.05118,4206.666564,4143.589642,4177.435795,4158.461437,4181.025539,4159.487078,4150.769129,4274.87169,4139.999899,4239.999896,4196.410154
118,0,4151.28195,4184.615282,4157.948616,4194.871692,4157.948616,4178.974257,4157.435796,4174.358872,4167.692206,4132.820412,4266.153742,4135.897335,4244.615281,4195.897333
119,0,4139.487078,4168.717847,4152.307591,4172.820411,4157.948616,4173.846052,4156.410155,4178.974257,4167.179385,4146.153745,4308.205023,4130.76913,4239.999896,4202.564
120,0,4136.410155,4141.02554,4166.153744,4171.79477,4145.640924,4175.897334,4163.076821,4191.281949,4156.922975,4164.615283,4298.974254,4132.820412,4229.230666,4195.897333
121,0,4132.307591,4145.640924,4155.897334,4196.922974,4143.076822,4176.922975,4156.410155,4178.974257,4152.820411,4150.256309,4254.35887,4124.102463,4232.307589,4183.076821
122,0,4117.948617,4137.948617,4151.28195,4198.974256,4146.666565,4173.846052,4144.615283,4167.692206,4151.79477,4115.897335,4237.435794,4128.205027,4214.358871,4177.948616
123,0,4113.846053,4122.051181,4149.743488,4165.128103,4150.769129,4172.30759,4150.769129,4180.512718,4156.410155,4101.538361,4256.922973,4129.230668,4200.512718,4183.076821
124,0,4115.384515,4130.256309,4158.974257,4158.461437,4153.846052,4174.358872,4160.512719,4187.692205,4163.076821,4119.999899,4284.102459,4124.102463,4223.07682,4184.615282
125,0,4111.794771,4124.615284,4158.461437,4178.461436,4154.358873,4175.384513,4160.512719,4177.435795,4164.102462,4136.410155,4249.230665,4124.102463,4216.410153,4178.974257
126,0,4100.51272,4094.358874,4164.615283,4163.589642,4150.256309,4175.384513,4150.769129,4170.769129,4157.435796,4130.256309,4225.640922,4130.76913,4183.076821,4171.281949
127,0,4091.794772,4097.948618,4155.897334,4152.307591,4145.640924,4172.30759,4148.205027,4169.743488,4152.307591,4117.948617,4275.384511,4118.974258,4188.205026,4170.769129
128,0,4093.846054,4102.564002,4157.435796,4182.05118,4145.128104,4175.897334,4158.461437,4171.79477,4156.410155,4115.897335,4285.640921,4122.051181,4193.846051,4173.846052
0,0,4089.230669,4082.051182,4157.435796,4191.281949,4144.615283,4176.410154,4158.461437,4181.025539,4152.307591,4113.333233,4232.820409,4128.205027,4173.333231,4173.846052
1,0,4069.74349,4066.666567,4147.692206,4150.769129,4137.435796,4168.717847,4143.076822,4176.410154,4140.512719,4106.666566,4221.538358,4117.435797,4154.358873,4156.922975
2,0,4064.615285,4064.102465,4144.615283,4129.230668,4137.435796,4167.179385,4143.076822,4160.512719,4146.666565,4123.076822,4242.563999,4113.333233,4152.820411,4147.179386
3,0,4071.281952,4057.948619,4155.384514,4147.179386,4141.53836,4172.30759,4153.846052,4164.615283,4163.589642,4126.153745,4250.256306,4125.640925,4157.435796,4161.53836
4,0,4064.615285,4061.538362,4153.333232,4157.948616,4142.564001,4173.846052,4154.358873,4177.435795,4163.076821,4131.794771,4278.461434,4120.51272,4175.897334,4170.256308
5,0,4059.48708,4054.871696,4145.128104,4148.205027,4138.461437,4170.769129,4152.307591,4173.333231,4156.410155,4134.358873,4243.076819,4114.358874,4175.384513,4159.487078
6,0,4062.564003,4031.281953,4158.461437,4146.666565,4137.948617,4170.769129,4156.922975,4166.153744,4157.948616,4112.820412,4202.051179,4125.128104,4157.948616,4159.487078
7,0,4062.564003,4033.333235,4154.358873,4168.717847,4150.256309,4175.897334,4161.53836,4169.230667,4153.846052,4122.564002,4242.563999,4120.51272,4167.692206,4170.769129
8,0,4057.435798,4037.948619,4148.717847,4163.589642,4158.974257,4179.487077,4159.999898,4170.256308,4150.769129,4145.640924,4243.58964,4114.358874,4170.256308,4167.692206
9,0,4048.71785,4022.564004,4143.589642,4130.256309,4156.410155,4171.79477,4150.256309,4160.512719,4157.435796,4147.692206,4233.33323,4117.948617,4154.871693,4165.128103
10,0,4040.512722,4008.20503,4150.769129,4131.28195,4147.179386,4166.666565,4142.051181,4151.28195,4160.512719,4134.871694,4282.051177,4118.461438,4154.358873,4165.128103
11,0,4045.128106,4011.794774,4153.846052,4157.435796,4151.28195,4174.358872,4156.410155,4164.102462,4163.076821,4131.28195,4283.589639,4118.461438,4161.025539,4172.30759
12,0,4041.538363,4004.615287,4166.153744,4152.307591,4159.487078,4177.435795,4161.53836,4173.333231,4159.487078,4131.794771,4238.461435,4123.076822,4155.897334,4170.256308
13,0,4026.666568,3978.461441,4153.846052,4137.435796,4151.28195,4167.692206,4141.02554,4151.28195,4153.333232,4143.589642,4252.307588,4109.743489,4151.79477,4157.948616
14,0,4016.922979,3955.384519,4153.846052,4130.76913,4139.999899,4164.102462,4132.307591,4146.666565,4149.743488,4136.410155,4247.179383,4117.435797,4134.871694,4153.846052
15,0,4014.358876,3954.358878,4155.384514,4118.974258,4145.640924,4165.640924,4147.179386,4165.128103,4152.307591,4131.28195,4229.743486,4129.743489,4123.589643,4161.53836
16,0,4007.179389,3955.384519,4155.897334,4115.384515,4152.307591,4167.179385,4150.256309,4161.025539,4158.974257,4133.846053,4250.769127,4122.051181,4145.128104,4159.999898
17,0,3998.974261,3942.051186,4151.79477,4124.102463,4143.076822,4167.179385,4149.743488,4149.230668,4163.589642,4104.102464,4223.58964,4110.25631,4139.487078,4143.589642
18,0,3993.333236,3927.179391,4159.999898,4117.948617,4137.435796,4168.717847,4153.846052,4151.79477,4155.897334,4110.76913,4194.871692,4119.999899,4103.076823,4132.307591
19,0,3989.230672,3937.435801,4157.435796,4112.820412,4151.79477,4168.205026,4153.333232,4148.205027,4149.743488,4166.666565,4244.10246,4119.999899,4116.922976,4142.564001
20,0,3983.076826,3936.41016,4156.922975,4119.999899,4161.025539,4169.230667,4152.307591,4150.256309,4156.410155,4162.564001,4267.179383,4124.102463,4142.051181,4159.999898
21,0,3971.794775,3905.64093,4163.076821,4115.384515,4150.769129,4167.692206,4150.256309,4163.589642,4155.384514,4098.461438,4222.051179,4129.230668,4121.02554,4157.435796
22,0,3963.589647,3897.948623,4163.589642,4105.128105,4149.230668,4166.666565,4147.179386,4159.999898,4154.358873,4101.025541,4226.153743,4124.615284,4123.589643,4147.692206
23,0,3955.897339,3911.794776,4162.564001,4104.615284,4152.820411,4171.281949,4149.743488,4145.128104,4160.512719,4149.230668,4246.666563,4124.102463,4155.897334,4149.230668
24,0,3946.15375,3892.307597,4159.487078,4108.205028,4143.076822,4168.717847,4146.153745,4141.53836,4155.384514,4130.76913,4224.615281,4129.230668,4138.974258,4144.615283
25,0,3946.66657,3875.897341,4165.640924,4103.076823,4144.102463,4164.615283,4141.02554,4143.589642,4151.28195,4112.307592,4247.179383,4129.230668,4117.435797,4143.589642
26,0,3956.41016,3902.564007,4164.615283,4097.435797,4160.512719,4171.79477,4156.922975,4153.846052,4160.512719,4160.512719,4298.461433,4124.102463,4146.153745,4158.974257
27,0,3951.281955,3897.435802,4167.179385,4092.820413,4155.897334,4174.358872,4158.974257,4158.461437,4161.025539,4165.640924,4266.666562,4123.076822,4147.179386,4152.820411
28,0,3941.538365,3858.461444,4160.512719,4091.794772,4140.512719,4168.717847,4143.589642,4147.692206,4152.307591,4114.358874,4221.538358,4121.02554,4115.897335,4142.051181
29,0,3947.179391,3857.435803,4168.205026,4101.025541,4144.615283,4169.743488,4150.769129,4154.871693,4158.461437,4132.307591,4249.230665,4130.76913,4123.076822,4155.384514
30,0,3948.717852,3882.564008,4162.05118,4094.358874,4146.666565,4172.820411,4162.564001,4166.153744,4169.230667,4179.487077,4266.153742,4130.256309,4146.153745,4161.025539
31,0,3928.205032,3873.846059,4161.53836,4069.74349,4137.435796,4166.153744,4150.769129,4150.256309,4163.076821,4160.512719,4249.230665,4124.102463,4127.692207,4145.128104
32,0,3919.999904,3861.538367,4157.948616,4069.23067,4150.769129,4165.640924,4145.128104,4135.384514,4159.487078,4143.589642,4250.769127,4119.487079,4111.281951,4141.53836
33,0,3930.769135,3873.846059,4168.717847,4084.615285,4171.281949,4175.384513,4159.487078,4149.743488,4164.615283,4153.846052,4248.717845,4124.615284,4113.333233,4144.615283
34,0,3931.281955,3880.512726,4167.179385,4088.205028,4171.79477,4179.999898,4171.79477,4165.128103,4166.666565,4132.820412,4224.102461,4122.051181,4102.051182,4145.640924
35,0,3915.89734,3871.281957,4165.640924,4084.102464,4165.640924,4178.461436,4166.153744,4157.435796,4163.076821,4125.640925,4226.153743,4116.922976,4092.820413,4143.589642
36,0,3906.666571,3870.769136,4154.871693,4083.076823,4167.692206,4173.333231,4157.435796,4146.666565,4161.53836,4144.102463,4226.153743,4112.820412,4095.384515,4133.333232
37,0,3909.230674,3873.846059,4155.897334,4078.974259,4164.615283,4172.820411,4159.999898,4152.820411,4157.435796,4116.410156,4199.487077,4121.538361,4087.692208,4130.256309
38,0,3917.948622,3874.8717,4163.076821,4072.820413,4159.487078,4176.922975,4169.230667,4159.487078,4159.487078,4122.564002,4240.512717,4122.564002,4088.717849,4141.02554
39,0,3915.38452,3866.666572,4161.53836,4069.74349,4155.897334,4176.410154,4166.153744,4149.743488,4167.179385,4181.025539,4289.743485,4114.358874,4100.51272,4136.922976
40,0,3907.179392,3853.333239,4157.435796,4076.922977,4155.384514,4167.692206,4157.435796,4144.615283,4167.692206,4183.589641,4259.999896,4118.974258,4087.179387,4126.666566
41,0,3910.769135,3852.820419,4164.615283,4081.025541,4158.974257,4168.205026,4159.487078,4153.846052,4167.179385,4159.999898,4234.871691,4135.897335,4069.74349,4136.410155
42,0,3913.846058,3857.948624,4169.743488,4069.23067,4159.487078,4178.461436,4165.640924,4157.435796,4169.230667,4177.435795,4245.640922,4132.820412,4079.9999,4142.051181
43,0,3913.333238,3864.61529,4156.922975,4071.281952,4168.717847,4177.948616,4170.769129,4161.53836,4171.79477,4170.256308,4252.307588,4122.564002,4085.128105,4135.897335
44,0,3913.333238,3860.512726,4157.948616,4074.871695,4169.230667,4168.717847,4166.153744,4161.025539,4171.79477,4152.307591,4262.563998,4124.615284,4069.74349,4130.256309
45,0,3918.461443,3852.820419,4165.640924,4060.512721,4152.307591,4169.743488,4167.692206,4155.384514,4176.410154,4176.410154,4257.948614,4126.153745,4069.23067,4132.307591
46,0,3919.487084,3864.61529,4171.281949,4057.948619,4154.358873,4177.948616,4179.999898,4162.05118,4181.025539,4166.666565,4234.871691,4125.640925,4082.051182,4133.846053
47,0,3909.743494,3860.512726,4154.358873,4065.640926,4171.281949,4174.358872,4172.820411,4161.53836,4174.871693,4152.307591,4245.640922,4110.25631,4077.435798,4122.564002
48,0,3893.846059,3826.153753,4152.307591,4057.435798,4158.974257,4165.128103,4144.102463,4139.999899,4155.897334,4175.384513,4250.256306,4099.9999,4050.769132,4102.564002
49,0,3893.333238,3835.384522,4149.743488,4055.384516,4152.307591,4165.128103,4142.051181,4137.948617,4148.205027,4158.974257,4230.769127,4106.666566,4042.564004,4106.666566
50,0,3906.153751,3863.589649,4159.999898,4065.640926,4171.281949,4171.79477,4161.53836,4156.922975,4162.05118,4132.820412,4231.281948,4124.615284,4057.948619,4128.717848
51,0,3915.38452,3843.58965,4165.640924,4059.48708,4173.846052,4171.79477,4165.128103,4155.897334,4177.435795,4172.30759,4245.640922,4118.974258,4077.948618,4138.461437
52,0,3909.230674,3827.692214,4169.743488,4048.205029,4163.589642,4170.256308,4153.333232,4143.589642,4170.769129,4194.358872,4259.487075,4113.846053,4077.435798,4133.846053
53,0,3893.333238,3837.948624,4152.820411,4050.256311,4162.564001,4169.743488,4147.692206,4136.410155,4155.897334,4152.820411,4271.281947,4112.820412,4061.538362,4132.307591
54,0,3890.769136,3825.640932,4162.564001,4052.307593,4161.53836,4174.871693,4156.922975,4138.974258,4159.999898,4148.205027,4273.333229,4119.999899,4061.538362,4134.358873
55,0,3898.974264,3828.205035,4172.820411,4053.846055,4159.999898,4178.461436,4168.717847,4150.256309,4167.692206,4195.384513,4273.333229,4121.02554,4074.871695,4137.948617
56,0,3885.12811,3841.538368,4157.435796,4050.256311,4155.384514,4169.743488,4152.820411,4146.153745,4154.871693,4191.794769,4242.563999,4112.820412,4061.538362,4126.153745
57,0,3875.897341,3834.871701,4149.230668,4042.564004,4155.897334,4164.102462,4139.999899,4131.794771,4154.871693,4155.384514,4223.58964,4108.205028,4051.794773,4118.461438
58,0,3894.358879,3841.025547,4169.230667,4044.615286,4171.281949,4174.871693,4157.435796,4138.974258,4175.384513,4163.589642,4270.769126,4118.974258,4083.589644,4137.948617
59,0,3904.615289,3857.435803,4176.410154,4055.897337,4178.461436,4182.05118,4171.281949,4152.820411,4176.922975,4194.358872,4306.153741,4123.589643,4104.615284,4148.205027
60,0,3902.051187,3857.948624,4168.205026,4053.333234,4169.743488,4178.461436,4172.30759,4154.871693,4169.230667,4190.769128,4294.87169,4123.076822,4088.205028,4141.02554
61,0,3905.64093,3854.35888,4172.30759,4042.564004,4168.717847,4177.435795,4173.333231,4157.435796,4175.384513,4167.179385,4263.589639,4128.717848,4077.435798,4140.512719
62,0,3902.564007,3854.871701,4168.205026,4046.153747,4173.846052,4178.974257,4168.717847,4154.358873,4177.435795,4181.538359,4211.281948,4124.102463,4083.076823,4138.461437
63,0,3887.692213,3846.153752,4169.743488,4040.512722,4169.743488,4177.435795,4163.076821,4150.256309,4172.30759,4200.512718,4171.79477,4114.358874,4077.948618,4124.615284
64,0,3884.102469,3841.025547,4165.640924,4028.71785,4165.128103,4177.948616,4164.102462,4153.846052,4170.256308,4184.615282,4170.256308,4109.230669,4065.640926,4116.410156
65,0,3885.12811,3842.051188,4164.615283,4026.666568,4163.076821,4175.897334,4155.384514,4143.076822,4163.589642,4159.999898,4164.102462,4107.692207,4054.871696,4107.179387
66,0,3888.205033,3847.692214,4159.999898,4037.948619,4166.666565,4172.820411,4152.820411,4129.230668,4159.999898,4167.692206,4170.769129,4104.615284,4055.384516,4106.666566
67,0,3897.948623,3858.461444,4174.358872,4052.307593,4174.871693,4175.897334,4163.076821,4138.461437,4161.53836,4175.897334,4190.256308,4114.358874,4057.948619,4119.487079
68,0,3902.564007,3868.205034,4171.79477,4049.23067,4173.846052,4175.897334,4162.564001,4144.102463,4163.589642,4159.487078,4183.076821,4116.410156,4055.384516,4122.564002
69,0,3894.8717,3862.051188,4172.30759,4033.333235,4156.922975,4170.769129,4151.28195,4131.28195,4163.589642,4151.28195,4175.897334,4111.794771,4058.97426,4110.25631
70,0,3898.974264,3860.512726,4174.358872,4038.97426,4154.358873,4169.743488,4156.922975,4134.358873,4166.153744,4170.769129,4181.538359,4111.281951,4071.794772,4118.461438
71,0,3909.743494,3880.512726,4188.717846,4049.743491,4169.743488,4177.948616,4168.717847,4155.384514,4170.769129,4175.897334,4147.179386,4127.692207,4072.820413,4131.794771
72,0,3906.666571,3901.538366,4179.999898,4042.051183,4175.897334,4176.410154,4165.128103,4155.384514,4174.358872,4169.230667,4149.743488,4120.51272,4075.897336,4127.692207
73,0,3904.102469,3902.051187,4171.79477,4046.153747,4169.743488,4171.281949,4156.922975,4141.53836,4173.846052,4172.820411,4205.128102,4107.179387,4087.179387,4122.564002
74,0,3909.230674,3901.025546,4173.846052,4057.435798,4172.30759,4174.358872,4159.487078,4143.076822,4171.281949,4173.846052,4196.922974,4103.589643,4089.230669,4124.102463
75,0,3906.153751,3901.538366,4178.974257,4055.897337,4171.79477,4176.410154,4153.846052,4141.53836,4169.743488,4176.922975,4158.461437,4108.205028,4078.461439,4119.999899
76,0,3909.743494,3898.461443,4173.846052,4062.051183,4161.025539,4172.820411,4154.871693,4135.897335,4175.384513,4197.948615,4170.769129,4110.25631,4088.717849,4119.999899
77,0,3921.538366,3906.153751,4170.769129,4053.333234,4164.102462,4174.871693,4168.717847,4145.640924,4180.512718,4209.743487,4193.333231,4115.384515,4111.794771,4130.256309
78,0,3919.999904,3926.666571,4172.820411,4034.871696,4178.974257,4176.922975,4166.153744,4148.205027,4175.384513,4196.922974,4188.717846,4117.948617,4113.333233,4134.358873
79,0,3918.974263,3928.205032,4166.666565,4049.23067,4182.05118,4174.358872,4154.358873,4134.358873,4172.30759,4190.256308,4173.846052,4116.410156,4109.743489,4134.871694
80,0,3924.615289,3904.102469,4167.692206,4061.025542,4175.897334,4174.358872,4162.564001,4137.948617,4175.384513,4192.30759,4168.717847,4118.974258,4109.230669,4131.794771
81,0,3931.281955,3894.8717,4166.153744,4048.71785,4173.846052,4176.410154,4172.820411,4151.79477,4174.871693,4194.358872,4192.30759,4115.897335,4113.846053,4132.820412
82,0,3940.512724,3907.692212,4171.281949,4053.333234,4175.384513,4175.384513,4168.717847,4150.256309,4179.487077,4188.717846,4205.128102,4119.487079,4117.435797,4143.076822
83,0,3946.66657,3917.948622,4170.256308,4070.256311,4177.435795,4174.358872,4172.820411,4149.230668,4188.205026,4195.897333,4188.205026,4123.589643,4114.358874,4149.230668
84,0,3946.15375,3915.89734,4175.897334,4069.23067,4179.999898,4175.384513,4172.30759,4148.205027,4183.589641,4219.487076,4187.692205,4117.948617,4111.794771,4144.102463
85,0,3949.230673,3923.589648,4164.615283,4065.640926,4179.999898,4175.897334,4164.102462,4137.948617,4177.435795,4226.153743,4187.692205,4106.153746,4113.333233,4144.102463
86,0,3951.281955,3928.205032,4166.666565,4059.999901,4173.333231,4175.897334,4163.589642,4136.922976,4175.897334,4207.179384,4171.281949,4108.717848,4099.9999,4141.53836
87,0,3953.333237,3923.589648,4164.615283,4058.461439,4170.769129,4173.846052,4168.717847,4147.179386,4174.871693,4183.589641,4162.564001,4108.205028,4076.922977,4130.76913
88,0,3953.846057,3930.769135,4166.666565,4065.128106,4176.410154,4174.358872,4166.666565,4145.128104,4175.384513,4187.692205,4153.333232,4105.128105,4073.846054,4122.564002
89,0,3949.743493,3942.564006,4162.05118,4062.051183,4182.564,4177.435795,4166.666565,4137.948617,4174.871693,4199.487077,4139.999899,4103.076823,4076.922977,4123.076822
90,0,3950.256314,3943.589647,4173.846052,4056.922978,4183.076821,4178.974257,4171.79477,4150.256309,4167.692206,4171.79477,4142.051181,4114.358874,4063.589644,4121.538361
91,0,3967.17939,3948.717852,4174.871693,4063.589644,4185.640923,4178.461436,4174.358872,4157.435796,4170.769129,4170.769129,4157.435796,4115.897335,4070.256311,4130.76913
92,0,3977.948621,3957.435801,4171.79477,4068.717849,4187.179385,4178.974257,4172.820411,4144.102463,4182.564,4213.33323,4150.256309,4111.794771,4091.281951,4139.999899
93,0,3976.410159,3961.025544,4166.153744,4068.717849,4181.538359,4177.435795,4171.281949,4142.051181,4180.512718,4201.538359,4127.179386,4110.76913,4088.717849,4137.435796
94,0,3979.999903,3966.66657,4167.692206,4071.794772,4181.025539,4176.922975,4169.743488,4154.358873,4168.717847,4165.128103,4125.128104,4116.922976,4076.410157,4138.461437
95,0,3992.307595,3974.871698,4175.897334,4074.871695,4185.640923,4177.435795,4170.769129,4147.692206,4170.256308,4202.564,4139.487078,4115.384515,4092.307592,4146.153745
96,0,3999.487082,3979.487082,4178.974257,4076.922977,4186.666564,4177.435795,4176.410154,4138.974258,4183.076821,4236.922973,4133.333232,4118.461438,4106.153746,4149.743488
97,0,3995.897338,3986.666569,4175.384513,4081.538362,4183.076821,4177.435795,4177.948616,4149.743488,4185.128103,4200.512718,4129.230668,4125.128104,4091.794772,4150.769129
98,0,3997.4358,3987.69221,4173.333231,4081.025541,4181.025539,4179.487077,4178.461436,4155.384514,4176.922975,4182.05118,4148.717847,4123.076822,4097.435797,4157.435796
99,0,3999.487082,3982.051185,4180.512718,4070.256311,4178.974257,4179.999898,4177.435795,4150.256309,4168.205026,4185.128103,4144.615283,4122.564002,4103.076823,4153.846052
100,0,3997.94862,3990.769133,4172.30759,4067.179388,4179.487077,4178.974257,4173.333231,4148.717847,4168.205026,4164.102462,4127.179386,4120.51272,4083.589644,4142.564001
101,0,3998.974261,4001.538364,4177.435795,4077.435798,4183.589641,4178.461436,4175.384513,4148.205027,4176.410154,4157.435796,4113.846053,4117.435797,4078.974259,4136.410155
102,0,3999.999902,4005.128107,4171.79477,4087.692208,4184.615282,4176.410154,4176.410154,4138.461437,4182.05118,4192.82041,4114.358874,4106.666566,4096.410156,4136.922976
103,0,3990.769133,4001.025543,4162.564001,4078.974259,4176.922975,4174.358872,4161.53836,4129.230668,4172.30759,4208.717846,4119.487079,4102.051182,4087.179387,4132.307591
104,0,3987.69221,4002.564005,4149.743488,4067.692208,4173.846052,4172.820411,4153.846052,4133.333232,4166.666565,4173.846052,4115.897335,4097.948618,4072.307593,4127.179386
105,0,3997.94862,4010.769133,4161.025539,4070.769131,4180.512718,4175.384513,4163.076821,4138.974258,4177.948616,4149.743488,4114.358874,4105.128105,4084.102464,4131.28195
106,0,4007.69221,4021.538363,4160.512719,4083.589644,4184.102462,4178.461436,4168.717847,4135.897335,4186.666564,4180.512718,4125.640925,4110.25631,4100.51272,4142.564001
107,0,4013.333235,4023.589645,4162.564001,4082.051182,4177.948616,4178.461436,4166.666565,4136.410155,4182.05118,4209.743487,4128.717848,4110.76913,4098.974259,4145.128104
108,0,4022.051184,4025.640927,4161.53836,4075.384516,4178.461436,4178.974257,4171.281949,4141.53836,4181.025539,4186.666564,4122.051181,4101.538361,4094.871695,4143.589642
109,0,4027.692209,4032.820414,4168.205026,4087.179387,4182.564,4180.512718,4170.769129,4135.897335,4181.538359,4161.53836,4124.615284,4105.128105,4098.461438,4141.02554
110,0,4033.846055,4040.512722,4166.666565,4095.897336,4183.076821,4176.922975,4169.743488,4128.717848,4177.948616,4182.564,4130.76913,4112.820412,4108.717848,4143.589642
111,0,4039.999901,4044.615286,4170.256308,4088.717849,4181.538359,4176.922975,4169.743488,4136.410155,4180.512718,4184.102462,4133.333232,4117.435797,4112.820412,4148.205027
112,0,4043.076824,4052.307593,4172.820411,4088.205028,4183.589641,4178.974257,4170.256308,4147.692206,4188.205026,4168.717847,4141.02554,4119.487079,4112.820412,4153.333232
113,0,4051.794773,4062.564003,4177.435795,4097.948618,4187.179385,4177.948616,4173.333231,4147.692206,4189.743487,4196.922974,4147.179386,4130.256309,4118.461438,4163.076821
114,0,4065.128106,4075.384516,4182.564,4097.435797,4187.179385,4178.461436,4179.999898,4150.256309,4189.743487,4225.640922,4156.410155,4134.871694,4130.76913,4171.79477
115,0,4065.640926,4080.512721,4177.948616,4090.769131,4185.640923,4179.999898,4178.974257,4150.769129,4187.692205,4205.128102,4144.615283,4132.820412,4131.794771,4168.205026
116,0,4052.307593,4073.333234,4170.256308,4082.564003,4183.589641,4177.948616,4170.769129,4142.051181,4183.076821,4181.538359,4108.205028,4127.692207,4122.051181,4154.871693
117,0,4054.358875,4076.410157,4163.589642,4078.461439,4186.666564,4177.435795,4173.333231,4138.461437,4185.128103,4187.692205,4098.974259,4127.692207,4127.692207,4158.974257
118,0,4068.717849,4091.281951,4171.79477,4076.410157,4190.256308,4178.974257,4181.538359,4146.153745,4191.281949,4186.666564,4119.487079,4134.358873,4138.974258,4171.79477
119,0,4071.794772,4096.410156,4169.743488,4067.692208,4185.640923,4177.948616,4177.435795,4144.615283,4192.30759,4182.05118,4115.384515,4134.871694,4134.358873,4170.256308
120,0,4064.102465,4089.74349,4167.692206,4060.512721,4178.461436,4177.948616,4166.153744,4131.28195,4185.640923,4186.153744,4082.564003,4129.743489,4124.615284,4154.358873
121,0,4067.692208,4095.897336,4152.820411,4067.179388,4182.05118,4177.435795,4168.205026,4129.743489,4182.05118,4189.230667,4081.025541,4119.487079,4122.564002,4146.666565
122,0,4077.435798,4098.974259,4150.256309,4073.846054,4187.179385,4177.948616,4173.846052,4138.974258,4184.102462,4190.256308,4096.410156,4122.051181,4108.205028,4147.179386
123,0,4080.512721,4094.871695,4146.666565,4074.358875,4188.205026,4178.974257,4174.871693,4138.974258,4184.615282,4183.589641,4095.384515,4122.051181,4096.410156,4151.28195
124,0,4081.538362,4099.9999,4153.333232,4071.281952,4185.640923,4178.461436,4173.333231,4131.794771,4182.05118,4160.512719,4089.230669,4120.51272,4094.358874,4153.333232
125,0,4090.769131,4116.410156,4147.179386,4076.922977,4187.179385,4175.384513,4172.30759,4130.256309,4184.102462,4168.205026,4102.051182,4118.974258,4095.384515,4157.435796
126,0,4097.435797,4125.128104,4157.435796,4084.615285,4193.333231,4180.512718,4176.410154,4137.948617,4188.717846,4210.769128,4115.384515,4131.794771,4103.589643,4167.692206
127,0,4103.076823,4130.256309,4161.025539,4084.615285,4195.897333,4182.564,4183.589641,4147.179386,4194.871692,4217.948615,4109.230669,4133.333232,4114.871694,4178.974257
128,0,4110.25631,4135.384514,4158.461437,4083.589644,4190.256308,4178.974257,4181.538359,4150.256309,4194.871692,4188.717846,4102.051182,4127.692207,4115.897335,4175.384513
0,0,4112.307592,4139.487078,4149.230668,4087.692208,4189.230667,4179.487077,4177.435795,4147.179386,4191.794769,4192.30759,4104.102464,4125.128104,4118.461438,4173.846052
1,0,4113.333233,4139.999899,4155.897334,4090.25631,4196.410154,4184.615282,4182.05118,4151.79477,4197.435795,4214.871692,4110.76913,4132.307591,4129.743489,4188.717846
2,0,4118.974258,4144.615283,4160.512719,4089.230669,4201.025538,4182.564,4189.230667,4158.461437,4205.128102,4219.999897,4111.794771,4133.333232,4135.897335,4197.948615
3,0,4117.948617,4147.179386,4152.820411,4084.102464,4198.461436,4180.512718,4186.666564,4156.410155,4202.051179,4215.384512,4098.461438,4128.205027,4132.820412,4190.769128
4,0,4112.820412,4141.02554,4149.230668,4078.461439,4196.922974,4184.102462,4181.538359,4150.769129,4201.538359,4204.102461,4083.589644,4125.640925,4128.717848,4187.179385
5,0,4119.999899,4138.461437,4154.871693,4079.48708,4198.461436,4185.640923,4185.128103,4153.333232,4207.692205,4192.30759,4088.205028,4131.28195,4128.717848,4194.358872
6,0,4127.179386,4137.435796,4165.128103,4081.025541,4199.999897,4184.102462,4191.281949,4154.358873,4208.717846,4193.846051,4090.769131,4135.384514,4125.128104,4190.769128
7,0,4126.666566,4137.435796,4166.666565,4079.48708,4200.512718,4185.640923,4192.30759,4152.820411,4210.769128,4206.666564,4086.153746,4137.435796,4124.615284,4191.281949
8,0,4133.333232,4142.051181,4176.410154,4073.846054,4197.948615,4189.743487,4195.384513,4154.871693,4213.33323,4205.128102,4090.769131,4144.102463,4136.922976,4205.128102
9,0,4145.128104,4145.128104,4171.79477,4072.820413,4199.999897,4191.281949,4200.512718,4157.435796,4214.358871,4204.102461,4093.333233,4137.948617,4154.871693,4215.384512
10,0,4148.717847,4141.53836,4167.692206,4083.076823,4201.025538,4190.256308,4197.948615,4160.512719,4211.794769,4212.82041,4082.051182,4129.743489,4161.025539,4218.461435
11,0,4153.333232,4147.179386,4163.076821,4094.871695,4200.512718,4188.205026,4200.512718,4164.102462,4213.33323,4214.871692,4078.461439,4128.717848,4163.589642,4227.179384
12,0,4159.487078,4149.743488,4172.820411,4091.281951,4199.487077,4187.179385,4201.025538,4163.589642,4214.358871,4202.051179,4078.461439,4134.358873,4162.05118,4227.692204
13,0,4157.435796,4144.102463,4166.153744,4082.051182,4195.384513,4185.640923,4191.281949,4155.897334,4211.281948,4197.948615,4074.871695,4124.615284,4159.487078,4223.07682
14,0,4154.358873,4147.692206,4173.333231,4083.076823,4190.256308,4185.640923,4188.205026,4151.28195,4209.230666,4209.230666,4071.794772,4124.102463,4163.589642,4227.179384
15,0,4165.640924,4163.589642,4179.999898,4092.820413,4194.358872,4186.666564,4202.051179,4154.871693,4216.410153,4216.922974,4069.74349,4130.76913,4176.922975,4237.948614
16,0,4169.230667,4160.512719,4187.692205,4092.820413,4194.871692,4186.666564,4202.564,4157.948616,4217.948615,4206.666564,4061.025542,4137.435796,4177.948616,4238.974255
17,0,4160.512719,4151.28195,4176.922975,4085.128105,4187.692205,4184.102462,4191.281949,4153.846052,4211.281948,4203.07682,4054.871696,4133.846053,4170.256308,4233.84605
18,0,4159.999898,4154.871693,4172.820411,4087.692208,4191.794769,4188.205026,4193.333231,4154.358873,4211.281948,4211.794769,4060.512721,4134.358873,4176.410154,4235.897332
19,0,4169.230667,4164.102462,4170.769129,4094.871695,4203.07682,4191.794769,4203.07682,4166.666565,4218.461435,4222.563999,4076.410157,4137.948617,4190.256308,4247.692204
20,0,4169.743488,4164.102462,4168.717847,4091.794772,4196.410154,4187.179385,4201.538359,4168.717847,4218.974256,4222.051179,4076.922977,4139.999899,4186.666564,4246.153742
21,0,4166.153744,4159.999898,4163.589642,4087.692208,4189.230667,4183.589641,4191.794769,4157.435796,4211.281948,4219.999897,4064.102465,4130.76913,4176.922975,4236.410153
22,0,4169.230667,4165.128103,4163.589642,4091.281951,4198.461436,4188.717846,4192.82041,4156.922975,4211.794769,4227.692204,4057.435798,4128.205027,4181.025539,4237.948614
23,0,4178.461436,4179.487077,4170.769129,4097.435797,4204.615282,4193.333231,4204.102461,4166.153744,4217.948615,4229.743486,4059.999901,4136.410155,4188.717846,4242.563999
24,0,4188.205026,4192.30759,4173.846052,4105.640925,4201.025538,4193.846051,4205.640923,4163.076821,4215.897333,4218.974256,4062.051183,4137.948617,4191.794769,4243.58964
25,0,4194.358872,4196.410154,4177.435795,4114.871694,4199.999897,4192.82041,4196.922974,4155.384514,4211.281948,4217.948615,4059.999901,4135.384514,4191.794769,4247.179383
26,0,4201.538359,4202.051179,4171.79477,4125.640925,4205.128102,4193.333231,4197.948615,4157.435796,4213.846051,4228.205025,4062.051183,4133.846053,4194.358872,4255.384511
27,0,4201.025538,4204.102461,4170.769129,4127.692207,4203.07682,4193.333231,4202.051179,4164.102462,4214.358871,4217.435794,4059.999901,4130.76913,4193.333231,4251.794768
28,0,4198.461436,4202.051179,4169.230667,4124.615284,4201.025538,4193.333231,4202.051179,4164.615283,4211.281948,4209.230666,4058.461439,4128.717848,4193.846051,4245.128101
29,0,4204.615282,4204.102461,4181.538359,4123.076822,4203.07682,4194.358872,4198.974256,4160.512719,4207.179384,4214.871692,4062.051183,4141.02554,4199.487077,4245.640922
30,0,4212.307589,4207.692205,4179.999898,4123.076822,4201.538359,4193.846051,4195.384513,4159.487078,4203.589641,4216.410153,4063.589644,4141.02554,4204.102461,4251.281947
31,0,4209.743487,4204.102461,4178.974257,4129.743489,4192.82041,4188.717846,4190.769128,4157.948616,4203.07682,4217.948615,4056.410157,4140.512719,4201.538359,4250.256306
32,0,4204.102461,4203.07682,4167.692206,4114.358874,4194.871692,4191.281949,4189.230667,4153.333232,4203.589641,4218.461435,4055.384516,4135.897335,4205.640923,4247.179383
33,0,4196.410154,4200.512718,4168.717847,4059.999901,4203.589641,4207.179384,4182.564,4149.743488,4197.435795,4207.692205,4053.333234,4128.205027,4208.205025,4237.948614
34,0,4193.846051,4201.025538,4163.076821,4041.025542,4203.589641,4210.769128,4178.974257,4148.717847,4195.897333,4206.153743,4051.281952,4122.051181,4207.179384,4233.84605
35,0,4208.205025,4213.33323,4169.230667,4086.153746,4202.564,4202.051179,4189.743487,4154.358873,4203.589641,4216.922974,4059.999901,4135.384514,4217.948615,4245.128101
36,0,4224.102461,4227.692204,4171.281949,4113.846053,4210.256307,4199.487077,4202.051179,4163.589642,4209.743487,4220.512717,4068.205029,4140.512719,4235.384512,4258.974255
37,0,4225.640922,4229.743486,4172.30759,4107.179387,4209.743487,4200.512718,4201.025538,4165.640924,4208.205025,4213.846051,4067.692208,4138.974258,4238.461435,4261.538357
38,0,4229.230666,4237.435794,4170.769129,4122.564002,4203.589641,4195.384513,4200.512718,4165.128103,4211.281948,4213.846051,4073.333234,4139.999899,4241.025537,4267.179383
39,0,4236.410153,4247.692204,4177.948616,4137.948617,4203.589641,4194.358872,4203.07682,4169.743488,4214.871692,4223.58964,4079.9999,4147.179386,4252.820409,4271.794767
40,0,4238.974255,4249.230665,4184.615282,4127.179386,4202.051179,4194.358872,4196.922974,4169.230667,4207.692205,4221.025538,4072.820413,4146.153745,4255.384511,4267.692203
41,0,4246.153742,4254.871691,4183.076821,4124.615284,4197.435795,4194.358872,4193.333231,4168.205026,4206.153743,4209.743487,4061.538362,4145.128104,4249.230665,4268.717844
42,0,4250.769127,4264.10246,4182.05118,4131.28195,4199.999897,4196.922974,4198.974256,4171.79477,4212.307589,4217.948615,4070.256311,4147.179386,4247.179383,4271.794767
43,0,4246.153742,4266.153742,4176.922975,4126.666566,4204.102461,4199.487077,4199.999897,4171.281949,4211.281948,4234.358871,4079.9999,4139.999899,4248.205024,4262.051178
44,0,4244.615281,4267.692203,4178.461436,4122.564002,4203.07682,4199.487077,4197.435795,4169.230667,4207.179384,4228.205025,4071.281952,4133.333232,4246.666563,4249.743486
45,0,4255.897332,4276.410152,4178.974257,4128.205027,4204.102461,4196.922974,4204.615282,4173.846052,4213.846051,4217.948615,4068.717849,4136.922976,4245.640922,4250.256306
46,0,4262.563998,4277.435793,4189.230667,4127.179386,4205.640923,4197.948615,4208.717846,4181.538359,4219.487076,4221.538358,4081.025541,4147.179386,4246.153742,4256.410152
47,0,4263.076819,4273.333229,4184.615282,4128.717848,4204.615282,4201.025538,4205.640923,4183.589641,4218.461435,4230.769127,4089.230669,4143.589642,4253.333229,4261.025537
48,0,4262.051178,4271.794767,4184.102462,4133.333232,4202.564,4202.051179,4202.564,4181.025539,4213.33323,4219.999897,4078.974259,4139.487078,4252.307588,4254.35887
49,0,4269.743485,4274.87169,4178.974257,4130.256309,4204.102461,4198.974256,4204.615282,4174.358872,4213.33323,4212.82041,4076.922977,4137.948617,4250.769127,4250.769127
50,0,4283.589639,4282.051177,4189.743487,4127.692207,4208.205025,4199.999897,4203.07682,4173.333231,4216.410153,4235.384512,4091.794772,4148.205027,4260.512716,4261.538357
51,0,4291.794767,4296.922972,4187.179385,4134.871694,4212.82041,4202.564,4201.025538,4176.410154,4216.922974,4256.410152,4106.153746,4151.79477,4274.87169,4275.897331
52,0,4289.743485,4302.563997,4188.205026,4136.410155,4213.846051,4201.025538,4198.974256,4176.410154,4215.897333,4235.384512,4094.871695,4150.256309,4272.820408,4272.307588
53,0,4292.820408,4303.589638,4183.076821,4136.410155,4217.435794,4202.564,4202.051179,4175.384513,4217.948615,4218.461435,4084.102464,4146.153745,4270.769126,4264.61528
54,0,4299.487074,4310.769125,4184.102462,4140.512719,4217.435794,4205.640923,4201.025538,4173.846052,4216.410153,4225.640922,4099.9999,4150.769129,4281.025536,4266.666562
55,0,4300.512715,4317.948612,4178.974257,4139.487078,4211.794769,4205.640923,4199.487077,4177.435795,4216.410153,4224.615281,4115.897335,4146.666565,4293.846049,4276.410152
56,0,4303.076818,4318.974253,4179.999898,4136.410155,4210.769128,4206.153743,4204.615282,4187.179385,4221.538358,4226.153743,4114.358874,4142.051181,4301.538356,4281.025536
57,0,4307.179382,4325.128099,4177.948616,4135.384514,4215.384512,4207.179384,4206.666564,4188.717846,4221.538358,4244.615281,4109.743489,4136.410155,4306.666561,4280.512716
58,0,4306.153741,4330.769125,4175.897334,4136.410155,4214.871692,4207.179384,4200.512718,4184.615282,4219.999897,4251.794768,4114.871694,4136.922976,4309.743484,4283.076818
59,0,4307.692202,4333.846048,4177.948616,4138.461437,4210.769128,4206.153743,4199.487077,4184.615282,4222.051179,4235.897332,4116.410156,4138.974258,4311.794766,4284.61528
60,0,4316.410151,4338.461432,4177.948616,4137.948617,4214.871692,4207.692205,4208.205025,4188.717846,4222.051179,4219.487076,4112.307592,4141.53836,4311.794766,4284.102459
61,0,4319.999894,4339.999894,4178.974257,4141.02554,4218.974256,4209.230666,4209.743487,4186.666564,4215.897333,4229.230666,4110.76913,4143.589642,4310.256305,4284.61528
62,0,4319.487074,4340.512714,4173.846052,4147.179386,4215.384512,4208.717846,4203.07682,4185.640923,4215.384512,4250.256306,4110.25631,4141.02554,4311.794766,4283.076818
63,0,4323.076817,4342.563996,4176.922975,4149.230668,4212.82041,4207.692205,4201.025538,4187.692205,4219.487076,4244.615281,4109.743489,4139.999899,4317.435792,4281.025536
64,0,4328.717843,4341.025535,4173.333231,4147.179386,4214.358871,4207.692205,4205.128102,4183.076821,4218.461435,4229.230666,4113.333233,4134.871694,4317.948612,4280.512716
65,0,4326.15374,4335.89733,4176.410154,4146.153745,4213.846051,4208.717846,4203.07682,4176.410154,4213.846051,4228.717845,4110.76913,4136.410155,4308.717843,4275.897331
66,0,4326.666561,4328.205022,4171.79477,4142.564001,4210.769128,4207.179384,4200.512718,4178.461436,4213.846051,4232.820409,4104.615284,4137.948617,4306.153741,4277.435793
67,0,4332.307586,4314.358869,4183.589641,4132.307591,4204.615282,4207.692205,4204.615282,4187.179385,4216.922974,4234.358871,4109.230669,4142.564001,4310.769125,4282.051177
68,0,4344.102458,4318.461433,4190.256308,4134.871694,4206.153743,4209.230666,4212.82041,4190.769128,4221.025538,4234.358871,4121.02554,4142.564001,4315.89733,4284.102459
69,0,4349.230663,4334.358868,4194.358872,4144.102463,4210.769128,4209.230666,4213.33323,4193.846051,4221.538358,4223.58964,4116.922976,4148.205027,4315.38451,4283.589639
70,0,4350.769124,4342.563996,4183.076821,4144.615283,4209.230666,4208.717846,4209.743487,4194.871692,4219.999897,4222.051179,4110.76913,4145.128104,4310.769125,4289.230664
71,0,4349.230663,4341.025535,4184.102462,4137.948617,4205.128102,4208.717846,4201.538359,4183.076821,4210.256307,4219.487076,4107.179387,4139.487078,4295.897331,4285.1281
72,0,4346.15374,4339.999894,4174.358872,4140.512719,4203.07682,4205.128102,4194.358872,4176.922975,4200.512718,4199.999897,4099.487079,4128.717848,4282.051177,4272.307588
73,0,4345.640919,4341.025535,4172.30759,4147.692206,4201.025538,4203.589641,4193.846051,4181.538359,4201.025538,4196.922974,4089.230669,4130.256309,4281.025536,4272.820408
74,0,4349.230663,4349.230663,4175.384513,4149.743488,4206.666564,4206.666564,4195.897333,4183.076821,4206.666564,4217.435794,4090.769131,4134.358873,4286.666562,4284.102459
75,0,4350.769124,4353.333227,4178.974257,4148.717847,4208.717846,4208.205025,4194.871692,4181.538359,4206.666564,4214.871692,4102.051182,4133.846053,4290.256305,4281.025536
76,0,4351.794765,4352.307586,4175.384513,4148.717847,4201.538359,4206.153743,4195.897333,4184.615282,4210.769128,4197.948615,4114.871694,4133.333232,4295.897331,4273.846049
77,0,4358.461432,4356.92297,4174.871693,4153.333232,4203.589641,4205.640923,4198.461436,4189.230667,4215.897333,4205.128102,4119.487079,4139.487078,4302.563997,4282.563998
78,0,4362.563996,4361.538355,4175.384513,4154.871693,4206.666564,4205.128102,4196.922974,4187.179385,4208.717846,4219.487076,4111.281951,4139.487078,4301.025536,4287.692203
79,0,4364.615278,4365.128098,4172.30759,4157.435796,4205.128102,4204.102461,4196.410154,4185.128103,4207.692205,4211.281948,4109.743489,4141.02554,4298.974254,4288.717844
80,0,4375.384508,4375.384508,4179.999898,4165.640924,4212.307589,4206.666564,4201.538359,4187.179385,4215.897333,4200.512718,4118.974258,4148.205027,4304.615279,4298.974254
81,0,4386.153739,4381.538354,4180.512718,4169.743488,4216.410153,4209.743487,4204.615282,4191.281949,4216.410153,4213.33323,4121.02554,4143.589642,4310.256305,4301.025536
82,0,4378.461431,4371.794765,4178.461436,4161.025539,4203.589641,4208.205025,4197.435795,4189.230667,4206.666564,4209.230666,4113.846053,4136.410155,4304.102459,4286.153741
83,0,4370.769124,4368.205021,4169.230667,4154.871693,4199.999897,4204.615282,4193.333231,4184.615282,4203.07682,4186.666564,4117.435797,4136.922976,4300.512715,4283.076818
84,0,4376.410149,4378.974252,4174.358872,4158.974257,4209.743487,4206.153743,4198.461436,4188.717846,4207.179384,4193.846051,4125.640925,4144.102463,4304.102459,4288.717844
85,0,4391.794764,4393.846046,4175.384513,4164.615283,4213.846051,4208.717846,4207.692205,4198.974256,4214.358871,4221.025538,4128.717848,4143.589642,4315.38451,4293.846049
86,0,4396.410149,4393.846046,4183.589641,4159.487078,4213.33323,4208.717846,4207.179384,4205.128102,4216.410153,4216.410153,4123.076822,4149.230668,4321.025535,4291.281946
87,0,4390.769123,4388.717841,4176.410154,4151.79477,4214.871692,4206.153743,4201.538359,4197.948615,4212.82041,4203.07682,4123.076822,4145.128104,4318.974253,4289.230664
88,0,4391.794764,4388.205021,4177.948616,4151.79477,4213.33323,4208.205025,4201.538359,4193.846051,4211.794769,4211.281948,4132.820412,4144.615283,4322.051176,4292.820408
89,0,4400.512713,4392.820405,4175.897334,4156.922975,4213.846051,4210.769128,4208.205025,4204.102461,4217.435794,4222.051179,4143.589642,4145.640924,4335.384509,4294.358869
90,0,4399.487072,4391.794764,4179.999898,4154.871693,4214.871692,4208.205025,4205.640923,4208.205025,4219.487076,4215.897333,4138.974258,4151.28195,4338.974253,4289.230664
91,0,4391.281944,4386.666559,4173.846052,4147.179386,4211.281948,4204.615282,4197.435795,4196.410154,4214.358871,4203.07682,4131.794771,4147.179386,4330.256304,4288.717844
92,0,4389.230662,4383.589636,4177.435795,4140.512719,4208.205025,4207.692205,4196.410154,4195.897333,4210.256307,4197.948615,4134.871694,4147.692206,4328.717843,4290.769126
93,0,4394.871687,4386.666559,4181.538359,4144.615283,4212.82041,4211.281948,4204.102461,4207.179384,4210.769128,4201.025538,4142.564001,4151.79477,4339.487073,4291.281946
94,0,4402.051174,4394.871687,4183.589641,4153.333232,4218.461435,4210.769128,4205.640923,4207.692205,4214.871692,4206.666564,4149.230668,4154.871693,4349.230663,4297.435792
95,0,4411.794764,4405.128097,4184.102462,4156.922975,4219.999897,4210.256307,4205.128102,4206.153743,4225.128102,4222.051179,4160.512719,4155.897334,4357.948611,4311.794766
96,0,4415.897328,4409.743482,4189.743487,4156.410155,4217.435794,4210.256307,4206.666564,4214.358871,4230.256307,4229.230666,4160.512719,4164.102462,4363.589637,4321.025535
97,0,4412.820405,4407.6922,4199.487077,4156.410155,4217.948615,4208.717846,4208.717846,4221.025538,4225.128102,4219.999897,4148.717847,4166.666565,4362.051175,4318.974253
98,0,4411.281943,4411.794764,4193.846051,4157.435796,4219.487076,4209.230666,4205.640923,4213.846051,4218.461435,4221.538358,4149.743488,4156.922975,4357.948611,4309.743484
99,0,4409.230661,4416.922969,4190.256308,4151.79477,4215.897333,4209.743487,4196.922974,4204.615282,4213.846051,4221.025538,4154.358873,4148.717847,4354.358868,4302.051177
100,0,4407.6922,4417.94861,4187.179385,4147.179386,4217.435794,4209.743487,4199.487077,4207.179384,4211.794769,4206.666564,4146.153745,4147.179386,4350.256304,4299.487074
101,0,4409.743482,4421.538353,4196.410154,4152.307591,4220.512717,4212.307589,4208.717846,4215.384512,4214.358871,4208.717846,4139.999899,4151.79477,4350.256304,4302.051177
102,0,4416.922969,4427.179379,4193.846051,4155.384514,4218.461435,4212.82041,4211.794769,4215.897333,4215.897333,4216.410153,4147.179386,4152.820411,4353.846047,4306.153741
103,0,4410.769123,4415.897328,4196.410154,4145.640924,4213.846051,4210.256307,4208.717846,4214.358871,4213.33323,4195.384513,4143.076822,4157.435796,4338.461432,4287.692203
104,0,4404.102456,4404.102456,4189.230667,4141.02554,4211.281948,4208.205025,4207.692205,4213.33323,4212.82041,4194.358872,4139.487078,4154.871693,4332.820407,4278.974254
105,0,4407.6922,4404.615277,4190.769128,4143.589642,4207.692205,4207.692205,4203.589641,4204.615282,4212.307589,4218.974256,4147.692206,4155.897334,4353.846047,4299.487074
106,0,4419.487071,4408.717841,4188.205026,4144.615283,4209.230666,4207.692205,4205.640923,4207.179384,4216.410153,4227.692204,4163.589642,4157.435796,4379.487072,4321.025535
107,0,4429.743481,4406.153738,4199.487077,4146.666565,4213.846051,4210.256307,4210.256307,4221.025538,4226.666563,4226.666563,4177.948616,4168.717847,4398.974251,4327.692202
108,0,4433.333225,4401.538354,4197.435795,4152.820411,4214.871692,4210.256307,4208.717846,4221.025538,4227.179384,4227.692204,4182.05118,4169.230667,4415.897328,4334.358868
109,0,4426.153738,4395.384508,4194.871692,4153.333232,4214.358871,4208.717846,4203.589641,4213.846051,4218.974256,4218.461435,4175.897334,4162.564001,4411.281943,4330.769125
110,0,4421.025533,4394.871687,4187.179385,4152.820411,4215.897333,4208.205025,4205.128102,4214.358871,4221.538358,4215.384512,4179.999898,4157.435796,4404.615277,4322.051176
111,0,4424.102456,4398.461431,4190.256308,4153.333232,4214.871692,4211.281948,4209.230666,4217.435794,4232.307589,4224.615281,4187.179385,4164.615283,4414.871687,4322.563997
112,0,4421.025533,4398.974251,4189.230667,4153.333232,4213.846051,4211.281948,4209.230666,4221.025538,4232.820409,4236.922973,4181.538359,4161.53836,4419.487071,4321.538356
113,0,4416.922969,4402.051174,4190.769128,4155.384514,4218.461435,4211.281948,4209.230666,4227.692204,4230.769127,4262.051178,4184.615282,4158.974257,4421.538353,4319.999894
114,0,4422.563994,4409.743482,4194.358872,4161.025539,4221.538358,4213.846051,4214.358871,4232.307589,4234.871691,4272.820408,4203.07682,4164.102462,4438.46143,4324.615279
115,0,4424.102456,4414.358866,4190.769128,4164.615283,4219.487076,4215.897333,4214.358871,4229.230666,4234.871691,4247.692204,4202.051179,4166.666565,4441.025532,4323.589638
116,0,4419.487071,4416.922969,4190.769128,4163.076821,4218.461435,4212.307589,4210.256307,4223.07682,4229.230666,4231.794768,4188.717846,4163.589642,4426.666558,4316.922971
117,0,4427.692199,4421.538353,4191.794769,4165.640924,4220.512717,4211.794769,4216.410153,4223.07682,4233.33323,4246.153742,4195.897333,4162.05118,4434.871686,4319.999894
118,0,4438.46143,4421.538353,4198.461436,4171.79477,4219.487076,4214.871692,4222.051179,4229.230666,4237.948614,4254.35887,4202.564,4165.640924,4453.333224,4327.692202
119,0,4434.871686,4419.999892,4194.358872,4172.30759,4218.461435,4211.281948,4217.948615,4227.692204,4233.33323,4244.10246,4197.435795,4164.615283,4448.205019,4325.64092
120,0,4427.179379,4423.076815,4198.974256,4173.333231,4223.07682,4212.82041,4216.410153,4227.179384,4228.205025,4234.871691,4201.538359,4165.128103,4441.025532,4319.487074
121,0,4430.769122,4431.281943,4197.435795,4179.487077,4225.640922,4219.487076,4221.538358,4229.230666,4230.256307,4238.974255,4214.358871,4162.05118,4451.281942,4322.563997
122,0,4434.871686,4429.743481,4202.051179,4180.512718,4224.102461,4217.948615,4221.538358,4226.666563,4232.307589,4241.538358,4212.82041,4163.076821,4451.794763,4324.615279
123,0,4432.307584,4422.563994,4197.435795,4179.999898,4222.051179,4212.82041,4218.461435,4222.563999,4231.794768,4242.563999,4209.743487,4162.564001,4444.615276,4318.974253
124,0,4430.256302,4420.512712,4208.205025,4181.538359,4219.487076,4212.82041,4213.33323,4223.07682,4232.820409,4244.10246,4209.230666,4172.820411,4445.640917,4317.435792
125,0,4441.025532,4429.230661,4211.794769,4186.153744,4222.563999,4211.281948,4216.922974,4225.640922,4236.410153,4253.84605,4212.307589,4179.487077,4452.820404,4330.769125
126,0,4446.666558,4430.256302,4213.33323,4189.230667,4223.07682,4212.307589,4223.58964,4229.230666,4236.922973,4261.025537,4215.897333,4181.538359,4449.743481,4335.89733
127,0,4438.46143,4427.692199,4203.589641,4187.179385,4221.538358,4215.897333,4222.563999,4227.179384,4236.410153,4255.384511,4211.281948,4169.230667,4441.538353,4328.717843
128,0,4435.897327,4432.820404,4203.07682,4186.666564,4226.666563,4219.487076,4218.974256,4221.538358,4234.871691,4233.84605,4199.487077,4167.179385,4436.922968,4322.051176
0,0,4445.128096,4440.512712,4201.025538,4195.384513,4232.820409,4218.461435,4222.563999,4218.974256,4231.794768,4223.07682,4202.051179,4168.717847,4432.307584,4319.999894
1,0,4446.666558,4441.025532,4201.025538,4197.435795,4229.743486,4216.410153,4225.128102,4221.025538,4230.256307,4229.743486,4206.153743,4169.230667,4423.589635,4317.435792
2,0,4442.051173,4441.538353,4198.974256,4192.82041,4227.692204,4216.922974,4223.58964,4223.58964,4232.820409,4234.358871,4201.538359,4167.692206,4425.640917,4323.076817
3,0,4441.538353,4444.102455,4199.487077,4196.922974,4228.205025,4220.512717,4220.512717,4223.07682,4232.307589,4233.84605,4205.640923,4172.30759,4430.256302,4329.743484
4,0,4441.538353,4445.128096,4206.153743,4202.564,4225.640922,4218.461435,4218.461435,4217.948615,4228.717845,4237.435794,4209.230666,4176.922975,4426.153738,4326.666561
5,0,4444.615276,4449.743481,4207.692205,4203.589641,4226.666563,4217.435794,4221.538358,4215.384512,4230.256307,4239.999896,4211.794769,4181.025539,4425.128097,4327.692202
6,0,4444.102455,4446.666558,4206.153743,4203.589641,4226.666563,4217.948615,4220.512717,4219.487076,4232.307589,4238.974255,4215.897333,4179.999898,4426.153738,4331.281945
7,0,4439.487071,4440.512712,4199.487077,4205.128102,4224.615281,4214.871692,4217.435794,4223.58964,4233.33323,4244.10246,4214.871692,4174.871693,4422.563994,4328.717843
8,0,4436.410148,4441.538353,4202.564,4206.666564,4228.205025,4215.897333,4221.538358,4222.563999,4235.384512,4243.58964,4212.82041,4177.435795,4418.974251,4323.076817
9,0,4436.410148,4443.589635,4198.461436,4204.615282,4228.205025,4221.025538,4222.051179,4219.999897,4234.358871,4231.281948,4209.743487,4173.333231,4416.410148,4321.025535
10,0,4431.794763,4437.435789,4204.615282,4201.538359,4219.999897,4213.846051,4214.358871,4221.025538,4229.230666,4218.974256,4195.897333,4168.205026,4407.179379,4318.974253
11,0,4432.820404,4436.922968,4201.538359,4201.538359,4222.563999,4208.205025,4216.922974,4222.563999,4233.33323,4232.820409,4201.025538,4168.717847,4410.769123,4326.15374
12,0,4434.358866,4437.948609,4206.666564,4195.384513,4230.256307,4217.435794,4223.07682,4222.051179,4239.999896,4251.281947,4222.563999,4176.410154,4418.46143,4328.717843
13,0,4431.281943,4433.333225,4201.538359,4188.205026,4229.743486,4222.051179,4220.512717,4221.025538,4235.897332,4251.794768,4224.615281,4170.769129,4419.999892,4322.563997
14,0,4429.230661,4428.71784,4205.640923,4193.846051,4223.07682,4217.435794,4213.846051,4221.025538,4231.281948,4246.153742,4214.871692,4171.281949,4418.974251,4320.512715
15,0,4435.897327,4432.820404,4204.615282,4207.179384,4223.07682,4216.922974,4218.974256,4224.102461,4238.974255,4255.384511,4221.538358,4174.871693,4424.102456,4328.717843
16,0,4442.051173,4437.948609,4214.871692,4211.281948,4229.230666,4221.025538,4225.128102,4231.281948,4243.076819,4256.410152,4229.743486,4182.564,4428.20502,4336.922971
17,0,4438.97425,4438.46143,4213.33323,4209.743487,4230.256307,4217.435794,4219.487076,4228.717845,4236.922973,4243.58964,4229.743486,4179.487077,4425.640917,4334.358868
18,0,4433.333225,4429.743481,4213.846051,4208.205025,4221.538358,4211.794769,4208.205025,4219.487076,4231.281948,4236.410153,4223.07682,4178.974257,4413.333225,4321.025535
19,0,4436.410148,4427.179379,4213.846051,4210.769128,4221.538358,4210.769128,4214.871692,4222.563999,4237.948614,4241.538358,4219.999897,4182.05118,4411.281943,4316.922971
20,0,4436.410148,4433.333225,4213.33323,4215.897333,4231.794768,4214.871692,4229.230666,4233.84605,4245.640922,4248.205024,4226.666563,4183.589641,4422.563994,4318.974253
21,0,4427.179379,4430.769122,4207.179384,4217.948615,4233.33323,4219.999897,4230.256307,4235.384512,4245.128101,4246.666563,4220.512717,4176.410154,4423.589635,4314.358869
22,0,4424.102456,4422.563994,4205.128102,4217.948615,4230.256307,4221.538358,4226.153743,4232.307589,4244.10246,4249.230665,4208.717846,4175.897334,4413.846046,4311.281946
23,0,4428.71784,4424.102456,4210.256307,4220.512717,4231.794768,4222.051179,4228.205025,4237.435794,4249.743486,4263.076819,4222.051179,4178.974257,4419.487071,4316.410151
24,0,4434.358866,4432.820404,4210.769128,4226.666563,4233.33323,4223.58964,4233.84605,4244.10246,4255.384511,4268.717844,4238.461435,4179.487077,4432.307584,4315.38451
25,0,4431.794763,4427.179379,4210.256307,4225.128102,4231.794768,4221.538358,4229.743486,4236.922973,4249.743486,4255.897332,4227.179384,4178.461436,4422.051174,4303.076818
26,0,4425.128097,4417.435789,4202.564,4221.025538,4231.794768,4217.948615,4221.538358,4227.179384,4241.025537,4249.230665,4215.897333,4175.384513,4410.256302,4298.461433
27,0,4423.076815,4414.358866,4206.666564,4215.384512,4231.794768,4216.922974,4223.07682,4229.230666,4240.512717,4249.743486,4215.897333,4179.487077,4411.794764,4300.512715
28,0,4425.640917,4415.384507,4204.615282,4211.794769,4232.307589,4218.974256,4229.230666,4233.84605,4245.128101,4249.230665,4217.435794,4179.487077,4415.897328,4304.102459
29,0,4425.640917,4416.410148,4210.256307,4220.512717,4234.871691,4221.025538,4228.717845,4234.358871,4244.615281,4248.205024,4227.179384,4181.538359,4418.974251,4307.179382
30,0,4429.743481,4423.076815,4205.128102,4228.717845,4236.922973,4222.051179,4229.743486,4235.897332,4244.615281,4249.743486,4234.871691,4182.05118,4424.102456,4309.230664
31,0,4429.230661,4425.128097,4206.666564,4225.128102,4236.410153,4221.538358,4229.743486,4236.410153,4245.128101,4239.487076,4224.102461,4185.128103,4420.512712,4302.563997
