title:V                                                                               , recorded:06.07.20 13.28.34, sampling:128, subject:B                                                                               , labels:COUNTER INTERPOLATED AF3 F7 F3 FC5 T7 P7 O1 O2 P8 T8 FC6 F4 F8 AF4,, units:emotiv,,,,,,,,,
60,0,4345.640919,4304.102459,4238.461435,4224.615281,4243.58964,4237.948614,4239.487076,4237.948614,4245.640922,4250.256306,4232.820409,4193.333231,4231.281948,4239.487076
61,0,4341.025535,4287.179382,4233.84605,4222.051179,4246.153742,4236.922973,4242.051178,4239.999896,4249.743486,4251.281947,4230.256307,4193.846051,4234.871691,4235.897332
62,0,4345.640919,4277.435793,4229.230666,4214.358871,4243.58964,4237.948614,4238.974255,4235.384512,4246.666563,4251.794768,4223.07682,4194.358872,4232.820409,4226.666563
63,0,4353.333227,4296.410151,4229.230666,4214.871692,4244.615281,4239.487076,4238.461435,4228.717845,4243.076819,4257.435793,4223.58964,4191.281949,4233.84605,4229.230666
64,0,4350.256304,4308.205023,4238.461435,4225.128102,4249.230665,4239.999896,4244.615281,4234.358871,4245.640922,4264.10246,4226.153743,4195.384513,4238.461435,4236.410153
65,0,4347.692201,4297.435792,4236.922973,4227.692204,4251.794768,4237.435794,4248.205024,4239.487076,4249.743486,4265.640921,4228.205025,4195.897333,4241.538358,4238.974255
66,0,4349.230663,4293.846049,4233.84605,4225.640922,4251.794768,4237.435794,4245.640922,4233.33323,4246.666563,4261.025537,4233.33323,4192.82041,4241.538358,4235.897332
67,0,4349.743483,4306.153741,4241.538358,4229.230666,4253.84605,4241.025537,4249.743486,4234.358871,4246.153742,4253.333229,4240.512717,4193.333231,4244.10246,4235.384512
68,0,4359.487073,4312.307587,4246.153742,4229.230666,4252.820409,4239.487076,4253.333229,4243.076819,4250.256306,4254.871691,4239.487076,4191.794769,4245.640922,4239.999896
69,0,4366.153739,4305.1281,4243.076819,4223.58964,4247.692204,4237.948614,4247.179383,4241.025537,4248.717845,4261.538357,4228.717845,4189.230667,4243.58964,4242.051178
70,0,4353.333227,4295.897331,4235.384512,4219.999897,4247.692204,4239.487076,4242.051178,4232.307589,4246.153742,4257.435793,4220.512717,4189.743487,4239.487076,4236.410153
71,0,4352.307586,4297.948613,4244.615281,4223.58964,4252.820409,4241.025537,4247.179383,4238.974255,4249.743486,4258.974255,4226.666563,4197.948615,4241.025537,4231.281948
72,0,4371.794765,4307.179382,4248.205024,4228.205025,4256.410152,4243.076819,4254.35887,4244.615281,4255.384511,4271.281947,4238.974255,4197.948615,4250.256306,4241.025537
73,0,4358.461432,4296.410151,4246.153742,4218.461435,4247.692204,4241.538358,4246.153742,4233.84605,4245.640922,4258.461434,4232.820409,4191.281949,4242.051178,4242.563999
74,0,4330.769125,4277.948613,4232.307589,4206.666564,4242.051178,4236.922973,4238.461435,4224.615281,4236.922973,4243.58964,4222.051179,4181.025539,4228.717845,4229.743486
75,0,4327.179381,4271.281947,4238.974255,4205.128102,4247.179383,4234.871691,4238.974255,4228.205025,4236.922973,4248.717845,4222.563999,4186.666564,4227.692204,4218.461435
76,0,4330.256304,4273.846049,4234.871691,4202.564,4249.230665,4236.410153,4239.487076,4229.230666,4237.435794,4253.84605,4222.051179,4188.717846,4230.256307,4210.769128
77,0,4331.794766,4277.948613,4236.922973,4204.102461,4245.640922,4238.461435,4239.487076,4229.743486,4236.410153,4244.10246,4214.871692,4191.794769,4222.563999,4208.717846
78,0,4343.076817,4281.025536,4235.384512,4212.82041,4243.58964,4242.051178,4246.666563,4232.820409,4239.487076,4241.025537,4221.025538,4189.743487,4225.128102,4223.07682
79,0,4338.974253,4273.333229,4237.948614,4205.128102,4237.435794,4241.025537,4243.076819,4233.84605,4241.538358,4247.179383,4229.230666,4189.230667,4234.358871,4230.769127
80,0,4323.589638,4271.794767,4230.256307,4195.384513,4233.84605,4238.461435,4236.410153,4234.358871,4243.58964,4255.384511,4230.769127,4182.564,4234.358871,4224.102461
81,0,4324.615279,4274.87169,4231.794768,4202.564,4236.922973,4241.025537,4240.512717,4237.435794,4246.153742,4250.769127,4227.692204,4183.589641,4226.666563,4214.358871
82,0,4330.256304,4268.205024,4228.717845,4204.615282,4236.922973,4243.076819,4243.58964,4237.435794,4245.640922,4241.025537,4224.615281,4183.076821,4225.128102,4211.281948
83,0,4325.128099,4261.025537,4226.666563,4198.461436,4237.435794,4244.10246,4240.512717,4233.33323,4244.10246,4244.10246,4223.07682,4184.102462,4229.230666,4216.410153
84,0,4323.589638,4265.640921,4228.717845,4203.07682,4245.128101,4244.10246,4242.051178,4232.307589,4240.512717,4249.230665,4224.102461,4184.102462,4230.769127,4223.07682
85,0,4324.615279,4272.307588,4230.769127,4211.281948,4245.128101,4240.512717,4242.563999,4230.769127,4237.948614,4244.10246,4224.615281,4183.076821,4231.794768,4224.102461
86,0,4325.64092,4272.307588,4230.769127,4213.33323,4237.948614,4239.999896,4239.999896,4230.256307,4240.512717,4245.128101,4229.230666,4183.589641,4238.974255,4230.769127
87,0,4334.358868,4270.769126,4231.281948,4216.922974,4235.384512,4245.128101,4243.076819,4236.410153,4243.58964,4261.025537,4240.512717,4188.205026,4248.205024,4239.999896
88,0,4341.538355,4272.820408,4238.974255,4218.461435,4239.999896,4247.692204,4245.640922,4241.025537,4244.10246,4265.128101,4244.10246,4190.769128,4250.769127,4239.487076
89,0,4340.512714,4280.512716,4236.410153,4219.487076,4247.692204,4247.692204,4245.640922,4236.922973,4246.153742,4255.897332,4237.435794,4187.179385,4248.205024,4240.512717
90,0,4337.435791,4280.512716,4234.871691,4222.563999,4251.794768,4247.179383,4243.58964,4233.84605,4243.076819,4247.692204,4228.205025,4185.640923,4242.563999,4240.512717
91,0,4334.358868,4276.922972,4228.717845,4224.615281,4248.717845,4246.666563,4246.153742,4238.461435,4240.512717,4245.128101,4223.07682,4181.025539,4239.999896,4232.307589
92,0,4326.15374,4273.846049,4232.820409,4218.974256,4235.897332,4244.615281,4244.10246,4240.512717,4239.999896,4238.461435,4212.307589,4177.948616,4234.358871,4219.999897
93,0,4328.717843,4271.281947,4223.58964,4215.384512,4230.769127,4242.051178,4239.487076,4237.948614,4240.512717,4237.435794,4212.307589,4170.769129,4230.769127,4221.025538
94,0,4341.025535,4273.846049,4230.769127,4222.051179,4239.487076,4243.076819,4239.487076,4239.999896,4242.563999,4245.128101,4229.230666,4179.487077,4234.358871,4229.743486
95,0,4347.692201,4286.153741,4237.435794,4228.717845,4249.743486,4244.10246,4244.10246,4242.051178,4247.179383,4251.281947,4241.025537,4188.205026,4241.538358,4235.384512
96,0,4341.538355,4287.179382,4243.58964,4228.205025,4246.666563,4242.051178,4241.025537,4241.025537,4245.640922,4248.205024,4229.743486,4188.717846,4238.974255,4233.33323
97,0,4336.41015,4275.897331,4233.84605,4226.153743,4236.410153,4241.538358,4236.922973,4234.871691,4240.512717,4243.076819,4222.563999,4178.461436,4235.897332,4231.281948
98,0,4337.948612,4274.87169,4242.051178,4228.205025,4238.974255,4247.692204,4238.974255,4229.743486,4236.922973,4238.461435,4229.743486,4187.179385,4239.487076,4232.307589
99,0,4343.589637,4288.205023,4248.205024,4232.820409,4252.307588,4247.179383,4243.58964,4233.84605,4240.512717,4238.461435,4236.922973,4199.487077,4249.230665,4239.999896
100,0,4345.128099,4288.717844,4250.769127,4231.281948,4248.717845,4240.512717,4241.025537,4241.025537,4246.153742,4239.487076,4238.461435,4202.564,4254.871691,4244.615281
101,0,4339.487073,4277.435793,4245.640922,4225.128102,4234.358871,4237.435794,4238.974255,4242.051178,4246.666563,4241.025537,4243.076819,4195.384513,4251.281947,4244.10246
102,0,4329.230663,4268.205024,4244.10246,4224.615281,4235.384512,4242.563999,4242.051178,4238.974255,4239.999896,4244.10246,4244.10246,4192.82041,4244.615281,4238.974255
103,0,4325.64092,4263.589639,4236.922973,4224.615281,4237.435794,4242.563999,4241.538358,4233.84605,4234.358871,4247.692204,4229.230666,4189.230667,4238.461435,4229.230666
104,0,4327.692202,4263.589639,4230.769127,4222.051179,4232.820409,4236.922973,4236.922973,4231.794768,4234.871691,4248.205024,4220.512717,4187.179385,4236.410153,4229.743486
105,0,4325.128099,4266.153742,4239.999896,4223.58964,4238.461435,4238.974255,4240.512717,4239.487076,4241.538358,4242.563999,4234.871691,4190.769128,4244.10246,4240.512717
106,0,4326.666561,4267.692203,4241.538358,4227.179384,4243.076819,4246.153742,4244.10246,4243.076819,4245.128101,4242.051178,4244.10246,4195.897333,4253.84605,4243.076819
107,0,4330.256304,4265.128101,4240.512717,4225.128102,4238.974255,4244.615281,4238.461435,4239.487076,4245.640922,4250.256306,4233.84605,4195.897333,4253.84605,4238.974255
108,0,4334.871689,4267.692203,4238.461435,4222.051179,4243.076819,4241.538358,4236.922973,4241.538358,4251.281947,4258.461434,4231.794768,4192.82041,4252.820409,4247.692204
109,0,4338.461432,4274.35887,4244.10246,4223.07682,4239.487076,4243.076819,4238.461435,4243.076819,4251.281947,4254.871691,4242.051178,4195.384513,4250.769127,4251.281947
110,0,4337.435791,4276.922972,4237.435794,4224.102461,4233.84605,4243.58964,4235.897332,4236.410153,4245.128101,4252.820409,4245.128101,4190.769128,4250.256306,4242.051178
111,0,4330.256304,4270.769126,4246.666563,4225.128102,4241.538358,4244.10246,4235.384512,4238.974255,4244.10246,4256.922973,4240.512717,4191.794769,4252.307588,4236.410153
112,0,4326.666561,4269.743485,4240.512717,4226.153743,4239.999896,4243.58964,4239.999896,4242.563999,4251.794768,4261.025537,4242.051178,4192.82041,4257.435793,4239.999896
113,0,4320.512715,4267.179383,4235.384512,4218.974256,4227.692204,4239.999896,4235.897332,4236.410153,4249.230665,4251.794768,4237.948614,4193.333231,4249.743486,4233.84605
114,0,4315.38451,4261.538357,4232.307589,4210.769128,4233.33323,4243.58964,4233.33323,4231.794768,4241.025537,4245.128101,4229.230666,4187.179385,4244.10246,4230.769127
115,0,4324.615279,4261.538357,4243.076819,4217.435794,4239.487076,4248.717845,4237.948614,4235.897332,4239.999896,4244.615281,4227.692204,4194.358872,4247.179383,4242.563999
116,0,4337.435791,4268.717844,4238.974255,4225.640922,4235.897332,4245.640922,4242.563999,4239.487076,4247.692204,4243.58964,4237.435794,4198.461436,4248.717845,4252.820409
117,0,4332.307586,4273.846049,4248.717845,4225.128102,4241.538358,4246.666563,4244.615281,4244.615281,4256.922973,4252.307588,4246.153742,4204.615282,4249.743486,4245.640922
118,0,4332.820407,4281.025536,4252.307588,4228.205025,4254.871691,4248.717845,4247.179383,4246.153742,4258.974255,4268.717844,4250.256306,4204.615282,4263.589639,4250.256306
119,0,4333.333227,4275.897331,4246.153742,4230.256307,4251.281947,4242.563999,4242.051178,4241.538358,4251.794768,4267.692203,4243.58964,4195.897333,4261.025537,4254.35887
120,0,4315.38451,4257.435793,4237.435794,4220.512717,4242.051178,4236.922973,4232.307589,4237.948614,4241.025537,4242.051178,4227.692204,4183.589641,4231.281948,4228.717845
121,0,4311.794766,4257.948614,4239.999896,4218.461435,4241.025537,4239.999896,4229.230666,4234.871691,4236.410153,4227.692204,4220.512717,4189.230667,4229.230666,4225.128102
122,0,4338.461432,4270.256306,4242.051178,4225.128102,4239.487076,4239.999896,4231.281948,4229.230666,4237.435794,4236.410153,4228.205025,4193.333231,4256.922973,4264.10246
123,0,4347.692201,4264.10246,4238.461435,4221.538358,4231.794768,4236.922973,4227.179384,4226.666563,4236.922973,4245.640922,4233.84605,4184.102462,4261.538357,4279.487075
124,0,4335.89733,4254.871691,4239.999896,4214.871692,4231.794768,4236.922973,4227.179384,4233.33323,4238.461435,4247.692204,4235.897332,4186.666564,4257.948614,4269.230665
125,0,4349.230663,4258.974255,4239.487076,4220.512717,4242.563999,4245.128101,4237.435794,4241.538358,4249.230665,4256.922973,4248.205024,4198.461436,4276.410152,4288.205023
126,0,4367.692201,4259.487075,4243.076819,4222.563999,4248.205024,4249.743486,4242.563999,4243.076819,4254.871691,4266.153742,4255.897332,4199.487077,4286.153741,4305.64092
127,0,4359.999893,4255.384511,4234.871691,4209.230666,4246.153742,4241.538358,4235.897332,4236.410153,4247.179383,4256.922973,4245.640922,4189.743487,4275.384511,4293.846049
128,0,4347.179381,4254.871691,4238.974255,4204.615282,4243.076819,4237.948614,4230.256307,4234.871691,4238.461435,4237.948614,4240.512717,4192.82041,4269.230665,4290.769126
0,0,4349.743483,4255.897332,4242.051178,4217.435794,4237.948614,4244.615281,4235.897332,4238.974255,4243.58964,4238.461435,4250.256306,4197.948615,4273.846049,4298.461433
1,0,4351.794765,4251.794768,4249.230665,4220.512717,4232.307589,4244.615281,4237.948614,4239.999896,4250.256306,4246.666563,4250.769127,4204.615282,4273.846049,4289.230664
2,0,4347.179381,4251.794768,4239.999896,4213.33323,4237.435794,4243.58964,4236.922973,4242.563999,4254.871691,4251.281947,4246.153742,4202.051179,4274.35887,4279.487075
3,0,4347.179381,4258.461434,4246.153742,4215.384512,4248.205024,4247.179383,4240.512717,4249.230665,4258.974255,4255.384511,4252.307588,4202.051179,4279.999895,4288.717844
4,0,4351.794765,4265.640921,4242.051178,4220.512717,4247.692204,4245.128101,4246.666563,4250.769127,4260.512716,4256.410152,4258.974255,4199.487077,4281.538357,4297.948613
5,0,4344.102458,4254.871691,4237.948614,4215.384512,4235.897332,4243.58964,4243.076819,4247.179383,4254.35887,4246.153742,4247.179383,4198.461436,4269.230665,4277.948613
6,0,4338.461432,4246.666563,4233.84605,4211.281948,4235.897332,4244.615281,4237.948614,4246.666563,4251.794768,4242.563999,4239.999896,4194.358872,4266.666562,4269.743485
7,0,4337.435791,4251.281947,4242.563999,4213.846051,4236.922973,4241.025537,4237.948614,4248.205024,4256.410152,4247.179383,4245.128101,4200.512718,4273.846049,4287.692203
8,0,4332.307586,4253.333229,4241.538358,4212.307589,4228.717845,4237.948614,4237.435794,4248.205024,4256.410152,4246.153742,4246.666563,4199.999897,4273.333229,4290.256305
9,0,4328.205022,4249.230665,4242.563999,4207.692205,4229.230666,4240.512717,4232.307589,4246.666563,4250.769127,4240.512717,4240.512717,4197.435795,4263.589639,4268.717844
10,0,4338.461432,4249.743486,4244.615281,4211.794769,4243.076819,4241.025537,4231.794768,4245.128101,4252.820409,4242.563999,4240.512717,4195.897333,4260.512716,4264.61528
11,0,4346.15374,4250.256306,4246.153742,4218.974256,4245.128101,4242.051178,4235.384512,4244.10246,4256.922973,4246.666563,4249.743486,4198.974256,4266.666562,4272.307588
12,0,4335.89733,4248.717845,4245.128101,4213.846051,4242.563999,4245.640922,4241.025537,4245.640922,4255.384511,4252.820409,4249.230665,4199.487077,4269.230665,4271.281947
13,0,4327.692202,4252.820409,4242.563999,4211.281948,4243.58964,4244.615281,4243.58964,4247.179383,4253.84605,4261.538357,4244.10246,4195.384513,4263.589639,4269.230665
14,0,4327.692202,4256.410152,4246.666563,4219.487076,4239.999896,4243.076819,4241.025537,4248.717845,4255.897332,4264.10246,4247.692204,4193.333231,4263.076819,4269.743485
15,0,4329.743484,4257.948614,4247.179383,4224.615281,4243.58964,4242.563999,4242.563999,4252.307588,4262.563998,4267.692203,4254.871691,4196.922974,4274.35887,4274.87169
16,0,4334.358868,4259.999896,4253.84605,4222.563999,4251.794768,4241.538358,4245.640922,4252.820409,4264.10246,4269.230665,4252.307588,4204.615282,4277.435793,4273.846049
17,0,4341.538355,4267.179383,4251.794768,4225.640922,4251.281947,4243.076819,4246.666563,4248.717845,4258.461434,4263.589639,4249.743486,4203.07682,4274.35887,4274.87169
18,0,4341.025535,4271.794767,4255.897332,4229.743486,4246.666563,4246.153742,4247.179383,4246.666563,4255.897332,4259.487075,4251.794768,4204.615282,4274.35887,4274.87169
19,0,4335.89733,4269.743485,4249.743486,4228.205025,4245.640922,4244.10246,4250.769127,4247.692204,4263.589639,4271.281947,4254.35887,4205.128102,4277.948613,4271.794767
20,0,4331.794766,4260.512716,4254.35887,4226.153743,4242.051178,4241.538358,4246.666563,4252.307588,4265.128101,4277.948613,4254.35887,4210.769128,4276.410152,4273.846049
21,0,4329.743484,4260.512716,4248.205024,4227.692204,4243.58964,4240.512717,4242.051178,4252.820409,4264.61528,4269.743485,4256.410152,4208.717846,4277.435793,4284.61528
22,0,4329.743484,4266.153742,4247.692204,4227.692204,4248.717845,4242.563999,4242.051178,4248.205024,4264.10246,4262.563998,4253.84605,4207.692205,4277.948613,4281.538357
23,0,4334.871689,4267.692203,4239.487076,4223.58964,4251.794768,4242.051178,4243.58964,4243.58964,4261.025537,4263.076819,4250.769127,4202.051179,4275.384511,4269.743485
24,0,4332.820407,4263.076819,4242.563999,4219.999897,4248.717845,4238.461435,4241.025537,4243.076819,4257.435793,4258.461434,4247.179383,4203.589641,4267.179383,4265.128101
25,0,4327.179381,4258.461434,4239.999896,4218.974256,4243.58964,4237.435794,4238.974255,4241.538358,4258.974255,4253.84605,4243.076819,4201.025538,4264.61528,4261.538357
26,0,4323.076817,4249.743486,4241.538358,4214.871692,4241.538358,4239.487076,4235.897332,4239.999896,4260.512716,4257.948614,4239.487076,4197.435795,4266.153742,4256.922973
27,0,4322.051176,4249.743486,4237.435794,4210.769128,4242.563999,4238.461435,4234.871691,4240.512717,4263.076819,4267.692203,4246.666563,4194.871692,4271.281947,4254.871691
28,0,4321.025535,4259.487075,4236.922973,4213.33323,4246.666563,4239.487076,4237.435794,4245.128101,4265.640921,4268.205024,4252.820409,4201.025538,4274.87169,4250.256306
29,0,4323.589638,4261.025537,4237.435794,4214.871692,4251.794768,4241.025537,4237.948614,4246.153742,4264.61528,4259.487075,4248.717845,4204.102461,4273.333229,4252.820409
30,0,4327.179381,4251.281947,4237.435794,4210.256307,4251.794768,4238.974255,4239.487076,4243.076819,4263.589639,4255.384511,4245.640922,4201.538359,4269.743485,4260.512716
31,0,4328.717843,4252.307588,4244.615281,4212.307589,4248.717845,4239.487076,4245.128101,4246.666563,4265.640921,4261.538357,4251.794768,4204.615282,4272.820408,4260.512716
32,0,4331.281945,4260.512716,4246.666563,4221.025538,4249.743486,4243.076819,4249.230665,4253.84605,4267.179383,4268.717844,4257.948614,4210.256307,4277.435793,4257.948614
33,0,4325.128099,4257.435793,4245.128101,4216.922974,4248.717845,4241.025537,4246.666563,4251.281947,4263.076819,4257.435793,4249.230665,4208.205025,4269.743485,4255.897332
34,0,4318.461433,4250.769127,4237.948614,4208.717846,4242.563999,4236.922973,4239.487076,4242.051178,4255.897332,4232.307589,4237.948614,4199.487077,4263.589639,4253.84605
35,0,4315.89733,4242.563999,4243.58964,4209.743487,4242.563999,4238.974255,4236.922973,4243.58964,4254.871691,4233.84605,4239.487076,4201.538359,4261.538357,4245.640922
36,0,4313.333228,4247.692204,4241.538358,4216.410153,4252.820409,4241.538358,4245.128101,4251.794768,4264.10246,4271.281947,4249.230665,4204.102461,4263.589639,4243.076819
37,0,4314.871689,4263.076819,4243.58964,4219.487076,4254.871691,4238.461435,4245.640922,4247.179383,4265.640921,4282.051177,4249.230665,4206.153743,4266.666562,4246.666563
38,0,4327.179381,4267.179383,4232.820409,4215.897333,4243.076819,4235.897332,4235.897332,4235.384512,4255.897332,4255.897332,4242.051178,4199.487077,4263.076819,4249.743486
39,0,4332.307586,4257.948614,4233.33323,4210.769128,4236.922973,4235.897332,4230.769127,4236.410153,4251.794768,4238.974255,4234.871691,4196.922974,4253.333229,4244.10246
40,0,4326.15374,4259.487075,4231.794768,4214.871692,4243.076819,4236.410153,4237.948614,4242.563999,4256.922973,4245.128101,4240.512717,4198.461436,4255.897332,4240.512717
41,0,4320.512715,4262.563998,4238.461435,4218.461435,4248.205024,4237.948614,4238.974255,4241.538358,4258.974255,4249.230665,4245.128101,4203.589641,4257.435793,4243.58964
42,0,4321.538356,4255.897332,4232.820409,4214.358871,4252.307588,4239.999896,4237.435794,4239.487076,4260.512716,4249.743486,4232.307589,4194.871692,4250.769127,4247.179383
43,0,4323.076817,4249.743486,4237.948614,4211.794769,4250.256306,4240.512717,4236.410153,4240.512717,4261.025537,4247.179383,4226.153743,4195.384513,4248.717845,4247.692204
44,0,4321.538356,4254.35887,4237.435794,4210.769128,4246.153742,4241.538358,4235.384512,4240.512717,4260.512716,4249.743486,4241.025537,4197.948615,4255.897332,4249.230665
45,0,4317.948612,4251.281947,4236.410153,4206.666564,4249.230665,4242.051178,4234.358871,4236.922973,4259.487075,4251.281947,4244.615281,4196.922974,4254.35887,4245.640922
46,0,4319.999894,4245.128101,4236.410153,4205.640923,4254.871691,4238.461435,4231.281948,4231.281948,4256.922973,4241.538358,4232.307589,4192.82041,4247.179383,4237.948614
47,0,4319.487074,4247.692204,4239.999896,4204.102461,4251.281947,4238.461435,4226.666563,4231.794768,4253.333229,4229.743486,4228.205025,4193.333231,4246.666563,4236.922973
48,0,4316.410151,4251.281947,4236.922973,4198.461436,4249.743486,4238.461435,4227.692204,4234.358871,4252.820409,4230.256307,4229.230666,4189.230667,4250.769127,4244.10246
49,0,4319.999894,4246.153742,4232.820409,4199.487077,4255.384511,4237.948614,4236.410153,4236.922973,4258.461434,4245.128101,4224.615281,4187.179385,4249.743486,4244.615281
50,0,4319.487074,4242.563999,4232.307589,4206.666564,4251.281947,4237.435794,4239.487076,4242.563999,4260.512716,4251.281947,4217.435794,4191.281949,4242.563999,4237.948614
51,0,4308.717843,4243.076819,4230.769127,4211.281948,4240.512717,4236.922973,4233.84605,4239.999896,4254.35887,4240.512717,4217.435794,4190.769128,4239.487076,4233.33323
52,0,4304.615279,4240.512717,4237.435794,4211.281948,4240.512717,4236.922973,4231.281948,4232.820409,4246.153742,4235.897332,4221.025538,4188.717846,4240.512717,4231.794768
53,0,4318.974253,4246.666563,4233.33323,4216.410153,4244.615281,4239.999896,4235.384512,4234.358871,4251.281947,4246.666563,4226.666563,4189.743487,4247.692204,4245.128101
54,0,4333.333227,4252.820409,4240.512717,4224.615281,4241.538358,4242.051178,4234.358871,4236.922973,4256.410152,4246.666563,4232.820409,4198.461436,4254.871691,4255.384511
55,0,4336.922971,4256.410152,4242.051178,4227.179384,4242.563999,4239.999896,4233.33323,4234.358871,4256.410152,4246.153742,4238.461435,4199.487077,4258.461434,4253.84605
56,0,4333.333227,4254.35887,4243.58964,4226.153743,4242.563999,4238.974255,4233.84605,4237.948614,4257.435793,4249.230665,4236.410153,4197.948615,4256.922973,4254.35887
57,0,4331.794766,4248.205024,4233.84605,4228.205025,4242.051178,4238.974255,4233.84605,4239.487076,4256.410152,4247.179383,4236.410153,4188.717846,4254.35887,4256.922973
58,0,4326.666561,4247.179383,4242.563999,4230.256307,4244.615281,4239.487076,4234.358871,4234.358871,4252.307588,4241.025537,4234.358871,4190.769128,4249.230665,4248.205024
59,0,4322.051176,4248.717845,4240.512717,4225.640922,4239.487076,4238.461435,4236.922973,4232.820409,4254.35887,4234.358871,4232.307589,4193.333231,4246.666563,4244.615281
60,0,4318.974253,4243.076819,4243.58964,4224.102461,4234.871691,4236.410153,4234.358871,4237.435794,4255.384511,4230.256307,4233.33323,4197.435795,4246.153742,4244.10246
61,0,4322.051176,4247.692204,4244.615281,4232.307589,4245.128101,4238.461435,4236.922973,4241.025537,4257.948614,4247.179383,4238.974255,4193.846051,4251.794768,4245.128101
62,0,4328.717843,4256.410152,4249.743486,4236.922973,4245.640922,4239.999896,4241.025537,4244.615281,4261.538357,4261.025537,4242.051178,4194.871692,4256.922973,4253.84605
63,0,4327.692202,4249.230665,4241.538358,4229.743486,4234.358871,4235.897332,4230.256307,4238.974255,4254.871691,4247.692204,4235.897332,4191.794769,4251.281947,4252.820409
64,0,4316.922971,4236.410153,4239.487076,4223.58964,4230.256307,4233.33323,4222.563999,4227.179384,4244.10246,4232.307589,4224.615281,4192.82041,4241.025537,4238.461435
65,0,4311.794766,4241.538358,4244.10246,4226.666563,4232.307589,4236.922973,4230.769127,4230.256307,4248.205024,4233.33323,4225.128102,4199.487077,4245.640922,4243.076819
66,0,4317.435792,4255.897332,4249.230665,4229.230666,4235.384512,4238.461435,4233.33323,4240.512717,4254.871691,4231.794768,4230.769127,4200.512718,4253.84605,4251.794768
67,0,4320.512715,4261.538357,4247.692204,4228.205025,4241.025537,4236.410153,4230.769127,4241.538358,4255.897332,4232.307589,4231.794768,4193.333231,4250.769127,4241.025537
68,0,4319.487074,4261.538357,4244.615281,4228.205025,4240.512717,4238.461435,4235.384512,4240.512717,4258.461434,4243.58964,4234.358871,4191.281949,4251.794768,4244.10246
69,0,4318.974253,4264.61528,4246.666563,4228.205025,4236.922973,4239.999896,4237.948614,4242.563999,4256.410152,4243.58964,4232.307589,4191.281949,4253.84605,4257.948614
70,0,4321.538356,4269.230665,4245.128101,4232.307589,4242.051178,4239.999896,4237.435794,4244.10246,4252.820409,4237.435794,4227.692204,4188.717846,4247.179383,4252.820409
71,0,4323.589638,4265.128101,4250.769127,4234.358871,4242.051178,4239.487076,4238.461435,4244.615281,4255.384511,4236.410153,4230.256307,4192.82041,4246.153742,4245.640922
72,0,4323.589638,4260.512716,4245.640922,4228.205025,4236.410153,4237.948614,4236.410153,4241.538358,4258.461434,4233.84605,4236.922973,4197.948615,4255.384511,4252.307588
73,0,4323.076817,4262.051178,4249.230665,4225.640922,4242.051178,4237.435794,4232.307589,4240.512717,4253.84605,4222.051179,4235.897332,4202.051179,4255.897332,4253.84605
74,0,4324.615279,4266.666562,4243.58964,4233.33323,4250.769127,4237.948614,4236.410153,4243.076819,4252.820409,4223.07682,4237.435794,4199.999897,4253.84605,4258.461434
75,0,4321.025535,4265.640921,4249.230665,4237.435794,4242.051178,4239.999896,4238.461435,4247.179383,4258.974255,4243.076819,4244.615281,4204.615282,4258.974255,4266.666562
76,0,4319.487074,4263.589639,4250.769127,4237.435794,4239.999896,4239.999896,4241.025537,4251.281947,4266.666562,4265.128101,4254.35887,4205.640923,4265.640921,4269.743485
77,0,4316.922971,4256.410152,4253.333229,4232.820409,4247.692204,4237.435794,4241.538358,4252.820409,4264.61528,4262.563998,4250.256306,4206.666564,4258.461434,4264.10246
78,0,4314.358869,4252.820409,4240.512717,4222.051179,4247.692204,4233.84605,4241.025537,4249.230665,4262.051178,4249.743486,4239.487076,4202.051179,4251.794768,4262.051178
79,0,4317.435792,4254.35887,4245.128101,4221.538358,4243.076819,4234.871691,4241.538358,4247.179383,4265.128101,4242.051178,4237.948614,4205.640923,4255.897332,4258.974255
80,0,4316.922971,4251.794768,4246.666563,4227.179384,4238.974255,4239.487076,4242.051178,4248.717845,4267.179383,4243.076819,4239.487076,4202.564,4256.410152,4251.794768
81,0,4303.076818,4242.563999,4247.692204,4223.07682,4229.230666,4238.974255,4239.999896,4248.717845,4262.563998,4246.153742,4235.384512,4199.999897,4249.230665,4246.666563
82,0,4303.076818,4247.692204,4247.179383,4224.615281,4232.307589,4236.410153,4242.051178,4249.230665,4263.589639,4245.128101,4239.487076,4200.512718,4251.794768,4252.307588
83,0,4315.38451,4259.999896,4248.205024,4232.820409,4246.153742,4237.435794,4242.051178,4248.717845,4264.61528,4237.948614,4245.128101,4204.615282,4256.410152,4255.384511
84,0,4313.846048,4259.999896,4246.666563,4233.84605,4249.743486,4238.461435,4239.487076,4246.666563,4263.076819,4240.512717,4241.538358,4200.512718,4251.794768,4251.281947
85,0,4313.333228,4259.487075,4251.794768,4235.384512,4248.205024,4239.999896,4242.563999,4248.717845,4266.666562,4251.281947,4241.538358,4198.974256,4254.871691,4256.410152
86,0,4321.025535,4261.025537,4255.897332,4237.948614,4242.563999,4239.999896,4245.640922,4248.205024,4267.692203,4244.10246,4243.076819,4200.512718,4262.563998,4262.051178
87,0,4315.89733,4255.384511,4246.666563,4233.33323,4230.256307,4238.461435,4239.999896,4243.076819,4261.025537,4227.179384,4236.410153,4195.897333,4256.410152,4256.410152
88,0,4306.666561,4252.307588,4244.615281,4230.256307,4232.820409,4238.974255,4235.897332,4239.487076,4251.281947,4226.153743,4230.769127,4192.82041,4248.205024,4251.794768
89,0,4314.871689,4263.076819,4245.128101,4235.384512,4252.820409,4243.58964,4241.538358,4242.051178,4253.333229,4244.615281,4238.461435,4194.871692,4257.435793,4257.435793
90,0,4322.563997,4272.820408,4253.333229,4241.538358,4259.487075,4244.10246,4242.563999,4243.076819,4258.461434,4245.640922,4238.461435,4199.487077,4261.538357,4262.051178
91,0,4311.794766,4266.153742,4246.153742,4241.025537,4246.666563,4240.512717,4237.948614,4237.948614,4255.384511,4224.615281,4227.179384,4194.358872,4248.717845,4255.897332
92,0,4301.538356,4252.307588,4245.640922,4234.871691,4238.461435,4237.948614,4234.358871,4235.384512,4247.179383,4216.410153,4223.58964,4193.333231,4241.025537,4248.717845
93,0,4311.281946,4257.948614,4240.512717,4232.820409,4246.153742,4238.974255,4237.948614,4237.435794,4249.743486,4230.256307,4232.820409,4192.30759,4252.307588,4255.897332
94,0,4311.794766,4264.10246,4245.640922,4232.820409,4245.640922,4239.999896,4238.461435,4240.512717,4255.384511,4236.922973,4235.897332,4194.871692,4258.461434,4255.897332
95,0,4301.538356,4259.999896,4241.538358,4231.281948,4242.051178,4238.461435,4238.461435,4240.512717,4256.410152,4237.948614,4235.897332,4191.794769,4258.461434,4251.794768
96,0,4303.076818,4259.487075,4246.666563,4229.743486,4247.179383,4239.999896,4238.461435,4239.487076,4256.922973,4237.948614,4233.84605,4192.82041,4256.410152,4256.410152
97,0,4308.717843,4264.61528,4242.563999,4229.230666,4255.897332,4241.538358,4237.435794,4238.461435,4256.922973,4234.358871,4230.769127,4188.205026,4256.410152,4263.076819
98,0,4307.179382,4265.128101,4249.743486,4230.769127,4252.820409,4241.538358,4237.948614,4241.538358,4255.897332,4227.692204,4234.871691,4191.281949,4262.563998,4265.640921
99,0,4310.256305,4269.230665,4251.794768,4232.820409,4246.666563,4241.538358,4241.025537,4243.58964,4259.487075,4234.871691,4243.58964,4195.897333,4272.307588,4267.692203
100,0,4308.717843,4266.153742,4247.692204,4231.794768,4246.666563,4239.999896,4238.974255,4239.487076,4259.487075,4246.153742,4234.358871,4199.487077,4266.153742,4255.897332
101,0,4304.615279,4256.410152,4243.58964,4226.153743,4245.128101,4239.999896,4236.410153,4238.461435,4254.35887,4245.640922,4227.692204,4198.974256,4254.35887,4251.281947
102,0,4308.205023,4257.435793,4249.230665,4225.128102,4239.999896,4240.512717,4237.435794,4236.410153,4248.205024,4232.820409,4236.922973,4197.948615,4251.281947,4262.051178
103,0,4301.025536,4251.794768,4242.563999,4222.051179,4236.410153,4235.897332,4231.794768,4229.230666,4245.128101,4226.666563,4233.33323,4191.794769,4247.692204,4256.922973
104,0,4286.153741,4239.999896,4234.871691,4218.974256,4242.051178,4235.384512,4229.230666,4231.281948,4248.717845,4233.33323,4225.128102,4196.410154,4246.666563,4245.128101
105,0,4297.435792,4254.871691,4246.666563,4227.692204,4253.333229,4243.58964,4241.025537,4243.076819,4253.84605,4237.435794,4240.512717,4207.692205,4255.897332,4256.922973
106,0,4318.974253,4268.205024,4248.717845,4233.33323,4251.281947,4244.10246,4242.563999,4241.025537,4252.307588,4238.974255,4251.794768,4205.128102,4264.10246,4277.435793
107,0,4312.307587,4254.871691,4242.051178,4221.538358,4236.922973,4237.435794,4230.256307,4230.256307,4249.230665,4230.769127,4237.435794,4195.384513,4258.974255,4272.307588
108,0,4295.897331,4251.281947,4234.358871,4216.410153,4235.384512,4239.487076,4230.769127,4229.230666,4251.794768,4223.58964,4225.128102,4187.692205,4249.743486,4251.281947
109,0,4293.333228,4259.487075,4243.076819,4223.58964,4247.692204,4244.10246,4236.410153,4234.358871,4253.333229,4236.410153,4226.153743,4190.256308,4245.128101,4245.128101
110,0,4297.435792,4258.461434,4239.999896,4224.615281,4249.743486,4241.025537,4230.769127,4234.871691,4252.307588,4253.333229,4233.33323,4190.256308,4251.281947,4257.948614
111,0,4293.333228,4251.794768,4239.999896,4218.974256,4240.512717,4237.948614,4222.563999,4229.230666,4245.640922,4231.281948,4223.58964,4190.256308,4246.153742,4250.769127
112,0,4290.769126,4251.281947,4235.384512,4222.563999,4240.512717,4235.897332,4227.692204,4223.07682,4245.128101,4205.640923,4214.871692,4187.692205,4234.871691,4239.487076
113,0,4293.333228,4251.281947,4245.128101,4226.153743,4246.153742,4238.461435,4233.33323,4226.666563,4248.717845,4217.948615,4227.179384,4192.30759,4244.615281,4251.281947
114,0,4295.897331,4255.384511,4239.487076,4222.051179,4249.230665,4241.538358,4231.281948,4228.717845,4246.153742,4238.461435,4236.922973,4187.692205,4257.435793,4261.538357
115,0,4289.743485,4255.384511,4232.820409,4214.358871,4246.666563,4238.461435,4224.102461,4221.025538,4237.948614,4227.692204,4221.538358,4183.076821,4238.461435,4245.640922
116,0,4281.025536,4249.230665,4225.128102,4211.281948,4241.025537,4236.410153,4223.58964,4216.922974,4236.410153,4213.846051,4210.256307,4177.948616,4219.999897,4233.33323
117,0,4283.076818,4242.563999,4232.820409,4209.743487,4238.461435,4241.025537,4229.743486,4223.07682,4241.025537,4224.102461,4212.82041,4183.076821,4230.769127,4237.948614
118,0,4289.743485,4243.58964,4232.820409,4208.205025,4241.025537,4242.051178,4230.256307,4224.615281,4242.051178,4231.281948,4214.871692,4183.589641,4243.58964,4243.076819
119,0,4282.051177,4248.205024,4234.358871,4208.717846,4239.999896,4240.512717,4225.128102,4220.512717,4236.922973,4216.410153,4214.871692,4182.05118,4238.461435,4242.051178
120,0,4274.35887,4253.333229,4232.307589,4211.794769,4239.999896,4240.512717,4226.666563,4223.07682,4239.999896,4215.897333,4215.384512,4181.538359,4233.33323,4242.563999
121,0,4282.563998,4259.487075,4231.281948,4222.051179,4249.230665,4241.538358,4235.384512,4228.717845,4250.769127,4235.897332,4213.33323,4189.743487,4237.435794,4241.025537
122,0,4292.820408,4262.051178,4233.84605,4227.692204,4256.410152,4241.538358,4240.512717,4234.358871,4254.871691,4236.410153,4215.384512,4190.769128,4241.538358,4238.974255
123,0,4293.333228,4260.512716,4235.384512,4226.153743,4250.769127,4243.076819,4242.563999,4239.999896,4256.410152,4232.820409,4223.07682,4190.256308,4245.128101,4245.128101
124,0,4297.435792,4267.179383,4241.538358,4230.769127,4245.640922,4244.10246,4246.666563,4245.128101,4263.076819,4253.84605,4229.230666,4198.461436,4251.794768,4258.974255
125,0,4301.538356,4272.820408,4239.487076,4232.820409,4252.307588,4244.615281,4245.128101,4242.051178,4261.025537,4258.974255,4230.256307,4198.974256,4253.333229,4257.948614
126,0,4286.666562,4257.435793,4237.948614,4223.58964,4254.35887,4241.025537,4236.410153,4235.384512,4249.230665,4236.922973,4227.179384,4193.333231,4245.128101,4241.025537
127,0,4272.307588,4246.153742,4229.743486,4220.512717,4247.692204,4238.461435,4230.256307,4230.256307,4244.10246,4233.84605,4223.07682,4190.256308,4239.487076,4233.33323
128,0,4275.897331,4253.84605,4236.922973,4223.58964,4247.692204,4239.487076,4228.717845,4229.743486,4244.615281,4244.10246,4217.948615,4197.948615,4241.538358,4235.384512
0,0,4286.666562,4258.974255,4236.410153,4221.025538,4253.84605,4237.948614,4232.307589,4233.33323,4246.153742,4233.84605,4223.07682,4202.051179,4247.179383,4244.615281
1,0,4278.974254,4245.640922,4236.922973,4217.435794,4248.717845,4238.974255,4233.84605,4236.410153,4243.58964,4217.435794,4227.179384,4205.640923,4241.538358,4245.640922
2,0,4269.743485,4242.563999,4226.153743,4219.487076,4243.58964,4243.076819,4238.974255,4236.410153,4247.179383,4236.922973,4226.666563,4201.538359,4237.948614,4241.025537
3,0,4272.307588,4250.256306,4230.769127,4219.487076,4249.230665,4242.563999,4239.999896,4238.974255,4252.307588,4256.410152,4224.615281,4203.07682,4244.10246,4237.435794
4,0,4278.461434,4250.256306,4230.769127,4216.410153,4248.205024,4235.897332,4232.307589,4234.358871,4246.666563,4240.512717,4224.102461,4199.487077,4244.10246,4242.563999
5,0,4278.461434,4244.10246,4232.820409,4215.897333,4236.410153,4235.384512,4225.640922,4225.128102,4239.999896,4224.615281,4223.58964,4199.999897,4239.487076,4245.640922
6,0,4280.512716,4253.333229,4228.205025,4222.563999,4235.897332,4241.538358,4234.358871,4228.717845,4247.179383,4242.051178,4228.205025,4196.922974,4248.717845,4246.153742
7,0,4277.948613,4258.461434,4232.307589,4219.999897,4241.025537,4241.538358,4235.897332,4236.410153,4252.307588,4251.794768,4230.769127,4195.897333,4252.820409,4244.10246
8,0,4268.205024,4247.179383,4230.256307,4213.846051,4241.538358,4237.435794,4231.794768,4234.358871,4252.820409,4243.076819,4229.743486,4191.794769,4251.281947,4243.58964
9,0,4267.692203,4241.538358,4226.666563,4216.922974,4248.205024,4239.999896,4237.435794,4238.461435,4253.84605,4244.615281,4226.153743,4192.30759,4254.871691,4246.666563
10,0,4269.230665,4243.58964,4219.999897,4215.897333,4255.897332,4242.563999,4241.025537,4239.999896,4249.743486,4245.128101,4215.897333,4187.179385,4246.666563,4235.384512
11,0,4264.61528,4241.025537,4218.461435,4210.769128,4248.717845,4239.999896,4233.33323,4228.205025,4245.128101,4236.410153,4210.769128,4181.025539,4231.281948,4220.512717
12,0,4265.640921,4245.128101,4224.615281,4216.410153,4240.512717,4238.461435,4230.256307,4223.07682,4244.10246,4231.794768,4210.256307,4182.05118,4233.84605,4229.743486
13,0,4275.897331,4254.35887,4226.153743,4225.128102,4248.205024,4239.487076,4235.384512,4226.153743,4242.563999,4236.410153,4206.153743,4185.640923,4241.025537,4240.512717
14,0,4280.512716,4252.820409,4229.230666,4227.179384,4249.743486,4239.487076,4238.974255,4228.205025,4243.076819,4237.948614,4216.922974,4190.769128,4244.615281,4240.512717
15,0,4280.512716,4252.307588,4229.230666,4233.84605,4242.563999,4241.538358,4242.051178,4230.769127,4249.743486,4229.230666,4238.974255,4197.435795,4254.35887,4249.230665
16,0,4285.1281,4257.948614,4231.794768,4233.84605,4245.128101,4239.999896,4240.512717,4229.230666,4248.205024,4228.205025,4238.461435,4201.538359,4255.384511,4251.281947
17,0,4293.333228,4261.025537,4222.563999,4226.153743,4255.384511,4236.922973,4236.922973,4222.563999,4247.179383,4251.281947,4231.281948,4196.922974,4252.307588,4249.230665
18,0,4298.461433,4257.948614,4226.153743,4231.794768,4257.948614,4239.999896,4240.512717,4229.230666,4254.35887,4270.256306,4241.025537,4200.512718,4259.487075,4263.589639
19,0,4296.922972,4262.563998,4222.563999,4243.076819,4263.076819,4245.640922,4247.692204,4236.410153,4259.999896,4263.589639,4248.717845,4204.102461,4267.692203,4271.794767
20,0,4288.717844,4265.128101,4224.102461,4237.435794,4265.640921,4243.58964,4242.563999,4227.692204,4252.307588,4243.58964,4235.384512,4201.025538,4259.487075,4254.871691
21,0,4284.102459,4261.538357,4214.358871,4225.128102,4254.35887,4237.948614,4234.358871,4221.025538,4244.615281,4233.84605,4222.051179,4187.179385,4253.84605,4248.717845
22,0,4282.051177,4254.35887,4218.461435,4225.128102,4247.692204,4240.512717,4235.384512,4227.179384,4243.076819,4228.205025,4219.999897,4188.717846,4253.84605,4254.871691
23,0,4275.384511,4252.820409,4219.487076,4226.666563,4256.410152,4244.615281,4240.512717,4228.205025,4246.153742,4238.461435,4224.615281,4190.769128,4254.871691,4254.35887
24,0,4266.666562,4249.230665,4225.128102,4223.58964,4254.35887,4243.076819,4236.410153,4228.205025,4247.692204,4250.769127,4222.051179,4189.743487,4252.820409,4247.179383
25,0,4266.666562,4245.128101,4222.051179,4222.563999,4249.743486,4241.025537,4233.84605,4230.769127,4246.153742,4244.615281,4216.922974,4186.153744,4251.281947,4242.563999
26,0,4273.333229,4245.640922,4228.205025,4226.666563,4256.410152,4242.563999,4236.922973,4228.717845,4244.615281,4234.871691,4221.025538,4193.333231,4251.794768,4248.205024
27,0,4281.538357,4251.281947,4232.820409,4230.769127,4258.461434,4240.512717,4237.948614,4226.666563,4245.640922,4239.487076,4228.717845,4195.897333,4255.384511,4259.487075
28,0,4281.025536,4250.769127,4234.871691,4230.256307,4246.666563,4238.461435,4231.281948,4225.128102,4240.512717,4237.435794,4227.692204,4193.333231,4254.35887,4252.307588
29,0,4271.281947,4246.153742,4231.794768,4228.205025,4234.871691,4239.999896,4224.615281,4215.897333,4231.794768,4218.461435,4225.640922,4187.692205,4248.717845,4240.512717
30,0,4264.61528,4241.025537,4229.743486,4222.051179,4230.256307,4239.999896,4223.07682,4210.256307,4229.230666,4218.461435,4224.615281,4183.589641,4245.128101,4242.563999
31,0,4259.999896,4231.281948,4230.769127,4210.769128,4232.307589,4239.999896,4223.07682,4212.307589,4229.230666,4234.358871,4213.33323,4176.410154,4239.999896,4239.999896
32,0,4260.512716,4227.692204,4228.717845,4206.666564,4236.922973,4246.153742,4225.128102,4211.794769,4229.230666,4234.871691,4208.205025,4172.820411,4238.974255,4234.871691
33,0,4267.179383,4231.281948,4233.33323,4208.205025,4233.84605,4248.717845,4224.615281,4214.358871,4228.717845,4220.512717,4214.871692,4177.435795,4241.025537,4237.948614
34,0,4272.820408,4231.281948,4227.692204,4204.615282,4226.666563,4241.025537,4222.051179,4217.948615,4230.256307,4217.948615,4213.33323,4174.358872,4243.58964,4236.410153
35,0,4267.179383,4231.281948,4230.769127,4202.564,4228.205025,4237.948614,4221.538358,4218.461435,4232.307589,4221.538358,4207.179384,4175.384513,4250.769127,4233.33323
36,0,4266.666562,4239.999896,4234.358871,4211.794769,4243.58964,4248.205024,4226.153743,4222.563999,4236.410153,4225.640922,4216.922974,4181.538359,4265.640921,4251.281947
37,0,4273.846049,4238.461435,4244.10246,4213.846051,4252.820409,4251.794768,4225.640922,4226.153743,4236.922973,4227.692204,4227.179384,4185.640923,4268.717844,4256.922973
38,0,4277.435793,4233.84605,4236.410153,4208.205025,4248.205024,4248.717845,4223.58964,4222.051179,4233.84605,4225.640922,4226.153743,4178.461436,4263.076819,4244.10246
39,0,4272.820408,4235.897332,4237.435794,4208.205025,4241.538358,4248.205024,4220.512717,4219.487076,4227.692204,4221.538358,4219.999897,4181.025539,4258.974255,4242.563999
40,0,4266.666562,4230.256307,4229.230666,4204.102461,4240.512717,4246.153742,4218.974256,4218.461435,4229.230666,4221.025538,4221.538358,4178.974257,4259.487075,4245.640922
41,0,4253.333229,4213.846051,4229.230666,4191.281949,4234.358871,4241.538358,4211.794769,4211.281948,4230.769127,4214.871692,4219.999897,4176.410154,4256.922973,4236.922973
42,0,4243.076819,4212.82041,4225.640922,4188.205026,4225.640922,4239.999896,4206.666564,4206.153743,4225.128102,4211.281948,4213.846051,4174.358872,4250.256306,4235.897332
43,0,4244.10246,4217.948615,4233.33323,4194.358872,4223.58964,4244.615281,4209.743487,4211.794769,4222.563999,4214.871692,4211.794769,4179.487077,4246.153742,4240.512717
44,0,4253.333229,4215.384512,4236.410153,4196.410154,4228.717845,4245.128101,4216.410153,4223.58964,4232.307589,4220.512717,4218.974256,4180.512718,4253.84605,4239.999896
45,0,4255.897332,4210.256307,4239.487076,4194.358872,4225.128102,4243.58964,4216.410153,4225.128102,4233.84605,4212.82041,4217.948615,4183.589641,4255.384511,4238.461435
46,0,4253.84605,4210.256307,4238.974255,4191.794769,4220.512717,4241.025537,4213.846051,4214.871692,4223.58964,4197.948615,4210.256307,4183.076821,4246.153742,4239.487076
47,0,4254.871691,4213.33323,4246.666563,4191.794769,4227.692204,4241.025537,4214.871692,4213.846051,4222.051179,4204.615282,4213.33323,4183.589641,4243.58964,4240.512717
48,0,4256.410152,4210.256307,4250.256306,4194.358872,4235.384512,4243.58964,4217.948615,4220.512717,4226.666563,4225.128102,4218.974256,4182.05118,4242.051178,4238.461435
49,0,4248.205024,4203.07682,4239.999896,4195.897333,4233.84605,4243.58964,4218.974256,4214.871692,4222.051179,4219.999897,4210.769128,4177.948616,4231.794768,4230.769127
50,0,4243.076819,4204.102461,4235.897332,4196.410154,4233.33323,4242.563999,4214.871692,4206.666564,4214.358871,4198.461436,4198.461436,4174.871693,4229.743486,4231.281948
51,0,4256.922973,4213.846051,4233.84605,4195.384513,4234.358871,4241.025537,4211.281948,4209.230666,4215.897333,4197.948615,4203.589641,4174.358872,4242.051178,4245.128101
52,0,4265.640921,4217.435794,4238.974255,4195.897333,4229.743486,4240.512717,4214.358871,4212.82041,4219.487076,4204.615282,4215.897333,4180.512718,4249.743486,4246.153742
53,0,4264.10246,4219.999897,4236.410153,4204.615282,4230.256307,4243.58964,4218.461435,4212.82041,4222.563999,4208.205025,4224.102461,4186.153744,4251.794768,4243.58964
54,0,4259.487075,4225.640922,4242.563999,4213.33323,4233.33323,4247.179383,4213.846051,4216.410153,4222.051179,4221.025538,4229.230666,4190.769128,4252.307588,4251.281947
55,0,4256.922973,4224.102461,4238.461435,4211.794769,4229.230666,4245.640922,4210.256307,4211.794769,4218.974256,4228.717845,4225.640922,4184.102462,4251.794768,4252.307588
56,0,4258.974255,4217.435794,4239.999896,4209.743487,4223.58964,4241.025537,4213.33323,4211.281948,4220.512717,4222.051179,4219.487076,4185.128103,4251.281947,4246.666563
57,0,4259.487075,4224.615281,4234.358871,4217.435794,4229.743486,4244.10246,4220.512717,4220.512717,4230.256307,4225.640922,4232.820409,4190.769128,4261.538357,4255.384511
58,0,4251.281947,4227.692204,4238.461435,4219.999897,4235.897332,4247.692204,4222.051179,4225.128102,4231.794768,4227.692204,4244.10246,4195.384513,4266.666562,4255.897332
59,0,4253.333229,4217.435794,4231.794768,4212.307589,4230.256307,4245.128101,4220.512717,4221.025538,4230.256307,4219.487076,4235.897332,4186.666564,4261.538357,4243.58964
60,0,4261.025537,4207.179384,4236.410153,4206.666564,4221.538358,4242.563999,4217.435794,4221.538358,4229.230666,4213.33323,4225.640922,4186.153744,4258.461434,4241.538358
61,0,4256.410152,4212.82041,4235.897332,4210.769128,4227.692204,4244.10246,4219.487076,4223.07682,4229.743486,4225.128102,4225.640922,4185.128103,4262.051178,4252.307588
62,0,4251.794768,4217.435794,4235.897332,4213.846051,4233.84605,4249.230665,4222.563999,4222.051179,4229.743486,4238.461435,4221.025538,4186.666564,4258.974255,4251.794768
63,0,4256.922973,4215.897333,4228.205025,4209.743487,4225.640922,4252.820409,4219.999897,4223.07682,4230.769127,4238.974255,4222.051179,4185.128103,4253.84605,4249.230665
64,0,4257.435793,4217.948615,4231.794768,4211.281948,4221.025538,4254.871691,4221.025538,4227.692204,4232.307589,4233.84605,4232.820409,4187.179385,4258.461434,4253.333229
65,0,4258.461434,4224.615281,4238.461435,4221.025538,4228.205025,4259.487075,4231.794768,4233.84605,4236.410153,4232.307589,4237.948614,4188.205026,4264.61528,4255.384511
66,0,4266.153742,4226.153743,4242.051178,4229.230666,4232.820409,4267.179383,4234.358871,4236.410153,4237.948614,4230.769127,4232.307589,4192.30759,4263.076819,4251.281947
67,0,4266.666562,4225.640922,4244.615281,4235.384512,4234.871691,4267.692203,4229.743486,4237.435794,4237.948614,4229.743486,4228.717845,4192.82041,4260.512716,4252.820409
68,0,4262.563998,4229.230666,4243.58964,4237.435794,4239.487076,4259.487075,4227.692204,4234.358871,4237.435794,4231.281948,4228.717845,4187.692205,4256.922973,4259.487075
69,0,4266.153742,4228.717845,4244.615281,4227.692204,4236.922973,4258.461434,4227.692204,4229.230666,4233.33323,4231.794768,4217.435794,4184.615282,4246.666563,4251.281947
70,0,4271.794767,4225.128102,4241.025537,4222.563999,4230.769127,4272.307588,4229.230666,4232.307589,4239.999896,4239.999896,4213.846051,4185.128103,4246.153742,4242.563999
71,0,4265.128101,4222.563999,4245.640922,4228.205025,4230.256307,4283.076818,4229.230666,4240.512717,4246.666563,4238.974255,4226.666563,4190.769128,4254.871691,4244.10246
72,0,4262.563998,4224.615281,4241.025537,4229.743486,4234.358871,4283.589639,4231.281948,4242.051178,4243.58964,4230.256307,4232.307589,4189.230667,4258.974255,4252.307588
73,0,4266.666562,4226.666563,4244.615281,4226.153743,4234.871691,4281.538357,4230.256307,4239.487076,4239.487076,4232.307589,4223.07682,4187.179385,4251.281947,4253.333229
74,0,4266.153742,4227.692204,4242.051178,4226.666563,4232.307589,4280.512716,4225.128102,4235.384512,4240.512717,4235.897332,4221.025538,4183.076821,4249.743486,4245.640922
75,0,4269.743485,4230.769127,4245.640922,4227.692204,4228.717845,4283.589639,4223.58964,4236.410153,4242.051178,4235.897332,4225.128102,4187.692205,4256.922973,4245.640922
76,0,4284.102459,4244.10246,4236.922973,4231.281948,4233.33323,4287.692203,4232.307589,4240.512717,4246.153742,4247.179383,4227.692204,4187.179385,4264.61528,4259.487075
77,0,4279.487075,4245.640922,4237.435794,4233.33323,4242.051178,4286.666562,4233.84605,4240.512717,4245.640922,4249.230665,4230.769127,4187.179385,4261.538357,4258.974255
78,0,4262.051178,4238.461435,4236.922973,4234.358871,4249.230665,4284.102459,4233.84605,4241.538358,4247.692204,4247.692204,4236.410153,4185.128103,4261.538357,4249.743486
79,0,4262.051178,4242.051178,4244.10246,4238.974255,4249.743486,4287.692203,4233.84605,4247.692204,4254.35887,4257.948614,4236.410153,4191.281949,4267.179383,4250.256306
80,0,4268.717844,4244.10246,4232.820409,4235.897332,4245.128101,4287.179382,4229.230666,4243.076819,4249.743486,4253.333229,4236.922973,4186.666564,4263.589639,4254.871691
81,0,4265.640921,4237.948614,4230.256307,4228.717845,4239.999896,4283.589639,4229.230666,4238.461435,4241.538358,4241.025537,4239.487076,4184.615282,4260.512716,4257.948614
82,0,4264.10246,4239.487076,4231.794768,4235.384512,4235.384512,4282.051177,4231.794768,4242.051178,4247.179383,4247.692204,4235.384512,4187.179385,4266.153742,4263.076819
83,0,4267.179383,4240.512717,4232.820409,4242.563999,4234.358871,4278.461434,4228.717845,4241.538358,4249.743486,4246.666563,4230.769127,4189.230667,4263.589639,4256.410152
84,0,4269.743485,4242.051178,4229.743486,4240.512717,4238.974255,4278.974254,4232.307589,4240.512717,4248.205024,4238.974255,4244.615281,4188.205026,4261.025537,4255.384511
85,0,4266.666562,4247.692204,4223.58964,4242.563999,4242.051178,4283.589639,4241.025537,4241.025537,4252.307588,4243.58964,4256.410152,4190.769128,4269.230665,4269.230665
86,0,4261.025537,4246.153742,4213.33323,4243.58964,4239.487076,4279.999895,4241.025537,4236.410153,4254.871691,4250.256306,4243.58964,4187.179385,4271.794767,4269.230665
87,0,4265.128101,4243.58964,4196.922974,4237.948614,4235.384512,4272.820408,4240.512717,4228.205025,4254.871691,4258.461434,4232.820409,4174.358872,4266.153742,4260.512716
88,0,4269.743485,4248.717845,4186.666564,4235.897332,4233.84605,4272.307588,4242.051178,4224.615281,4254.871691,4263.589639,4237.435794,4166.666565,4265.128101,4257.948614
89,0,4267.692203,4256.922973,4178.974257,4246.666563,4237.435794,4274.35887,4242.563999,4224.615281,4256.922973,4267.692203,4243.076819,4166.153744,4272.307588,4259.999896
90,0,4269.743485,4261.025537,4191.794769,4255.384511,4243.58964,4274.35887,4243.58964,4229.230666,4254.871691,4269.230665,4241.538358,4173.333231,4277.948613,4265.640921
91,0,4276.410152,4263.076819,4191.794769,4250.769127,4248.205024,4274.35887,4242.563999,4229.743486,4250.769127,4265.128101,4238.974255,4173.846052,4274.35887,4274.35887
92,0,4270.769126,4255.384511,4183.589641,4243.076819,4242.563999,4273.846049,4235.384512,4221.538358,4247.179383,4250.256306,4233.84605,4171.281949,4262.051178,4268.717844
93,0,4265.640921,4249.743486,4169.743488,4241.538358,4239.999896,4274.35887,4235.384512,4222.051179,4252.820409,4247.179383,4232.307589,4168.205026,4259.487075,4259.487075
94,0,4270.256306,4256.922973,4183.076821,4248.717845,4246.153742,4276.410152,4238.974255,4228.717845,4255.384511,4255.384511,4234.358871,4175.384513,4263.076819,4257.948614
95,0,4273.333229,4265.640921,4191.281949,4252.307588,4251.281947,4277.435793,4237.948614,4226.153743,4249.230665,4252.820409,4232.820409,4176.410154,4256.410152,4262.563998
96,0,4268.717844,4261.025537,4202.051179,4248.205024,4249.743486,4276.922972,4231.281948,4226.666563,4245.640922,4242.051178,4223.07682,4181.025539,4241.025537,4266.666562
97,0,4270.769126,4259.487075,4205.640923,4246.666563,4246.153742,4277.435793,4228.717845,4231.281948,4243.58964,4243.58964,4219.487076,4183.589641,4236.410153,4271.281947
98,0,4270.769126,4262.051178,4219.999897,4246.666563,4240.512717,4277.435793,4227.692204,4228.205025,4238.461435,4242.051178,4224.102461,4191.794769,4236.922973,4264.10246
99,0,4265.640921,4260.512716,4221.538358,4248.717845,4238.461435,4277.948613,4228.717845,4225.640922,4237.948614,4238.461435,4227.179384,4195.384513,4239.999896,4258.461434
100,0,4265.640921,4256.922973,4225.128102,4249.230665,4236.410153,4279.999895,4227.179384,4234.358871,4239.487076,4245.640922,4225.640922,4198.461436,4241.025537,4263.076819
101,0,4269.230665,4254.871691,4228.717845,4245.128101,4233.84605,4278.461434,4227.692204,4240.512717,4237.435794,4247.179383,4228.717845,4196.922974,4237.435794,4262.051178
102,0,4265.128101,4243.58964,4230.256307,4240.512717,4235.384512,4274.87169,4229.743486,4235.897332,4235.897332,4231.281948,4221.538358,4196.922974,4230.769127,4255.384511
103,0,4256.922973,4234.358871,4225.640922,4237.948614,4236.410153,4272.307588,4227.179384,4227.692204,4237.435794,4225.640922,4206.666564,4193.846051,4226.153743,4256.410152
104,0,4254.871691,4240.512717,4222.563999,4238.974255,4232.820409,4271.281947,4224.615281,4226.666563,4234.871691,4229.230666,4214.358871,4196.922974,4226.666563,4255.897332
105,0,4258.461434,4249.743486,4226.666563,4241.025537,4231.794768,4272.307588,4227.692204,4233.33323,4230.769127,4219.999897,4227.692204,4202.051179,4229.230666,4251.794768
106,0,4265.128101,4251.794768,4225.640922,4243.58964,4235.384512,4275.384511,4229.230666,4235.897332,4233.84605,4219.487076,4223.07682,4200.512718,4230.769127,4256.410152
107,0,4265.128101,4249.230665,4230.256307,4244.615281,4242.563999,4276.922972,4227.692204,4236.410153,4241.538358,4240.512717,4221.025538,4201.538359,4233.33323,4263.589639
108,0,4270.769126,4253.84605,4229.743486,4249.743486,4249.743486,4276.922972,4230.769127,4240.512717,4245.640922,4260.512716,4230.769127,4201.538359,4243.58964,4266.666562
109,0,4280.512716,4257.948614,4234.871691,4251.794768,4246.153742,4277.435793,4227.692204,4240.512717,4241.025537,4255.384511,4227.179384,4202.564,4244.615281,4267.692203
110,0,4273.846049,4257.435793,4229.230666,4244.615281,4245.128101,4272.820408,4222.051179,4234.358871,4235.897332,4241.538358,4224.102461,4200.512718,4236.410153,4272.307588
111,0,4258.461434,4253.333229,4234.358871,4241.025537,4251.281947,4266.153742,4220.512717,4233.84605,4231.281948,4230.256307,4224.102461,4201.538359,4234.358871,4267.179383
112,0,4261.538357,4250.256306,4228.205025,4238.974255,4246.666563,4265.640921,4221.538358,4235.897332,4232.307589,4229.230666,4217.948615,4196.922974,4238.461435,4257.948614
113,0,4266.666562,4248.205024,4230.256307,4238.974255,4235.384512,4270.256306,4220.512717,4235.384512,4236.410153,4241.025537,4219.999897,4198.461436,4236.410153,4258.974255
114,0,4261.025537,4256.410152,4230.769127,4246.666563,4240.512717,4270.769126,4226.153743,4238.461435,4239.999896,4251.281947,4230.256307,4196.922974,4239.999896,4270.769126
115,0,4265.128101,4267.179383,4239.999896,4250.256306,4247.692204,4271.794767,4231.281948,4245.128101,4242.563999,4248.717845,4227.692204,4202.564,4246.666563,4271.281947
116,0,4280.512716,4269.743485,4234.871691,4249.230665,4247.692204,4274.87169,4236.410153,4245.128101,4246.153742,4248.717845,4229.743486,4206.666564,4249.743486,4273.333229
117,0,4278.974254,4262.051178,4234.358871,4247.179383,4251.794768,4274.35887,4236.922973,4246.153742,4243.076819,4235.384512,4237.948614,4208.205025,4246.666563,4278.461434
118,0,4270.256306,4260.512716,4229.743486,4245.128101,4256.410152,4271.281947,4235.897332,4250.769127,4241.025537,4228.717845,4234.358871,4204.615282,4246.153742,4276.410152
119,0,4265.128101,4258.461434,4229.230666,4244.10246,4251.281947,4271.281947,4234.358871,4249.743486,4244.10246,4249.743486,4228.205025,4211.794769,4246.666563,4268.205024
120,0,4255.897332,4250.256306,4229.743486,4242.563999,4245.128101,4270.769126,4229.743486,4242.051178,4239.487076,4254.871691,4223.58964,4212.307589,4239.999896,4263.076819
121,0,4249.743486,4248.205024,4232.820409,4240.512717,4243.58964,4267.692203,4227.179384,4239.487076,4235.897332,4230.256307,4216.410153,4207.179384,4229.743486,4267.179383
122,0,4256.922973,4256.410152,4233.33323,4244.10246,4244.10246,4272.820408,4232.307589,4245.128101,4243.076819,4225.640922,4220.512717,4207.692205,4230.769127,4267.179383
123,0,4262.051178,4258.974255,4231.281948,4252.820409,4249.230665,4279.999895,4236.922973,4247.179383,4246.666563,4237.948614,4233.84605,4211.281948,4240.512717,4257.948614
124,0,4256.410152,4254.35887,4236.922973,4249.230665,4253.333229,4278.974254,4232.307589,4243.58964,4242.051178,4240.512717,4235.897332,4209.230666,4243.58964,4256.410152
125,0,4257.435793,4254.35887,4233.84605,4240.512717,4251.281947,4277.948613,4233.33323,4240.512717,4237.948614,4244.615281,4231.281948,4208.205025,4241.538358,4264.61528
126,0,4256.922973,4249.743486,4231.281948,4235.897332,4246.666563,4278.461434,4237.435794,4243.076819,4238.974255,4249.230665,4227.179384,4208.205025,4235.897332,4256.922973
127,0,4251.281947,4245.640922,4224.615281,4235.384512,4247.692204,4278.974254,4236.922973,4245.128101,4246.153742,4252.307588,4226.666563,4204.102461,4236.922973,4253.84605
128,0,4254.871691,4249.743486,4234.358871,4238.974255,4248.717845,4278.461434,4235.384512,4244.615281,4246.153742,4243.58964,4229.743486,4211.281948,4243.58964,4267.692203
0,0,4265.128101,4255.384511,4233.33323,4244.615281,4248.717845,4277.435793,4234.871691,4241.025537,4237.948614,4229.230666,4228.717845,4212.82041,4244.615281,4270.769126
1,0,4262.051178,4251.794768,4235.384512,4245.640922,4248.717845,4275.897331,4233.84605,4240.512717,4236.410153,4236.410153,4216.922974,4210.256307,4234.871691,4254.35887
2,0,4256.922973,4252.307588,4229.230666,4242.051178,4245.640922,4271.281947,4233.84605,4243.58964,4239.999896,4253.84605,4216.410153,4205.128102,4231.281948,4252.820409
3,0,4256.922973,4251.281947,4230.769127,4237.948614,4238.461435,4269.230665,4227.692204,4240.512717,4232.307589,4241.538358,4216.922974,4204.615282,4227.692204,4259.999896
4,0,4259.487075,4251.794768,4223.07682,4240.512717,4236.410153,4271.794767,4226.666563,4234.871691,4227.692204,4222.051179,4208.205025,4198.974256,4224.615281,4263.076819
5,0,4257.435793,4254.35887,4225.640922,4247.692204,4232.820409,4275.384511,4233.84605,4238.974255,4231.794768,4224.615281,4204.615282,4203.589641,4224.102461,4257.435793
6,0,4252.307588,4249.743486,4225.128102,4248.717845,4229.230666,4270.256306,4235.384512,4242.563999,4233.84605,4226.666563,4211.281948,4204.102461,4221.538358,4247.692204
7,0,4251.794768,4240.512717,4230.256307,4245.640922,4238.461435,4267.179383,4226.666563,4236.410153,4229.743486,4210.769128,4210.769128,4201.538359,4216.410153,4241.025537
8,0,4261.025537,4250.256306,4230.769127,4250.256306,4248.717845,4272.307588,4226.153743,4233.84605,4231.794768,4222.051179,4209.743487,4199.487077,4221.025538,4253.84605
9,0,4265.128101,4262.051178,4234.871691,4259.999896,4238.974255,4273.333229,4231.794768,4239.999896,4236.410153,4252.820409,4221.538358,4205.640923,4230.256307,4270.256306
10,0,4261.538357,4254.35887,4231.281948,4261.025537,4234.871691,4269.743485,4230.256307,4237.435794,4233.33323,4254.35887,4231.281948,4205.128102,4231.794768,4269.230665
11,0,4264.10246,4242.563999,4224.615281,4252.820409,4243.076819,4267.692203,4222.051179,4233.33323,4230.769127,4239.487076,4226.153743,4198.461436,4230.769127,4262.051178
12,0,4261.025537,4242.051178,4222.563999,4247.692204,4239.487076,4263.589639,4210.769128,4232.307589,4228.717845,4236.410153,4213.33323,4191.794769,4229.230666,4254.35887
13,0,4250.256306,4248.717845,4221.025538,4251.794768,4228.205025,4261.538357,4209.230666,4229.230666,4225.640922,4230.256307,4208.205025,4188.205026,4226.666563,4249.230665
14,0,4251.794768,4249.230665,4224.102461,4253.333229,4227.179384,4265.640921,4218.461435,4232.307589,4227.179384,4218.461435,4212.82041,4193.846051,4225.128102,4251.281947
15,0,4255.897332,4245.128101,4222.563999,4251.794768,4234.358871,4268.205024,4224.615281,4239.487076,4232.307589,4222.051179,4211.794769,4197.948615,4225.128102,4253.84605
16,0,4244.10246,4241.025537,4226.153743,4251.794768,4236.922973,4264.10246,4220.512717,4235.897332,4227.179384,4220.512717,4199.487077,4191.794769,4215.897333,4245.128101
17,0,4242.051178,4240.512717,4220.512717,4252.307588,4237.435794,4263.589639,4217.948615,4229.230666,4221.025538,4201.538359,4195.897333,4182.564,4208.205025,4237.948614
18,0,4256.922973,4239.999896,4227.692204,4250.769127,4232.307589,4263.589639,4221.025538,4235.384512,4222.563999,4189.743487,4198.461436,4189.743487,4208.205025,4235.384512
19,0,4253.333229,4236.922973,4218.974256,4247.179383,4218.461435,4259.999896,4218.461435,4233.84605,4218.461435,4203.07682,4196.410154,4191.281949,4206.666564,4232.820409
20,0,4235.384512,4235.384512,4221.025538,4247.179383,4214.358871,4257.948614,4210.256307,4227.692204,4213.33323,4217.435794,4193.333231,4192.30759,4204.102461,4235.384512
21,0,4242.563999,4242.563999,4229.230666,4252.820409,4234.871691,4264.61528,4216.922974,4235.897332,4226.153743,4222.563999,4205.640923,4200.512718,4218.461435,4248.717845
22,0,4260.512716,4244.615281,4242.563999,4251.794768,4245.640922,4267.179383,4226.666563,4245.640922,4232.307589,4226.153743,4223.58964,4212.307589,4231.281948,4256.922973
23,0,4258.974255,4240.512717,4232.307589,4247.179383,4229.230666,4262.051178,4222.563999,4239.999896,4224.615281,4228.205025,4229.230666,4204.615282,4229.743486,4250.256306
24,0,4249.743486,4238.461435,4229.230666,4246.666563,4223.58964,4262.051178,4213.846051,4235.897332,4224.102461,4227.179384,4222.563999,4201.538359,4224.102461,4245.640922
25,0,4248.717845,4242.051178,4229.230666,4248.205024,4235.384512,4265.640921,4221.538358,4242.563999,4233.84605,4233.84605,4219.487076,4201.538359,4225.640922,4254.35887
26,0,4247.179383,4237.948614,4229.230666,4247.179383,4231.794768,4265.128101,4227.692204,4245.128101,4232.307589,4225.640922,4215.897333,4201.538359,4225.640922,4251.281947
27,0,4245.128101,4232.820409,4222.563999,4243.076819,4218.974256,4261.025537,4222.563999,4241.538358,4225.640922,4205.640923,4209.230666,4196.410154,4223.07682,4242.563999
28,0,4248.205024,4235.384512,4224.102461,4242.051178,4219.487076,4262.051178,4222.563999,4241.538358,4228.717845,4209.743487,4207.179384,4198.974256,4221.025538,4245.640922
29,0,4252.820409,4243.58964,4227.692204,4243.58964,4228.717845,4266.666562,4231.281948,4246.153742,4236.922973,4229.743486,4211.794769,4198.974256,4223.07682,4247.692204
30,0,4248.205024,4241.538358,4224.102461,4242.051178,4232.307589,4266.153742,4227.692204,4244.615281,4236.410153,4233.33323,4212.307589,4193.333231,4220.512717,4238.974255
31,0,4234.871691,4228.205025,4219.487076,4236.922973,4230.769127,4262.051178,4214.871692,4239.487076,4228.205025,4220.512717,4202.564,4189.230667,4212.307589,4234.871691
32,0,4232.307589,4226.666563,4221.025538,4235.897332,4231.281948,4262.051178,4213.846051,4239.487076,4227.692204,4215.897333,4194.871692,4190.769128,4212.307589,4238.974255
33,0,4243.58964,4234.871691,4234.871691,4237.435794,4227.692204,4264.10246,4217.435794,4240.512717,4224.615281,4214.358871,4195.384513,4197.948615,4212.307589,4238.461435
34,0,4247.692204,4229.230666,4233.33323,4235.384512,4223.58964,4260.512716,4211.281948,4234.871691,4215.897333,4209.743487,4196.922974,4197.435795,4206.153743,4233.84605
35,0,4244.615281,4221.025538,4239.999896,4237.435794,4228.717845,4258.974255,4209.230666,4238.461435,4217.435794,4206.666564,4197.435795,4199.487077,4206.666564,4231.794768
36,0,4250.769127,4231.794768,4243.076819,4246.153742,4235.897332,4262.563998,4220.512717,4247.692204,4226.666563,4207.179384,4207.692205,4200.512718,4215.897333,4243.076819
37,0,4244.10246,4236.410153,4245.128101,4248.205024,4232.307589,4263.589639,4222.563999,4244.615281,4225.128102,4211.281948,4207.179384,4202.564,4214.871692,4246.666563
38,0,4236.410153,4232.307589,4237.435794,4244.10246,4231.281948,4262.051178,4220.512717,4242.563999,4227.692204,4227.179384,4207.179384,4200.512718,4217.948615,4242.051178
39,0,4246.666563,4236.410153,4243.58964,4245.128101,4232.820409,4262.563998,4225.128102,4251.281947,4234.358871,4237.435794,4218.974256,4206.666564,4228.717845,4246.153742
40,0,4254.35887,4242.051178,4231.281948,4247.692204,4232.307589,4261.025537,4229.743486,4252.307588,4233.84605,4228.205025,4221.538358,4205.128102,4229.230666,4257.435793
41,0,4252.820409,4238.461435,4227.179384,4244.10246,4238.974255,4262.051178,4230.256307,4249.743486,4235.384512,4223.58964,4213.846051,4205.128102,4223.07682,4256.922973
42,0,4249.743486,4236.410153,4228.205025,4240.512717,4246.666563,4261.538357,4233.84605,4249.743486,4241.538358,4236.410153,4217.948615,4205.128102,4224.615281,4251.281947
43,0,4232.307589,4226.153743,4229.743486,4234.358871,4237.435794,4254.871691,4231.281948,4246.666563,4236.410153,4237.435794,4212.82041,4202.564,4218.461435,4242.563999
44,0,4220.512717,4219.487076,4216.922974,4227.179384,4228.205025,4252.820409,4227.179384,4242.051178,4232.820409,4223.58964,4197.435795,4190.769128,4205.640923,4230.256307
45,0,4233.84605,4225.128102,4214.871692,4227.692204,4226.666563,4255.384511,4229.743486,4243.58964,4235.897332,4211.794769,4201.025538,4189.743487,4204.615282,4228.205025
46,0,4244.10246,4222.563999,4211.794769,4227.179384,4227.692204,4250.769127,4229.230666,4243.076819,4234.871691,4215.384512,4213.33323,4189.230667,4207.179384,4232.820409
47,0,4242.051178,4219.487076,4207.692205,4225.128102,4238.461435,4246.666563,4226.666563,4240.512717,4231.281948,4231.794768,4210.256307,4188.205026,4207.179384,4234.871691
48,0,4241.538358,4232.307589,4212.307589,4232.820409,4243.076819,4251.281947,4230.256307,4240.512717,4233.84605,4238.974255,4203.07682,4189.230667,4209.743487,4238.461435
49,0,4240.512717,4238.461435,4215.897333,4236.922973,4232.307589,4251.281947,4227.179384,4236.922973,4235.897332,4226.153743,4198.461436,4187.692205,4210.256307,4237.435794
50,0,4240.512717,4229.743486,4215.384512,4229.230666,4227.692204,4246.666563,4219.487076,4231.281948,4229.743486,4212.82041,4195.384513,4185.128103,4203.589641,4229.743486
51,0,4250.769127,4229.230666,4214.871692,4231.794768,4231.281948,4247.179383,4223.07682,4232.307589,4228.205025,4222.563999,4206.666564,4187.179385,4203.07682,4233.33323
52,0,4257.435793,4236.922973,4223.07682,4241.025537,4232.307589,4248.205024,4230.256307,4237.435794,4232.307589,4230.769127,4222.051179,4191.794769,4206.666564,4243.076819
53,0,4251.794768,4238.461435,4217.435794,4238.461435,4238.974255,4248.205024,4229.230666,4237.948614,4230.769127,4222.051179,4216.410153,4188.205026,4203.07682,4243.58964
54,0,4244.10246,4235.384512,4218.974256,4236.410153,4244.615281,4247.179383,4225.640922,4236.410153,4224.102461,4207.692205,4204.615282,4190.769128,4197.948615,4240.512717
55,0,4246.153742,4237.435794,4217.948615,4239.999896,4239.999896,4246.153742,4230.256307,4236.410153,4225.128102,4205.128102,4215.897333,4192.82041,4205.128102,4243.58964
56,0,4249.230665,4237.948614,4225.128102,4236.922973,4226.666563,4245.640922,4230.769127,4235.384512,4227.692204,4215.897333,4220.512717,4194.871692,4208.717846,4242.051178
57,0,4246.666563,4237.435794,4216.410153,4230.769127,4224.615281,4242.051178,4224.615281,4232.307589,4228.205025,4228.205025,4207.692205,4189.230667,4204.102461,4237.948614
58,0,4236.922973,4235.384512,4215.897333,4230.256307,4235.384512,4242.563999,4221.025538,4232.307589,4227.179384,4222.563999,4201.538359,4187.692205,4200.512718,4236.922973
59,0,4231.794768,4231.281948,4210.256307,4229.230666,4240.512717,4243.58964,4227.179384,4236.410153,4228.717845,4210.769128,4206.666564,4185.128103,4201.538359,4237.948614
60,0,4241.025537,4231.794768,4217.948615,4231.794768,4235.897332,4244.615281,4233.84605,4242.563999,4233.84605,4213.846051,4210.769128,4190.256308,4201.538359,4242.051178
61,0,4248.205024,4242.563999,4216.410153,4238.974255,4239.487076,4243.58964,4233.84605,4236.410153,4231.794768,4228.717845,4214.358871,4185.128103,4202.564,4249.743486
62,0,4235.897332,4243.58964,4214.358871,4236.410153,4237.435794,4240.512717,4225.640922,4224.102461,4218.461435,4222.563999,4204.615282,4181.025539,4195.897333,4245.640922
63,0,4230.256307,4233.33323,4209.743487,4224.615281,4227.179384,4235.897332,4220.512717,4224.615281,4214.871692,4202.051179,4194.358872,4181.538359,4187.179385,4237.948614
64,0,4237.948614,4231.794768,4210.769128,4222.051179,4229.230666,4235.897332,4221.538358,4228.717845,4222.051179,4195.384513,4202.051179,4185.128103,4187.692205,4236.922973
65,0,4240.512717,4236.922973,4210.256307,4227.179384,4237.948614,4241.538358,4225.640922,4224.615281,4221.025538,4200.512718,4207.692205,4182.564,4189.230667,4238.974255
66,0,4238.461435,4234.871691,4208.717846,4227.179384,4239.999896,4241.538358,4224.615281,4221.025538,4216.410153,4205.640923,4197.948615,4184.102462,4183.076821,4240.512717
67,0,4231.281948,4228.717845,4207.179384,4222.051179,4234.358871,4234.871691,4219.999897,4221.025538,4215.384512,4209.230666,4189.230667,4183.076821,4176.922975,4235.897332
68,0,4224.615281,4226.153743,4204.615282,4219.999897,4228.717845,4233.84605,4221.538358,4220.512717,4215.897333,4208.717846,4198.974256,4179.999898,4181.538359,4229.743486
69,0,4230.769127,4224.102461,4209.230666,4218.974256,4229.743486,4237.948614,4225.640922,4222.051179,4217.948615,4208.205025,4207.179384,4183.589641,4188.717846,4232.820409
70,0,4242.051178,4222.051179,4209.230666,4219.999897,4231.281948,4236.922973,4223.58964,4222.563999,4219.487076,4207.179384,4201.025538,4189.230667,4189.230667,4243.58964
71,0,4243.58964,4225.128102,4216.922974,4224.102461,4228.205025,4234.871691,4220.512717,4223.58964,4217.435794,4202.564,4201.025538,4197.435795,4189.743487,4243.076819
72,0,4244.10246,4234.358871,4216.922974,4230.256307,4232.307589,4237.948614,4224.615281,4225.640922,4219.999897,4217.435794,4216.922974,4201.025538,4202.051179,4242.563999
73,0,4235.384512,4235.384512,4219.999897,4229.743486,4245.640922,4235.384512,4225.640922,4226.153743,4224.615281,4235.897332,4215.384512,4201.025538,4208.205025,4249.743486
74,0,4229.230666,4230.769127,4211.794769,4224.102461,4246.153742,4232.307589,4223.07682,4222.563999,4223.58964,4228.205025,4204.102461,4193.846051,4206.666564,4254.35887
75,0,4233.84605,4222.051179,4214.871692,4220.512717,4236.922973,4233.33323,4220.512717,4221.538358,4219.999897,4206.153743,4204.102461,4196.410154,4205.640923,4242.563999
76,0,4239.487076,4223.07682,4212.307589,4222.563999,4237.948614,4234.358871,4229.230666,4229.743486,4228.205025,4218.974256,4207.179384,4197.948615,4213.33323,4238.974255
77,0,4237.435794,4233.84605,4220.512717,4229.230666,4241.025537,4235.384512,4237.948614,4241.025537,4234.358871,4243.076819,4208.205025,4203.589641,4221.025538,4255.384511
78,0,4235.384512,4233.84605,4214.358871,4230.256307,4237.435794,4235.384512,4232.307589,4236.922973,4227.179384,4233.84605,4213.846051,4199.487077,4216.922974,4255.897332
79,0,4231.794768,4217.435794,4210.256307,4220.512717,4227.179384,4232.307589,4219.487076,4225.640922,4215.384512,4206.666564,4210.769128,4193.846051,4205.640923,4234.358871
80,0,4237.435794,4215.897333,4206.666564,4216.922974,4227.692204,4232.307589,4219.999897,4226.153743,4218.461435,4213.33323,4206.666564,4191.281949,4212.307589,4239.487076
81,0,4243.076819,4230.769127,4215.384512,4224.615281,4239.487076,4234.358871,4223.58964,4230.256307,4224.615281,4232.820409,4210.769128,4198.461436,4221.025538,4256.922973
82,0,4236.410153,4235.384512,4217.435794,4229.743486,4247.179383,4232.307589,4221.538358,4226.153743,4219.999897,4221.025538,4212.307589,4198.461436,4213.33323,4251.794768
83,0,4240.512717,4230.256307,4216.410153,4225.640922,4243.076819,4232.820409,4219.999897,4225.128102,4215.384512,4212.82041,4207.179384,4196.922974,4213.846051,4249.230665
84,0,4256.922973,4235.897332,4214.871692,4228.205025,4241.538358,4232.307589,4226.153743,4229.743486,4218.461435,4230.769127,4211.281948,4200.512718,4229.743486,4268.205024
85,0,4254.35887,4243.58964,4219.999897,4236.410153,4242.051178,4230.256307,4229.743486,4230.769127,4222.051179,4237.435794,4217.948615,4205.640923,4234.871691,4273.846049
86,0,4245.128101,4241.538358,4226.153743,4237.948614,4234.871691,4227.179384,4225.128102,4228.717845,4223.07682,4221.538358,4215.897333,4201.025538,4230.769127,4258.974255
87,0,4249.743486,4238.461435,4219.999897,4234.871691,4232.820409,4223.07682,4221.538358,4225.640922,4219.487076,4205.640923,4211.794769,4195.384513,4228.717845,4249.230665
88,0,4245.128101,4238.461435,4219.999897,4234.871691,4232.820409,4223.07682,4221.538358,4224.102461,4211.794769,4203.07682,4206.153743,4196.410154,4225.128102,4250.769127
89,0,4241.538358,4242.051178,4222.563999,4237.435794,4234.358871,4228.205025,4224.615281,4225.640922,4215.897333,4209.230666,4207.179384,4197.435795,4225.640922,4262.051178
90,0,4251.281947,4241.025537,4231.794768,4239.999896,4242.563999,4231.794768,4228.717845,4227.692204,4221.025538,4215.384512,4213.846051,4202.564,4224.615281,4263.589639
91,0,4255.897332,4234.358871,4225.640922,4238.461435,4245.128101,4231.794768,4229.743486,4224.615281,4216.410153,4217.948615,4211.794769,4202.051179,4219.487076,4250.769127
92,0,4249.743486,4231.281948,4226.666563,4233.84605,4239.487076,4230.769127,4227.692204,4223.58964,4212.82041,4217.435794,4204.102461,4198.461436,4217.948615,4246.666563
93,0,4250.769127,4241.538358,4222.563999,4235.384512,4242.051178,4230.769127,4230.256307,4232.307589,4223.07682,4223.07682,4216.410153,4196.922974,4226.153743,4260.512716
94,0,4250.769127,4238.461435,4228.205025,4234.871691,4239.999896,4230.256307,4232.820409,4241.025537,4229.743486,4225.128102,4226.666563,4205.128102,4233.84605,4265.128101
95,0,4245.128101,4225.640922,4217.948615,4226.666563,4231.281948,4228.205025,4233.84605,4237.948614,4227.692204,4216.922974,4212.82041,4200.512718,4233.84605,4257.435793
96,0,4241.025537,4226.153743,4217.948615,4226.153743,4229.743486,4229.743486,4230.769127,4236.410153,4228.717845,4207.179384,4205.128102,4201.025538,4227.179384,4251.794768
97,0,4249.230665,4235.897332,4217.948615,4233.33323,4232.820409,4230.769127,4230.769127,4241.538358,4234.358871,4217.435794,4221.025538,4204.102461,4228.717845,4253.84605
98,0,4251.794768,4230.256307,4219.487076,4231.281948,4232.307589,4225.128102,4229.743486,4236.922973,4231.794768,4232.307589,4222.051179,4200.512718,4229.230666,4253.333229
99,0,4237.948614,4222.563999,4213.846051,4227.692204,4239.999896,4223.07682,4224.615281,4225.128102,4226.153743,4229.230666,4205.640923,4189.743487,4220.512717,4248.205024
100,0,4234.358871,4227.179384,4221.538358,4231.281948,4252.820409,4233.33323,4224.102461,4227.692204,4226.153743,4222.051179,4203.07682,4195.384513,4219.487076,4243.58964
101,0,4248.717845,4232.820409,4225.640922,4230.769127,4252.307588,4233.33323,4230.256307,4232.307589,4231.281948,4219.999897,4208.205025,4199.999897,4227.179384,4245.640922
102,0,4246.666563,4227.179384,4222.051179,4225.640922,4237.948614,4225.640922,4230.256307,4228.205025,4231.794768,4218.461435,4203.07682,4195.897333,4223.07682,4247.692204
103,0,4237.435794,4225.128102,4220.512717,4227.692204,4234.871691,4226.666563,4229.230666,4227.179384,4230.769127,4226.666563,4204.102461,4193.333231,4219.999897,4247.179383
104,0,4245.640922,4233.84605,4221.538358,4233.84605,4247.179383,4229.743486,4233.33323,4229.230666,4229.743486,4235.384512,4211.281948,4194.358872,4227.692204,4246.153742
105,0,4251.794768,4236.922973,4225.128102,4232.307589,4251.794768,4226.666563,4233.33323,4228.717845,4228.717845,4229.230666,4207.692205,4197.948615,4230.256307,4247.179383
106,0,4244.10246,4233.33323,4224.102461,4232.307589,4243.076819,4225.640922,4229.743486,4226.153743,4227.692204,4224.615281,4208.205025,4198.461436,4228.205025,4253.84605
107,0,4244.10246,4234.871691,4226.153743,4235.384512,4235.384512,4227.179384,4230.256307,4226.153743,4228.717845,4224.615281,4221.538358,4197.948615,4232.820409,4256.922973
108,0,4252.307588,4243.076819,4222.051179,4237.435794,4233.84605,4226.666563,4233.33323,4228.717845,4232.820409,4227.179384,4228.205025,4196.922974,4239.487076,4255.384511
109,0,4247.692204,4242.051178,4227.692204,4237.435794,4234.871691,4226.153743,4231.281948,4227.692204,4227.179384,4229.743486,4217.948615,4198.461436,4232.820409,4248.205024
110,0,4243.58964,4235.897332,4223.58964,4235.897332,4235.897332,4224.102461,4226.666563,4220.512717,4219.999897,4233.84605,4208.205025,4191.794769,4225.128102,4245.128101
111,0,4251.794768,4237.435794,4229.230666,4234.871691,4235.384512,4224.615281,4227.179384,4222.563999,4225.640922,4235.897332,4207.692205,4191.794769,4225.640922,4248.205024
112,0,4252.820409,4242.051178,4224.615281,4236.410153,4235.384512,4227.692204,4233.84605,4230.256307,4233.33323,4237.435794,4213.33323,4188.717846,4230.769127,4254.35887
113,0,4239.487076,4232.820409,4225.128102,4238.974255,4231.281948,4228.717845,4230.769127,4227.692204,4230.256307,4225.640922,4215.384512,4189.230667,4230.256307,4253.333229
114,0,4243.076819,4225.640922,4222.563999,4238.974255,4233.33323,4227.179384,4229.743486,4222.051179,4227.692204,4218.461435,4218.974256,4188.205026,4231.281948,4249.230665
115,0,4253.333229,4227.179384,4226.153743,4236.922973,4237.435794,4223.58964,4229.743486,4220.512717,4225.640922,4221.025538,4217.948615,4189.230667,4232.820409,4240.512717
116,0,4243.076819,4229.743486,4217.948615,4234.871691,4232.820409,4221.538358,4225.128102,4216.922974,4221.538358,4221.538358,4211.281948,4183.589641,4232.820409,4239.487076
117,0,4231.281948,4225.640922,4219.487076,4236.410153,4224.102461,4222.051179,4221.538358,4216.410153,4218.974256,4218.461435,4206.666564,4186.153744,4227.179384,4246.153742
118,0,4234.871691,4219.999897,4216.922974,4235.897332,4226.153743,4222.563999,4222.051179,4219.487076,4218.974256,4216.922974,4208.717846,4182.05118,4221.025538,4243.076819
119,0,4239.999896,4221.025538,4217.435794,4239.487076,4233.33323,4224.102461,4225.128102,4222.051179,4222.563999,4221.025538,4208.717846,4183.076821,4222.563999,4236.410153
120,0,4244.10246,4228.205025,4222.563999,4243.076819,4228.205025,4223.58964,4230.256307,4225.640922,4231.281948,4224.102461,4210.256307,4189.230667,4224.615281,4241.538358
121,0,4249.743486,4229.230666,4229.743486,4239.999896,4223.07682,4219.999897,4231.281948,4228.205025,4231.281948,4216.410153,4214.871692,4194.358872,4225.128102,4249.743486
122,0,4251.281947,4228.717845,4234.871691,4238.974255,4230.256307,4220.512717,4228.205025,4228.205025,4228.205025,4218.461435,4216.922974,4196.410154,4232.820409,4255.384511
123,0,4245.640922,4230.769127,4233.33323,4242.051178,4233.84605,4222.563999,4229.743486,4228.717845,4234.358871,4235.384512,4214.871692,4201.025538,4238.461435,4257.948614
124,0,4244.615281,4225.128102,4232.307589,4239.999896,4225.128102,4217.948615,4229.230666,4225.128102,4231.794768,4237.948614,4209.743487,4197.948615,4229.743486,4248.205024
125,0,4251.281947,4224.615281,4227.692204,4239.487076,4227.692204,4216.922974,4226.666563,4220.512717,4222.563999,4225.128102,4209.230666,4192.82041,4225.128102,4241.538358
126,0,4251.794768,4234.871691,4231.794768,4245.128101,4238.461435,4217.948615,4230.256307,4225.640922,4223.07682,4217.948615,4213.846051,4198.461436,4231.794768,4247.692204
127,0,4248.205024,4233.84605,4221.025538,4243.076819,4233.84605,4216.410153,4232.307589,4228.717845,4226.666563,4222.051179,4213.846051,4195.384513,4235.384512,4249.743486
128,0,4245.640922,4223.58964,4224.615281,4237.435794,4223.58964,4215.897333,4230.769127,4223.07682,4223.07682,4232.307589,4212.307589,4193.846051,4232.307589,4239.999896
0,0,4248.717845,4233.33323,4230.256307,4242.563999,4227.179384,4221.025538,4234.358871,4225.640922,4227.692204,4244.10246,4220.512717,4199.999897,4238.974255,4246.666563
1,0,4247.179383,4238.461435,4233.84605,4243.58964,4230.769127,4221.025538,4231.794768,4234.358871,4229.230666,4234.871691,4215.384512,4203.07682,4240.512717,4255.384511
2,0,4246.153742,4230.256307,4219.487076,4237.435794,4231.794768,4215.897333,4230.256307,4234.358871,4225.640922,4224.615281,4206.153743,4187.692205,4237.435794,4247.692204
3,0,4248.717845,4230.256307,4222.563999,4240.512717,4232.307589,4218.974256,4235.897332,4234.871691,4228.205025,4231.281948,4214.358871,4187.692205,4239.999896,4238.461435
4,0,4250.256306,4232.820409,4220.512717,4243.58964,4232.820409,4222.563999,4237.435794,4232.820409,4231.281948,4232.820409,4217.948615,4191.281949,4241.538358,4240.512717
5,0,4248.205024,4226.153743,4224.102461,4238.461435,4233.33323,4222.051179,4232.307589,4226.666563,4226.153743,4217.948615,4206.153743,4194.871692,4229.743486,4243.076819
6,0,4238.461435,4227.692204,4226.153743,4238.974255,4235.384512,4221.025538,4235.384512,4227.179384,4226.153743,4217.948615,4208.717846,4194.358872,4225.640922,4241.538358
7,0,4234.358871,4229.230666,4231.794768,4241.538358,4231.794768,4221.538358,4236.410153,4228.717845,4228.205025,4236.410153,4211.794769,4196.922974,4232.820409,4238.974255
8,0,4250.769127,4225.128102,4228.205025,4243.58964,4229.743486,4221.538358,4233.84605,4230.256307,4227.179384,4238.974255,4204.102461,4196.922974,4235.897332,4238.461435
9,0,4260.512716,4231.794768,4232.307589,4249.743486,4234.358871,4224.615281,4241.538358,4240.512717,4233.33323,4228.717845,4209.230666,4203.589641,4235.384512,4238.974255
10,0,4243.076819,4239.999896,4234.871691,4248.717845,4236.410153,4226.153743,4249.743486,4246.666563,4242.051178,4238.974255,4215.897333,4203.589641,4239.487076,4244.615281
11,0,4241.025537,4232.307589,4230.769127,4241.538358,4238.461435,4224.615281,4242.563999,4237.948614,4239.487076,4256.410152,4215.384512,4193.846051,4243.076819,4264.10246
12,0,4267.692203,4232.307589,4230.256307,4247.692204,4242.563999,4223.07682,4237.948614,4237.435794,4235.897332,4249.743486,4224.615281,4190.256308,4246.666563,4284.102459
13,0,4269.230665,4238.974255,4226.666563,4255.897332,4241.025537,4222.563999,4246.153742,4243.58964,4242.051178,4236.410153,4230.769127,4193.333231,4250.256306,4275.897331
14,0,4247.179383,4234.871691,4225.640922,4247.692204,4235.384512,4223.58964,4246.666563,4242.563999,4243.58964,4242.563999,4222.563999,4193.846051,4246.666563,4252.820409
15,0,4245.128101,4232.820409,4221.025538,4238.461435,4232.307589,4224.615281,4239.999896,4239.999896,4238.974255,4246.153742,4222.563999,4189.743487,4244.10246,4254.871691
16,0,4245.640922,4232.820409,4226.666563,4237.948614,4227.179384,4222.051179,4237.435794,4238.461435,4237.435794,4238.974255,4222.563999,4195.897333,4243.076819,4265.640921
17,0,4237.948614,4228.717845,4219.999897,4237.948614,4228.717845,4220.512717,4239.487076,4235.897332,4237.435794,4251.281947,4211.281948,4199.487077,4239.999896,4257.948614
18,0,4243.076819,4229.230666,4219.999897,4240.512717,4234.871691,4217.948615,4237.948614,4235.384512,4234.358871,4256.922973,4213.846051,4197.948615,4237.435794,4252.307588
19,0,4254.35887,4238.461435,4217.948615,4248.205024,4232.820409,4216.410153,4239.999896,4235.384512,4235.897332,4235.384512,4226.666563,4193.846051,4240.512717,4266.153742
20,0,4245.640922,4238.461435,4229.230666,4248.717845,4227.179384,4216.922974,4237.948614,4234.358871,4234.358871,4217.948615,4215.384512,4202.564,4241.538358,4265.640921
21,0,4237.948614,4236.922973,4226.666563,4246.153742,4234.358871,4217.435794,4236.922973,4236.410153,4234.358871,4226.666563,4206.153743,4207.692205,4242.051178,4259.999896
22,0,4245.128101,4238.974255,4231.281948,4250.256306,4246.666563,4217.435794,4240.512717,4239.999896,4237.948614,4232.307589,4215.897333,4209.230666,4241.025537,4265.640921
23,0,4251.794768,4241.025537,4228.205025,4250.769127,4245.640922,4219.999897,4241.538358,4236.410153,4237.435794,4229.743486,4219.999897,4201.025538,4236.922973,4263.589639
24,0,4250.256306,4241.538358,4227.692204,4246.153742,4235.384512,4217.435794,4235.897332,4228.717845,4229.743486,4228.717845,4213.846051,4201.025538,4234.358871,4250.769127
25,0,4245.640922,4239.999896,4222.051179,4241.538358,4231.794768,4214.358871,4233.84605,4224.102461,4226.666563,4227.692204,4213.846051,4201.538359,4236.922973,4251.281947
26,0,4238.974255,4232.820409,4226.153743,4237.435794,4226.153743,4216.922974,4233.84605,4226.666563,4226.153743,4214.358871,4213.846051,4202.051179,4237.948614,4253.84605
27,0,4235.897332,4234.358871,4229.230666,4239.487076,4226.153743,4217.435794,4235.384512,4232.820409,4227.692204,4207.692205,4216.410153,4201.538359,4238.974255,4250.256306
28,0,4240.512717,4241.025537,4231.281948,4242.051178,4237.435794,4216.922974,4237.948614,4234.871691,4230.769127,4216.410153,4221.025538,4208.717846,4239.999896,4251.281947
29,0,4245.128101,4235.897332,4230.256307,4230.256307,4242.051178,4218.461435,4237.948614,4231.281948,4231.794768,4226.666563,4220.512717,4207.692205,4238.461435,4257.435793
30,0,4245.640922,4229.230666,4228.205025,4218.974256,4235.384512,4221.538358,4235.384512,4229.743486,4233.33323,4229.743486,4221.025538,4202.564,4237.948614,4255.897332
31,0,4244.615281,4229.230666,4231.281948,4218.974256,4233.33323,4221.025538,4235.384512,4230.256307,4230.769127,4213.33323,4220.512717,4206.153743,4239.999896,4253.333229
32,0,4241.538358,4229.743486,4229.230666,4222.563999,4234.871691,4217.435794,4237.435794,4230.256307,4225.640922,4200.512718,4212.307589,4205.128102,4236.922973,4256.410152
33,0,4231.281948,4226.153743,4230.256307,4222.051179,4231.794768,4219.487076,4239.999896,4233.33323,4226.153743,4212.307589,4204.102461,4198.974256,4219.999897,4235.897332
34,0,4232.820409,4228.205025,4224.615281,4225.128102,4233.84605,4223.58964,4242.051178,4234.871691,4231.281948,4221.538358,4208.717846,4196.922974,4215.897333,4221.025538
35,0,4244.10246,4232.307589,4226.153743,4227.692204,4236.410153,4218.974256,4238.974255,4231.281948,4227.692204,4202.051179,4210.769128,4200.512718,4231.281948,4243.58964
36,0,4243.076819,4231.281948,4221.538358,4225.128102,4236.410153,4213.846051,4232.820409,4225.640922,4219.999897,4194.871692,4211.281948,4196.922974,4239.487076,4259.999896
37,0,4232.820409,4223.58964,4229.743486,4222.051179,4232.820409,4216.922974,4227.179384,4223.58964,4219.999897,4214.358871,4217.948615,4200.512718,4244.10246,4247.692204
38,0,4237.435794,4220.512717,4229.230666,4222.051179,4228.717845,4218.461435,4230.256307,4228.205025,4227.692204,4230.769127,4232.307589,4203.07682,4264.61528,4254.35887
39,0,4247.692204,4223.58964,4233.33323,4224.102461,4231.794768,4216.410153,4237.435794,4237.435794,4232.307589,4238.461435,4244.615281,4210.256307,4275.384511,4265.128101
40,0,4247.692204,4226.666563,4227.692204,4231.281948,4241.025537,4219.487076,4241.538358,4241.025537,4236.922973,4237.948614,4249.743486,4211.281948,4272.820408,4259.487075
41,0,4239.999896,4223.58964,4230.256307,4233.84605,4234.871691,4219.487076,4236.922973,4237.948614,4234.871691,4223.58964,4243.58964,4208.717846,4272.307588,4256.922973
42,0,4235.384512,4220.512717,4223.58964,4227.179384,4225.640922,4214.871692,4235.384512,4237.435794,4231.281948,4222.563999,4232.307589,4201.538359,4266.153742,4256.410152
43,0,4233.84605,4221.025538,4225.640922,4225.640922,4232.307589,4215.897333,4234.358871,4237.435794,4231.281948,4234.871691,4226.666563,4202.564,4257.435793,4247.692204
44,0,4232.307589,4224.102461,4221.538358,4226.666563,4238.461435,4216.922974,4228.205025,4230.769127,4228.717845,4234.871691,4226.153743,4197.948615,4255.897332,4242.051178
45,0,4229.230666,4219.999897,4219.999897,4219.487076,4229.230666,4210.256307,4221.538358,4223.07682,4221.538358,4215.897333,4221.025538,4194.871692,4251.794768,4234.871691
46,0,4229.743486,4212.82041,4222.051179,4217.435794,4224.615281,4208.205025,4222.563999,4224.615281,4219.999897,4202.051179,4218.461435,4196.410154,4253.333229,4234.871691
47,0,4230.256307,4217.435794,4231.281948,4226.153743,4231.794768,4214.871692,4227.179384,4233.84605,4225.640922,4208.717846,4225.128102,4207.179384,4264.10246,4250.256306
48,0,4226.666563,4229.230666,4231.794768,4229.230666,4239.487076,4217.435794,4231.794768,4241.538358,4230.769127,4229.230666,4233.84605,4215.384512,4266.153742,4255.897332
49,0,4230.769127,4230.769127,4224.102461,4225.128102,4236.922973,4214.871692,4233.33323,4241.025537,4231.794768,4234.871691,4233.33323,4215.384512,4258.974255,4246.666563
50,0,4241.538358,4225.640922,4227.692204,4227.179384,4226.666563,4215.897333,4232.820409,4238.461435,4228.205025,4215.384512,4231.281948,4215.897333,4261.025537,4248.205024
51,0,4249.743486,4226.153743,4226.666563,4233.84605,4231.281948,4218.974256,4235.384512,4239.999896,4227.179384,4215.897333,4234.871691,4219.487076,4269.230665,4256.410152
52,0,4239.999896,4224.102461,4225.640922,4233.84605,4246.153742,4217.948615,4232.820409,4238.974255,4229.230666,4235.384512,4231.794768,4224.102461,4266.666562,4245.128101
53,0,4229.743486,4227.179384,4221.025538,4231.281948,4244.615281,4215.897333,4224.615281,4232.820409,4229.230666,4237.435794,4221.538358,4222.563999,4262.563998,4236.410153
54,0,4236.922973,4234.358871,4229.230666,4230.769127,4235.384512,4216.410153,4227.179384,4233.84605,4228.205025,4227.179384,4222.051179,4225.640922,4265.128101,4247.179383
55,0,4243.58964,4233.33323,4224.102461,4234.871691,4238.974255,4216.922974,4236.922973,4240.512717,4232.307589,4231.281948,4235.897332,4223.07682,4272.820408,4253.84605
56,0,4239.487076,4225.128102,4225.640922,4234.358871,4237.948614,4215.384512,4234.358871,4241.538358,4233.84605,4228.205025,4235.897332,4224.102461,4270.769126,4246.153742
57,0,4235.897332,4226.153743,4217.948615,4229.743486,4227.692204,4216.410153,4232.307589,4242.051178,4232.820409,4221.025538,4223.58964,4225.128102,4257.948614,4241.025537
58,0,4227.179384,4225.640922,4221.025538,4227.179384,4229.230666,4217.948615,4235.897332,4249.743486,4230.769127,4222.051179,4221.538358,4226.153743,4241.025537,4232.307589
59,0,4230.256307,4224.102461,4221.538358,4228.205025,4237.948614,4214.871692,4239.487076,4251.281947,4234.871691,4230.769127,4231.794768,4221.025538,4236.922973,4233.33323
60,0,4242.563999,4225.640922,4228.717845,4227.692204,4227.692204,4214.358871,4239.487076,4249.230665,4238.974255,4244.10246,4236.922973,4227.692204,4241.538358,4245.640922
61,0,4240.512717,4226.153743,4226.666563,4226.666563,4218.461435,4213.846051,4238.461435,4251.794768,4241.025537,4251.794768,4237.435794,4230.256307,4243.58964,4250.769127
62,0,4231.794768,4221.025538,4231.794768,4228.717845,4229.230666,4212.307589,4232.820409,4248.205024,4237.948614,4243.58964,4233.33323,4231.794768,4239.487076,4240.512717
63,0,4237.435794,4222.563999,4233.84605,4231.794768,4244.615281,4210.769128,4231.794768,4238.974255,4231.794768,4239.487076,4228.717845,4231.281948,4238.974255,4236.410153
64,0,4243.58964,4228.717845,4232.307589,4232.307589,4244.10246,4210.769128,4234.871691,4241.025537,4229.230666,4234.358871,4230.769127,4233.33323,4243.076819,4246.666563
65,0,4246.666563,4233.84605,4229.743486,4232.820409,4238.461435,4211.794769,4236.410153,4248.205024,4230.769127,4223.58964,4236.410153,4230.769127,4246.666563,4255.897332
66,0,4245.640922,4232.820409,4234.358871,4233.84605,4237.435794,4211.794769,4233.84605,4242.563999,4231.794768,4229.743486,4233.33323,4232.307589,4242.051178,4251.794768
67,0,4235.384512,4225.640922,4236.922973,4230.769127,4236.410153,4209.743487,4226.153743,4236.410153,4230.256307,4247.692204,4223.07682,4230.256307,4237.435794,4241.538358
68,0,4239.999896,4228.205025,4233.33323,4233.84605,4236.410153,4212.82041,4227.179384,4239.999896,4231.794768,4249.230665,4229.743486,4230.769127,4247.179383,4245.640922
69,0,4251.794768,4237.948614,4236.410153,4239.487076,4236.922973,4214.871692,4233.33323,4244.615281,4234.358871,4240.512717,4243.58964,4234.871691,4256.922973,4257.948614
70,0,4241.538358,4236.922973,4227.692204,4230.256307,4236.922973,4207.692205,4228.205025,4240.512717,4232.820409,4229.230666,4236.922973,4225.128102,4253.333229,4254.871691
71,0,4230.769127,4227.179384,4222.563999,4218.974256,4235.897332,4206.153743,4219.999897,4236.410153,4225.128102,4215.384512,4221.538358,4215.384512,4239.999896,4241.538358
72,0,4242.563999,4234.871691,4223.07682,4229.743486,4239.999896,4211.794769,4228.205025,4238.461435,4224.615281,4225.640922,4225.128102,4218.974256,4240.512717,4242.563999
73,0,4248.717845,4245.128101,4236.922973,4239.999896,4242.051178,4212.307589,4236.922973,4243.076819,4231.281948,4249.230665,4230.256307,4225.128102,4248.717845,4246.153742
74,0,4246.153742,4246.153742,4232.820409,4234.871691,4241.025537,4210.769128,4232.820409,4242.051178,4234.871691,4250.769127,4228.717845,4214.871692,4248.717845,4244.615281
75,0,4245.640922,4240.512717,4233.33323,4228.717845,4239.999896,4211.281948,4227.692204,4238.461435,4228.717845,4227.179384,4225.640922,4216.922974,4241.025537,4243.076819
76,0,4247.179383,4239.999896,4230.769127,4227.692204,4243.076819,4214.358871,4232.820409,4240.512717,4229.230666,4223.07682,4225.128102,4222.563999,4241.025537,4246.153742
77,0,4248.205024,4245.640922,4242.563999,4230.256307,4244.615281,4216.922974,4233.84605,4244.615281,4233.33323,4242.563999,4228.205025,4226.666563,4246.153742,4247.692204
78,0,4252.307588,4247.692204,4238.974255,4230.256307,4245.640922,4215.384512,4228.717845,4239.487076,4229.230666,4248.205024,4230.769127,4218.461435,4248.205024,4251.794768
79,0,4249.230665,4242.563999,4235.897332,4226.153743,4246.153742,4211.794769,4228.717845,4234.871691,4223.07682,4228.717845,4226.666563,4218.461435,4249.743486,4251.281947
80,0,4247.692204,4243.076819,4233.33323,4229.230666,4243.076819,4210.769128,4235.384512,4237.948614,4227.692204,4221.025538,4226.666563,4221.025538,4251.794768,4248.205024
81,0,4250.256306,4244.10246,4238.974255,4231.794768,4242.563999,4211.281948,4233.33323,4238.974255,4232.820409,4229.230666,4226.666563,4222.563999,4247.692204,4249.743486
82,0,4251.281947,4246.666563,4238.461435,4231.281948,4251.281947,4214.871692,4232.820409,4238.974255,4233.84605,4237.948614,4227.692204,4217.948615,4248.717845,4258.974255
83,0,4250.256306,4252.307588,4237.948614,4232.820409,4246.666563,4214.871692,4234.871691,4241.538358,4236.922973,4249.230665,4232.820409,4216.410153,4258.461434,4265.128101
84,0,4243.076819,4246.153742,4235.384512,4228.717845,4233.84605,4209.743487,4233.84605,4241.538358,4236.922973,4255.384511,4233.84605,4216.410153,4259.999896,4251.794768
85,0,4242.051178,4237.435794,4236.410153,4224.615281,4238.974255,4213.33323,4233.84605,4240.512717,4234.871691,4246.153742,4230.256307,4218.974256,4256.410152,4241.025537
86,0,4258.461434,4249.743486,4239.999896,4233.84605,4239.999896,4217.435794,4235.384512,4241.025537,4230.769127,4230.256307,4228.717845,4217.948615,4254.35887,4252.307588
87,0,4265.128101,4261.025537,4234.871691,4243.58964,4223.07682,4212.307589,4231.794768,4238.974255,4224.615281,4219.487076,4225.640922,4213.33323,4246.153742,4256.922973
88,0,4249.743486,4253.84605,4238.974255,4241.538358,4224.615281,4210.769128,4228.717845,4232.820409,4219.999897,4217.435794,4220.512717,4213.846051,4232.307589,4245.640922
89,0,4242.051178,4252.307588,4239.999896,4241.538358,4241.538358,4212.82041,4232.820409,4232.820409,4222.563999,4221.538358,4218.461435,4210.256307,4227.179384,4241.025537
90,0,4248.717845,4256.410152,4239.487076,4246.153742,4243.076819,4211.794769,4232.307589,4235.384512,4225.640922,4226.153743,4218.974256,4206.666564,4231.281948,4239.999896
91,0,4251.281947,4255.897332,4231.794768,4246.153742,4237.435794,4210.769128,4226.666563,4232.820409,4227.179384,4232.820409,4226.666563,4205.640923,4239.487076,4237.435794
92,0,4248.205024,4251.794768,4236.922973,4242.563999,4230.769127,4212.307589,4224.102461,4230.256307,4223.07682,4231.281948,4218.974256,4210.769128,4235.897332,4238.974255
93,0,4246.666563,4254.35887,4233.33323,4245.640922,4230.256307,4213.846051,4229.743486,4231.794768,4220.512717,4228.205025,4210.256307,4207.179384,4227.692204,4244.10246
94,0,4247.179383,4256.410152,4241.025537,4256.922973,4235.897332,4215.897333,4233.33323,4235.384512,4224.615281,4232.820409,4220.512717,4209.743487,4229.743486,4242.051178
95,0,4247.692204,4257.435793,4235.897332,4258.461434,4233.33323,4213.33323,4233.84605,4236.922973,4226.153743,4230.256307,4229.230666,4207.692205,4237.435794,4238.461435
96,0,4240.512717,4256.922973,4236.410153,4251.794768,4225.640922,4209.743487,4229.743486,4232.820409,4216.922974,4213.33323,4221.538358,4206.153743,4232.307589,4234.358871
97,0,4245.128101,4258.461434,4232.307589,4254.35887,4229.743486,4210.769128,4225.128102,4229.743486,4218.974256,4222.051179,4219.999897,4201.538359,4229.230666,4241.025537
98,0,4253.333229,4257.435793,4234.358871,4259.487075,4232.820409,4213.33323,4225.128102,4234.358871,4228.205025,4237.435794,4216.410153,4203.07682,4229.743486,4243.58964
99,0,4246.666563,4256.922973,4230.256307,4257.435793,4230.769127,4211.281948,4230.769127,4234.871691,4226.153743,4223.07682,4209.230666,4199.999897,4229.230666,4234.871691
100,0,4238.461435,4254.35887,4233.84605,4254.35887,4227.692204,4209.230666,4228.717845,4228.717845,4218.974256,4204.102461,4208.717846,4196.922974,4223.58964,4225.640922
101,0,4239.999896,4252.820409,4236.410153,4253.333229,4227.179384,4206.666564,4224.615281,4228.717845,4218.974256,4201.538359,4207.692205,4195.384513,4219.487076,4222.563999
102,0,4242.051178,4255.897332,4237.435794,4256.410152,4229.230666,4207.692205,4226.153743,4229.230666,4219.999897,4201.025538,4209.230666,4201.025538,4224.615281,4230.256307
103,0,4234.358871,4256.410152,4234.358871,4256.410152,4226.153743,4206.666564,4223.07682,4224.615281,4217.948615,4207.179384,4217.435794,4201.538359,4230.769127,4235.384512
104,0,4233.84605,4254.35887,4230.256307,4252.820409,4222.563999,4204.615282,4218.974256,4224.615281,4214.871692,4219.487076,4219.487076,4196.922974,4230.256307,4233.33323
105,0,4243.076819,4254.871691,4237.435794,4253.333229,4230.769127,4207.692205,4224.615281,4230.769127,4216.410153,4225.128102,4217.948615,4199.999897,4227.179384,4236.922973
106,0,4245.640922,4254.871691,4237.435794,4255.897332,4237.948614,4210.256307,4230.256307,4233.84605,4223.58964,4229.230666,4224.615281,4203.07682,4230.256307,4244.615281
107,0,4240.512717,4254.35887,4237.948614,4254.871691,4236.410153,4209.230666,4228.205025,4234.358871,4227.692204,4227.692204,4229.230666,4199.999897,4236.922973,4241.538358
108,0,4236.922973,4254.35887,4231.794768,4249.743486,4231.794768,4207.179384,4224.615281,4233.33323,4224.102461,4222.051179,4223.58964,4192.82041,4238.974255,4238.974255
109,0,4225.128102,4244.10246,4228.717845,4240.512717,4222.563999,4202.564,4220.512717,4231.281948,4216.410153,4208.205025,4212.82041,4190.769128,4227.692204,4232.820409
110,0,4217.948615,4239.487076,4219.487076,4239.487076,4226.153743,4203.07682,4224.102461,4232.307589,4216.922974,4204.102461,4215.384512,4189.230667,4223.58964,4227.692204
111,0,4226.666563,4246.666563,4233.84605,4247.692204,4235.897332,4205.128102,4230.769127,4238.461435,4225.128102,4219.487076,4221.025538,4195.897333,4230.769127,4234.871691
112,0,4234.358871,4251.794768,4233.84605,4250.256306,4230.769127,4202.564,4229.230666,4233.84605,4227.179384,4230.769127,4214.871692,4192.82041,4228.717845,4236.922973
113,0,4228.717845,4243.58964,4230.769127,4244.615281,4224.102461,4202.564,4221.025538,4223.07682,4217.435794,4218.461435,4205.640923,4188.205026,4218.974256,4223.07682
114,0,4226.666563,4244.615281,4230.769127,4247.692204,4232.820409,4206.666564,4225.128102,4227.179384,4218.461435,4211.794769,4210.769128,4190.769128,4224.615281,4229.743486
115,0,4228.717845,4251.794768,4241.538358,4250.769127,4235.897332,4207.179384,4228.717845,4238.461435,4227.692204,4216.922974,4218.974256,4203.07682,4230.256307,4243.076819
116,0,4233.33323,4252.307588,4230.769127,4244.615281,4230.769127,4206.153743,4227.179384,4238.461435,4227.179384,4216.410153,4221.538358,4198.974256,4229.230666,4236.410153
117,0,4235.897332,4250.256306,4230.256307,4244.10246,4234.358871,4211.794769,4230.256307,4240.512717,4226.153743,4218.461435,4223.07682,4197.948615,4234.871691,4228.717845
118,0,4232.820409,4249.743486,4231.794768,4246.153742,4236.922973,4213.33323,4236.922973,4245.640922,4232.820409,4229.230666,4224.615281,4198.461436,4236.922973,4229.743486
119,0,4229.230666,4246.153742,4228.205025,4241.538358,4227.179384,4209.230666,4231.794768,4242.051178,4231.794768,4234.358871,4217.948615,4196.410154,4227.692204,4228.205025
120,0,4225.640922,4246.153742,4225.128102,4237.435794,4219.999897,4206.153743,4225.640922,4235.384512,4224.615281,4231.794768,4213.33323,4191.794769,4225.128102,4228.205025
121,0,4224.102461,4247.179383,4234.358871,4242.051178,4227.179384,4209.230666,4229.230666,4237.948614,4222.051179,4225.128102,4221.025538,4194.358872,4231.281948,4231.281948
122,0,4230.769127,4240.512717,4236.922973,4243.076819,4232.307589,4208.717846,4229.743486,4236.922973,4218.974256,4218.461435,4219.999897,4194.871692,4228.205025,4228.205025
123,0,4236.410153,4244.615281,4229.743486,4239.999896,4231.281948,4205.128102,4225.640922,4230.256307,4219.487076,4218.461435,4213.33323,4195.384513,4227.179384,4228.205025
124,0,4232.820409,4253.84605,4233.33323,4238.974255,4230.256307,4206.153743,4225.640922,4230.769127,4224.102461,4220.512717,4221.538358,4200.512718,4236.922973,4234.871691
125,0,4228.205025,4244.10246,4231.794768,4238.461435,4231.794768,4208.717846,4226.153743,4236.922973,4224.102461,4228.205025,4225.640922,4197.948615,4239.487076,4236.410153
126,0,4228.205025,4236.410153,4234.358871,4242.563999,4233.84605,4209.743487,4229.743486,4244.615281,4226.153743,4239.999896,4218.974256,4199.487077,4233.33323,4233.84605
127,0,4232.307589,4247.692204,4233.84605,4247.179383,4233.33323,4210.769128,4235.897332,4246.153742,4234.358871,4237.435794,4223.07682,4200.512718,4229.230666,4233.33323
128,0,4227.692204,4247.692204,4235.897332,4243.076819,4229.230666,4209.743487,4227.692204,4238.974255,4226.666563,4218.461435,4215.384512,4196.922974,4223.58964,4226.666563
0,0,4221.025538,4242.051178,4225.640922,4237.435794,4231.281948,4207.692205,4222.563999,4233.33323,4216.922974,4213.33323,4197.435795,4190.769128,4223.07682,4221.538358
1,0,4224.615281,4238.974255,4229.230666,4239.487076,4232.820409,4209.743487,4225.128102,4236.922973,4222.051179,4220.512717,4202.051179,4194.358872,4226.666563,4225.640922
2,0,4226.153743,4232.307589,4223.58964,4241.025537,4230.769127,4208.205025,4221.025538,4236.410153,4225.128102,4227.692204,4221.538358,4188.717846,4229.230666,4227.179384
3,0,4216.410153,4225.640922,4222.563999,4231.794768,4225.128102,4203.07682,4208.717846,4231.794768,4214.358871,4219.999897,4220.512717,4186.153744,4229.230666,4220.512717
4,0,4223.07682,4235.897332,4216.410153,4227.179384,4226.666563,4205.640923,4211.281948,4232.820409,4215.384512,4212.82041,4218.461435,4191.281949,4235.897332,4227.179384
5,0,4239.999896,4245.640922,4226.153743,4235.384512,4232.820409,4211.281948,4221.025538,4238.461435,4228.717845,4230.769127,4226.666563,4204.102461,4245.640922,4242.563999
6,0,4245.128101,4246.153742,4229.743486,4242.563999,4231.281948,4211.281948,4225.640922,4243.58964,4233.84605,4252.820409,4233.33323,4205.128102,4253.333229,4248.717845
7,0,4243.58964,4242.563999,4233.33323,4241.025537,4226.666563,4210.769128,4225.640922,4241.538358,4226.153743,4239.487076,4233.33323,4203.07682,4248.205024,4242.051178
8,0,4242.051178,4241.025537,4229.743486,4238.974255,4229.743486,4210.256307,4224.102461,4238.461435,4223.07682,4226.153743,4231.794768,4199.487077,4242.563999,4239.487076
9,0,4236.410153,4245.128101,4232.307589,4239.487076,4232.820409,4210.769128,4225.128102,4244.10246,4227.692204,4232.820409,4230.256307,4199.487077,4247.179383,4248.717845
10,0,4239.999896,4252.307588,4231.794768,4242.051178,4235.897332,4214.358871,4230.769127,4247.692204,4231.794768,4230.769127,4228.717845,4199.487077,4251.281947,4256.410152
11,0,4248.205024,4254.35887,4225.128102,4247.692204,4239.999896,4215.384512,4232.307589,4244.10246,4232.820409,4228.717845,4226.153743,4202.051179,4246.666563,4246.153742
12,0,4243.076819,4252.307588,4225.640922,4246.666563,4238.461435,4211.794769,4231.794768,4242.563999,4231.794768,4232.820409,4223.58964,4204.615282,4244.10246,4235.897332
13,0,4238.461435,4248.205024,4226.666563,4242.051178,4237.435794,4215.384512,4234.871691,4244.10246,4231.281948,4223.07682,4227.692204,4204.615282,4244.615281,4243.076819
14,0,4237.435794,4242.051178,4227.692204,4241.538358,4236.922973,4216.410153,4232.820409,4241.025537,4229.743486,4215.897333,4229.230666,4204.615282,4239.999896,4244.615281
15,0,4232.820409,4241.025537,4223.58964,4239.999896,4227.179384,4206.666564,4226.666563,4237.435794,4227.692204,4230.256307,4225.128102,4202.051179,4234.871691,4241.025537
16,0,4233.84605,4242.051178,4231.281948,4234.871691,4224.102461,4205.640923,4225.640922,4237.435794,4225.640922,4234.871691,4219.999897,4205.640923,4232.307589,4242.563999
17,0,4235.897332,4239.487076,4228.205025,4234.358871,4234.358871,4210.256307,4224.615281,4236.410153,4227.692204,4228.717845,4219.487076,4208.205025,4232.307589,4238.974255
18,0,4231.794768,4235.384512,4233.33323,4238.461435,4236.410153,4209.743487,4222.563999,4236.922973,4229.743486,4231.281948,4222.563999,4211.281948,4232.820409,4230.256307
19,0,4233.84605,4235.384512,4230.256307,4240.512717,4232.307589,4211.281948,4230.256307,4244.615281,4233.33323,4236.410153,4226.153743,4206.153743,4236.922973,4238.461435
20,0,4231.794768,4232.307589,4233.33323,4236.410153,4233.33323,4215.384512,4236.922973,4252.820409,4232.820409,4227.692204,4224.102461,4208.205025,4237.948614,4244.10246
21,0,4229.230666,4235.897332,4228.205025,4234.871691,4238.461435,4212.307589,4238.974255,4248.717845,4227.179384,4217.948615,4224.102461,4211.281948,4237.435794,4232.307589
22,0,4229.230666,4236.922973,4235.384512,4237.948614,4231.281948,4209.743487,4235.897332,4239.999896,4222.563999,4219.999897,4221.538358,4213.846051,4231.281948,4223.58964
23,0,4219.487076,4231.281948,4227.692204,4232.307589,4218.461435,4211.281948,4228.205025,4232.820409,4222.563999,4229.743486,4210.256307,4202.564,4225.128102,4225.640922
24,0,4202.051179,4223.07682,4222.563999,4222.563999,4217.948615,4207.692205,4218.461435,4224.615281,4216.922974,4224.615281,4194.871692,4194.358872,4216.410153,4222.051179
25,0,4208.205025,4227.692204,4221.538358,4226.153743,4232.307589,4204.102461,4218.461435,4225.128102,4214.871692,4215.897333,4205.128102,4191.794769,4218.461435,4222.051179
26,0,4225.640922,4239.487076,4229.743486,4237.435794,4238.974255,4206.153743,4222.051179,4232.820409,4221.538358,4222.051179,4225.640922,4197.948615,4232.820409,4225.640922
27,0,4225.640922,4242.563999,4230.769127,4236.922973,4236.922973,4207.179384,4221.538358,4233.84605,4225.128102,4236.922973,4222.563999,4199.999897,4238.974255,4224.615281
28,0,4220.512717,4238.461435,4229.743486,4228.717845,4233.84605,4203.589641,4217.948615,4231.794768,4222.563999,4235.384512,4214.871692,4202.564,4234.871691,4228.717845
29,0,4215.897333,4235.384512,4226.153743,4224.102461,4226.153743,4201.025538,4214.871692,4232.820409,4221.538358,4225.640922,4218.974256,4202.051179,4235.384512,4235.384512
30,0,4212.307589,4235.384512,4222.051179,4227.179384,4221.538358,4203.589641,4216.922974,4234.871691,4225.128102,4233.33323,4219.999897,4201.025538,4237.948614,4229.743486
31,0,4216.922974,4233.33323,4220.512717,4228.717845,4224.102461,4205.128102,4222.051179,4234.358871,4225.640922,4236.922973,4213.33323,4200.512718,4231.794768,4224.102461
32,0,4223.07682,4231.794768,4213.33323,4224.102461,4231.794768,4203.07682,4225.640922,4230.256307,4224.102461,4228.205025,4210.769128,4198.461436,4229.230666,4224.615281
33,0,4218.461435,4228.205025,4215.384512,4222.051179,4234.358871,4203.07682,4222.563999,4232.307589,4226.666563,4231.281948,4210.256307,4197.435795,4231.794768,4219.487076
34,0,4208.717846,4222.051179,4211.281948,4222.051179,4229.743486,4206.153743,4221.025538,4238.461435,4226.153743,4242.563999,4212.307589,4195.384513,4233.33323,4214.871692
35,0,4202.564,4217.948615,4209.743487,4217.948615,4227.692204,4206.153743,4222.563999,4236.410153,4220.512717,4231.794768,4210.769128,4195.897333,4233.84605,4210.769128
36,0,4203.07682,4223.07682,4204.615282,4217.435794,4227.179384,4209.230666,4225.640922,4232.820409,4224.102461,4225.128102,4212.82041,4193.333231,4237.948614,4215.897333
37,0,4206.153743,4223.58964,4211.281948,4217.435794,4223.07682,4208.205025,4226.666563,4238.461435,4227.179384,4230.769127,4217.948615,4195.897333,4235.897332,4221.538358
38,0,4203.07682,4212.82041,4201.025538,4210.769128,4219.999897,4200.512718,4222.051179,4233.33323,4220.512717,4216.410153,4210.256307,4187.692205,4227.179384,4210.769128
39,0,4194.358872,4208.205025,4205.128102,4207.179384,4220.512717,4201.025538,4214.358871,4225.640922,4216.922974,4200.512718,4195.384513,4187.692205,4221.025538,4193.846051
40,0,4200.512718,4219.487076,4207.179384,4213.846051,4226.153743,4205.128102,4213.846051,4230.256307,4222.051179,4221.538358,4198.974256,4191.281949,4223.58964,4194.358872
41,0,4207.179384,4227.179384,4214.871692,4221.538358,4234.358871,4204.102461,4216.410153,4237.435794,4224.615281,4248.205024,4214.871692,4199.487077,4228.717845,4206.153743
42,0,4210.769128,4235.384512,4212.307589,4223.58964,4238.461435,4205.640923,4219.999897,4237.948614,4227.692204,4254.871691,4225.128102,4199.999897,4237.435794,4221.538358
43,0,4222.051179,4240.512717,4214.358871,4223.58964,4230.769127,4207.692205,4218.461435,4233.33323,4228.205025,4241.025537,4222.051179,4198.974256,4242.563999,4227.179384
44,0,4227.179384,4233.84605,4213.33323,4224.102461,4226.153743,4204.102461,4212.82041,4228.205025,4222.051179,4226.666563,4214.871692,4197.435795,4236.410153,4220.512717
45,0,4212.307589,4225.640922,4216.922974,4219.487076,4229.230666,4203.589641,4209.743487,4227.692204,4215.897333,4222.051179,4210.769128,4200.512718,4230.256307,4215.384512
46,0,4204.102461,4227.692204,4211.794769,4213.846051,4231.281948,4206.666564,4213.846051,4230.256307,4218.974256,4223.58964,4212.307589,4194.358872,4231.281948,4210.256307
47,0,4208.205025,4228.205025,4207.179384,4217.435794,4233.84605,4205.640923,4214.871692,4228.205025,4220.512717,4222.563999,4212.82041,4192.30759,4234.358871,4202.564
48,0,4205.640923,4225.128102,4209.230666,4219.999897,4232.307589,4202.564,4211.794769,4225.128102,4216.410153,4222.563999,4207.179384,4195.897333,4230.256307,4203.07682
49,0,4208.717846,4229.230666,4207.179384,4216.922974,4228.205025,4202.564,4212.82041,4227.179384,4215.897333,4223.58964,4207.179384,4195.384513,4227.179384,4208.205025
50,0,4216.410153,4233.33323,4209.743487,4219.487076,4228.205025,4203.589641,4215.897333,4229.743486,4219.487076,4222.563999,4215.384512,4194.358872,4234.358871,4209.743487
51,0,4211.794769,4230.769127,4208.717846,4221.538358,4232.307589,4202.051179,4215.897333,4223.58964,4217.435794,4225.128102,4208.205025,4195.384513,4236.922973,4210.256307
52,0,4204.615282,4226.666563,4207.179384,4217.435794,4228.717845,4201.025538,4210.256307,4218.461435,4211.794769,4218.974256,4192.30759,4190.256308,4225.640922,4204.615282
53,0,4204.102461,4229.230666,4200.512718,4215.897333,4224.102461,4203.589641,4207.692205,4222.051179,4214.871692,4208.717846,4195.897333,4184.102462,4221.025538,4201.025538
54,0,4200.512718,4227.179384,4208.717846,4212.82041,4224.615281,4202.564,4205.128102,4223.07682,4216.922974,4210.256307,4198.974256,4188.717846,4223.07682,4199.487077
55,0,4204.615282,4229.230666,4203.589641,4214.358871,4229.743486,4201.025538,4205.640923,4218.974256,4217.948615,4218.974256,4197.435795,4186.666564,4227.692204,4206.666564
56,0,4211.794769,4240.512717,4206.153743,4219.487076,4230.769127,4206.153743,4210.256307,4221.538358,4219.487076,4217.948615,4208.717846,4188.717846,4237.435794,4216.922974
57,0,4213.846051,4246.666563,4204.615282,4221.538358,4234.871691,4208.717846,4214.358871,4226.153743,4224.102461,4224.615281,4216.922974,4189.230667,4248.717845,4224.615281
58,0,4218.974256,4244.615281,4211.281948,4223.58964,4243.58964,4204.615282,4210.769128,4227.692204,4228.205025,4236.410153,4208.717846,4190.769128,4248.717845,4224.102461
59,0,4223.58964,4252.820409,4205.128102,4227.179384,4244.10246,4203.589641,4211.281948,4227.692204,4228.717845,4231.281948,4210.256307,4188.205026,4245.640922,4219.999897
60,0,4213.846051,4255.897332,4206.666564,4223.07682,4233.33323,4205.128102,4212.82041,4226.666563,4222.563999,4218.974256,4216.410153,4191.794769,4241.025537,4213.846051
61,0,4212.82041,4246.153742,4205.128102,4218.974256,4229.743486,4202.051179,4211.281948,4224.102461,4219.487076,4229.743486,4213.846051,4186.666564,4239.487076,4218.461435
62,0,4223.07682,4243.076819,4212.82041,4224.102461,4233.84605,4199.999897,4211.281948,4225.128102,4223.58964,4244.10246,4208.205025,4188.205026,4241.538358,4223.07682
63,0,4223.58964,4252.820409,4213.846051,4224.615281,4235.384512,4201.538359,4212.82041,4226.666563,4224.102461,4235.384512,4208.717846,4192.30759,4243.076819,4217.948615
64,0,4219.487076,4254.35887,4212.82041,4221.538358,4231.794768,4202.051179,4209.743487,4221.538358,4219.487076,4219.999897,4208.717846,4190.256308,4243.076819,4216.922974
65,0,4218.461435,4243.076819,4211.281948,4222.563999,4228.717845,4199.999897,4209.230666,4219.999897,4220.512717,4215.897333,4207.179384,4182.05118,4242.051178,4218.974256
66,0,4214.871692,4237.948614,4217.435794,4223.58964,4226.666563,4201.538359,4214.871692,4227.179384,4224.615281,4213.846051,4211.281948,4187.692205,4245.128101,4217.435794
67,0,4217.435794,4245.640922,4223.58964,4229.230666,4225.640922,4207.179384,4222.563999,4231.281948,4222.563999,4212.82041,4217.948615,4193.333231,4247.692204,4224.102461
68,0,4224.615281,4250.256306,4221.025538,4235.384512,4222.563999,4207.692205,4221.025538,4227.692204,4217.435794,4215.384512,4215.384512,4186.666564,4245.640922,4232.307589
69,0,4220.512717,4241.538358,4218.461435,4231.281948,4218.974256,4201.025538,4212.82041,4223.07682,4215.384512,4221.025538,4202.051179,4182.05118,4236.410153,4222.051179
70,0,4217.435794,4236.922973,4213.33323,4230.256307,4218.974256,4201.538359,4211.794769,4221.025538,4216.410153,4230.256307,4199.999897,4181.025539,4230.769127,4215.384512
71,0,4216.922974,4237.948614,4218.461435,4236.410153,4219.487076,4205.640923,4217.435794,4222.051179,4216.922974,4225.640922,4209.743487,4185.128103,4228.205025,4215.384512
72,0,4209.743487,4237.435794,4211.794769,4233.33323,4218.461435,4204.615282,4217.435794,4220.512717,4215.897333,4210.256307,4210.769128,4185.128103,4225.640922,4209.230666
73,0,4207.692205,4236.410153,4214.871692,4227.179384,4217.948615,4206.153743,4212.82041,4220.512717,4214.871692,4203.589641,4203.589641,4186.666564,4225.128102,4209.743487
74,0,4218.974256,4239.999896,4212.82041,4230.256307,4218.461435,4207.179384,4218.461435,4224.102461,4217.948615,4208.717846,4207.179384,4181.025539,4230.256307,4221.538358
75,0,4224.102461,4237.948614,4216.922974,4231.794768,4217.948615,4207.179384,4221.538358,4226.153743,4216.922974,4204.615282,4210.769128,4184.102462,4232.820409,4222.563999
76,0,4218.974256,4234.871691,4211.281948,4232.307589,4222.563999,4209.743487,4218.974256,4224.615281,4218.461435,4212.307589,4215.897333,4188.205026,4236.922973,4219.999897
77,0,4212.82041,4232.820409,4217.948615,4234.358871,4223.58964,4210.256307,4219.487076,4229.743486,4225.640922,4231.794768,4226.666563,4194.358872,4244.615281,4221.538358
78,0,4216.922974,4233.84605,4215.897333,4231.794768,4219.487076,4206.666564,4219.999897,4231.281948,4229.230666,4238.974255,4226.666563,4191.794769,4247.692204,4226.666563
79,0,4221.538358,4236.922973,4219.487076,4229.230666,4224.615281,4206.666564,4213.33323,4227.179384,4223.58964,4232.820409,4214.871692,4191.281949,4241.538358,4228.717845
80,0,4218.974256,4242.563999,4218.461435,4229.230666,4231.281948,4207.692205,4213.33323,4226.153743,4219.999897,4227.692204,4215.384512,4187.692205,4241.025537,4226.666563
81,0,4218.974256,4236.922973,4218.974256,4229.743486,4221.025538,4206.666564,4218.974256,4230.769127,4223.58964,4222.563999,4216.410153,4189.230667,4239.999896,4228.205025
82,0,4224.615281,4233.33323,4219.999897,4232.820409,4218.461435,4209.230666,4224.615281,4234.871691,4228.717845,4219.487076,4215.897333,4192.30759,4239.487076,4230.769127
83,0,4216.922974,4240.512717,4225.640922,4235.384512,4229.743486,4208.717846,4223.58964,4232.820409,4226.666563,4221.538358,4219.487076,4193.846051,4238.461435,4223.58964
84,0,4211.281948,4243.076819,4223.07682,4231.281948,4230.256307,4205.640923,4219.999897,4228.717845,4221.538358,4226.153743,4213.33323,4191.281949,4234.871691,4218.461435
85,0,4225.128102,4238.461435,4219.999897,4235.384512,4222.563999,4208.717846,4223.07682,4233.84605,4226.666563,4235.384512,4209.743487,4192.82041,4237.948614,4224.615281
86,0,4235.897332,4241.025537,4229.230666,4242.051178,4220.512717,4210.769128,4229.230666,4244.10246,4234.358871,4234.871691,4224.615281,4197.948615,4247.692204,4232.820409
87,0,4235.384512,4245.128101,4232.820409,4238.974255,4218.461435,4209.743487,4229.230666,4239.487076,4231.281948,4224.615281,4234.358871,4201.025538,4253.333229,4239.487076
88,0,4229.230666,4241.025537,4231.794768,4234.871691,4217.948615,4206.153743,4224.615281,4228.717845,4228.205025,4225.128102,4226.666563,4199.999897,4251.794768,4236.410153
89,0,4226.666563,4240.512717,4223.07682,4237.435794,4223.58964,4206.153743,4222.563999,4229.230666,4231.794768,4238.974255,4227.692204,4193.846051,4252.307588,4230.256307
90,0,4226.666563,4236.410153,4224.102461,4235.897332,4223.07682,4206.153743,4216.410153,4229.743486,4227.692204,4242.563999,4226.666563,4191.794769,4246.153742,4229.743486
91,0,4223.58964,4228.717845,4217.435794,4232.307589,4218.461435,4203.589641,4216.410153,4225.640922,4222.051179,4236.410153,4209.743487,4191.794769,4240.512717,4228.205025
92,0,4221.025538,4230.769127,4223.58964,4233.84605,4214.358871,4204.102461,4219.999897,4229.743486,4225.640922,4229.743486,4202.564,4194.871692,4243.58964,4221.025538
93,0,4231.281948,4241.538358,4221.025538,4237.948614,4217.948615,4207.692205,4222.051179,4235.897332,4231.281948,4229.230666,4220.512717,4191.794769,4248.717845,4226.666563
94,0,4235.384512,4239.999896,4224.615281,4234.871691,4222.563999,4209.743487,4225.128102,4236.410153,4231.281948,4224.102461,4231.794768,4197.948615,4248.205024,4232.820409
95,0,4229.230666,4236.922973,4219.487076,4230.769127,4226.153743,4207.179384,4229.743486,4238.461435,4234.871691,4231.794768,4232.307589,4198.974256,4250.769127,4235.897332
96,0,4230.769127,4238.461435,4221.538358,4233.33323,4227.179384,4207.179384,4227.179384,4239.999896,4237.948614,4251.281947,4229.230666,4199.487077,4253.84605,4236.410153
97,0,4239.999896,4240.512717,4216.922974,4238.461435,4221.538358,4208.205025,4224.615281,4232.307589,4235.897332,4246.153742,4225.640922,4194.871692,4253.333229,4235.897332
98,0,4237.435794,4237.435794,4221.538358,4238.974255,4214.871692,4207.692205,4225.128102,4227.692204,4231.281948,4222.563999,4222.051179,4197.948615,4246.666563,4232.820409
99,0,4227.692204,4233.84605,4217.435794,4232.820409,4218.974256,4206.153743,4224.102461,4227.692204,4224.615281,4224.102461,4219.999897,4192.30759,4242.051178,4227.692204
100,0,4223.07682,4230.769127,4217.948615,4228.717845,4221.025538,4203.07682,4222.563999,4222.563999,4222.051179,4229.743486,4212.82041,4188.205026,4237.435794,4218.974256
101,0,4228.205025,4229.743486,4221.538358,4230.769127,4218.461435,4205.640923,4225.640922,4219.487076,4224.615281,4224.102461,4208.717846,4187.692205,4232.820409,4213.846051
102,0,4233.84605,4230.769127,4221.025538,4231.794768,4223.07682,4208.205025,4225.640922,4221.538358,4221.538358,4224.615281,4207.692205,4189.230667,4230.256307,4213.846051
103,0,4228.205025,4231.794768,4213.846051,4224.615281,4224.615281,4202.564,4222.563999,4221.025538,4213.33323,4222.051179,4203.07682,4188.717846,4229.230666,4214.871692
104,0,4221.025538,4232.307589,4211.794769,4223.07682,4213.846051,4200.512718,4219.999897,4218.461435,4211.794769,4210.769128,4200.512718,4191.281949,4225.640922,4217.435794
105,0,4223.07682,4230.256307,4221.538358,4229.743486,4216.922974,4207.179384,4219.487076,4223.07682,4216.922974,4211.281948,4210.256307,4195.897333,4225.128102,4223.07682
106,0,4226.666563,4231.281948,4219.487076,4228.717845,4223.58964,4210.769128,4222.051179,4225.128102,4220.512717,4222.563999,4218.974256,4195.384513,4232.307589,4224.615281
107,0,4227.692204,4236.922973,4219.999897,4226.153743,4219.487076,4206.666564,4222.563999,4221.025538,4218.461435,4220.512717,4214.871692,4195.384513,4235.384512,4219.487076
108,0,4236.410153,4245.640922,4217.948615,4235.384512,4224.102461,4206.666564,4226.153743,4223.07682,4220.512717,4213.33323,4218.974256,4195.897333,4238.974255,4224.102461
109,0,4236.410153,4245.128101,4222.051179,4238.461435,4233.33323,4206.153743,4227.179384,4227.692204,4226.666563,4219.999897,4228.717845,4198.974256,4244.615281,4233.33323
110,0,4227.692204,4238.974255,4213.33323,4226.153743,4228.717845,4206.666564,4225.128102,4226.666563,4229.743486,4242.563999,4227.692204,4196.410154,4245.640922,4232.307589
