title:V                                                                               , recorded:06.07.20 14.02.52, sampling:128, subject:B                                                                               , labels:COUNTER INTERPOLATED AF3 F7 F3 FC5 T7 P7 O1 O2 P8 T8 FC6 F4 F8 AF4,, units:emotiv,,,,,,,,,
52,0,4254.35887,4246.153742,4247.692204,4224.102461,4252.307588,4228.717845,4226.153743,4195.897333,4215.897333,4251.794768,4233.84605,4206.153743,4231.794768,4240.512717
53,0,4254.35887,4238.461435,4246.666563,4219.487076,4238.461435,4227.692204,4228.205025,4192.82041,4208.717846,4252.307588,4232.820409,4201.538359,4226.666563,4230.256307
54,0,4232.820409,4240.512717,4250.256306,4230.769127,4233.84605,4232.820409,4239.999896,4199.999897,4212.82041,4247.692204,4239.999896,4212.307589,4235.384512,4229.230666
55,0,4227.692204,4241.025537,4248.717845,4234.871691,4231.794768,4226.666563,4235.897332,4202.564,4213.33323,4245.640922,4238.461435,4212.82041,4237.435794,4230.256307
56,0,4248.717845,4246.153742,4242.051178,4231.281948,4234.871691,4222.563999,4227.179384,4204.615282,4211.794769,4233.33323,4232.820409,4198.461436,4229.743486,4239.487076
57,0,4261.538357,4249.743486,4239.487076,4235.384512,4241.538358,4228.717845,4233.84605,4208.717846,4216.922974,4226.666563,4228.205025,4193.333231,4229.230666,4251.281947
58,0,4253.84605,4247.179383,4239.999896,4235.384512,4237.435794,4233.33323,4238.461435,4203.07682,4214.871692,4244.615281,4225.128102,4199.999897,4235.897332,4242.051178
59,0,4231.281948,4242.563999,4243.076819,4230.256307,4234.358871,4232.307589,4229.743486,4190.769128,4206.153743,4249.743486,4223.58964,4199.999897,4228.205025,4215.897333
60,0,4223.58964,4243.58964,4243.076819,4234.871691,4238.974255,4228.205025,4224.615281,4189.743487,4205.128102,4238.974255,4223.58964,4197.435795,4214.358871,4215.897333
61,0,4252.307588,4247.179383,4242.051178,4240.512717,4239.999896,4223.58964,4225.128102,4193.333231,4208.717846,4222.563999,4226.153743,4202.051179,4218.461435,4234.358871
62,0,4269.743485,4250.769127,4238.461435,4241.025537,4243.58964,4226.153743,4224.102461,4194.871692,4206.666564,4204.615282,4231.794768,4206.153743,4236.410153,4236.410153
63,0,4241.025537,4242.563999,4232.820409,4244.615281,4242.563999,4229.743486,4226.666563,4197.435795,4207.692205,4223.07682,4227.692204,4194.358872,4234.358871,4223.58964
64,0,4221.025538,4229.230666,4229.743486,4246.666563,4229.743486,4227.692204,4228.205025,4196.410154,4210.256307,4262.563998,4216.922974,4182.05118,4212.307589,4212.307589
65,0,4234.871691,4233.33323,4234.871691,4251.281947,4227.692204,4225.128102,4229.230666,4195.384513,4213.33323,4259.487075,4222.563999,4188.205026,4212.307589,4219.999897
66,0,4243.58964,4241.538358,4239.999896,4249.743486,4238.461435,4227.179384,4235.897332,4205.640923,4218.461435,4246.666563,4240.512717,4206.153743,4242.563999,4244.615281
67,0,4242.051178,4235.897332,4236.410153,4230.256307,4238.461435,4226.153743,4233.84605,4212.307589,4220.512717,4254.871691,4238.974255,4207.179384,4250.769127,4241.538358
68,0,4232.820409,4230.769127,4229.230666,4216.410153,4229.230666,4224.615281,4226.666563,4201.025538,4213.33323,4228.205025,4215.384512,4192.82041,4228.205025,4208.717846
69,0,4220.512717,4238.461435,4233.33323,4227.179384,4231.794768,4225.640922,4229.230666,4195.384513,4207.179384,4192.30759,4213.846051,4194.871692,4229.743486,4213.33323
70,0,4235.897332,4242.563999,4241.538358,4241.538358,4237.948614,4226.153743,4236.922973,4202.564,4211.281948,4215.897333,4243.076819,4206.153743,4247.179383,4247.179383
71,0,4259.487075,4236.922973,4235.897332,4244.10246,4232.307589,4226.666563,4236.922973,4203.07682,4215.384512,4254.35887,4252.820409,4198.461436,4240.512717,4242.563999
72,0,4236.922973,4232.820409,4230.256307,4246.666563,4225.128102,4224.102461,4232.307589,4199.487077,4211.281948,4256.922973,4234.871691,4186.666564,4226.153743,4212.82041
73,0,4212.307589,4238.974255,4233.33323,4252.820409,4234.871691,4229.743486,4235.384512,4208.205025,4212.82041,4255.384511,4229.743486,4196.410154,4233.84605,4222.051179
74,0,4229.230666,4237.948614,4234.358871,4256.410152,4246.153742,4236.922973,4241.538358,4214.358871,4221.538358,4254.871691,4226.666563,4205.128102,4237.948614,4242.051178
75,0,4236.922973,4231.794768,4231.281948,4250.769127,4241.538358,4235.897332,4247.179383,4215.897333,4223.58964,4229.743486,4218.461435,4198.461436,4229.743486,4222.051179
76,0,4223.58964,4232.820409,4230.256307,4227.179384,4232.307589,4226.666563,4237.435794,4211.794769,4213.33323,4209.230666,4228.717845,4189.230667,4222.563999,4204.102461
77,0,4221.025538,4224.615281,4218.974256,4197.435795,4224.615281,4215.384512,4216.410153,4196.410154,4205.128102,4226.153743,4232.820409,4176.922975,4219.487076,4213.33323
78,0,4216.922974,4206.153743,4207.179384,4177.435795,4216.410153,4204.615282,4211.794769,4181.025539,4206.153743,4239.999896,4204.615282,4168.205026,4210.256307,4204.102461
79,0,4207.179384,4215.897333,4208.717846,4185.128103,4219.999897,4210.769128,4225.640922,4184.102462,4206.666564,4231.281948,4198.461436,4171.79477,4210.769128,4199.999897
80,0,4212.307589,4239.487076,4219.487076,4215.897333,4225.128102,4224.615281,4229.743486,4193.846051,4211.281948,4220.512717,4226.666563,4184.102462,4227.179384,4226.666563
81,0,4227.692204,4241.538358,4226.666563,4239.999896,4223.07682,4229.230666,4227.179384,4195.897333,4216.922974,4212.307589,4244.615281,4191.794769,4236.410153,4243.076819
82,0,4238.974255,4229.743486,4226.153743,4247.179383,4222.563999,4227.692204,4236.922973,4199.999897,4215.897333,4221.538358,4231.794768,4191.281949,4230.769127,4228.717845
83,0,4230.769127,4224.102461,4219.999897,4246.153742,4225.640922,4227.179384,4240.512717,4206.666564,4214.871692,4254.35887,4213.33323,4189.230667,4226.666563,4203.589641
84,0,4208.205025,4226.666563,4221.025538,4248.205024,4228.205025,4227.179384,4236.922973,4211.794769,4223.07682,4271.794767,4218.461435,4195.897333,4233.33323,4198.461436
85,0,4208.717846,4235.897332,4229.230666,4258.461434,4238.461435,4231.281948,4235.897332,4217.948615,4227.692204,4267.179383,4240.512717,4200.512718,4244.615281,4234.871691
86,0,4237.948614,4241.538358,4232.307589,4265.128101,4242.051178,4238.974255,4239.999896,4224.615281,4227.692204,4260.512716,4257.948614,4193.846051,4248.717845,4261.025537
87,0,4245.128101,4236.922973,4228.205025,4251.794768,4225.128102,4238.974255,4248.717845,4227.179384,4226.666563,4233.33323,4254.871691,4192.82041,4244.10246,4223.58964
88,0,4226.153743,4231.794768,4223.58964,4241.538358,4218.974256,4230.256307,4246.666563,4225.640922,4224.102461,4229.743486,4232.307589,4196.410154,4242.051178,4194.358872
89,0,4215.897333,4230.256307,4224.615281,4250.769127,4231.281948,4231.794768,4239.487076,4225.640922,4230.256307,4275.384511,4223.07682,4189.743487,4247.179383,4221.025538
90,0,4222.051179,4235.897332,4228.205025,4251.794768,4237.435794,4243.58964,4249.743486,4229.230666,4237.435794,4290.256305,4240.512717,4186.666564,4250.769127,4250.769127
91,0,4237.948614,4243.076819,4233.33323,4247.692204,4231.794768,4242.051178,4255.384511,4226.153743,4230.769127,4267.179383,4250.256306,4195.897333,4247.179383,4254.35887
92,0,4259.487075,4249.743486,4234.871691,4261.538357,4234.871691,4233.33323,4242.563999,4222.563999,4226.666563,4256.410152,4239.487076,4206.666564,4245.640922,4234.871691
93,0,4251.794768,4249.230665,4233.84605,4268.205024,4239.999896,4234.871691,4238.974255,4225.128102,4228.717845,4236.410153,4232.820409,4204.102461,4238.974255,4206.153743
94,0,4224.102461,4238.974255,4227.692204,4254.35887,4233.84605,4238.974255,4244.615281,4223.58964,4225.128102,4225.640922,4233.84605,4191.794769,4224.615281,4208.205025
95,0,4216.410153,4221.025538,4216.922974,4246.153742,4225.128102,4235.897332,4237.435794,4210.256307,4221.025538,4251.281947,4220.512717,4174.358872,4216.410153,4225.640922
96,0,4209.230666,4212.82041,4208.205025,4245.128101,4227.692204,4231.794768,4229.743486,4206.666564,4219.487076,4255.897332,4210.256307,4167.179385,4218.461435,4209.230666
97,0,4196.410154,4210.256307,4206.666564,4241.025537,4227.692204,4228.717845,4230.256307,4209.230666,4215.897333,4231.281948,4215.384512,4174.358872,4207.692205,4173.846052
98,0,4215.384512,4212.307589,4211.281948,4241.538358,4219.999897,4232.820409,4233.84605,4210.256307,4216.410153,4232.307589,4214.871692,4182.05118,4200.512718,4180.512718
99,0,4239.999896,4226.153743,4222.563999,4252.307588,4224.102461,4237.435794,4238.974255,4214.871692,4225.640922,4240.512717,4208.717846,4184.102462,4218.461435,4219.487076
100,0,4235.384512,4244.10246,4231.794768,4256.410152,4239.487076,4237.948614,4239.999896,4215.897333,4229.230666,4235.897332,4225.640922,4189.743487,4238.461435,4241.025537
101,0,4227.692204,4243.58964,4229.743486,4251.281947,4239.999896,4236.410153,4236.922973,4214.871692,4226.666563,4245.128101,4246.666563,4199.999897,4238.461435,4233.33323
102,0,4236.410153,4235.897332,4225.640922,4244.615281,4232.307589,4239.487076,4242.051178,4219.999897,4224.102461,4253.333229,4234.871691,4202.051179,4230.769127,4219.999897
103,0,4244.615281,4239.999896,4235.897332,4245.640922,4234.871691,4242.563999,4247.692204,4219.487076,4222.563999,4242.051178,4220.512717,4202.051179,4229.230666,4214.871692
104,0,4238.974255,4243.076819,4246.153742,4250.256306,4236.410153,4236.410153,4237.435794,4209.230666,4221.025538,4233.33323,4233.84605,4207.692205,4232.307589,4219.487076
105,0,4235.897332,4236.410153,4241.025537,4251.281947,4232.307589,4231.794768,4230.256307,4209.230666,4222.051179,4237.435794,4245.128101,4203.07682,4230.769127,4230.256307
106,0,4237.948614,4229.743486,4232.307589,4254.871691,4230.769127,4235.897332,4237.948614,4214.358871,4224.102461,4241.025537,4233.84605,4189.230667,4222.563999,4229.743486
107,0,4239.999896,4229.743486,4233.84605,4254.871691,4226.153743,4233.33323,4241.025537,4211.281948,4221.538358,4256.922973,4222.563999,4184.102462,4221.538358,4215.897333
108,0,4233.84605,4229.230666,4238.461435,4248.205024,4220.512717,4225.128102,4235.897332,4211.794769,4217.948615,4249.743486,4225.640922,4191.281949,4225.640922,4215.384512
109,0,4224.102461,4230.256307,4237.435794,4254.871691,4228.717845,4229.230666,4239.487076,4219.999897,4218.974256,4217.435794,4230.256307,4199.487077,4227.179384,4218.461435
110,0,4232.820409,4231.281948,4238.461435,4265.640921,4232.820409,4237.435794,4243.076819,4222.051179,4220.512717,4226.153743,4228.205025,4199.487077,4223.07682,4210.256307
111,0,4253.333229,4230.769127,4233.84605,4261.025537,4226.153743,4237.948614,4240.512717,4219.999897,4221.025538,4249.230665,4235.897332,4197.948615,4226.153743,4228.717845
112,0,4239.999896,4229.230666,4229.743486,4254.35887,4227.692204,4237.435794,4237.948614,4221.025538,4226.666563,4249.230665,4239.487076,4200.512718,4237.948614,4243.58964
113,0,4219.999897,4231.794768,4234.358871,4247.179383,4229.743486,4237.948614,4237.435794,4223.58964,4230.256307,4263.589639,4230.769127,4199.999897,4241.538358,4221.025538
114,0,4236.922973,4233.33323,4241.025537,4239.487076,4219.487076,4233.84605,4236.922973,4221.538358,4226.666563,4253.333229,4233.84605,4193.333231,4231.794768,4210.256307
115,0,4250.256306,4234.358871,4240.512717,4251.281947,4224.615281,4237.435794,4239.487076,4222.051179,4224.615281,4222.563999,4249.743486,4198.461436,4234.358871,4235.897332
116,0,4242.563999,4239.487076,4238.461435,4266.153742,4236.922973,4239.487076,4238.974255,4223.07682,4227.692204,4238.461435,4245.640922,4207.692205,4242.051178,4239.487076
117,0,4242.563999,4240.512717,4235.384512,4258.974255,4233.33323,4231.794768,4239.487076,4224.102461,4223.07682,4263.076819,4231.794768,4202.051179,4236.410153,4224.102461
118,0,4244.10246,4233.33323,4234.871691,4252.307588,4226.153743,4231.281948,4244.10246,4225.640922,4220.512717,4248.205024,4233.84605,4196.922974,4235.384512,4227.179384
119,0,4238.974255,4235.384512,4239.487076,4254.871691,4230.256307,4237.435794,4243.076819,4218.461435,4220.512717,4245.128101,4241.538358,4195.897333,4243.076819,4233.33323
120,0,4236.922973,4238.461435,4243.076819,4250.256306,4237.435794,4231.281948,4237.435794,4210.769128,4215.897333,4239.999896,4235.897332,4192.82041,4237.435794,4232.307589
121,0,4233.84605,4236.410153,4236.922973,4245.128101,4234.871691,4226.666563,4241.538358,4217.435794,4215.897333,4219.487076,4229.230666,4193.846051,4229.743486,4232.307589
122,0,4234.871691,4238.461435,4231.794768,4250.256306,4228.717845,4236.922973,4247.179383,4227.692204,4225.128102,4241.538358,4233.33323,4200.512718,4238.974255,4231.794768
123,0,4245.128101,4242.051178,4234.871691,4247.692204,4228.205025,4238.974255,4243.076819,4222.563999,4227.692204,4257.948614,4237.435794,4201.025538,4249.230665,4224.615281
124,0,4247.179383,4237.435794,4238.461435,4243.076819,4231.281948,4231.281948,4236.410153,4214.358871,4223.07682,4236.410153,4233.84605,4195.897333,4244.10246,4210.769128
125,0,4228.717845,4231.281948,4236.922973,4242.563999,4228.717845,4225.640922,4235.384512,4215.384512,4221.025538,4245.128101,4230.769127,4191.281949,4229.743486,4212.82041
126,0,4216.410153,4229.743486,4234.358871,4235.384512,4231.794768,4224.615281,4237.435794,4222.051179,4223.58964,4263.589639,4236.922973,4192.30759,4229.743486,4236.410153
127,0,4230.256307,4234.871691,4233.84605,4233.33323,4237.435794,4229.230666,4237.435794,4223.58964,4224.102461,4253.333229,4241.025537,4197.948615,4242.051178,4243.58964
128,0,4244.615281,4246.153742,4236.410153,4246.153742,4231.281948,4231.794768,4239.487076,4219.999897,4218.974256,4242.051178,4233.84605,4194.871692,4239.999896,4228.717845
0,0,4239.487076,4242.051178,4238.974255,4250.769127,4223.07682,4229.230666,4242.051178,4218.974256,4217.435794,4230.256307,4226.153743,4189.230667,4224.615281,4216.922974
1,0,4236.410153,4238.974255,4241.025537,4246.153742,4226.153743,4225.640922,4242.563999,4223.58964,4221.025538,4229.230666,4230.256307,4198.974256,4226.153743,4209.230666
2,0,4238.461435,4246.153742,4248.717845,4257.435793,4234.871691,4225.640922,4241.538358,4224.615281,4219.999897,4243.58964,4232.820409,4212.307589,4235.897332,4210.256307
3,0,4242.563999,4248.205024,4252.307588,4262.051178,4241.538358,4233.33323,4242.563999,4226.666563,4221.025538,4243.58964,4232.307589,4210.769128,4236.922973,4235.384512
4,0,4254.871691,4252.307588,4252.820409,4253.84605,4241.025537,4239.487076,4242.563999,4230.769127,4227.692204,4245.640922,4244.615281,4211.794769,4238.461435,4258.974255
5,0,4268.717844,4266.153742,4252.307588,4261.538357,4238.461435,4241.538358,4244.10246,4231.281948,4227.692204,4266.666562,4258.974255,4217.948615,4248.205024,4258.461434
6,0,4266.153742,4264.61528,4247.179383,4266.153742,4233.84605,4236.922973,4246.153742,4225.128102,4224.615281,4255.384511,4242.051178,4211.794769,4250.256306,4241.025537
7,0,4241.538358,4255.897332,4241.025537,4255.897332,4235.384512,4232.307589,4239.487076,4222.051179,4226.666563,4230.256307,4224.615281,4201.025538,4248.205024,4223.58964
8,0,4228.205025,4251.281947,4246.666563,4247.692204,4240.512717,4230.769127,4231.794768,4225.128102,4227.692204,4229.743486,4241.538358,4201.025538,4241.538358,4229.230666
9,0,4237.435794,4238.461435,4244.615281,4238.461435,4235.897332,4227.179384,4232.307589,4226.153743,4224.102461,4234.358871,4254.35887,4202.051179,4233.33323,4244.615281
10,0,4242.563999,4230.769127,4233.33323,4231.281948,4224.615281,4225.128102,4239.999896,4225.128102,4224.615281,4247.179383,4235.897332,4192.82041,4228.205025,4233.84605
11,0,4236.410153,4234.871691,4227.692204,4231.794768,4219.487076,4227.179384,4244.10246,4223.07682,4221.538358,4255.897332,4214.358871,4182.564,4215.897333,4209.743487
12,0,4227.179384,4224.615281,4224.102461,4215.384512,4215.897333,4220.512717,4236.922973,4216.922974,4211.281948,4232.820409,4205.128102,4177.948616,4201.025538,4195.384513
13,0,4212.307589,4215.897333,4224.615281,4197.435795,4213.846051,4213.846051,4232.307589,4210.769128,4210.769128,4209.743487,4210.256307,4184.102462,4206.153743,4198.461436
14,0,4215.897333,4230.256307,4235.384512,4211.281948,4221.538358,4222.051179,4241.025537,4215.897333,4222.051179,4213.846051,4230.769127,4196.410154,4227.179384,4215.897333
15,0,4237.948614,4235.384512,4241.538358,4223.58964,4226.153743,4226.666563,4245.640922,4221.025538,4224.615281,4227.692204,4241.025537,4202.051179,4234.358871,4232.307589
16,0,4245.640922,4225.640922,4238.461435,4204.102461,4221.538358,4221.025538,4235.897332,4214.358871,4216.922974,4239.487076,4231.281948,4200.512718,4228.717845,4235.897332
17,0,4229.230666,4219.487076,4232.307589,4186.153744,4212.82041,4219.999897,4232.307589,4207.179384,4211.794769,4241.025537,4223.58964,4189.743487,4219.487076,4222.051179
18,0,4212.82041,4215.384512,4217.435794,4193.333231,4208.717846,4216.922974,4237.948614,4207.179384,4209.743487,4230.256307,4215.384512,4174.358872,4213.33323,4199.999897
19,0,4207.692205,4214.358871,4212.307589,4213.846051,4213.846051,4215.384512,4234.871691,4208.205025,4209.743487,4206.153743,4207.179384,4172.820411,4213.846051,4188.205026
20,0,4209.743487,4222.051179,4224.102461,4226.153743,4221.538358,4223.07682,4231.281948,4209.230666,4211.794769,4199.487077,4222.563999,4185.640923,4219.999897,4207.179384
21,0,4216.922974,4224.102461,4231.794768,4227.692204,4218.461435,4224.102461,4233.84605,4208.717846,4212.307589,4224.102461,4231.281948,4190.256308,4219.999897,4226.666563
22,0,4233.33323,4225.640922,4230.769127,4231.794768,4222.051179,4222.051179,4236.922973,4212.307589,4215.897333,4246.666563,4221.025538,4185.128103,4217.948615,4226.153743
23,0,4239.999896,4232.820409,4234.871691,4236.410153,4231.281948,4225.128102,4238.461435,4219.999897,4222.051179,4247.692204,4212.82041,4182.564,4216.410153,4209.230666
24,0,4223.07682,4232.307589,4235.384512,4236.922973,4230.256307,4227.692204,4239.999896,4224.615281,4223.58964,4230.769127,4217.948615,4186.153744,4216.922974,4199.999897
25,0,4221.025538,4226.666563,4230.256307,4238.974255,4227.179384,4226.666563,4236.922973,4223.58964,4223.07682,4206.666564,4229.743486,4195.384513,4221.538358,4212.82041
26,0,4240.512717,4229.743486,4233.33323,4246.666563,4228.717845,4228.717845,4237.435794,4226.666563,4222.563999,4221.538358,4236.410153,4201.538359,4232.307589,4226.153743
27,0,4248.717845,4244.10246,4249.230665,4253.333229,4226.666563,4228.205025,4241.538358,4231.281948,4227.692204,4258.974255,4235.897332,4208.205025,4239.487076,4236.922973
28,0,4238.974255,4255.384511,4253.84605,4250.769127,4228.205025,4227.692204,4241.025537,4231.794768,4228.717845,4258.974255,4239.487076,4211.281948,4239.999896,4249.230665
29,0,4230.769127,4239.487076,4237.948614,4246.153742,4230.769127,4226.666563,4242.051178,4228.717845,4221.538358,4239.487076,4236.410153,4204.615282,4234.358871,4233.84605
30,0,4226.666563,4219.999897,4228.717845,4242.051178,4228.205025,4224.102461,4238.974255,4221.538358,4213.846051,4246.153742,4224.615281,4194.358872,4224.615281,4205.128102
31,0,4217.948615,4223.58964,4230.769127,4237.435794,4228.717845,4221.538358,4226.666563,4216.410153,4213.33323,4237.948614,4218.974256,4188.205026,4216.410153,4210.769128
32,0,4219.999897,4230.769127,4228.717845,4235.384512,4225.640922,4218.461435,4224.102461,4218.461435,4216.410153,4206.153743,4223.07682,4187.179385,4217.435794,4230.769127
33,0,4233.84605,4226.153743,4228.205025,4229.230666,4218.461435,4221.538358,4233.33323,4221.538358,4217.948615,4204.615282,4224.102461,4184.615282,4220.512717,4221.025538
34,0,4230.769127,4223.58964,4228.205025,4217.435794,4216.410153,4225.640922,4230.256307,4216.410153,4214.871692,4219.999897,4217.948615,4177.435795,4217.435794,4202.051179
35,0,4209.230666,4223.58964,4219.487076,4214.358871,4214.871692,4218.974256,4222.051179,4211.794769,4211.281948,4228.205025,4211.281948,4176.410154,4217.948615,4205.128102
36,0,4203.589641,4215.897333,4215.897333,4215.897333,4212.307589,4211.794769,4223.58964,4213.846051,4212.82041,4243.076819,4221.025538,4192.30759,4220.512717,4211.794769
37,0,4227.692204,4218.974256,4225.128102,4214.871692,4221.538358,4218.974256,4228.717845,4218.974256,4214.871692,4254.871691,4239.487076,4203.589641,4223.07682,4217.948615
38,0,4249.230665,4236.922973,4237.435794,4226.666563,4233.84605,4225.640922,4229.743486,4221.538358,4214.358871,4230.256307,4232.820409,4197.948615,4227.692204,4228.205025
39,0,4247.179383,4247.692204,4239.999896,4224.615281,4233.84605,4227.179384,4227.179384,4219.999897,4214.358871,4212.82041,4225.128102,4196.922974,4237.948614,4233.84605
40,0,4223.07682,4226.666563,4228.205025,4177.435795,4220.512717,4220.512717,4220.512717,4210.256307,4212.307589,4216.922974,4228.205025,4192.30759,4230.769127,4219.999897
41,0,4200.512718,4202.051179,4211.794769,4157.948616,4209.743487,4210.256307,4217.948615,4206.666564,4207.692205,4210.256307,4211.281948,4174.358872,4202.564,4197.948615
42,0,4201.538359,4207.179384,4211.794769,4196.922974,4212.307589,4210.769128,4221.538358,4213.33323,4207.692205,4216.410153,4191.794769,4165.128103,4197.435795,4193.846051
43,0,4210.769128,4220.512717,4216.922974,4219.999897,4219.999897,4223.07682,4224.615281,4221.025538,4211.281948,4245.128101,4210.256307,4176.410154,4225.128102,4210.256307
44,0,4208.205025,4215.897333,4215.897333,4216.410153,4220.512717,4228.205025,4228.717845,4222.051179,4213.846051,4250.256306,4232.307589,4184.615282,4236.922973,4217.948615
45,0,4202.564,4206.666564,4209.743487,4215.897333,4216.922974,4218.461435,4230.256307,4220.512717,4210.256307,4223.07682,4221.025538,4176.410154,4223.07682,4205.128102
46,0,4207.179384,4202.051179,4205.640923,4198.974256,4208.717846,4209.230666,4222.051179,4214.871692,4204.615282,4201.538359,4206.666564,4170.769129,4213.846051,4191.794769
47,0,4204.102461,4198.461436,4206.666564,4166.666565,4205.640923,4214.358871,4218.974256,4207.692205,4203.589641,4204.615282,4213.33323,4175.384513,4212.82041,4184.102462
48,0,4202.051179,4199.999897,4212.82041,4167.179385,4214.871692,4221.025538,4225.128102,4214.358871,4212.82041,4227.179384,4224.102461,4186.666564,4214.871692,4185.128103
49,0,4217.948615,4208.205025,4219.487076,4194.871692,4220.512717,4216.922974,4226.153743,4223.58964,4221.025538,4239.487076,4230.256307,4193.333231,4232.307589,4209.230666
50,0,4217.948615,4215.897333,4226.666563,4208.205025,4219.999897,4218.461435,4224.615281,4219.999897,4217.948615,4242.051178,4235.897332,4192.82041,4246.153742,4234.358871
51,0,4201.538359,4220.512717,4228.717845,4206.666564,4220.512717,4227.692204,4226.153743,4218.461435,4216.922974,4241.025537,4231.794768,4193.846051,4239.999896,4231.281948
52,0,4216.410153,4224.102461,4223.58964,4213.846051,4222.051179,4225.640922,4225.128102,4225.128102,4221.025538,4223.07682,4234.358871,4194.871692,4234.871691,4219.487076
53,0,4238.974255,4222.563999,4221.538358,4223.07682,4221.025538,4219.487076,4223.07682,4224.102461,4213.33323,4216.922974,4242.563999,4186.666564,4233.33323,4214.358871
54,0,4224.102461,4221.025538,4227.692204,4219.999897,4226.153743,4224.615281,4224.615281,4218.974256,4208.717846,4236.410153,4235.384512,4183.076821,4232.820409,4210.769128
55,0,4203.589641,4221.025538,4229.230666,4215.897333,4230.256307,4228.717845,4229.743486,4221.025538,4213.846051,4241.538358,4228.205025,4184.615282,4235.384512,4208.717846
56,0,4214.358871,4218.974256,4222.563999,4214.871692,4226.666563,4225.640922,4237.435794,4224.615281,4213.846051,4239.487076,4234.871691,4176.922975,4233.84605,4219.487076
57,0,4206.153743,4207.692205,4212.307589,4205.128102,4217.948615,4219.487076,4233.33323,4219.487076,4207.692205,4243.076819,4214.871692,4170.769129,4211.794769,4213.846051
58,0,4181.025539,4197.435795,4204.102461,4194.358872,4215.897333,4216.410153,4221.538358,4213.33323,4205.640923,4222.051179,4191.281949,4177.948616,4198.461436,4190.769128
59,0,4192.82041,4192.82041,4209.230666,4193.846051,4215.897333,4217.435794,4222.051179,4215.897333,4211.794769,4203.589641,4210.769128,4182.564,4212.307589,4191.794769
60,0,4209.743487,4194.358872,4216.410153,4194.871692,4210.256307,4222.051179,4234.358871,4223.07682,4221.538358,4222.051179,4230.769127,4181.025539,4226.153743,4207.179384
61,0,4202.051179,4208.717846,4225.128102,4197.948615,4209.743487,4225.128102,4238.974255,4230.256307,4225.128102,4230.769127,4226.666563,4186.666564,4225.128102,4207.692205
62,0,4212.82041,4226.153743,4232.307589,4211.281948,4222.051179,4224.615281,4233.33323,4239.487076,4223.58964,4236.410153,4235.897332,4195.384513,4229.743486,4222.051179
63,0,4242.563999,4225.128102,4234.358871,4221.025538,4228.205025,4224.102461,4229.230666,4239.999896,4226.666563,4256.922973,4240.512717,4201.538359,4239.999896,4240.512717
64,0,4226.666563,4217.435794,4230.256307,4217.435794,4225.128102,4225.128102,4231.794768,4229.743486,4221.025538,4243.076819,4224.102461,4200.512718,4232.820409,4220.512717
65,0,4186.666564,4216.410153,4226.153743,4213.846051,4225.128102,4224.615281,4230.256307,4223.07682,4211.794769,4203.589641,4217.435794,4189.743487,4216.410153,4193.846051
66,0,4198.974256,4215.897333,4227.179384,4221.025538,4227.179384,4224.615281,4225.128102,4221.025538,4212.82041,4209.230666,4222.051179,4182.05118,4220.512717,4206.666564
67,0,4239.487076,4219.999897,4232.820409,4231.794768,4224.615281,4224.615281,4229.743486,4220.512717,4214.358871,4237.435794,4221.025538,4188.717846,4236.410153,4231.281948
68,0,4236.410153,4226.666563,4233.33323,4230.769127,4223.07682,4224.102461,4232.820409,4223.07682,4212.82041,4234.871691,4221.025538,4190.769128,4235.897332,4228.205025
69,0,4210.256307,4221.025538,4218.974256,4213.33323,4222.563999,4224.615281,4231.281948,4226.666563,4218.974256,4230.769127,4218.974256,4176.922975,4221.538358,4202.051179
70,0,4215.384512,4213.846051,4211.794769,4204.102461,4223.07682,4227.179384,4233.33323,4231.281948,4224.615281,4236.922973,4218.461435,4171.79477,4225.128102,4200.512718
71,0,4229.743486,4217.948615,4219.487076,4213.33323,4227.179384,4227.692204,4236.922973,4242.051178,4227.179384,4242.563999,4233.33323,4186.666564,4246.666563,4228.205025
72,0,4228.717845,4222.563999,4227.692204,4210.769128,4223.58964,4225.128102,4236.922973,4244.615281,4230.256307,4248.205024,4241.538358,4197.435795,4253.333229,4244.615281
73,0,4241.538358,4229.230666,4230.256307,4198.461436,4211.794769,4218.974256,4233.84605,4230.256307,4223.07682,4237.948614,4234.358871,4194.358872,4246.666563,4255.384511
74,0,4275.897331,4238.461435,4233.84605,4203.07682,4201.538359,4207.692205,4225.640922,4216.922974,4209.743487,4211.281948,4231.794768,4194.358872,4248.205024,4288.717844
75,0,4310.256305,4249.230665,4243.076819,4212.307589,4206.666564,4205.640923,4221.538358,4219.487076,4207.692205,4203.589641,4234.871691,4208.717846,4261.538357,4335.89733
76,0,4343.076817,4266.153742,4255.897332,4218.974256,4215.897333,4212.82041,4230.769127,4223.07682,4211.281948,4218.461435,4235.897332,4222.051179,4278.974254,4380.512713
77,0,4376.92297,4285.640921,4265.640921,4234.358871,4218.461435,4217.948615,4238.974255,4223.58964,4209.743487,4231.794768,4251.281947,4234.871691,4296.410151,4417.435789
78,0,4381.025534,4284.102459,4272.820408,4243.58964,4215.897333,4214.871692,4234.871691,4225.128102,4211.281948,4222.051179,4259.999896,4247.692204,4295.38451,4415.897328
79,0,4352.820406,4268.717844,4270.769126,4227.692204,4215.384512,4212.82041,4229.743486,4227.179384,4214.358871,4214.358871,4254.35887,4243.076819,4291.794767,4397.43579
80,0,4337.435791,4261.538357,4262.051178,4216.410153,4220.512717,4217.948615,4231.794768,4225.128102,4214.871692,4224.102461,4252.820409,4222.051179,4293.333228,4390.769123
81,0,4333.846048,4259.487075,4246.153742,4219.999897,4222.051179,4219.487076,4231.794768,4216.922974,4212.307589,4224.615281,4244.615281,4209.743487,4281.538357,4378.974252
82,0,4312.307587,4244.10246,4232.307589,4211.281948,4211.794769,4214.871692,4222.051179,4210.769128,4212.307589,4212.307589,4228.205025,4203.07682,4265.128101,4338.974253
83,0,4288.205023,4231.794768,4231.794768,4198.461436,4207.692205,4215.897333,4225.128102,4217.948615,4215.384512,4221.025538,4234.358871,4195.897333,4257.948614,4297.435792
84,0,4275.384511,4229.230666,4239.487076,4198.461436,4210.256307,4218.974256,4238.461435,4230.256307,4217.948615,4229.743486,4244.10246,4198.974256,4250.769127,4287.692203
85,0,4264.61528,4223.07682,4236.922973,4199.999897,4209.743487,4216.410153,4240.512717,4231.794768,4219.999897,4224.615281,4235.384512,4206.666564,4251.281947,4292.820408
86,0,4246.153742,4219.487076,4232.307589,4205.640923,4211.794769,4218.461435,4238.974255,4233.33323,4222.563999,4233.84605,4233.33323,4202.051179,4259.487075,4283.076818
87,0,4224.615281,4223.07682,4231.281948,4206.666564,4214.871692,4220.512717,4241.538358,4235.384512,4222.563999,4242.051178,4234.871691,4186.666564,4245.640922,4258.461434
88,0,4226.666563,4223.07682,4229.743486,4192.82041,4213.846051,4216.922974,4241.025537,4230.256307,4225.128102,4241.025537,4229.743486,4180.512718,4227.692204,4245.128101
89,0,4238.974255,4217.435794,4228.205025,4185.640923,4215.384512,4218.974256,4233.84605,4223.07682,4226.666563,4217.435794,4223.58964,4192.30759,4231.281948,4227.692204
90,0,4236.922973,4213.846051,4229.230666,4192.82041,4214.358871,4219.487076,4227.692204,4221.025538,4223.58964,4178.461436,4218.974256,4204.102461,4233.84605,4215.897333
91,0,4229.230666,4214.358871,4232.820409,4185.128103,4205.128102,4213.33323,4226.666563,4221.538358,4221.538358,4190.769128,4224.615281,4201.025538,4232.820409,4231.794768
92,0,4226.666563,4216.410153,4230.769127,4166.153744,4204.615282,4211.794769,4226.153743,4222.051179,4224.615281,4243.076819,4233.84605,4186.666564,4237.948614,4243.076819
93,0,4204.102461,4210.256307,4218.974256,4164.615283,4207.179384,4208.717846,4221.538358,4215.897333,4224.102461,4243.076819,4220.512717,4172.30759,4227.692204,4218.461435
94,0,4185.128103,4207.179384,4213.846051,4178.974257,4207.179384,4206.153743,4221.025538,4216.922974,4217.435794,4217.435794,4210.769128,4170.256308,4210.769128,4197.435795
95,0,4202.564,4218.461435,4226.153743,4188.717846,4211.281948,4210.256307,4223.58964,4222.563999,4216.922974,4232.820409,4227.179384,4179.487077,4215.384512,4210.256307
96,0,4221.025538,4230.769127,4234.358871,4192.30759,4221.025538,4214.871692,4225.640922,4220.512717,4224.102461,4236.922973,4225.640922,4187.692205,4228.717845,4210.769128
97,0,4213.846051,4227.179384,4227.179384,4198.974256,4224.102461,4214.358871,4227.179384,4214.871692,4225.640922,4187.179385,4201.025538,4183.589641,4214.871692,4185.128103
98,0,4201.538359,4221.025538,4217.948615,4202.564,4214.358871,4215.897333,4228.717845,4221.025538,4223.58964,4178.461436,4209.743487,4173.333231,4207.179384,4186.153744
99,0,4190.256308,4212.307589,4219.487076,4191.281949,4202.051179,4211.794769,4227.179384,4225.640922,4223.58964,4231.281948,4225.128102,4168.205026,4218.974256,4204.102461
100,0,4175.897334,4202.564,4218.974256,4179.487077,4205.640923,4207.179384,4224.615281,4215.897333,4214.358871,4244.10246,4206.153743,4166.666565,4209.230666,4192.30759
101,0,4187.692205,4206.666564,4214.871692,4182.05118,4214.358871,4212.82041,4227.179384,4213.846051,4210.256307,4214.871692,4195.384513,4170.256308,4190.769128,4170.769129
102,0,4211.794769,4220.512717,4222.051179,4187.692205,4214.358871,4224.102461,4237.435794,4229.230666,4224.102461,4222.051179,4211.794769,4179.487077,4207.179384,4186.666564
103,0,4209.230666,4227.692204,4236.922973,4199.999897,4215.897333,4228.717845,4249.230665,4244.615281,4237.948614,4236.922973,4219.999897,4193.333231,4237.435794,4216.922974
104,0,4202.564,4227.692204,4238.461435,4211.281948,4219.487076,4223.07682,4242.051178,4240.512717,4236.922973,4224.615281,4225.640922,4197.948615,4238.461435,4212.82041
105,0,4209.230666,4226.153743,4230.769127,4195.897333,4213.33323,4216.410153,4229.230666,4232.820409,4232.820409,4218.461435,4233.33323,4191.794769,4222.563999,4185.128103
106,0,4203.07682,4219.487076,4230.769127,4177.948616,4206.666564,4218.461435,4233.33323,4232.820409,4231.281948,4222.563999,4229.743486,4190.769128,4214.871692,4182.564
107,0,4193.333231,4214.871692,4228.717845,4190.256308,4211.281948,4222.051179,4242.563999,4232.307589,4230.769127,4230.769127,4226.153743,4190.256308,4215.384512,4199.999897
108,0,4197.948615,4216.922974,4218.974256,4210.256307,4222.051179,4227.692204,4240.512717,4233.84605,4234.358871,4249.230665,4219.999897,4181.538359,4219.487076,4193.333231
109,0,4196.922974,4223.58964,4220.512717,4215.897333,4229.230666,4237.948614,4242.051178,4239.999896,4237.435794,4249.230665,4211.794769,4178.974257,4222.563999,4193.846051
110,0,4189.230667,4221.538358,4229.743486,4216.922974,4229.230666,4238.461435,4248.205024,4239.999896,4235.384512,4221.025538,4221.025538,4188.205026,4219.999897,4210.256307
111,0,4194.358872,4216.922974,4224.615281,4215.897333,4227.179384,4227.692204,4244.10246,4240.512717,4234.871691,4214.871692,4232.820409,4189.743487,4217.435794,4199.999897
112,0,4197.435795,4215.897333,4216.410153,4209.230666,4221.025538,4224.102461,4237.435794,4241.538358,4237.435794,4231.794768,4220.512717,4182.564,4211.794769,4176.922975
113,0,4184.615282,4210.769128,4219.487076,4197.948615,4215.897333,4225.640922,4238.461435,4237.435794,4234.358871,4238.974255,4213.846051,4179.487077,4206.666564,4183.589641
114,0,4168.717847,4201.538359,4219.487076,4189.743487,4215.384512,4219.999897,4236.410153,4231.281948,4228.205025,4234.358871,4214.871692,4176.410154,4206.666564,4187.179385
115,0,4180.512718,4210.769128,4214.358871,4201.025538,4215.384512,4217.948615,4233.33323,4232.820409,4228.717845,4237.435794,4207.692205,4180.512718,4213.846051,4183.076821
116,0,4204.615282,4227.692204,4225.640922,4220.512717,4214.871692,4223.58964,4237.435794,4238.461435,4234.871691,4241.538358,4214.358871,4192.30759,4215.384512,4192.30759
117,0,4209.743487,4227.692204,4234.871691,4221.025538,4218.974256,4228.717845,4239.999896,4238.461435,4236.922973,4228.205025,4235.384512,4190.256308,4219.999897,4199.999897
118,0,4202.564,4214.358871,4228.205025,4210.769128,4219.999897,4224.102461,4231.794768,4232.307589,4231.281948,4211.794769,4233.33323,4175.384513,4225.640922,4194.871692
119,0,4191.794769,4211.281948,4217.948615,4204.102461,4215.897333,4217.948615,4227.179384,4228.717845,4222.563999,4215.897333,4212.82041,4164.615283,4216.410153,4187.179385
120,0,4185.128103,4215.897333,4219.487076,4193.846051,4217.435794,4218.461435,4227.692204,4226.153743,4224.102461,4234.358871,4199.487077,4162.05118,4207.179384,4185.640923
121,0,4177.435795,4215.384512,4219.999897,4176.410154,4219.999897,4218.461435,4228.717845,4221.538358,4227.179384,4228.717845,4199.487077,4161.025539,4212.307589,4185.640923
122,0,4161.025539,4207.179384,4215.897333,4165.640924,4214.871692,4217.948615,4228.205025,4221.538358,4226.666563,4210.769128,4210.256307,4163.076821,4209.743487,4176.922975
123,0,4161.025539,4199.487077,4217.435794,4170.256308,4210.769128,4222.051179,4228.717845,4227.179384,4229.230666,4221.538358,4219.999897,4168.205026,4207.692205,4185.640923
124,0,4191.281949,4200.512718,4218.461435,4182.05118,4212.82041,4220.512717,4229.230666,4228.717845,4231.281948,4224.102461,4221.538358,4172.820411,4216.410153,4197.948615
125,0,4199.999897,4202.564,4213.33323,4184.102462,4212.82041,4210.769128,4226.666563,4224.102461,4226.153743,4203.589641,4223.07682,4176.410154,4210.256307,4177.435795
126,0,4176.922975,4203.07682,4212.307589,4183.076821,4211.281948,4208.717846,4223.58964,4223.07682,4223.58964,4211.281948,4217.948615,4175.384513,4203.589641,4174.871693
127,0,4180.512718,4210.256307,4221.538358,4192.30759,4213.846051,4211.794769,4224.102461,4227.179384,4223.58964,4240.512717,4210.769128,4179.487077,4217.435794,4200.512718
128,0,4196.410154,4217.948615,4230.769127,4206.153743,4216.922974,4212.82041,4229.230666,4235.384512,4226.666563,4251.794768,4224.102461,4190.769128,4226.153743,4197.435795
0,0,4168.205026,4210.256307,4230.769127,4205.128102,4208.205025,4212.82041,4230.256307,4235.384512,4227.692204,4231.794768,4225.640922,4191.281949,4205.640923,4178.974257
1,0,4147.179386,4198.461436,4221.025538,4192.82041,4206.153743,4215.384512,4228.717845,4224.615281,4219.487076,4202.564,4203.07682,4177.435795,4188.205026,4183.589641
2,0,4177.435795,4194.358872,4209.743487,4186.153744,4211.794769,4215.897333,4223.58964,4207.692205,4209.230666,4182.05118,4189.743487,4158.461437,4188.717846,4174.871693
3,0,4194.871692,4197.948615,4202.564,4186.666564,4211.794769,4218.974256,4220.512717,4204.102461,4209.743487,4190.769128,4194.358872,4144.102463,4192.82041,4163.076821
4,0,4174.358872,4207.692205,4208.205025,4188.205026,4211.794769,4219.487076,4222.051179,4213.33323,4217.948615,4219.487076,4199.487077,4150.256309,4197.435795,4172.820411
5,0,4167.179385,4214.871692,4218.974256,4188.205026,4219.487076,4218.461435,4224.102461,4216.922974,4218.974256,4238.461435,4208.205025,4166.666565,4204.615282,4183.076821
6,0,4179.487077,4209.743487,4220.512717,4193.846051,4219.487076,4222.051179,4232.307589,4217.435794,4217.948615,4236.922973,4215.384512,4171.281949,4204.615282,4185.128103
7,0,4177.435795,4212.307589,4217.948615,4197.435795,4213.33323,4226.153743,4238.461435,4225.640922,4221.538358,4229.230666,4214.871692,4176.410154,4205.640923,4188.717846
8,0,4164.615283,4216.922974,4221.538358,4191.281949,4214.871692,4225.128102,4232.307589,4228.717845,4228.205025,4235.384512,4224.102461,4186.153744,4215.384512,4195.897333
9,0,4167.692206,4213.33323,4226.153743,4191.281949,4224.102461,4223.58964,4226.666563,4224.102461,4225.640922,4229.743486,4232.820409,4186.153744,4218.974256,4202.051179
10,0,4186.666564,4211.794769,4230.769127,4201.025538,4226.153743,4224.615281,4230.256307,4223.07682,4222.563999,4209.743487,4226.666563,4183.589641,4215.897333,4194.871692
11,0,4189.230667,4214.871692,4232.307589,4206.153743,4218.461435,4227.179384,4238.974255,4229.230666,4228.205025,4224.102461,4227.692204,4185.640923,4216.922974,4186.666564
12,0,4175.897334,4209.743487,4227.692204,4197.435795,4217.435794,4226.153743,4240.512717,4231.794768,4231.794768,4244.615281,4224.615281,4179.487077,4209.230666,4190.769128
13,0,4174.358872,4200.512718,4220.512717,4182.564,4219.999897,4218.974256,4229.230666,4223.58964,4222.563999,4230.769127,4202.564,4167.179385,4194.871692,4190.256308
14,0,4168.717847,4200.512718,4218.461435,4178.461436,4213.846051,4216.410153,4224.102461,4217.435794,4218.974256,4222.051179,4202.051179,4168.205026,4194.358872,4182.564
15,0,4157.948616,4207.692205,4223.07682,4186.666564,4215.897333,4225.640922,4233.84605,4221.025538,4225.128102,4238.461435,4223.58964,4176.922975,4209.230666,4182.564
16,0,4167.179385,4208.717846,4222.563999,4190.256308,4225.128102,4228.205025,4232.820409,4221.025538,4227.692204,4231.794768,4225.128102,4175.384513,4217.435794,4192.30759
17,0,4173.846052,4197.435795,4208.717846,4182.564,4222.563999,4221.538358,4225.640922,4215.897333,4222.051179,4207.179384,4212.307589,4164.615283,4205.640923,4196.922974
18,0,4175.897334,4200.512718,4201.025538,4182.05118,4221.538358,4226.153743,4234.358871,4218.974256,4219.999897,4210.256307,4215.384512,4165.640924,4201.538359,4192.82041
19,0,4184.615282,4217.435794,4213.33323,4187.692205,4226.153743,4231.794768,4239.999896,4224.615281,4223.07682,4229.743486,4216.922974,4168.205026,4207.692205,4183.589641
20,0,4178.974257,4219.487076,4220.512717,4183.589641,4222.051179,4226.153743,4229.743486,4224.615281,4223.58964,4237.948614,4211.281948,4166.153744,4206.153743,4177.948616
21,0,4164.615283,4211.281948,4218.461435,4178.461436,4214.358871,4219.487076,4226.666563,4222.051179,4219.999897,4230.769127,4209.743487,4171.281949,4197.948615,4174.358872
22,0,4168.717847,4215.897333,4222.563999,4187.179385,4221.538358,4222.563999,4235.384512,4224.615281,4223.07682,4235.384512,4208.717846,4177.948616,4202.564,4189.743487
23,0,4180.512718,4218.974256,4226.666563,4190.256308,4230.769127,4227.692204,4236.922973,4228.717845,4229.230666,4240.512717,4212.82041,4176.922975,4208.717846,4216.922974
24,0,4188.205026,4215.897333,4221.538358,4181.025539,4226.153743,4228.717845,4233.33323,4225.128102,4226.666563,4212.82041,4226.666563,4177.435795,4208.717846,4215.384512
25,0,4199.999897,4219.487076,4226.153743,4188.717846,4219.999897,4222.563999,4233.33323,4219.487076,4222.563999,4194.358872,4227.692204,4182.564,4206.153743,4192.82041
26,0,4192.82041,4220.512717,4231.794768,4189.743487,4222.051179,4215.384512,4233.33323,4224.102461,4225.640922,4218.974256,4217.948615,4183.076821,4203.589641,4185.128103
27,0,4172.820411,4207.179384,4227.179384,4151.79477,4215.897333,4216.410153,4227.179384,4224.102461,4227.692204,4239.487076,4219.487076,4182.564,4203.07682,4185.640923
28,0,4169.230667,4197.435795,4215.897333,4113.333233,4203.07682,4218.461435,4223.58964,4212.82041,4222.051179,4233.84605,4213.33323,4174.871693,4205.128102,4186.153744
29,0,4159.487078,4194.358872,4206.153743,4115.897335,4199.487077,4212.307589,4226.666563,4209.743487,4217.948615,4226.666563,4190.769128,4163.076821,4192.30759,4184.102462
30,0,4155.384514,4198.461436,4206.153743,4145.128104,4208.717846,4212.307589,4229.743486,4215.384512,4218.974256,4224.102461,4202.564,4163.076821,4184.102462,4186.153744
31,0,4187.179385,4211.794769,4215.897333,4170.769129,4222.563999,4223.58964,4230.256307,4219.999897,4225.128102,4217.948615,4231.794768,4174.871693,4210.256307,4198.974256
32,0,4198.974256,4220.512717,4217.435794,4181.538359,4230.769127,4228.717845,4237.948614,4222.051179,4220.512717,4211.794769,4223.58964,4178.974257,4225.640922,4202.051179
33,0,4181.538359,4220.512717,4211.281948,4185.640923,4231.794768,4229.743486,4252.820409,4228.205025,4211.794769,4215.384512,4214.871692,4174.358872,4203.07682,4194.871692
34,0,4186.153744,4224.102461,4214.871692,4198.461436,4235.897332,4239.487076,4257.435793,4235.897332,4213.33323,4239.999896,4227.179384,4178.974257,4205.640923,4208.205025
35,0,4201.025538,4229.743486,4221.025538,4214.358871,4242.563999,4241.538358,4253.84605,4243.58964,4219.999897,4264.10246,4226.666563,4186.153744,4236.410153,4221.538358
36,0,4194.358872,4229.230666,4219.999897,4212.82041,4229.230666,4227.692204,4248.205024,4239.487076,4218.974256,4256.410152,4217.435794,4176.922975,4228.717845,4204.102461
37,0,4186.666564,4224.102461,4219.487076,4195.384513,4210.256307,4221.538358,4243.076819,4229.230666,4216.410153,4235.897332,4218.974256,4165.640924,4201.538359,4194.871692
38,0,4178.461436,4212.82041,4217.948615,4176.410154,4213.846051,4222.051179,4237.948614,4223.58964,4217.948615,4225.128102,4213.33323,4164.615283,4192.30759,4194.358872
39,0,4171.281949,4207.179384,4208.717846,4161.53836,4225.640922,4218.974256,4229.230666,4218.974256,4219.999897,4220.512717,4206.666564,4164.102462,4190.256308,4189.230667
40,0,4173.846052,4211.281948,4205.128102,4150.256309,4224.102461,4216.922974,4222.051179,4213.33323,4219.999897,4205.128102,4204.615282,4162.564001,4188.717846,4181.538359
41,0,4180.512718,4215.897333,4211.281948,4154.871693,4221.538358,4221.025538,4228.205025,4213.846051,4223.07682,4195.897333,4201.538359,4166.153744,4195.384513,4182.05118
42,0,4195.384513,4213.846051,4220.512717,4170.769129,4222.563999,4221.538358,4238.461435,4218.974256,4227.692204,4215.384512,4201.025538,4166.666565,4200.512718,4192.82041
43,0,4197.948615,4211.281948,4213.33323,4176.410154,4222.051179,4218.461435,4234.871691,4217.948615,4225.640922,4233.33323,4203.07682,4159.999898,4197.435795,4189.743487
44,0,4169.230667,4210.256307,4204.615282,4171.79477,4214.358871,4214.871692,4224.102461,4211.281948,4218.974256,4218.461435,4198.461436,4152.307591,4190.769128,4179.999898
45,0,4158.974257,4213.846051,4208.205025,4174.871693,4209.230666,4213.846051,4228.717845,4211.794769,4217.435794,4201.025538,4196.922974,4146.666565,4187.179385,4186.153744
46,0,4179.999898,4209.230666,4213.33323,4176.922975,4209.743487,4217.948615,4235.897332,4214.871692,4221.025538,4202.051179,4196.922974,4148.717847,4193.333231,4195.384513
47,0,4181.538359,4203.589641,4209.230666,4169.230667,4214.871692,4218.461435,4229.743486,4213.33323,4218.461435,4207.179384,4199.999897,4157.948616,4199.999897,4189.743487
48,0,4171.281949,4206.153743,4210.256307,4168.717847,4217.435794,4211.281948,4225.640922,4212.307589,4216.922974,4210.256307,4207.179384,4164.615283,4192.30759,4179.999898
49,0,4183.076821,4210.769128,4214.871692,4177.435795,4216.922974,4211.281948,4229.230666,4213.846051,4219.487076,4213.33323,4199.999897,4164.615283,4181.538359,4177.435795
50,0,4192.82041,4212.307589,4215.384512,4185.640923,4218.974256,4221.025538,4228.717845,4214.358871,4224.102461,4213.33323,4188.717846,4166.153744,4187.179385,4182.564
51,0,4187.692205,4222.051179,4223.58964,4194.871692,4223.07682,4226.666563,4234.358871,4219.999897,4227.692204,4213.33323,4202.051179,4172.820411,4201.538359,4198.974256
52,0,4196.410154,4230.256307,4233.33323,4201.025538,4225.128102,4224.615281,4243.076819,4229.230666,4232.307589,4215.384512,4221.025538,4175.897334,4205.640923,4217.435794
53,0,4203.07682,4220.512717,4225.128102,4203.589641,4219.999897,4226.666563,4236.410153,4227.692204,4233.33323,4221.025538,4215.384512,4168.717847,4203.07682,4219.999897
54,0,4193.333231,4208.717846,4212.307589,4208.205025,4211.794769,4224.615281,4225.128102,4216.922974,4227.692204,4217.435794,4205.128102,4162.05118,4198.461436,4195.897333
55,0,4181.025539,4202.564,4207.179384,4188.717846,4208.205025,4212.307589,4217.435794,4207.179384,4217.948615,4191.794769,4195.384513,4153.333232,4187.179385,4167.692206
56,0,4167.179385,4198.461436,4201.025538,4164.102462,4210.256307,4207.179384,4214.358871,4206.153743,4217.948615,4182.05118,4181.025539,4141.53836,4181.025539,4172.30759
57,0,4161.53836,4200.512718,4197.435795,4180.512718,4209.743487,4207.179384,4216.410153,4207.179384,4224.615281,4207.692205,4179.487077,4145.640924,4181.538359,4177.435795
58,0,4175.897334,4205.640923,4201.538359,4204.102461,4207.692205,4208.717846,4221.538358,4208.205025,4224.102461,4225.128102,4195.384513,4158.974257,4185.640923,4170.769129
59,0,4187.179385,4202.564,4205.128102,4198.461436,4209.743487,4215.897333,4222.563999,4212.307589,4221.025538,4208.205025,4199.999897,4157.435796,4193.846051,4175.897334
60,0,4182.05118,4199.999897,4201.025538,4192.30759,4213.846051,4219.487076,4226.666563,4219.487076,4227.179384,4202.051179,4194.358872,4153.333232,4195.384513,4189.230667
61,0,4170.769129,4197.948615,4198.974256,4194.358872,4207.692205,4209.230666,4225.128102,4216.922974,4231.794768,4207.179384,4195.384513,4155.897334,4183.076821,4180.512718
62,0,4156.922975,4190.769128,4195.897333,4180.512718,4198.461436,4207.692205,4216.410153,4210.256307,4223.07682,4195.897333,4197.435795,4149.230668,4178.974257,4173.333231
63,0,4144.102463,4176.922975,4190.256308,4151.28195,4191.794769,4208.205025,4209.230666,4202.564,4208.717846,4179.487077,4183.589641,4135.897335,4178.461436,4174.358872
64,0,4140.512719,4166.153744,4183.076821,4128.205027,4187.692205,4193.846051,4203.589641,4191.281949,4202.051179,4174.871693,4167.179385,4127.179386,4163.076821,4152.820411
65,0,4145.128104,4170.769129,4184.615282,4135.897335,4186.666564,4192.30759,4197.435795,4187.179385,4207.179384,4174.871693,4164.615283,4126.153745,4149.743488,4135.897335
66,0,4152.820411,4187.692205,4191.281949,4158.461437,4190.769128,4204.615282,4195.384513,4189.743487,4210.769128,4173.846052,4175.897334,4136.922976,4158.461437,4148.717847
67,0,4154.871693,4184.615282,4189.743487,4156.410155,4193.846051,4201.025538,4197.435795,4187.692205,4207.692205,4169.743488,4179.487077,4143.076822,4161.53836,4153.846052
68,0,4149.743488,4163.589642,4181.025539,4151.28195,4191.281949,4192.30759,4201.025538,4184.102462,4206.153743,4168.205026,4166.666565,4134.871694,4151.79477,4151.79477
69,0,4154.358873,4165.128103,4182.05118,4164.615283,4189.230667,4199.487077,4204.615282,4186.153744,4211.794769,4183.076821,4165.640924,4137.435796,4155.384514,4166.666565
70,0,4158.974257,4181.538359,4190.256308,4171.79477,4190.256308,4203.589641,4203.07682,4188.717846,4212.307589,4198.974256,4184.615282,4150.769129,4170.769129,4169.743488
71,0,4157.948616,4185.128103,4190.769128,4171.281949,4194.358872,4199.487077,4202.564,4197.948615,4213.846051,4199.999897,4192.82041,4157.948616,4178.461436,4155.897334
72,0,4167.179385,4181.025539,4188.717846,4176.922975,4198.974256,4204.615282,4209.230666,4205.128102,4218.461435,4179.487077,4182.05118,4160.512719,4175.384513,4162.05118
73,0,4182.05118,4186.153744,4193.333231,4186.153744,4198.974256,4209.230666,4210.256307,4200.512718,4216.922974,4158.974257,4187.179385,4162.05118,4175.897334,4188.205026
74,0,4176.922975,4190.256308,4201.025538,4194.871692,4199.999897,4203.589641,4206.153743,4196.922974,4214.871692,4177.948616,4201.538359,4156.922975,4184.615282,4203.589641
75,0,4173.333231,4193.846051,4204.102461,4205.640923,4209.230666,4213.33323,4215.384512,4208.205025,4224.615281,4219.999897,4198.974256,4155.384514,4195.897333,4195.897333
76,0,4189.743487,4196.922974,4203.07682,4209.743487,4207.692205,4225.128102,4225.640922,4214.358871,4229.743486,4228.717845,4194.871692,4162.564001,4194.358872,4176.922975
77,0,4191.794769,4195.897333,4201.025538,4202.051179,4195.897333,4212.82041,4222.051179,4207.179384,4220.512717,4212.307589,4202.564,4165.640924,4184.102462,4176.922975
78,0,4183.076821,4198.461436,4203.07682,4199.999897,4195.384513,4207.179384,4216.922974,4204.615282,4219.999897,4215.384512,4203.589641,4164.615283,4184.615282,4190.256308
79,0,4191.281949,4203.589641,4201.538359,4210.769128,4204.102461,4214.358871,4217.435794,4211.794769,4223.58964,4223.07682,4198.461436,4163.076821,4195.384513,4202.051179
80,0,4193.333231,4194.358872,4197.435795,4208.205025,4203.07682,4204.102461,4210.256307,4207.692205,4219.487076,4195.897333,4203.07682,4163.076821,4202.564,4199.999897
81,0,4178.974257,4189.230667,4194.871692,4185.640923,4198.974256,4198.974256,4206.666564,4199.487077,4215.897333,4167.692206,4206.153743,4164.102462,4197.948615,4186.153744
82,0,4171.79477,4197.435795,4194.358872,4177.435795,4198.974256,4210.256307,4213.33323,4201.538359,4218.974256,4183.589641,4193.333231,4162.05118,4183.076821,4178.974257
83,0,4173.846052,4199.487077,4192.82041,4192.30759,4203.589641,4210.769128,4216.922974,4207.179384,4220.512717,4212.307589,4194.358872,4161.025539,4185.128103,4186.153744
84,0,4177.948616,4194.358872,4191.281949,4197.435795,4206.153743,4206.153743,4215.384512,4206.153743,4219.999897,4212.307589,4207.179384,4164.615283,4203.589641,4185.128103
85,0,4188.205026,4200.512718,4191.281949,4188.205026,4203.589641,4211.794769,4212.307589,4201.538359,4219.487076,4211.794769,4207.692205,4163.589642,4202.564,4184.615282
86,0,4198.974256,4204.615282,4196.922974,4192.30759,4204.102461,4211.281948,4214.358871,4202.051179,4219.999897,4209.743487,4202.051179,4160.512719,4185.640923,4202.564
87,0,4198.461436,4194.871692,4197.435795,4196.410154,4206.666564,4208.205025,4218.974256,4206.666564,4221.025538,4191.281949,4198.461436,4161.53836,4187.692205,4207.692205
88,0,4182.564,4187.692205,4188.205026,4180.512718,4201.025538,4205.640923,4215.897333,4206.666564,4224.102461,4182.564,4186.153744,4158.974257,4195.897333,4185.640923
89,0,4169.743488,4187.692205,4183.076821,4172.820411,4195.897333,4201.025538,4208.205025,4195.897333,4217.948615,4184.102462,4182.05118,4157.435796,4185.640923,4170.256308
90,0,4175.384513,4187.692205,4186.666564,4178.974257,4197.948615,4201.538359,4205.128102,4192.82041,4211.794769,4187.692205,4197.948615,4158.974257,4179.487077,4179.487077
91,0,4185.128103,4187.692205,4192.30759,4176.410154,4196.922974,4206.666564,4208.717846,4197.435795,4213.33323,4204.615282,4205.128102,4160.512719,4186.153744,4191.794769
92,0,4183.076821,4194.358872,4195.897333,4180.512718,4196.410154,4209.230666,4217.435794,4199.999897,4217.948615,4222.563999,4197.948615,4166.666565,4186.666564,4188.205026
93,0,4175.897334,4202.564,4198.974256,4204.615282,4201.538359,4209.743487,4217.435794,4201.025538,4215.897333,4208.205025,4191.794769,4170.769129,4183.589641,4183.589641
94,0,4185.640923,4211.281948,4201.538359,4222.563999,4210.769128,4211.794769,4209.230666,4203.07682,4215.384512,4190.256308,4195.384513,4165.640924,4197.948615,4203.07682
95,0,4202.564,4214.358871,4201.538359,4221.538358,4212.82041,4211.281948,4209.230666,4201.025538,4217.948615,4195.384513,4198.461436,4163.076821,4207.692205,4212.82041
96,0,4202.564,4208.205025,4197.435795,4210.256307,4207.179384,4207.692205,4212.307589,4196.410154,4215.897333,4202.564,4198.461436,4168.717847,4196.410154,4200.512718
97,0,4197.948615,4201.538359,4199.487077,4198.974256,4202.051179,4203.07682,4205.128102,4191.281949,4212.307589,4195.897333,4198.974256,4167.179385,4190.256308,4197.435795
98,0,4208.717846,4204.615282,4198.974256,4197.948615,4199.999897,4206.153743,4204.102461,4193.333231,4213.846051,4197.948615,4205.128102,4167.692206,4199.999897,4196.410154
99,0,4206.153743,4206.666564,4195.384513,4205.640923,4198.974256,4210.769128,4212.307589,4202.051179,4218.974256,4210.256307,4209.743487,4172.30759,4204.615282,4192.30759
100,0,4186.666564,4206.666564,4197.435795,4216.922974,4206.666564,4207.692205,4212.307589,4203.07682,4219.999897,4210.769128,4213.846051,4176.922975,4207.692205,4216.410153
101,0,4197.435795,4210.769128,4202.564,4228.717845,4208.717846,4207.692205,4207.179384,4195.384513,4217.435794,4198.974256,4211.281948,4179.487077,4213.33323,4237.435794
102,0,4220.512717,4214.871692,4199.487077,4232.820409,4202.051179,4211.281948,4207.692205,4195.897333,4217.435794,4198.461436,4203.589641,4174.358872,4211.281948,4219.487076
103,0,4203.589641,4209.230666,4197.435795,4231.281948,4203.589641,4206.666564,4202.564,4198.461436,4218.461435,4213.846051,4203.07682,4169.230667,4201.025538,4190.256308
104,0,4182.05118,4204.102461,4197.948615,4229.230666,4212.307589,4203.07682,4196.922974,4193.846051,4213.33323,4218.461435,4208.717846,4173.333231,4196.922974,4186.666564
105,0,4208.205025,4213.846051,4199.487077,4234.871691,4217.435794,4211.281948,4206.666564,4194.871692,4214.871692,4207.692205,4214.871692,4181.538359,4209.743487,4211.794769
106,0,4234.358871,4227.179384,4201.538359,4245.128101,4218.974256,4215.897333,4215.897333,4208.717846,4224.102461,4213.33323,4218.974256,4182.05118,4223.58964,4235.897332
107,0,4221.025538,4221.538358,4201.025538,4243.076819,4219.487076,4209.230666,4207.692205,4211.281948,4225.128102,4222.563999,4218.461435,4178.461436,4221.025538,4217.435794
108,0,4204.615282,4210.256307,4197.948615,4228.717845,4215.384512,4205.128102,4201.025538,4196.410154,4214.358871,4204.615282,4214.871692,4173.333231,4211.794769,4195.897333
109,0,4198.974256,4210.769128,4198.461436,4224.102461,4212.82041,4207.692205,4204.102461,4191.794769,4209.743487,4195.384513,4206.153743,4173.846052,4208.717846,4211.281948
110,0,4195.897333,4214.358871,4198.974256,4227.179384,4213.33323,4208.717846,4205.128102,4198.974256,4215.897333,4218.461435,4198.974256,4174.871693,4208.717846,4211.281948
111,0,4213.33323,4215.384512,4198.461436,4212.82041,4214.871692,4209.743487,4209.230666,4203.589641,4220.512717,4228.717845,4209.743487,4172.820411,4212.307589,4196.922974
112,0,4232.820409,4214.871692,4201.538359,4198.974256,4211.281948,4208.205025,4211.281948,4201.538359,4217.948615,4213.33323,4221.025538,4176.922975,4211.281948,4209.743487
113,0,4226.153743,4220.512717,4203.589641,4210.769128,4213.33323,4207.179384,4206.153743,4198.974256,4219.487076,4214.358871,4218.974256,4180.512718,4211.794769,4224.102461
114,0,4207.692205,4223.07682,4202.051179,4224.615281,4219.487076,4209.743487,4207.692205,4203.07682,4226.153743,4221.025538,4214.871692,4174.358872,4217.948615,4212.307589
115,0,4210.769128,4217.948615,4197.435795,4219.999897,4214.871692,4214.358871,4215.897333,4211.794769,4228.205025,4208.205025,4217.435794,4174.358872,4223.07682,4215.384512
116,0,4230.769127,4219.999897,4198.974256,4224.615281,4212.307589,4211.794769,4212.82041,4212.307589,4225.128102,4207.179384,4218.974256,4186.666564,4224.615281,4227.692204
117,0,4229.743486,4230.256307,4201.538359,4237.948614,4225.128102,4211.281948,4206.153743,4208.717846,4223.07682,4225.128102,4218.461435,4186.153744,4225.128102,4224.102461
118,0,4205.128102,4223.58964,4197.435795,4238.461435,4225.640922,4217.435794,4209.743487,4207.692205,4218.974256,4219.999897,4213.846051,4174.358872,4215.384512,4217.435794
119,0,4203.589641,4219.487076,4195.384513,4239.487076,4219.487076,4221.538358,4218.461435,4209.230666,4221.025538,4213.846051,4215.384512,4175.384513,4212.307589,4218.461435
120,0,4228.717845,4224.615281,4199.999897,4238.974255,4223.58964,4216.410153,4215.384512,4209.230666,4226.666563,4223.58964,4216.922974,4176.410154,4223.07682,4211.281948
121,0,4234.358871,4221.538358,4197.948615,4223.07682,4222.563999,4211.281948,4207.692205,4207.692205,4219.999897,4222.563999,4209.230666,4167.692206,4219.999897,4203.589641
122,0,4209.230666,4217.435794,4194.358872,4209.743487,4215.384512,4211.794769,4210.769128,4207.179384,4212.82041,4211.281948,4202.051179,4167.179385,4213.846051,4211.281948
123,0,4191.281949,4219.999897,4196.410154,4211.794769,4217.435794,4212.307589,4214.871692,4205.128102,4213.33323,4198.461436,4209.230666,4181.538359,4226.153743,4220.512717
124,0,4207.692205,4217.948615,4198.974256,4214.871692,4222.563999,4206.666564,4208.717846,4201.538359,4213.33323,4199.487077,4220.512717,4186.153744,4232.307589,4220.512717
125,0,4221.538358,4218.461435,4202.051179,4216.922974,4222.051179,4209.743487,4207.692205,4202.051179,4213.846051,4227.692204,4225.640922,4182.564,4224.102461,4217.435794
126,0,4211.794769,4225.128102,4207.692205,4228.205025,4224.102461,4224.615281,4224.615281,4214.871692,4225.128102,4252.307588,4226.153743,4190.256308,4227.692204,4229.230666
127,0,4220.512717,4219.487076,4205.640923,4233.33323,4218.974256,4222.051179,4227.179384,4219.999897,4225.640922,4237.435794,4223.07682,4190.256308,4234.871691,4237.948614
128,0,4233.33323,4209.743487,4197.948615,4222.563999,4210.769128,4208.205025,4212.82041,4211.794769,4213.846051,4219.999897,4216.922974,4176.922975,4227.692204,4214.358871
0,0,4206.666564,4210.769128,4192.82041,4214.358871,4210.256307,4209.743487,4214.358871,4204.615282,4210.256307,4222.051179,4200.512718,4167.179385,4213.846051,4187.179385
1,0,4190.256308,4216.922974,4189.230667,4222.563999,4216.410153,4214.871692,4224.102461,4204.102461,4212.307589,4205.640923,4194.358872,4168.717847,4210.256307,4202.564
2,0,4207.692205,4214.358871,4191.794769,4232.307589,4217.948615,4215.384512,4218.974256,4204.615282,4210.256307,4183.589641,4209.230666,4172.820411,4217.435794,4228.717845
3,0,4219.487076,4214.871692,4198.461436,4236.410153,4217.435794,4221.538358,4218.461435,4204.615282,4211.281948,4198.974256,4222.563999,4177.948616,4222.051179,4225.128102
4,0,4216.922974,4219.999897,4201.025538,4231.794768,4216.922974,4218.461435,4225.640922,4203.07682,4211.794769,4221.025538,4217.948615,4178.974257,4213.846051,4203.589641
5,0,4204.615282,4215.897333,4195.897333,4217.435794,4216.922974,4207.179384,4220.512717,4200.512718,4209.743487,4218.974256,4212.307589,4176.922975,4217.435794,4193.333231
6,0,4203.589641,4208.205025,4197.948615,4216.922974,4216.410153,4207.692205,4211.794769,4201.025538,4209.743487,4215.897333,4211.794769,4185.128103,4231.794768,4205.640923
7,0,4224.615281,4210.256307,4206.666564,4226.666563,4211.794769,4214.358871,4211.794769,4198.461436,4209.743487,4221.538358,4209.743487,4191.281949,4225.640922,4226.153743
8,0,4225.128102,4213.846051,4206.153743,4222.051179,4209.230666,4209.230666,4213.33323,4192.30759,4210.769128,4219.487076,4210.769128,4185.640923,4208.205025,4224.615281
9,0,4217.435794,4219.487076,4203.07682,4218.974256,4217.435794,4206.666564,4219.999897,4202.051179,4215.897333,4230.769127,4225.640922,4184.102462,4220.512717,4216.410153
10,0,4233.84605,4223.58964,4210.769128,4232.307589,4226.153743,4215.897333,4224.615281,4212.82041,4219.487076,4238.461435,4233.33323,4188.717846,4238.461435,4216.410153
11,0,4230.769127,4226.153743,4216.922974,4235.897332,4226.666563,4222.563999,4218.974256,4205.640923,4214.871692,4208.717846,4221.025538,4194.871692,4233.33323,4221.538358
12,0,4217.948615,4228.717845,4215.897333,4233.84605,4220.512717,4217.435794,4220.512717,4203.589641,4214.358871,4187.179385,4219.487076,4203.589641,4230.256307,4229.230666
13,0,4226.666563,4223.07682,4209.743487,4236.410153,4219.487076,4215.384512,4226.666563,4209.743487,4213.846051,4203.07682,4229.743486,4202.564,4233.33323,4234.358871
14,0,4220.512717,4212.307589,4206.666564,4230.256307,4224.615281,4218.461435,4219.999897,4199.487077,4208.205025,4224.615281,4217.948615,4188.717846,4220.512717,4223.07682
15,0,4202.051179,4217.435794,4210.256307,4217.948615,4224.615281,4212.307589,4207.692205,4188.205026,4204.615282,4228.205025,4204.615282,4185.128103,4209.743487,4201.025538
16,0,4210.769128,4229.230666,4214.871692,4213.846051,4219.487076,4206.153743,4206.666564,4192.82041,4205.640923,4224.615281,4219.487076,4192.82041,4224.615281,4202.051179
17,0,4218.974256,4223.07682,4209.230666,4218.461435,4218.974256,4209.230666,4210.769128,4193.846051,4206.153743,4223.58964,4227.692204,4184.615282,4234.358871,4221.025538
18,0,4221.025538,4213.846051,4203.589641,4230.769127,4222.563999,4211.281948,4211.281948,4191.794769,4208.205025,4211.794769,4214.871692,4172.820411,4217.435794,4218.974256
19,0,4230.769127,4218.461435,4210.769128,4238.461435,4223.07682,4210.256307,4209.743487,4190.256308,4208.717846,4199.487077,4210.256307,4180.512718,4207.692205,4197.948615
20,0,4213.33323,4222.051179,4217.948615,4232.820409,4225.128102,4209.743487,4207.692205,4184.102462,4206.153743,4205.640923,4215.897333,4189.743487,4220.512717,4201.025538
21,0,4195.384513,4216.922974,4216.922974,4230.256307,4220.512717,4208.205025,4205.128102,4177.435795,4203.07682,4203.589641,4211.281948,4185.640923,4225.128102,4211.794769
22,0,4228.205025,4218.974256,4211.281948,4231.794768,4214.358871,4210.256307,4208.717846,4183.076821,4207.179384,4202.051179,4211.281948,4182.564,4217.435794,4222.051179
23,0,4249.743486,4217.948615,4205.640923,4221.025538,4216.410153,4209.743487,4208.205025,4185.640923,4210.769128,4221.538358,4209.743487,4179.487077,4211.794769,4226.153743
24,0,4218.461435,4210.256307,4202.051179,4219.999897,4219.487076,4205.640923,4199.999897,4177.948616,4205.640923,4233.84605,4202.564,4180.512718,4212.307589,4201.538359
25,0,4201.538359,4211.794769,4210.256307,4235.384512,4217.435794,4205.640923,4201.025538,4173.333231,4202.051179,4209.230666,4208.717846,4192.82041,4212.307589,4187.692205
26,0,4213.33323,4215.897333,4215.384512,4229.743486,4214.871692,4209.743487,4205.640923,4174.871693,4201.538359,4190.256308,4216.410153,4190.769128,4210.256307,4213.33323
27,0,4205.640923,4210.256307,4212.82041,4222.051179,4215.897333,4207.179384,4206.153743,4176.922975,4202.564,4206.666564,4203.07682,4175.384513,4209.743487,4229.230666
28,0,4207.179384,4212.82041,4214.871692,4238.974255,4221.025538,4207.692205,4212.82041,4180.512718,4205.640923,4220.512717,4204.102461,4180.512718,4223.58964,4219.487076
29,0,4232.820409,4224.102461,4221.025538,4241.025537,4225.640922,4214.358871,4212.82041,4175.384513,4207.179384,4212.82041,4221.538358,4196.410154,4235.384512,4217.435794
30,0,4239.999896,4223.58964,4218.461435,4219.487076,4224.102461,4212.82041,4198.974256,4161.53836,4199.999897,4208.717846,4218.974256,4194.871692,4228.205025,4216.922974
31,0,4224.615281,4209.743487,4209.230666,4211.281948,4214.871692,4203.589641,4194.871692,4154.871693,4194.871692,4205.640923,4208.205025,4186.666564,4214.358871,4202.051179
32,0,4209.743487,4204.615282,4206.153743,4215.384512,4210.256307,4201.538359,4203.07682,4157.948616,4195.897333,4190.256308,4216.922974,4187.179385,4209.743487,4208.205025
33,0,4210.769128,4215.384512,4215.897333,4223.07682,4213.846051,4206.153743,4205.128102,4161.53836,4199.487077,4194.358872,4223.07682,4191.794769,4216.922974,4228.205025
34,0,4225.128102,4221.025538,4218.974256,4228.717845,4215.897333,4211.281948,4206.666564,4158.974257,4201.538359,4220.512717,4210.769128,4188.205026,4224.102461,4217.948615
35,0,4227.179384,4209.743487,4206.153743,4216.410153,4209.743487,4209.230666,4205.640923,4150.256309,4199.487077,4222.563999,4198.461436,4174.871693,4221.025538,4198.461436
36,0,4213.33323,4203.589641,4199.487077,4203.589641,4209.743487,4206.153743,4205.128102,4145.640924,4199.487077,4209.230666,4202.051179,4174.871693,4215.384512,4207.179384
37,0,4211.281948,4210.769128,4204.615282,4211.281948,4216.922974,4210.769128,4213.846051,4149.743488,4205.128102,4211.281948,4214.358871,4186.153744,4217.435794,4215.384512
38,0,4211.794769,4211.281948,4210.256307,4220.512717,4215.384512,4211.794769,4212.82041,4142.564001,4204.615282,4218.974256,4215.897333,4186.153744,4215.897333,4202.051179
39,0,4214.358871,4210.256307,4212.307589,4218.461435,4215.897333,4213.33323,4209.743487,4133.846053,4202.564,4209.743487,4211.281948,4182.05118,4216.410153,4204.102461
40,0,4227.692204,4209.230666,4207.692205,4218.974256,4221.025538,4215.384512,4212.82041,4131.794771,4205.128102,4188.205026,4210.256307,4182.05118,4225.640922,4218.461435
41,0,4225.640922,4208.717846,4198.461436,4220.512717,4223.58964,4213.33323,4209.743487,4130.256309,4206.153743,4196.410154,4211.281948,4185.128103,4231.281948,4217.948615
42,0,4211.794769,4210.256307,4204.615282,4222.051179,4222.563999,4210.256307,4205.128102,4131.794771,4207.179384,4215.384512,4209.743487,4185.640923,4221.538358,4210.256307
43,0,4217.435794,4215.897333,4214.871692,4226.153743,4217.435794,4209.230666,4212.82041,4137.435796,4212.82041,4216.410153,4212.82041,4185.128103,4212.307589,4215.897333
44,0,4231.281948,4219.999897,4214.358871,4235.384512,4213.846051,4210.256307,4216.410153,4139.999899,4216.922974,4218.974256,4216.410153,4186.666564,4218.461435,4219.487076
45,0,4230.769127,4225.128102,4212.307589,4242.563999,4220.512717,4218.461435,4215.384512,4147.179386,4217.435794,4232.307589,4212.307589,4190.256308,4225.640922,4199.487077
46,0,4232.820409,4227.179384,4218.461435,4243.58964,4230.256307,4224.615281,4222.563999,4157.948616,4222.051179,4236.410153,4214.358871,4194.358872,4228.717845,4201.538359
47,0,4243.076819,4227.179384,4221.538358,4240.512717,4233.33323,4221.025538,4228.205025,4157.435796,4225.128102,4230.769127,4229.743486,4194.871692,4238.461435,4251.281947
48,0,4236.410153,4222.051179,4216.410153,4235.897332,4227.179384,4218.974256,4222.563999,4148.205027,4221.538358,4217.435794,4230.256307,4189.743487,4233.33323,4252.307588
49,0,4217.435794,4214.871692,4209.230666,4230.769127,4225.128102,4217.948615,4210.769128,4145.128104,4217.948615,4205.640923,4214.358871,4182.05118,4213.33323,4190.256308
50,0,4217.948615,4221.025538,4212.307589,4235.384512,4227.179384,4211.794769,4208.717846,4152.307591,4224.615281,4212.82041,4212.82041,4187.692205,4213.846051,4185.640923
51,0,4228.205025,4228.205025,4217.948615,4242.563999,4222.051179,4208.717846,4217.948615,4158.461437,4231.281948,4223.07682,4221.025538,4195.384513,4228.717845,4237.435794
52,0,4231.794768,4219.487076,4219.487076,4238.974255,4212.82041,4212.82041,4224.615281,4155.897334,4228.717845,4234.871691,4222.051179,4190.769128,4231.794768,4244.615281
53,0,4243.58964,4218.461435,4219.999897,4237.435794,4216.410153,4217.948615,4224.102461,4151.79477,4222.563999,4241.538358,4227.179384,4189.743487,4231.794768,4217.948615
54,0,4242.563999,4227.692204,4222.051179,4241.025537,4226.153743,4215.897333,4221.538358,4153.333232,4224.615281,4218.974256,4234.871691,4198.461436,4231.794768,4206.666564
55,0,4221.025538,4224.102461,4220.512717,4232.307589,4225.128102,4209.230666,4216.410153,4152.820411,4226.666563,4210.769128,4228.717845,4202.051179,4224.102461,4217.948615
56,0,4225.128102,4221.025538,4217.948615,4227.692204,4222.563999,4208.717846,4211.794769,4148.205027,4222.051179,4230.769127,4221.538358,4194.358872,4223.58964,4239.487076
57,0,4237.948614,4223.58964,4219.999897,4229.743486,4224.102461,4208.717846,4210.256307,4145.640924,4218.461435,4233.84605,4216.922974,4186.153744,4227.179384,4237.948614
58,0,4229.743486,4221.538358,4222.051179,4222.051179,4223.58964,4210.769128,4216.410153,4150.256309,4224.615281,4226.153743,4213.33323,4186.153744,4229.230666,4217.435794
59,0,4226.666563,4212.82041,4216.922974,4220.512717,4218.461435,4217.435794,4222.563999,4156.410155,4226.666563,4215.384512,4212.307589,4183.589641,4223.07682,4207.179384
60,0,4230.769127,4215.897333,4217.948615,4234.871691,4221.538358,4218.974256,4219.999897,4158.974257,4223.07682,4207.692205,4214.358871,4179.999898,4212.82041,4215.897333
61,0,4219.487076,4223.07682,4228.717845,4238.974255,4228.717845,4214.871692,4213.33323,4159.487078,4224.102461,4216.410153,4216.922974,4189.230667,4208.205025,4225.128102
62,0,4223.07682,4221.025538,4228.205025,4231.794768,4226.153743,4219.487076,4219.999897,4161.53836,4228.205025,4237.948614,4223.07682,4199.999897,4216.922974,4227.692204
63,0,4242.563999,4218.974256,4220.512717,4232.307589,4224.102461,4223.58964,4227.179384,4162.05118,4231.281948,4234.871691,4223.07682,4192.30759,4225.640922,4223.07682
64,0,4238.461435,4225.640922,4217.435794,4234.871691,4227.179384,4216.410153,4221.025538,4161.025539,4228.717845,4209.743487,4215.897333,4183.589641,4219.999897,4210.769128
65,0,4223.07682,4225.640922,4219.999897,4225.128102,4223.07682,4211.281948,4215.897333,4159.487078,4225.640922,4205.128102,4212.82041,4186.666564,4210.769128,4204.102461
66,0,4223.58964,4215.897333,4216.922974,4207.692205,4219.487076,4216.922974,4224.102461,4161.025539,4222.563999,4216.922974,4213.33323,4186.666564,4212.82041,4208.205025
67,0,4221.025538,4209.230666,4214.871692,4195.897333,4221.538358,4220.512717,4225.640922,4162.564001,4222.051179,4220.512717,4211.794769,4183.076821,4211.794769,4202.564
68,0,4210.769128,4207.179384,4214.358871,4194.358872,4219.487076,4213.33323,4212.307589,4157.435796,4220.512717,4214.358871,4205.640923,4173.846052,4202.051179,4187.692205
69,0,4217.435794,4210.256307,4216.922974,4202.051179,4219.487076,4207.179384,4213.33323,4156.410155,4220.512717,4211.794769,4204.102461,4169.230667,4202.051179,4196.410154
70,0,4226.666563,4219.999897,4222.051179,4217.948615,4225.128102,4213.33323,4227.179384,4165.128103,4222.051179,4219.487076,4216.922974,4181.025539,4220.512717,4226.153743
71,0,4228.717845,4224.102461,4226.153743,4238.974255,4225.640922,4216.410153,4225.128102,4172.30759,4226.666563,4233.33323,4225.640922,4195.897333,4234.358871,4234.871691
72,0,4237.435794,4221.025538,4226.666563,4251.281947,4218.461435,4210.256307,4214.871692,4172.30759,4225.640922,4226.666563,4219.999897,4194.871692,4224.102461,4220.512717
73,0,4243.58964,4219.999897,4224.102461,4243.58964,4216.922974,4213.846051,4217.435794,4172.820411,4218.974256,4206.153743,4222.051179,4190.256308,4215.897333,4218.461435
74,0,4235.384512,4222.563999,4223.58964,4231.794768,4222.563999,4225.640922,4223.07682,4173.846052,4222.051179,4217.435794,4227.179384,4190.256308,4225.128102,4229.743486
75,0,4234.871691,4222.051179,4224.102461,4230.769127,4226.153743,4228.205025,4224.102461,4175.897334,4228.717845,4237.435794,4219.487076,4194.358872,4224.615281,4226.153743
76,0,4246.666563,4212.82041,4221.025538,4224.102461,4223.07682,4222.563999,4225.128102,4174.871693,4223.07682,4230.769127,4213.846051,4196.922974,4209.230666,4202.051179
77,0,4243.076819,4215.897333,4219.999897,4214.871692,4221.538358,4222.051179,4224.102461,4175.384513,4220.512717,4219.999897,4223.07682,4193.333231,4216.410153,4210.256307
78,0,4226.666563,4224.102461,4223.58964,4219.487076,4224.615281,4222.051179,4220.512717,4177.948616,4224.615281,4213.846051,4225.128102,4185.640923,4234.358871,4241.538358
79,0,4218.974256,4217.948615,4218.461435,4216.922974,4224.615281,4215.384512,4221.025538,4171.79477,4220.512717,4214.871692,4212.82041,4175.384513,4226.153743,4232.307589
80,0,4219.487076,4209.743487,4211.794769,4205.128102,4220.512717,4211.794769,4219.999897,4161.53836,4216.410153,4230.769127,4205.128102,4169.230667,4211.794769,4204.615282
81,0,4227.692204,4217.435794,4214.871692,4215.384512,4223.58964,4221.538358,4221.538358,4167.179385,4224.615281,4241.538358,4213.846051,4174.358872,4218.461435,4208.717846
82,0,4248.205024,4223.07682,4221.025538,4233.33323,4225.128102,4227.692204,4227.179384,4175.897334,4229.743486,4227.692204,4222.051179,4181.025539,4223.58964,4214.358871
83,0,4243.58964,4219.999897,4217.948615,4228.717845,4222.563999,4221.025538,4226.666563,4175.384513,4224.102461,4213.33323,4224.615281,4185.640923,4218.974256,4204.102461
84,0,4217.948615,4217.948615,4215.384512,4226.666563,4224.102461,4221.538358,4224.102461,4172.820411,4222.563999,4212.82041,4225.128102,4187.179385,4215.897333,4210.256307
85,0,4227.692204,4221.025538,4217.435794,4239.999896,4230.256307,4229.230666,4226.666563,4176.410154,4224.102461,4224.615281,4223.07682,4186.153744,4224.102461,4225.640922
86,0,4247.179383,4223.07682,4216.410153,4240.512717,4231.281948,4228.717845,4228.717845,4185.128103,4228.717845,4245.640922,4218.461435,4186.666564,4232.820409,4213.846051
87,0,4225.640922,4219.999897,4216.410153,4225.640922,4226.666563,4228.205025,4229.743486,4191.281949,4230.769127,4252.307588,4219.999897,4190.769128,4229.743486,4202.564
88,0,4213.846051,4210.769128,4218.461435,4229.230666,4221.538358,4224.102461,4224.615281,4182.05118,4224.615281,4218.974256,4223.07682,4190.769128,4217.948615,4216.922974
89,0,4233.84605,4212.307589,4215.384512,4240.512717,4218.974256,4217.435794,4214.358871,4170.256308,4218.974256,4192.30759,4219.999897,4183.589641,4212.82041,4219.999897
90,0,4232.307589,4213.846051,4212.307589,4214.871692,4216.922974,4219.999897,4216.410153,4173.333231,4223.07682,4213.33323,4214.358871,4174.871693,4214.358871,4203.589641
91,0,4221.025538,4205.128102,4211.281948,4191.794769,4210.769128,4223.07682,4225.128102,4177.435795,4225.640922,4228.717845,4211.281948,4167.692206,4214.871692,4198.461436
92,0,4226.666563,4205.640923,4210.769128,4213.846051,4213.33323,4219.999897,4225.128102,4177.435795,4226.666563,4216.410153,4212.82041,4170.256308,4219.487076,4211.281948
93,0,4223.58964,4209.743487,4209.230666,4235.384512,4215.897333,4217.435794,4220.512717,4177.948616,4225.640922,4215.384512,4209.230666,4173.846052,4222.051179,4217.435794
94,0,4225.640922,4214.871692,4210.769128,4239.487076,4217.948615,4221.025538,4222.563999,4181.025539,4227.179384,4234.871691,4212.82041,4181.538359,4225.128102,4209.230666
95,0,4245.128101,4225.640922,4217.435794,4248.717845,4227.692204,4220.512717,4222.563999,4187.692205,4235.897332,4251.794768,4232.307589,4192.82041,4232.820409,4206.666564
96,0,4242.051178,4227.179384,4219.487076,4251.794768,4231.281948,4221.025538,4225.640922,4192.82041,4238.974255,4234.358871,4246.153742,4194.871692,4241.538358,4230.256307
97,0,4233.84605,4218.974256,4219.487076,4250.256306,4224.615281,4223.07682,4231.794768,4192.82041,4233.33323,4197.948615,4233.84605,4193.846051,4238.974255,4247.692204
98,0,4244.615281,4227.179384,4219.999897,4263.589639,4225.640922,4227.692204,4229.743486,4196.922974,4233.84605,4214.871692,4224.102461,4195.384513,4232.307589,4237.948614
99,0,4238.974255,4230.256307,4219.487076,4269.230665,4228.205025,4227.179384,4222.563999,4188.717846,4233.84605,4248.717845,4226.153743,4189.743487,4228.717845,4219.999897
100,0,4239.999896,4221.538358,4217.435794,4258.461434,4224.615281,4223.58964,4221.025538,4175.384513,4227.179384,4236.922973,4224.102461,4182.564,4230.769127,4215.384512
101,0,4255.897332,4226.666563,4216.922974,4251.281947,4223.07682,4223.58964,4223.58964,4179.487077,4227.179384,4224.615281,4218.974256,4181.538359,4228.717845,4221.538358
102,0,4236.922973,4229.743486,4212.307589,4242.563999,4226.666563,4224.615281,4223.58964,4186.153744,4230.256307,4235.897332,4218.974256,4183.076821,4226.153743,4223.58964
103,0,4213.846051,4219.999897,4213.33323,4237.435794,4226.666563,4225.128102,4225.640922,4182.564,4228.717845,4229.743486,4221.538358,4185.640923,4224.615281,4219.487076
104,0,4224.615281,4222.563999,4219.999897,4238.974255,4218.461435,4225.640922,4226.666563,4182.564,4228.205025,4216.922974,4219.487076,4187.179385,4219.999897,4217.948615
105,0,4235.384512,4225.128102,4216.410153,4230.256307,4212.82041,4222.051179,4219.999897,4182.564,4224.615281,4212.307589,4207.692205,4179.999898,4213.33323,4212.82041
106,0,4236.922973,4213.846051,4209.743487,4221.025538,4222.563999,4218.974256,4218.461435,4179.999898,4219.487076,4204.615282,4207.692205,4178.461436,4215.897333,4210.256307
107,0,4243.076819,4219.487076,4219.487076,4235.897332,4229.230666,4223.07682,4225.128102,4186.666564,4224.102461,4217.435794,4230.256307,4190.769128,4227.692204,4227.692204
108,0,4235.897332,4228.205025,4231.281948,4247.179383,4223.07682,4227.692204,4227.692204,4190.769128,4227.179384,4238.974255,4234.358871,4193.846051,4228.205025,4234.871691
109,0,4238.974255,4217.948615,4227.179384,4233.84605,4222.563999,4228.205025,4225.128102,4185.640923,4224.102461,4234.871691,4209.230666,4186.666564,4218.974256,4214.871692
110,0,4245.640922,4215.384512,4219.999897,4225.128102,4225.640922,4223.58964,4219.999897,4180.512718,4221.538358,4214.358871,4202.051179,4183.589641,4215.384512,4203.589641
111,0,4225.128102,4222.563999,4223.58964,4227.179384,4224.102461,4217.435794,4214.358871,4179.999898,4223.07682,4212.82041,4221.538358,4184.615282,4221.025538,4215.384512
112,0,4225.128102,4219.999897,4225.640922,4223.07682,4221.538358,4217.435794,4216.922974,4181.538359,4221.538358,4220.512717,4223.58964,4178.974257,4225.640922,4230.769127
113,0,4253.84605,4222.563999,4217.435794,4222.051179,4226.153743,4222.051179,4223.58964,4181.538359,4222.051179,4215.384512,4209.230666,4172.30759,4222.051179,4233.84605
114,0,4256.410152,4228.717845,4217.948615,4234.871691,4230.769127,4226.666563,4221.538358,4183.589641,4226.666563,4222.563999,4212.82041,4176.410154,4219.999897,4223.07682
115,0,4237.435794,4219.487076,4222.563999,4242.563999,4225.640922,4224.615281,4219.487076,4189.743487,4231.794768,4237.435794,4227.692204,4188.717846,4226.666563,4222.051179
116,0,4228.717845,4216.410153,4218.461435,4236.922973,4215.897333,4215.384512,4221.025538,4194.358872,4229.743486,4217.435794,4225.640922,4194.358872,4227.692204,4223.58964
117,0,4227.692204,4225.128102,4214.871692,4232.820409,4219.487076,4215.897333,4217.435794,4195.384513,4224.102461,4198.974256,4222.563999,4187.179385,4221.025538,4225.640922
118,0,4234.358871,4220.512717,4226.153743,4229.743486,4227.692204,4222.563999,4212.82041,4192.82041,4224.615281,4223.58964,4228.205025,4184.615282,4224.102461,4231.794768
119,0,4251.281947,4224.102461,4229.230666,4228.717845,4229.230666,4224.615281,4218.461435,4192.30759,4225.640922,4248.205024,4228.205025,4194.871692,4234.871691,4232.307589
120,0,4253.333229,4238.974255,4224.102461,4243.076819,4226.666563,4228.205025,4226.153743,4193.846051,4224.102461,4242.051178,4224.615281,4192.82041,4234.358871,4232.820409
121,0,4242.051178,4239.999896,4224.102461,4250.769127,4229.230666,4233.33323,4229.230666,4196.922974,4221.538358,4234.871691,4223.07682,4179.487077,4228.717845,4243.076819
122,0,4243.076819,4226.666563,4225.128102,4230.256307,4229.230666,4227.692204,4219.999897,4194.358872,4218.461435,4221.538358,4216.922974,4182.05118,4221.025538,4230.769127
123,0,4252.307588,4221.538358,4221.025538,4214.871692,4225.128102,4221.025538,4211.281948,4192.30759,4219.999897,4211.794769,4219.999897,4193.846051,4218.461435,4213.846051
124,0,4253.333229,4227.179384,4219.999897,4230.256307,4226.153743,4224.615281,4217.948615,4195.384513,4226.666563,4220.512717,4225.128102,4189.230667,4222.051179,4231.281948
125,0,4245.128101,4230.769127,4219.487076,4233.84605,4227.179384,4226.666563,4225.128102,4197.948615,4223.07682,4218.974256,4219.999897,4180.512718,4218.974256,4239.999896
126,0,4236.922973,4228.717845,4218.974256,4220.512717,4222.051179,4219.999897,4214.871692,4197.948615,4215.897333,4206.153743,4212.82041,4183.589641,4214.871692,4217.435794
127,0,4231.794768,4222.563999,4217.948615,4219.999897,4220.512717,4216.922974,4207.692205,4197.435795,4215.384512,4207.692205,4207.179384,4184.102462,4215.897333,4211.794769
128,0,4242.051178,4220.512717,4213.33323,4225.128102,4224.615281,4224.615281,4219.999897,4201.538359,4219.487076,4225.640922,4203.589641,4176.410154,4216.410153,4230.256307
0,0,4248.205024,4216.922974,4210.769128,4225.128102,4222.051179,4228.205025,4227.179384,4201.025538,4216.922974,4219.999897,4204.102461,4168.205026,4207.179384,4217.948615
1,0,4230.256307,4212.82041,4214.871692,4225.128102,4219.999897,4222.563999,4218.461435,4192.82041,4212.82041,4201.025538,4210.769128,4169.743488,4207.692205,4194.871692
2,0,4218.974256,4213.846051,4219.999897,4222.563999,4225.128102,4223.58964,4214.358871,4189.230667,4213.846051,4208.717846,4217.435794,4181.538359,4219.487076,4209.230666
3,0,4224.102461,4217.435794,4216.410153,4216.410153,4226.666563,4227.692204,4221.025538,4192.82041,4213.846051,4217.948615,4218.974256,4184.615282,4221.538358,4228.717845
4,0,4224.102461,4218.461435,4210.769128,4220.512717,4223.58964,4225.640922,4223.07682,4190.769128,4213.33323,4209.743487,4213.33323,4169.743488,4209.743487,4225.640922
5,0,4226.153743,4218.974256,4212.82041,4229.743486,4222.051179,4229.230666,4221.538358,4188.205026,4219.999897,4216.922974,4210.769128,4168.205026,4207.692205,4222.051179
6,0,4243.076819,4221.025538,4216.410153,4238.461435,4219.487076,4233.84605,4218.974256,4192.30759,4229.743486,4234.871691,4215.384512,4184.615282,4224.102461,4222.051179
7,0,4253.333229,4225.640922,4216.922974,4245.640922,4223.58964,4231.281948,4214.871692,4195.897333,4231.794768,4233.33323,4226.153743,4189.743487,4238.974255,4227.692204
8,0,4243.076819,4228.205025,4225.128102,4244.10246,4230.769127,4227.692204,4212.82041,4193.846051,4229.743486,4226.666563,4235.384512,4186.666564,4229.743486,4235.897332
9,0,4227.179384,4229.230666,4228.205025,4242.051178,4231.794768,4225.128102,4210.256307,4193.333231,4224.615281,4225.128102,4230.256307,4183.589641,4213.33323,4235.384512
10,0,4216.410153,4220.512717,4219.487076,4232.820409,4224.615281,4219.487076,4206.666564,4189.230667,4215.384512,4224.102461,4210.769128,4174.871693,4206.666564,4224.102461
11,0,4222.563999,4208.717846,4208.205025,4209.230666,4218.974256,4217.435794,4205.640923,4187.179385,4211.794769,4222.051179,4197.435795,4169.230667,4206.153743,4210.256307
12,0,4234.871691,4211.281948,4209.230666,4201.538359,4220.512717,4222.563999,4207.692205,4193.846051,4220.512717,4210.256307,4203.07682,4175.897334,4205.640923,4197.948615
13,0,4235.384512,4222.563999,4216.410153,4218.974256,4226.153743,4228.717845,4214.358871,4199.487077,4231.794768,4222.051179,4230.256307,4186.666564,4217.435794,4217.435794
14,0,4228.717845,4218.461435,4218.974256,4217.948615,4228.205025,4228.717845,4219.487076,4198.974256,4231.794768,4250.256306,4241.538358,4185.640923,4226.666563,4248.205024
15,0,4216.410153,4211.281948,4215.384512,4204.615282,4224.102461,4222.563999,4214.871692,4202.564,4224.615281,4239.487076,4221.538358,4175.897334,4221.025538,4232.307589
16,0,4221.538358,4221.025538,4219.487076,4221.025538,4221.538358,4219.999897,4211.794769,4209.743487,4230.256307,4226.666563,4222.563999,4186.153744,4226.153743,4217.948615
17,0,4247.179383,4229.743486,4226.666563,4241.538358,4224.615281,4226.666563,4221.538358,4209.743487,4238.461435,4241.025537,4239.487076,4202.564,4236.922973,4247.692204
18,0,4254.871691,4225.640922,4224.102461,4235.897332,4228.205025,4233.33323,4225.128102,4208.205025,4233.84605,4227.692204,4228.205025,4193.846051,4230.769127,4262.051178
19,0,4235.384512,4218.461435,4217.948615,4220.512717,4224.615281,4229.230666,4215.897333,4209.743487,4225.128102,4207.179384,4221.025538,4177.435795,4221.025538,4232.307589
20,0,4231.794768,4217.948615,4217.948615,4211.281948,4221.025538,4219.999897,4208.205025,4207.179384,4228.717845,4231.794768,4233.84605,4180.512718,4228.717845,4222.563999
21,0,4237.435794,4220.512717,4227.179384,4208.717846,4222.051179,4211.281948,4206.666564,4204.102461,4232.820409,4242.563999,4226.666563,4187.692205,4231.794768,4239.999896
22,0,4239.487076,4225.128102,4231.794768,4214.358871,4225.640922,4214.871692,4214.871692,4211.281948,4230.769127,4224.102461,4223.58964,4192.30759,4227.179384,4246.666563
23,0,4243.58964,4224.615281,4223.07682,4214.871692,4225.640922,4221.538358,4221.538358,4214.358871,4229.230666,4223.07682,4228.717845,4190.256308,4225.128102,4243.58964
24,0,4231.794768,4216.410153,4210.256307,4202.051179,4223.58964,4221.025538,4214.358871,4206.153743,4227.692204,4222.563999,4211.794769,4175.384513,4218.974256,4226.153743
25,0,4217.435794,4209.743487,4211.281948,4201.025538,4221.538358,4219.999897,4207.692205,4202.564,4222.051179,4206.666564,4202.564,4166.666565,4206.666564,4203.07682
26,0,4224.615281,4211.794769,4215.384512,4208.717846,4218.974256,4218.974256,4212.82041,4207.692205,4221.538358,4216.922974,4216.922974,4170.256308,4202.564,4213.846051
27,0,4234.358871,4215.384512,4214.871692,4205.128102,4219.487076,4216.922974,4213.846051,4206.666564,4227.179384,4233.33323,4217.435794,4169.230667,4208.717846,4238.974255
28,0,4222.563999,4213.33323,4213.33323,4200.512718,4223.58964,4219.999897,4210.256307,4206.666564,4228.717845,4219.999897,4213.33323,4165.128103,4218.974256,4233.84605
29,0,4218.461435,4212.307589,4211.794769,4206.666564,4225.128102,4222.563999,4211.794769,4209.743487,4223.58964,4201.538359,4212.82041,4171.79477,4219.487076,4206.153743
30,0,4237.948614,4217.435794,4207.692205,4214.358871,4218.974256,4217.948615,4212.307589,4207.692205,4221.025538,4205.128102,4206.666564,4178.974257,4212.307589,4199.487077
31,0,4244.10246,4219.999897,4209.743487,4215.897333,4214.358871,4212.82041,4208.205025,4209.230666,4228.717845,4218.461435,4209.743487,4179.999898,4212.307589,4223.58964
32,0,4222.051179,4217.948615,4213.846051,4217.948615,4213.846051,4213.33323,4206.153743,4208.717846,4228.205025,4227.179384,4219.487076,4177.948616,4220.512717,4242.051178
33,0,4216.922974,4214.871692,4214.871692,4221.025538,4213.33323,4213.846051,4208.717846,4196.922974,4218.461435,4229.743486,4218.974256,4177.948616,4224.615281,4227.179384
34,0,4241.538358,4221.025538,4215.897333,4219.999897,4219.487076,4212.82041,4208.717846,4194.358872,4221.025538,4239.999896,4224.102461,4182.05118,4225.128102,4217.948615
35,0,4244.10246,4227.179384,4216.410153,4219.999897,4225.640922,4215.897333,4209.743487,4205.640923,4229.230666,4243.076819,4229.230666,4186.153744,4231.281948,4231.794768
36,0,4229.743486,4226.153743,4215.897333,4227.692204,4222.051179,4223.58964,4214.871692,4209.230666,4224.615281,4222.051179,4223.07682,4185.128103,4238.461435,4238.974255
37,0,4242.563999,4223.07682,4216.410153,4233.84605,4219.999897,4226.153743,4215.897333,4206.153743,4221.538358,4209.230666,4224.102461,4185.640923,4236.922973,4237.435794
38,0,4252.307588,4221.025538,4216.410153,4229.743486,4221.538358,4218.974256,4212.82041,4204.615282,4222.051179,4213.846051,4234.871691,4187.179385,4222.563999,4231.794768
39,0,4236.410153,4221.025538,4216.922974,4230.256307,4222.563999,4215.897333,4215.897333,4208.717846,4223.58964,4230.256307,4232.820409,4185.640923,4221.025538,4233.33323
40,0,4230.256307,4219.999897,4219.487076,4234.358871,4223.07682,4221.025538,4217.435794,4212.307589,4228.717845,4251.281947,4223.07682,4185.640923,4235.384512,4241.025537
41,0,4245.640922,4222.563999,4216.922974,4226.153743,4225.640922,4224.102461,4213.846051,4200.512718,4231.794768,4258.461434,4226.153743,4189.230667,4237.948614,4238.461435
42,0,4237.948614,4218.974256,4211.794769,4213.33323,4222.563999,4221.025538,4211.281948,4186.666564,4223.58964,4239.999896,4225.640922,4185.128103,4229.743486,4232.307589
43,0,4215.897333,4209.743487,4209.743487,4211.281948,4217.948615,4217.435794,4210.256307,4193.333231,4221.538358,4219.999897,4220.512717,4182.564,4230.256307,4227.692204
44,0,4222.563999,4203.589641,4211.281948,4213.33323,4216.410153,4214.871692,4206.153743,4197.948615,4225.128102,4218.974256,4229.230666,4188.717846,4232.307589,4216.410153
45,0,4244.615281,4208.717846,4211.281948,4213.33323,4214.871692,4217.435794,4205.640923,4192.30759,4224.615281,4228.717845,4243.076819,4189.743487,4238.461435,4229.230666
46,0,4243.076819,4214.871692,4213.33323,4223.58964,4208.717846,4221.025538,4209.230666,4198.974256,4227.692204,4245.128101,4236.922973,4186.153744,4245.640922,4250.256306
47,0,4221.025538,4216.922974,4213.846051,4233.84605,4207.692205,4222.051179,4212.82041,4209.743487,4229.230666,4251.281947,4225.640922,4184.615282,4240.512717,4238.461435
48,0,4219.999897,4217.948615,4214.871692,4229.230666,4216.410153,4221.025538,4211.794769,4203.589641,4224.102461,4246.666563,4229.230666,4181.025539,4229.743486,4220.512717
49,0,4240.512717,4212.307589,4211.794769,4218.461435,4222.051179,4217.948615,4206.153743,4193.846051,4216.410153,4238.461435,4223.58964,4171.79477,4228.717845,4219.487076
50,0,4243.58964,4212.307589,4212.82041,4215.897333,4219.999897,4217.435794,4206.666564,4195.384513,4215.897333,4210.769128,4215.384512,4172.820411,4231.281948,4221.538358
51,0,4232.820409,4223.58964,4216.410153,4226.153743,4220.512717,4224.102461,4212.82041,4202.564,4219.999897,4201.025538,4230.769127,4184.615282,4234.358871,4240.512717
52,0,4221.538358,4219.487076,4213.846051,4234.871691,4220.512717,4224.102461,4212.82041,4207.692205,4225.128102,4229.743486,4239.999896,4188.205026,4239.487076,4254.871691
53,0,4213.846051,4208.205025,4208.205025,4221.025538,4222.051179,4213.846051,4206.666564,4206.153743,4223.58964,4248.717845,4219.999897,4181.538359,4236.922973,4226.153743
54,0,4224.102461,4210.769128,4203.589641,4200.512718,4226.153743,4209.230666,4203.07682,4202.564,4216.410153,4234.871691,4208.717846,4173.333231,4221.025538,4205.128102
55,0,4233.84605,4214.871692,4200.512718,4206.153743,4220.512717,4218.461435,4210.769128,4201.538359,4214.871692,4227.692204,4216.922974,4171.281949,4216.922974,4226.153743
56,0,4223.07682,4209.230666,4200.512718,4215.384512,4216.410153,4224.102461,4212.82041,4200.512718,4217.948615,4234.871691,4218.974256,4173.333231,4227.179384,4236.410153
57,0,4215.897333,4206.666564,4207.692205,4206.153743,4220.512717,4210.769128,4199.999897,4196.922974,4217.435794,4229.743486,4217.948615,4175.897334,4227.692204,4223.58964
58,0,4233.33323,4210.256307,4213.846051,4209.743487,4218.974256,4204.615282,4198.974256,4202.051179,4215.897333,4217.948615,4225.128102,4180.512718,4221.025538,4224.102461
59,0,4244.615281,4215.897333,4217.948615,4229.230666,4217.948615,4214.358871,4209.230666,4208.205025,4216.410153,4214.871692,4226.666563,4186.666564,4223.58964,4230.769127
60,0,4243.076819,4225.640922,4221.538358,4237.435794,4225.640922,4215.897333,4207.692205,4207.179384,4216.410153,4223.07682,4223.58964,4191.794769,4233.84605,4235.384512
61,0,4242.051178,4225.640922,4219.999897,4234.358871,4225.128102,4210.769128,4202.051179,4205.640923,4215.897333,4231.794768,4223.58964,4188.205026,4235.384512,4250.769127
62,0,4234.871691,4215.897333,4216.922974,4231.794768,4217.948615,4213.846051,4209.230666,4206.153743,4216.410153,4233.33323,4220.512717,4184.615282,4231.794768,4253.84605
63,0,4224.102461,4206.153743,4219.487076,4224.615281,4215.897333,4209.743487,4208.717846,4199.487077,4211.794769,4231.281948,4208.205025,4186.153744,4223.07682,4224.102461
64,0,4223.58964,4205.128102,4213.846051,4215.384512,4214.871692,4203.589641,4198.461436,4193.333231,4206.153743,4215.897333,4204.615282,4179.999898,4211.794769,4207.692205
65,0,4233.84605,4210.256307,4205.128102,4216.922974,4217.435794,4206.666564,4196.922974,4195.384513,4210.769128,4198.461436,4213.33323,4170.256308,4205.128102,4215.897333
66,0,4237.435794,4213.33323,4206.666564,4220.512717,4224.615281,4211.281948,4202.564,4204.102461,4219.487076,4200.512718,4217.948615,4179.487077,4210.256307,4221.025538
67,0,4223.07682,4213.846051,4209.230666,4218.461435,4225.640922,4216.922974,4209.230666,4213.846051,4224.102461,4212.307589,4211.794769,4190.769128,4218.461435,4222.051179
68,0,4205.128102,4213.846051,4204.615282,4223.58964,4224.102461,4218.974256,4211.794769,4216.410153,4219.999897,4229.230666,4204.615282,4176.922975,4228.205025,4231.281948
69,0,4216.922974,4210.769128,4206.153743,4232.307589,4221.025538,4210.769128,4205.640923,4216.922974,4217.435794,4244.10246,4208.717846,4168.717847,4232.307589,4229.743486
70,0,4247.179383,4211.281948,4210.769128,4232.307589,4214.358871,4212.307589,4204.615282,4219.487076,4223.58964,4238.461435,4217.948615,4179.999898,4222.563999,4224.615281
71,0,4244.615281,4214.358871,4211.794769,4232.307589,4216.410153,4218.974256,4212.82041,4217.435794,4223.07682,4215.897333,4216.410153,4181.025539,4213.33323,4229.230666
72,0,4217.435794,4207.692205,4207.179384,4227.692204,4222.563999,4214.871692,4213.33323,4211.794769,4213.846051,4207.179384,4205.640923,4175.384513,4216.410153,4224.615281
73,0,4203.07682,4205.128102,4203.07682,4214.871692,4220.512717,4210.256307,4208.205025,4213.33323,4221.025538,4214.871692,4207.179384,4183.589641,4221.025538,4216.410153
74,0,4211.794769,4213.33323,4205.640923,4217.435794,4221.025538,4214.358871,4207.179384,4215.897333,4228.717845,4209.230666,4209.743487,4184.615282,4218.461435,4221.538358
75,0,4219.999897,4214.358871,4206.666564,4229.230666,4225.128102,4217.435794,4210.769128,4214.358871,4216.922974,4197.435795,4196.410154,4173.333231,4214.358871,4216.410153
76,0,4212.82041,4208.205025,4202.564,4227.179384,4217.948615,4212.82041,4209.743487,4212.82041,4208.205025,4208.205025,4192.82041,4170.769129,4213.846051,4199.487077
77,0,4221.025538,4209.230666,4199.487077,4228.205025,4214.358871,4206.153743,4201.538359,4214.358871,4218.974256,4229.743486,4214.871692,4178.461436,4218.974256,4208.717846
78,0,4235.897332,4213.846051,4199.487077,4241.538358,4220.512717,4210.256307,4199.487077,4217.435794,4223.58964,4224.102461,4222.051179,4178.461436,4216.410153,4232.820409
79,0,4225.128102,4219.999897,4199.487077,4248.717845,4223.58964,4224.615281,4209.230666,4222.563999,4214.358871,4205.640923,4201.538359,4173.846052,4215.897333,4235.384512
80,0,4214.871692,4227.179384,4202.051179,4249.230665,4225.640922,4222.051179,4205.640923,4220.512717,4206.666564,4208.717846,4198.461436,4175.384513,4228.205025,4214.871692
81,0,4228.205025,4227.692204,4201.538359,4246.153742,4229.743486,4205.640923,4193.846051,4215.384512,4210.769128,4230.256307,4213.846051,4177.435795,4237.435794,4219.999897
82,0,4230.769127,4223.07682,4198.461436,4242.563999,4227.692204,4203.589641,4197.948615,4212.82041,4212.82041,4233.33323,4210.256307,4176.922975,4228.205025,4239.487076
83,0,4217.435794,4223.58964,4201.025538,4243.58964,4223.58964,4216.410153,4209.230666,4213.33323,4208.205025,4212.307589,4210.256307,4182.05118,4220.512717,4234.358871
84,0,4220.512717,4223.58964,4212.307589,4246.153742,4223.58964,4222.563999,4208.717846,4218.974256,4213.33323,4206.153743,4224.102461,4193.333231,4229.230666,4223.58964
85,0,4230.769127,4224.615281,4218.461435,4250.769127,4226.153743,4217.435794,4208.717846,4223.58964,4219.999897,4230.769127,4230.256307,4198.461436,4244.10246,4229.230666
86,0,4233.33323,4226.666563,4215.384512,4249.230665,4227.692204,4215.384512,4211.281948,4219.487076,4216.922974,4238.974255,4228.205025,4191.794769,4244.615281,4237.435794
87,0,4232.307589,4223.58964,4206.153743,4227.179384,4224.615281,4216.922974,4208.205025,4212.307589,4210.769128,4207.692205,4218.461435,4182.05118,4224.615281,4235.897332
88,0,4226.153743,4215.897333,4201.025538,4198.461436,4213.846051,4210.256307,4201.538359,4207.179384,4210.769128,4192.30759,4202.051179,4177.948616,4206.666564,4229.743486
89,0,4215.897333,4211.794769,4202.564,4194.871692,4210.769128,4204.102461,4195.897333,4206.666564,4211.794769,4214.871692,4199.999897,4178.461436,4214.871692,4224.102461
90,0,4211.281948,4211.794769,4203.07682,4212.307589,4217.435794,4204.615282,4190.256308,4207.692205,4212.82041,4218.974256,4199.999897,4170.769129,4216.922974,4211.794769
91,0,4221.538358,4210.769128,4197.948615,4219.487076,4220.512717,4205.128102,4189.743487,4207.179384,4211.794769,4204.102461,4191.794769,4159.487078,4203.07682,4197.435795
92,0,4228.717845,4214.358871,4199.487077,4214.871692,4221.025538,4206.666564,4195.384513,4212.307589,4215.384512,4212.82041,4205.128102,4167.179385,4215.897333,4201.538359
93,0,4215.384512,4218.974256,4208.717846,4210.769128,4222.051179,4209.230666,4195.897333,4218.974256,4218.461435,4230.769127,4229.230666,4185.128103,4233.84605,4220.512717
94,0,4207.692205,4222.051179,4213.33323,4208.717846,4218.974256,4208.717846,4191.794769,4213.846051,4216.410153,4232.820409,4231.281948,4187.692205,4223.07682,4225.128102
95,0,4211.794769,4216.922974,4214.358871,4199.487077,4213.33323,4201.538359,4189.743487,4202.564,4213.33323,4213.846051,4213.846051,4176.410154,4212.82041,4224.615281
96,0,4216.922974,4212.307589,4210.256307,4195.897333,4215.897333,4197.435795,4188.205026,4204.615282,4214.871692,4199.487077,4207.179384,4180.512718,4221.025538,4225.640922
97,0,4221.025538,4215.897333,4207.692205,4208.205025,4214.358871,4203.07682,4190.769128,4212.82041,4216.410153,4207.179384,4217.948615,4197.435795,4225.128102,4219.999897
98,0,4226.666563,4212.307589,4209.743487,4187.179385,4205.640923,4203.589641,4195.897333,4212.307589,4211.794769,4217.435794,4218.974256,4193.333231,4221.025538,4219.487076
99,0,4228.717845,4205.128102,4211.794769,4147.692206,4201.025538,4193.846051,4192.30759,4204.615282,4207.692205,4211.281948,4201.025538,4174.358872,4216.410153,4217.948615
100,0,4227.692204,4219.487076,4215.384512,4168.717847,4211.794769,4197.948615,4189.743487,4205.640923,4214.871692,4210.256307,4205.128102,4181.538359,4223.07682,4223.07682
101,0,4216.410153,4229.743486,4215.897333,4211.281948,4221.025538,4207.692205,4192.30759,4210.256307,4221.025538,4217.948615,4225.640922,4190.769128,4229.230666,4232.307589
102,0,4206.666564,4218.461435,4205.640923,4203.589641,4217.948615,4207.692205,4192.82041,4209.230666,4214.358871,4222.563999,4215.897333,4174.358872,4217.948615,4224.102461
103,0,4221.538358,4215.897333,4204.615282,4200.512718,4215.897333,4206.153743,4192.30759,4212.307589,4213.33323,4212.307589,4197.435795,4172.820411,4210.256307,4210.256307
104,0,4230.769127,4220.512717,4211.281948,4216.922974,4215.897333,4207.179384,4193.333231,4219.487076,4217.435794,4195.897333,4209.743487,4185.128103,4217.948615,4220.512717
105,0,4213.846051,4209.743487,4210.769128,4202.051179,4209.230666,4204.102461,4193.333231,4218.974256,4212.82041,4193.846051,4218.974256,4177.435795,4216.922974,4229.230666
106,0,4202.051179,4206.666564,4209.743487,4190.256308,4205.640923,4202.564,4191.281949,4218.974256,4207.692205,4205.640923,4201.538359,4170.769129,4209.230666,4221.538358
107,0,4211.794769,4217.435794,4216.410153,4196.410154,4212.307589,4205.128102,4187.692205,4224.102461,4210.256307,4212.82041,4196.922974,4181.538359,4209.743487,4218.974256
108,0,4217.435794,4218.461435,4217.948615,4182.564,4216.922974,4201.538359,4187.179385,4223.58964,4214.871692,4217.435794,4216.922974,4187.692205,4213.33323,4215.384512
109,0,4220.512717,4215.384512,4216.410153,4172.820411,4213.33323,4197.948615,4191.794769,4219.487076,4213.846051,4217.948615,4217.948615,4183.076821,4212.82041,4214.358871
110,0,4232.820409,4222.051179,4218.974256,4190.256308,4209.743487,4199.999897,4191.794769,4217.948615,4206.666564,4212.82041,4201.538359,4181.538359,4214.358871,4229.743486
111,0,4239.999896,4226.666563,4221.025538,4206.666564,4213.33323,4203.589641,4186.153744,4222.051179,4207.692205,4216.410153,4211.281948,4183.589641,4228.717845,4243.58964
112,0,4231.281948,4225.128102,4222.051179,4212.82041,4217.948615,4206.666564,4190.256308,4225.640922,4214.871692,4206.153743,4227.179384,4186.153744,4233.33323,4241.025537
113,0,4221.025538,4225.640922,4219.487076,4214.358871,4215.384512,4210.256307,4196.922974,4227.179384,4215.897333,4183.589641,4219.999897,4185.128103,4219.487076,4234.358871
114,0,4217.435794,4223.58964,4216.922974,4208.205025,4209.230666,4210.256307,4199.487077,4225.640922,4209.743487,4186.666564,4204.615282,4181.538359,4213.33323,4215.384512
115,0,4211.281948,4216.410153,4214.358871,4204.102461,4208.717846,4208.717846,4202.564,4226.666563,4212.307589,4216.922974,4210.256307,4183.076821,4225.128102,4210.256307
116,0,4211.794769,4215.897333,4213.33323,4208.205025,4214.358871,4207.692205,4199.487077,4233.33323,4221.025538,4242.051178,4219.999897,4182.564,4228.717845,4233.33323
117,0,4227.179384,4224.102461,4211.794769,4216.410153,4225.128102,4207.179384,4198.974256,4239.999896,4222.563999,4237.435794,4216.922974,4182.564,4222.563999,4235.384512
118,0,4239.487076,4225.640922,4214.871692,4220.512717,4224.615281,4210.256307,4207.179384,4237.435794,4215.897333,4217.948615,4219.487076,4188.717846,4220.512717,4221.538358
119,0,4246.153742,4232.820409,4223.07682,4219.487076,4224.102461,4221.538358,4213.846051,4239.487076,4217.948615,4216.410153,4233.33323,4198.974256,4231.281948,4237.948614
120,0,4246.153742,4247.179383,4232.820409,4222.563999,4235.384512,4226.153743,4209.743487,4246.666563,4226.666563,4225.128102,4233.33323,4204.102461,4237.435794,4252.820409
121,0,4239.487076,4250.256306,4234.871691,4231.281948,4242.051178,4223.07682,4207.179384,4245.640922,4223.07682,4219.999897,4219.487076,4198.461436,4228.717845,4242.051178
122,0,4240.512717,4241.538358,4233.33323,4235.384512,4238.461435,4221.538358,4206.666564,4238.461435,4216.410153,4211.794769,4223.07682,4194.871692,4224.615281,4246.666563
123,0,4243.58964,4236.410153,4232.820409,4227.692204,4233.84605,4221.538358,4207.179384,4238.461435,4217.435794,4225.640922,4236.922973,4194.871692,4233.33323,4259.999896
124,0,4239.999896,4236.922973,4229.743486,4219.487076,4226.666563,4213.846051,4209.743487,4239.487076,4217.948615,4229.743486,4230.769127,4195.897333,4233.33323,4239.487076
125,0,4233.84605,4234.871691,4225.128102,4215.384512,4223.07682,4205.128102,4202.051179,4234.871691,4214.871692,4217.435794,4216.922974,4191.281949,4227.179384,4220.512717
126,0,4230.769127,4233.84605,4231.794768,4224.615281,4228.717845,4210.256307,4197.948615,4234.871691,4222.563999,4227.692204,4225.128102,4194.871692,4237.435794,4241.538358
127,0,4237.435794,4241.025537,4241.025537,4243.076819,4234.358871,4225.640922,4213.846051,4248.205024,4233.33323,4248.717845,4245.128101,4207.692205,4252.307588,4262.563998
128,0,4250.769127,4250.256306,4241.538358,4248.717845,4237.948614,4230.256307,4223.07682,4260.512716,4233.84605,4238.461435,4252.820409,4210.256307,4250.256306,4251.794768
0,0,4256.410152,4248.205024,4239.999896,4242.051178,4239.999896,4225.128102,4214.358871,4255.384511,4229.743486,4224.615281,4248.205024,4208.717846,4243.076819,4247.692204
1,0,4262.051178,4250.769127,4241.538358,4247.692204,4234.358871,4224.615281,4214.358871,4247.692204,4230.256307,4243.58964,4246.153742,4213.33323,4247.692204,4266.666562
2,0,4267.692203,4257.948614,4239.999896,4254.35887,4229.743486,4228.205025,4223.07682,4248.205024,4230.256307,4250.256306,4243.58964,4207.692205,4255.384511,4276.922972
3,0,4253.333229,4251.281947,4233.33323,4232.820409,4234.871691,4224.615281,4212.307589,4244.615281,4227.692204,4231.281948,4230.256307,4189.743487,4248.205024,4269.230665
4,0,4231.281948,4235.384512,4230.769127,4208.205025,4234.871691,4221.025538,4202.051179,4234.871691,4222.563999,4221.538358,4215.897333,4185.640923,4229.230666,4237.435794
5,0,4226.666563,4230.256307,4227.179384,4207.692205,4230.769127,4225.128102,4214.871692,4235.384512,4221.538358,4220.512717,4223.07682,4189.230667,4223.07682,4217.435794
6,0,4226.153743,4229.230666,4223.58964,4207.179384,4230.769127,4225.128102,4222.563999,4243.58964,4223.58964,4223.58964,4236.922973,4183.589641,4230.769127,4235.384512
7,0,4226.666563,4227.179384,4224.615281,4194.358872,4231.281948,4221.025538,4214.358871,4246.153742,4227.179384,4228.717845,4231.281948,4180.512718,4233.84605,4251.794768
8,0,4237.435794,4229.743486,4228.717845,4199.999897,4225.640922,4215.384512,4208.205025,4241.025537,4225.128102,4225.640922,4222.051179,4186.153744,4229.230666,4244.10246
9,0,4243.076819,4238.461435,4232.307589,4224.102461,4226.666563,4218.461435,4213.846051,4243.076819,4226.153743,4226.153743,4237.948614,4196.410154,4232.820409,4248.205024
10,0,4244.615281,4244.615281,4234.871691,4236.410153,4234.871691,4228.205025,4223.58964,4255.897332,4235.897332,4227.179384,4249.230665,4205.128102,4236.922973,4255.384511
11,0,4253.84605,4248.205024,4236.922973,4233.33323,4237.948614,4232.820409,4222.051179,4265.128101,4238.974255,4230.256307,4235.897332,4212.307589,4241.025537,4251.281947
12,0,4255.897332,4251.794768,4241.538358,4228.717845,4236.922973,4226.153743,4210.769128,4258.461434,4235.897332,4238.974255,4228.205025,4211.281948,4249.230665,4264.10246
13,0,4248.717845,4247.692204,4241.025537,4225.640922,4237.948614,4222.563999,4207.179384,4252.307588,4231.794768,4239.999896,4241.025537,4199.999897,4248.205024,4271.794767
14,0,4241.025537,4238.461435,4232.820409,4224.102461,4237.435794,4228.205025,4211.281948,4254.35887,4231.281948,4226.153743,4245.640922,4188.717846,4230.769127,4247.179383
15,0,4232.307589,4241.025537,4227.692204,4221.538358,4232.307589,4226.153743,4210.256307,4250.256306,4227.692204,4215.384512,4232.307589,4184.615282,4221.538358,4231.794768
16,0,4235.897332,4242.563999,4232.820409,4219.999897,4232.820409,4224.102461,4214.871692,4246.666563,4228.717845,4223.07682,4229.230666,4186.153744,4231.281948,4245.640922
17,0,4247.692204,4235.384512,4233.33323,4223.07682,4242.563999,4235.897332,4227.692204,4257.435793,4232.820409,4238.974255,4236.410153,4191.281949,4245.640922,4260.512716
18,0,4242.051178,4237.435794,4229.743486,4233.33323,4245.640922,4239.487076,4226.153743,4265.128101,4236.410153,4239.487076,4230.256307,4197.948615,4243.58964,4253.84605
19,0,4228.717845,4243.58964,4232.820409,4236.922973,4242.563999,4228.205025,4215.384512,4253.84605,4235.384512,4231.281948,4222.563999,4199.999897,4234.358871,4245.640922
20,0,4235.897332,4242.051178,4237.948614,4231.794768,4242.563999,4227.179384,4218.974256,4253.333229,4234.871691,4248.717845,4239.999896,4201.538359,4242.563999,4261.025537
21,0,4252.307588,4244.10246,4242.051178,4230.769127,4242.051178,4232.307589,4227.179384,4267.692203,4238.974255,4256.410152,4261.538357,4206.666564,4255.897332,4278.974254
22,0,4266.666562,4250.769127,4241.025537,4237.948614,4240.512717,4228.205025,4224.615281,4267.179383,4239.487076,4234.871691,4255.897332,4207.179384,4250.256306,4272.307588
23,0,4263.589639,4244.10246,4237.435794,4231.794768,4240.512717,4225.640922,4213.846051,4251.794768,4230.769127,4229.743486,4237.435794,4199.487077,4235.897332,4254.35887
24,0,4235.384512,4230.769127,4232.307589,4218.974256,4237.435794,4222.563999,4201.025538,4244.10246,4224.102461,4235.384512,4231.281948,4195.384513,4233.84605,4246.153742
25,0,4216.922974,4223.58964,4228.717845,4215.384512,4229.743486,4212.82041,4194.358872,4242.563999,4221.538358,4218.461435,4224.615281,4184.615282,4231.281948,4242.051178
26,0,4224.615281,4225.128102,4224.102461,4212.307589,4224.615281,4217.435794,4198.974256,4239.999896,4222.051179,4205.640923,4219.487076,4169.743488,4225.640922,4244.615281
27,0,4230.769127,4223.07682,4220.512717,4210.769128,4221.538358,4221.538358,4205.128102,4235.384512,4222.051179,4217.435794,4216.922974,4170.769129,4220.512717,4244.615281
28,0,4225.128102,4221.538358,4217.435794,4214.358871,4223.58964,4210.256307,4203.07682,4234.358871,4221.538358,4230.256307,4215.897333,4180.512718,4219.999897,4234.871691
29,0,4227.692204,4220.512717,4216.410153,4210.769128,4224.615281,4207.692205,4198.461436,4237.435794,4221.538358,4224.102461,4216.410153,4180.512718,4221.025538,4222.563999
30,0,4225.640922,4216.922974,4214.871692,4199.487077,4221.538358,4214.358871,4199.487077,4234.358871,4219.999897,4213.33323,4212.82041,4172.30759,4212.82041,4216.410153
31,0,4213.846051,4215.384512,4218.974256,4203.589641,4221.538358,4212.82041,4202.051179,4231.794768,4226.666563,4218.461435,4216.410153,4175.384513,4211.794769,4233.33323
32,0,4206.666564,4216.410153,4222.563999,4206.666564,4224.102461,4211.794769,4199.999897,4242.563999,4233.84605,4225.640922,4230.256307,4185.640923,4229.743486,4247.179383
33,0,4204.615282,4205.640923,4217.435794,4187.179385,4219.487076,4209.743487,4195.897333,4247.179383,4231.794768,4219.487076,4229.743486,4182.564,4233.33323,4228.205025
34,0,4214.871692,4200.512718,4209.230666,4181.025539,4215.897333,4211.281948,4199.487077,4241.538358,4228.205025,4219.999897,4215.897333,4168.717847,4219.999897,4216.922974
35,0,4239.487076,4218.974256,4213.33323,4201.025538,4217.435794,4222.051179,4205.640923,4247.179383,4233.84605,4228.205025,4213.33323,4171.281949,4220.512717,4232.820409
36,0,4237.948614,4219.487076,4219.487076,4209.230666,4211.281948,4221.025538,4202.564,4252.307588,4234.871691,4221.538358,4216.410153,4179.487077,4226.666563,4241.025537
37,0,4197.435795,4200.512718,4215.384512,4196.410154,4207.692205,4209.230666,4195.897333,4243.076819,4227.692204,4213.33323,4210.769128,4169.230667,4219.999897,4232.820409
38,0,4184.615282,4199.487077,4208.717846,4195.897333,4211.794769,4208.717846,4194.871692,4232.820409,4221.025538,4214.871692,4208.717846,4160.512719,4215.897333,4218.461435
39,0,4229.230666,4217.435794,4209.743487,4211.794769,4218.974256,4215.384512,4202.051179,4235.897332,4223.58964,4223.07682,4218.974256,4168.205026,4225.640922,4219.999897
40,0,4253.333229,4224.102461,4217.948615,4223.07682,4222.051179,4214.871692,4207.179384,4241.538358,4230.256307,4234.358871,4225.640922,4175.897334,4229.230666,4239.487076
41,0,4222.563999,4216.410153,4222.051179,4226.153743,4219.487076,4216.410153,4207.692205,4242.563999,4231.794768,4225.128102,4221.025538,4179.487077,4221.538358,4242.051178
42,0,4211.281948,4217.435794,4224.615281,4226.666563,4219.999897,4222.051179,4206.153743,4242.051178,4231.281948,4204.615282,4216.410153,4186.666564,4224.102461,4235.384512
43,0,4236.410153,4228.205025,4225.640922,4227.179384,4226.153743,4225.128102,4205.640923,4247.179383,4233.84605,4215.384512,4226.153743,4189.230667,4240.512717,4252.307588
44,0,4229.743486,4220.512717,4224.615281,4222.051179,4218.461435,4219.999897,4204.102461,4247.692204,4232.307589,4235.384512,4231.794768,4182.564,4244.615281,4250.256306
45,0,4206.153743,4199.487077,4217.948615,4183.076821,4204.102461,4209.743487,4191.794769,4231.794768,4223.58964,4226.153743,4217.435794,4171.281949,4223.58964,4221.538358
46,0,4193.846051,4176.922975,4204.615282,4072.820413,4193.846051,4184.102462,4164.102462,4199.999897,4202.564,4196.410154,4184.615282,4143.589642,4188.717846,4202.051179
47,0,4156.922975,4142.051181,4172.820411,3910.769135,4166.666565,4150.769129,4137.435796,4164.102462,4169.230667,4158.974257,4144.102463,4103.589643,4153.846052,4166.666565
48,0,4110.76913,4096.410156,4137.435796,3789.230677,4126.153745,4129.743489,4120.51272,4132.820412,4136.410155,4106.666566,4108.205028,4070.256311,4116.410156,4101.025541
49,0,4077.948618,4065.640926,4121.02554,3738.461447,4108.205028,4122.564002,4107.692207,4117.435797,4116.922976,4067.692208,4086.153746,4049.23067,4081.538362,4069.23067
50,0,4036.922978,4047.692209,4117.435797,3712.307602,4105.128105,4117.948617,4101.538361,4108.205028,4106.666566,4064.102465,4070.769131,4032.820414,4062.564003,4072.307593
51,0,4028.20503,4044.102465,4114.358874,3698.974269,4097.948618,4115.897335,4104.615284,4098.974259,4104.102464,4070.769131,4059.999901,4026.153748,4059.48708,4058.461439
52,0,4061.025542,4038.46144,4108.717848,3701.025551,4086.666567,4114.358874,4112.820412,4100.51272,4107.179387,4057.948619,4055.384516,4029.743491,4048.71785,4033.333235
53,0,4062.051183,4025.128107,4103.076823,3700.51273,4088.205028,4113.333233,4116.410156,4108.717848,4108.205028,4050.769132,4064.102465,4031.281953,4039.999901,4036.410158
54,0,4041.538363,4036.922978,4108.205028,3698.461448,4100.51272,4114.871694,4107.179387,4107.179387,4109.230669,4078.461439,4079.48708,4033.333235,4052.307593,4056.410157
55,0,4051.281952,4062.564003,4114.871694,3705.128115,4101.025541,4116.410156,4099.9999,4103.589643,4109.743489,4090.25631,4080.512721,4034.358876,4055.384516,4059.999901
56,0,4056.922978,4067.179388,4109.743489,3710.25632,4094.871695,4119.487079,4108.205028,4109.743489,4111.281951,4064.615285,4063.076824,4028.20503,4037.435799,4050.256311
57,0,4035.384517,4059.48708,4106.666566,3717.948627,4097.948618,4118.974258,4111.794771,4111.794771,4108.205028,4055.897337,4048.205029,4021.025543,4024.102466,4042.564004
58,0,4042.051183,4061.538362,4115.897335,3731.28196,4098.461438,4112.307592,4104.615284,4108.717848,4105.128105,4072.307593,4055.897337,4028.71785,4033.846055,4041.538363
59,0,4068.205029,4060.512721,4115.897335,3737.948627,4094.871695,4116.410156,4106.666566,4109.743489,4101.025541,4066.153747,4065.128106,4037.435799,4035.897337,4040.512722
60,0,4068.205029,4058.461439,4107.692207,3744.102473,4098.974259,4128.205027,4114.358874,4111.281951,4098.461438,4057.948619,4054.358875,4030.256312,4023.589645,4038.97426
61,0,4057.435798,4069.74349,4116.410156,3761.025549,4104.615284,4126.666566,4117.435797,4116.922976,4105.128105,4066.153747,4049.23067,4031.794773,4027.179389,4047.692209
62,0,4052.307593,4075.384516,4128.717848,3770.769139,4109.230669,4121.02554,4121.02554,4125.640925,4110.76913,4065.640926,4064.615285,4045.128106,4041.025542,4056.410157
63,0,4052.820414,4067.179388,4125.128104,3770.769139,4112.307592,4125.128104,4117.948617,4125.128104,4107.692207,4061.025542,4071.281952,4042.051183,4035.897337,4051.281952
64,0,4066.666567,4071.794772,4115.897335,3786.153754,4112.820412,4133.333232,4121.538361,4125.640925,4109.230669,4067.692208,4072.820413,4035.384517,4030.769132,4053.846055
65,0,4071.281952,4086.666567,4125.640925,3807.692215,4112.307592,4134.358873,4133.333232,4133.846053,4118.461438,4073.846054,4081.538362,4054.871696,4044.615286,4071.794772
66,0,4072.307593,4091.794772,4136.410155,3804.615292,4115.897335,4132.820412,4131.28195,4136.410155,4120.51272,4083.589644,4088.205028,4070.256311,4055.897337,4086.153746
67,0,4094.358874,4094.358874,4136.922976,3804.615292,4122.051181,4137.948617,4126.666566,4138.461437,4122.051181,4106.153746,4091.281951,4059.999901,4058.97426,4095.384515
68,0,4099.9999,4100.51272,4136.922976,3822.564009,4125.128104,4141.53836,4137.948617,4148.717847,4124.615284,4116.410156,4090.25631,4056.410157,4068.205029,4095.384515
69,0,4077.435798,4100.51272,4139.999899,3832.307599,4124.615284,4137.435796,4140.512719,4147.692206,4119.999899,4094.358874,4083.589644,4065.640926,4065.640926,4081.025541
70,0,4079.48708,4100.51272,4136.410155,3835.897342,4127.179386,4139.487078,4131.28195,4139.487078,4113.333233,4073.846054,4090.769131,4065.640926,4051.281952,4069.74349
71,0,4092.307592,4097.948618,4135.897335,3844.615291,4130.76913,4148.205027,4141.53836,4144.615283,4114.358874,4079.9999,4103.076823,4062.051183,4057.435798,4079.48708
72,0,4088.205028,4099.487079,4143.589642,3850.769137,4127.179386,4146.666565,4146.666565,4146.666565,4114.871694,4095.384515,4099.9999,4067.692208,4078.461439,4101.025541
73,0,4091.794772,4111.794771,4144.102463,3855.897342,4127.179386,4138.461437,4128.717848,4138.461437,4113.846053,4103.076823,4096.922977,4071.281952,4074.358875,4109.230669
74,0,4102.051182,4119.487079,4143.076822,3865.128111,4138.461437,4142.051181,4128.205027,4145.640924,4117.948617,4112.307592,4099.9999,4069.23067,4063.076824,4092.307592
75,0,4109.230669,4121.02554,4150.769129,3877.435803,4147.692206,4150.769129,4148.717847,4162.05118,4126.666566,4122.051181,4106.153746,4075.897336,4073.846054,4084.102464
76,0,4108.205028,4127.179386,4156.922975,3886.666572,4141.02554,4150.256309,4153.333232,4163.076821,4130.76913,4123.589643,4111.281951,4087.179387,4083.076823,4105.128105
77,0,4107.692207,4132.820412,4156.410155,3895.38452,4133.846053,4150.256309,4149.230668,4163.076821,4132.820412,4124.102463,4109.230669,4093.333233,4085.640926,4121.02554
78,0,4118.974258,4135.384514,4155.384514,3904.102469,4139.487078,4150.769129,4151.79477,4169.230667,4135.384514,4117.435797,4111.794771,4089.74349,4091.794772,4121.538361
79,0,4126.153745,4137.948617,4155.897334,3907.179392,4142.564001,4147.692206,4151.79477,4172.30759,4137.435796,4115.384515,4128.205027,4084.102464,4091.281951,4114.358874
80,0,4111.794771,4134.871694,4157.948616,3911.281956,4133.846053,4144.615283,4145.640924,4171.281949,4137.435796,4116.922976,4133.846053,4084.102464,4085.640926,4108.717848
81,0,4098.974259,4131.28195,4155.384514,3921.025545,4136.922976,4145.640924,4141.02554,4165.640924,4131.794771,4119.487079,4126.153745,4083.076823,4091.794772,4116.410156
82,0,4115.897335,4132.820412,4157.948616,3929.230673,4150.256309,4149.230668,4142.051181,4161.025539,4129.743489,4132.307591,4118.974258,4081.538362,4091.794772,4118.461438
83,0,4137.948617,4141.02554,4161.53836,3933.333237,4153.846052,4157.948616,4155.384514,4170.256308,4136.410155,4146.666565,4116.410156,4086.666567,4088.717849,4118.974258
84,0,4134.871694,4147.179386,4160.512719,3948.205032,4151.28195,4159.999898,4162.05118,4178.461436,4140.512719,4152.820411,4118.974258,4093.846054,4097.435797,4126.666566
85,0,4122.564002,4150.256309,4158.974257,3961.538365,4156.922975,4157.435796,4159.999898,4178.461436,4141.02554,4145.128104,4124.615284,4094.358874,4106.153746,4127.692207
86,0,4126.666566,4151.79477,4165.640924,3956.41016,4160.512719,4163.589642,4168.717847,4178.461436,4141.53836,4127.692207,4131.794771,4094.871695,4106.153746,4123.076822
87,0,4132.307591,4159.999898,4171.281949,3957.435801,4161.53836,4169.230667,4174.871693,4183.589641,4144.615283,4130.256309,4147.692206,4103.589643,4116.410156,4142.051181
88,0,4134.358873,4170.256308,4174.871693,3974.358877,4162.05118,4164.615283,4166.666565,4190.769128,4150.769129,4149.743488,4156.922975,4110.25631,4128.717848,4159.487078
89,0,4147.179386,4173.333231,4176.922975,3979.487082,4163.076821,4166.666565,4161.53836,4193.333231,4149.743488,4150.769129,4148.717847,4109.230669,4123.076822,4138.461437
90,0,4148.205027,4170.769129,4170.256308,3969.230672,4167.692206,4168.717847,4166.153744,4187.692205,4143.076822,4145.128104,4139.487078,4103.076823,4119.999899,4128.717848
91,0,4134.871694,4168.717847,4165.640924,3973.846057,4174.358872,4165.128103,4171.281949,4187.692205,4144.102463,4158.974257,4144.102463,4101.538361,4127.692207,4156.410155
92,0,4143.589642,4172.30759,4175.897334,3994.871697,4177.435795,4169.743488,4174.358872,4196.922974,4151.79477,4167.692206,4151.28195,4104.615284,4124.102463,4162.05118
93,0,4149.743488,4175.384513,4181.025539,4002.051184,4177.948616,4172.820411,4173.333231,4201.025538,4151.28195,4165.128103,4146.666565,4112.820412,4119.999899,4134.358873
94,0,4131.28195,4174.871693,4175.384513,4000.512723,4179.487077,4169.230667,4175.384513,4201.025538,4149.743488,4158.461437,4144.615283,4125.128104,4132.820412,4141.02554
95,0,4130.256309,4169.743488,4174.358872,4010.769133,4177.948616,4171.79477,4179.999898,4202.051179,4149.743488,4145.128104,4158.461437,4126.153745,4138.461437,4164.102462
96,0,4159.487078,4169.230667,4179.487077,4017.94862,4175.384513,4174.358872,4176.922975,4203.589641,4151.28195,4152.307591,4168.717847,4119.487079,4131.28195,4160.512719
97,0,4167.692206,4177.435795,4184.102462,4016.922979,4177.435795,4171.79477,4175.384513,4206.666564,4151.79477,4159.487078,4158.974257,4125.640925,4134.358873,4159.487078
98,0,4154.358873,4186.666564,4188.717846,4031.281953,4182.05118,4176.922975,4183.076821,4209.743487,4153.333232,4154.871693,4160.512719,4143.076822,4147.179386,4176.922975
99,0,4157.948616,4188.717846,4191.281949,4049.743491,4182.05118,4178.461436,4184.615282,4208.717846,4155.897334,4163.589642,4169.743488,4139.999899,4150.769129,4179.999898
100,0,4177.435795,4191.794769,4183.589641,4046.153747,4183.589641,4177.948616,4181.538359,4208.205025,4154.358873,4183.076821,4159.487078,4121.538361,4143.589642,4166.666565
101,0,4179.487077,4196.410154,4181.025539,4045.128106,4186.153744,4186.666564,4180.512718,4207.692205,4150.769129,4186.153744,4150.769129,4114.871694,4139.487078,4164.615283
102,0,4163.076821,4192.82041,4185.128103,4056.922978,4191.794769,4188.205026,4181.538359,4209.743487,4156.410155,4182.05118,4172.820411,4123.589643,4151.28195,4179.487077
103,0,4158.461437,4183.589641,4185.128103,4057.435798,4192.30759,4176.922975,4179.999898,4211.281948,4162.05118,4169.743488,4180.512718,4128.205027,4151.28195,4172.30759
