title:V                                                                               , recorded:06.07.20 14.00.51, sampling:128, subject:B                                                                               , labels:COUNTER INTERPOLATED AF3 F7 F3 FC5 T7 P7 O1 O2 P8 T8 FC6 F4 F8 AF4,, units:emotiv,,,,,,,,,
19,0,4246.153742,4239.487076,4245.128101,4247.179383,4238.461435,4230.256307,4227.179384,4215.897333,4239.999896,4247.179383,4244.615281,4199.999897,4244.615281,4254.35887
20,0,4224.615281,4234.871691,4248.717845,4243.58964,4234.358871,4225.128102,4220.512717,4209.743487,4236.922973,4246.666563,4228.717845,4201.025538,4246.153742,4248.205024
21,0,4230.256307,4232.820409,4239.487076,4245.128101,4233.33323,4222.563999,4222.563999,4210.256307,4228.205025,4239.487076,4232.307589,4200.512718,4238.974255,4240.512717
22,0,4249.230665,4233.84605,4234.358871,4246.666563,4237.948614,4225.640922,4226.153743,4212.82041,4229.230666,4238.461435,4242.563999,4201.538359,4231.794768,4238.974255
23,0,4242.563999,4233.84605,4236.410153,4248.717845,4239.999896,4224.102461,4222.051179,4208.205025,4230.256307,4242.051178,4234.871691,4196.410154,4235.384512,4250.769127
24,0,4241.025537,4232.307589,4235.384512,4253.84605,4235.897332,4223.07682,4220.512717,4205.640923,4224.615281,4231.281948,4223.58964,4193.846051,4237.435794,4252.307588
25,0,4242.051178,4231.281948,4232.820409,4255.384511,4233.84605,4227.179384,4223.07682,4207.179384,4225.128102,4214.871692,4231.281948,4194.358872,4235.897332,4236.922973
26,0,4214.358871,4232.307589,4229.230666,4246.666563,4237.948614,4229.230666,4224.102461,4206.666564,4227.179384,4226.666563,4244.615281,4191.794769,4246.153742,4230.769127
27,0,4210.769128,4229.743486,4231.281948,4235.384512,4238.461435,4228.717845,4224.615281,4205.128102,4224.102461,4243.58964,4239.487076,4190.256308,4252.820409,4236.410153
28,0,4249.743486,4229.743486,4233.84605,4241.025537,4235.897332,4233.84605,4231.281948,4207.692205,4227.179384,4245.640922,4233.84605,4190.256308,4248.717845,4249.230665
29,0,4257.948614,4234.871691,4229.743486,4258.461434,4236.922973,4237.435794,4234.871691,4211.281948,4233.33323,4247.179383,4238.974255,4189.743487,4246.666563,4256.410152
30,0,4237.435794,4238.461435,4230.256307,4258.974255,4243.076819,4236.922973,4228.717845,4211.281948,4232.820409,4248.205024,4245.128101,4196.410154,4252.820409,4252.820409
31,0,4231.794768,4235.384512,4238.974255,4250.256306,4244.615281,4234.358871,4222.051179,4207.692205,4233.33323,4245.128101,4239.487076,4204.102461,4254.35887,4250.256306
32,0,4228.717845,4231.281948,4236.922973,4254.871691,4243.58964,4234.358871,4225.640922,4209.230666,4237.948614,4245.640922,4234.358871,4198.461436,4250.256306,4254.871691
33,0,4224.615281,4224.102461,4223.58964,4257.948614,4239.999896,4233.33323,4230.769127,4212.307589,4234.358871,4234.871691,4228.205025,4185.640923,4236.922973,4237.948614
34,0,4238.461435,4222.563999,4216.922974,4250.769127,4232.820409,4229.230666,4225.640922,4210.256307,4227.179384,4226.153743,4227.692204,4183.589641,4230.256307,4224.102461
35,0,4253.333229,4229.743486,4226.666563,4247.692204,4231.794768,4229.230666,4221.538358,4211.281948,4232.307589,4238.974255,4240.512717,4194.358872,4240.512717,4242.051178
36,0,4242.051178,4234.871691,4231.794768,4249.230665,4240.512717,4237.948614,4231.281948,4216.922974,4236.410153,4241.538358,4246.153742,4199.999897,4246.153742,4246.153742
37,0,4217.435794,4230.256307,4227.692204,4249.743486,4242.563999,4239.487076,4235.384512,4215.897333,4233.33323,4231.281948,4237.948614,4195.897333,4237.948614,4235.897332
38,0,4223.58964,4227.179384,4227.692204,4242.563999,4237.435794,4228.717845,4226.153743,4207.179384,4228.717845,4231.794768,4230.256307,4201.025538,4231.794768,4244.615281
39,0,4239.487076,4223.58964,4230.769127,4217.948615,4230.256307,4221.025538,4221.025538,4199.487077,4227.179384,4227.692204,4220.512717,4201.538359,4229.743486,4242.051178
40,0,4222.563999,4214.871692,4223.58964,4204.102461,4224.615281,4221.538358,4226.666563,4199.487077,4222.563999,4221.025538,4216.410153,4186.666564,4226.666563,4227.692204
41,0,4214.871692,4213.846051,4221.025538,4221.538358,4223.07682,4224.615281,4228.717845,4206.153743,4220.512717,4228.717845,4228.205025,4178.974257,4228.205025,4236.410153
42,0,4227.179384,4220.512717,4225.640922,4235.897332,4224.615281,4227.179384,4227.179384,4207.179384,4223.07682,4233.33323,4231.281948,4184.102462,4227.692204,4240.512717
43,0,4219.999897,4219.487076,4221.025538,4229.230666,4226.153743,4222.563999,4224.102461,4198.974256,4222.051179,4219.487076,4217.435794,4184.102462,4218.461435,4226.153743
44,0,4214.358871,4215.384512,4219.487076,4227.179384,4228.717845,4218.461435,4221.025538,4196.410154,4222.051179,4212.82041,4219.999897,4181.025539,4219.999897,4227.179384
45,0,4236.922973,4225.128102,4227.692204,4233.33323,4229.743486,4223.07682,4225.128102,4207.692205,4230.256307,4223.58964,4228.717845,4187.179385,4236.922973,4236.410153
46,0,4243.076819,4231.281948,4232.307589,4233.84605,4225.640922,4224.102461,4228.205025,4209.743487,4231.281948,4231.281948,4221.025538,4194.871692,4237.435794,4235.897332
47,0,4238.461435,4230.256307,4237.948614,4235.897332,4228.717845,4227.692204,4233.33323,4208.205025,4229.230666,4230.769127,4227.692204,4201.025538,4228.717845,4244.615281
48,0,4237.435794,4230.769127,4242.563999,4235.897332,4231.281948,4236.922973,4238.461435,4218.461435,4238.974255,4233.33323,4245.640922,4203.07682,4232.820409,4261.025537
49,0,4227.692204,4230.769127,4231.794768,4229.230666,4229.743486,4236.410153,4234.358871,4222.563999,4243.076819,4237.948614,4247.179383,4198.461436,4242.051178,4264.10246
50,0,4231.281948,4230.256307,4230.256307,4237.435794,4232.307589,4227.179384,4226.666563,4210.256307,4236.410153,4234.358871,4236.922973,4195.897333,4243.58964,4244.10246
51,0,4249.230665,4233.33323,4237.435794,4249.743486,4236.922973,4228.717845,4231.281948,4209.743487,4235.897332,4232.307589,4237.435794,4198.461436,4243.076819,4235.384512
52,0,4242.051178,4224.615281,4230.256307,4241.025537,4226.666563,4230.769127,4234.358871,4217.435794,4237.948614,4229.743486,4231.281948,4194.358872,4232.307589,4243.58964
53,0,4212.307589,4215.384512,4217.948615,4233.84605,4218.974256,4223.58964,4228.205025,4212.82041,4233.84605,4229.230666,4218.461435,4182.564,4222.051179,4249.230665
54,0,4206.153743,4224.615281,4228.205025,4246.666563,4228.717845,4219.487076,4222.563999,4207.692205,4235.384512,4237.948614,4224.615281,4183.589641,4230.256307,4241.025537
55,0,4226.153743,4234.871691,4235.384512,4249.230665,4233.33323,4222.051179,4223.07682,4212.307589,4236.922973,4232.820409,4238.461435,4191.281949,4243.58964,4234.358871
56,0,4239.487076,4228.717845,4224.102461,4238.461435,4226.666563,4224.102461,4226.153743,4211.281948,4233.84605,4214.358871,4235.897332,4185.640923,4234.871691,4239.999896
57,0,4236.410153,4222.051179,4224.102461,4234.358871,4226.666563,4224.102461,4228.717845,4208.717846,4230.769127,4225.640922,4229.230666,4180.512718,4225.128102,4245.640922
58,0,4230.256307,4221.025538,4233.33323,4235.384512,4228.205025,4223.07682,4229.230666,4211.794769,4233.33323,4253.84605,4232.820409,4189.230667,4238.461435,4243.58964
59,0,4228.717845,4225.640922,4229.230666,4238.974255,4226.666563,4226.153743,4227.692204,4213.846051,4237.948614,4251.794768,4241.025537,4199.999897,4247.692204,4246.666563
60,0,4232.820409,4233.84605,4226.153743,4243.58964,4231.794768,4227.179384,4225.640922,4208.205025,4237.948614,4235.384512,4241.538358,4201.025538,4245.128101,4257.435793
61,0,4246.153742,4238.461435,4232.820409,4247.179383,4236.410153,4223.58964,4222.051179,4204.615282,4231.281948,4233.33323,4235.384512,4197.435795,4251.794768,4256.922973
62,0,4253.333229,4240.512717,4232.820409,4250.769127,4233.33323,4223.07682,4222.563999,4207.692205,4229.230666,4241.025537,4238.461435,4195.384513,4252.820409,4259.487075
63,0,4236.410153,4237.948614,4225.640922,4240.512717,4229.743486,4221.538358,4223.58964,4205.128102,4228.717845,4232.820409,4238.461435,4186.153744,4233.33323,4259.999896
64,0,4224.615281,4226.666563,4220.512717,4228.205025,4226.153743,4219.487076,4221.538358,4198.974256,4221.025538,4210.256307,4216.922974,4172.820411,4224.615281,4226.666563
65,0,4222.563999,4214.871692,4219.999897,4237.435794,4223.07682,4215.897333,4216.922974,4197.435795,4217.948615,4208.205025,4206.666564,4171.79477,4229.230666,4208.205025
66,0,4209.230666,4213.33323,4216.922974,4244.10246,4224.102461,4216.410153,4216.922974,4204.615282,4223.58964,4224.102461,4227.179384,4183.589641,4221.025538,4232.307589
67,0,4208.205025,4213.846051,4216.922974,4234.871691,4222.563999,4221.538358,4228.717845,4213.33323,4227.179384,4224.615281,4226.666563,4185.640923,4210.256307,4242.051178
68,0,4231.281948,4219.999897,4224.615281,4241.025537,4224.102461,4226.153743,4239.999896,4221.025538,4230.256307,4225.128102,4212.307589,4186.153744,4222.051179,4238.461435
69,0,4242.563999,4230.769127,4236.410153,4255.384511,4227.179384,4226.153743,4233.33323,4221.538358,4236.922973,4236.410153,4223.07682,4193.846051,4237.435794,4246.153742
70,0,4240.512717,4233.84605,4234.871691,4243.076819,4228.205025,4225.640922,4225.640922,4216.922974,4236.410153,4238.461435,4237.435794,4192.30759,4238.974255,4250.769127
71,0,4238.461435,4226.666563,4229.743486,4229.230666,4228.205025,4226.153743,4231.281948,4216.922974,4233.33323,4234.871691,4235.897332,4190.769128,4235.897332,4248.205024
72,0,4228.205025,4225.640922,4233.84605,4232.307589,4230.769127,4226.666563,4229.230666,4214.871692,4232.307589,4236.410153,4235.897332,4197.948615,4242.051178,4249.230665
73,0,4222.051179,4229.743486,4237.435794,4227.179384,4226.666563,4225.128102,4221.538358,4208.205025,4229.743486,4228.717845,4234.358871,4198.974256,4239.487076,4240.512717
74,0,4236.410153,4228.717845,4234.358871,4219.999897,4223.07682,4222.051179,4223.07682,4206.153743,4225.640922,4222.563999,4230.256307,4192.82041,4229.743486,4237.435794
75,0,4241.025537,4222.563999,4231.281948,4229.230666,4224.615281,4219.999897,4220.512717,4208.205025,4227.179384,4229.743486,4229.230666,4190.256308,4230.769127,4246.153742
76,0,4222.563999,4218.974256,4226.153743,4240.512717,4222.563999,4222.051179,4213.846051,4206.666564,4226.153743,4236.410153,4221.538358,4186.153744,4229.743486,4235.897332
77,0,4213.846051,4212.82041,4218.461435,4238.461435,4219.487076,4222.563999,4214.358871,4197.948615,4222.051179,4225.128102,4206.153743,4175.897334,4218.461435,4219.999897
78,0,4216.922974,4206.666564,4212.82041,4228.205025,4214.358871,4221.025538,4219.487076,4191.794769,4221.025538,4214.871692,4211.281948,4167.179385,4214.358871,4216.410153
79,0,4210.256307,4208.717846,4210.256307,4217.948615,4213.33323,4217.435794,4218.461435,4195.897333,4223.58964,4222.051179,4225.128102,4169.230667,4218.461435,4219.999897
80,0,4213.33323,4216.410153,4212.82041,4223.07682,4218.461435,4216.410153,4213.33323,4203.07682,4224.102461,4223.58964,4224.102461,4181.025539,4222.563999,4228.717845
81,0,4226.666563,4222.563999,4223.07682,4237.948614,4223.58964,4220.512717,4216.410153,4207.692205,4226.666563,4222.563999,4220.512717,4186.666564,4227.179384,4233.84605
82,0,4215.384512,4218.461435,4228.205025,4236.410153,4221.538358,4223.07682,4225.128102,4208.205025,4228.205025,4223.58964,4218.461435,4181.538359,4223.58964,4224.615281
83,0,4211.281948,4214.358871,4221.538358,4230.256307,4218.974256,4226.153743,4229.230666,4209.230666,4226.153743,4221.025538,4219.487076,4183.589641,4220.512717,4225.640922
84,0,4235.384512,4218.974256,4225.128102,4235.897332,4220.512717,4229.230666,4227.692204,4209.230666,4227.179384,4221.538358,4228.717845,4192.30759,4231.794768,4243.58964
85,0,4244.615281,4226.153743,4236.410153,4237.435794,4225.128102,4229.230666,4223.58964,4208.717846,4230.256307,4235.384512,4232.307589,4195.897333,4239.999896,4245.640922
86,0,4223.07682,4219.999897,4231.281948,4226.666563,4225.128102,4227.179384,4222.563999,4206.666564,4226.153743,4239.999896,4221.025538,4186.666564,4228.717845,4218.974256
87,0,4202.051179,4212.307589,4218.974256,4217.435794,4222.563999,4226.666563,4224.102461,4201.025538,4219.999897,4223.58964,4224.102461,4178.974257,4219.999897,4209.230666
88,0,4199.999897,4210.256307,4219.487076,4216.410153,4216.922974,4219.999897,4216.922974,4193.333231,4217.948615,4207.179384,4226.666563,4182.05118,4214.871692,4221.538358
89,0,4218.461435,4212.82041,4221.025538,4226.666563,4215.384512,4219.487076,4214.358871,4194.871692,4217.948615,4211.281948,4214.871692,4180.512718,4212.82041,4226.666563
90,0,4224.615281,4214.871692,4216.922974,4231.794768,4218.461435,4228.717845,4225.128102,4204.102461,4223.58964,4216.922974,4211.281948,4174.871693,4217.948615,4218.974256
91,0,4209.743487,4215.384512,4214.871692,4228.205025,4225.128102,4230.256307,4231.794768,4208.717846,4227.692204,4214.358871,4222.563999,4176.922975,4228.717845,4222.051179
92,0,4214.871692,4215.384512,4218.461435,4229.230666,4225.128102,4226.666563,4228.717845,4210.256307,4226.666563,4221.538358,4228.205025,4179.999898,4231.794768,4236.922973
93,0,4229.230666,4212.307589,4216.922974,4226.153743,4218.974256,4228.717845,4224.102461,4209.230666,4224.615281,4228.717845,4221.538358,4181.025539,4218.974256,4222.563999
94,0,4220.512717,4209.230666,4212.307589,4212.82041,4214.871692,4227.692204,4215.897333,4206.153743,4224.615281,4226.153743,4218.461435,4185.640923,4212.307589,4195.384513
95,0,4210.256307,4212.307589,4212.307589,4216.922974,4213.33323,4222.563999,4211.281948,4208.205025,4225.640922,4235.384512,4225.128102,4189.743487,4228.205025,4212.307589
96,0,4213.846051,4215.897333,4222.051179,4237.435794,4214.871692,4221.025538,4215.384512,4209.743487,4226.153743,4234.358871,4228.717845,4185.640923,4236.922973,4242.563999
97,0,4219.999897,4217.948615,4228.205025,4228.205025,4216.922974,4221.025538,4219.487076,4206.153743,4224.615281,4212.82041,4226.153743,4183.076821,4224.615281,4240.512717
98,0,4221.025538,4217.948615,4219.999897,4201.025538,4216.922974,4221.538358,4222.051179,4207.179384,4222.563999,4216.410153,4226.666563,4185.128103,4218.461435,4226.153743
99,0,4215.897333,4211.794769,4209.743487,4198.461436,4214.871692,4219.999897,4221.025538,4205.640923,4219.487076,4227.692204,4222.563999,4183.589641,4216.922974,4214.358871
100,0,4205.640923,4205.128102,4208.717846,4202.564,4212.307589,4214.358871,4216.410153,4197.435795,4216.410153,4211.281948,4209.230666,4171.79477,4206.153743,4196.410154
101,0,4197.948615,4200.512718,4207.692205,4191.794769,4211.281948,4215.384512,4210.769128,4191.794769,4217.435794,4200.512718,4202.564,4163.076821,4203.589641,4194.358872
102,0,4201.538359,4203.07682,4208.205025,4197.435795,4211.794769,4222.051179,4209.230666,4195.384513,4222.051179,4219.999897,4211.794769,4175.897334,4222.563999,4220.512717
103,0,4216.410153,4216.410153,4218.461435,4224.615281,4211.281948,4222.563999,4215.384512,4202.564,4224.615281,4230.256307,4218.974256,4188.717846,4230.256307,4241.538358
104,0,4235.897332,4226.153743,4226.153743,4234.871691,4213.846051,4221.538358,4223.07682,4207.179384,4224.615281,4219.487076,4224.102461,4189.743487,4221.538358,4233.84605
105,0,4236.922973,4219.487076,4227.179384,4228.717845,4216.410153,4220.512717,4221.538358,4206.153743,4224.615281,4225.640922,4235.384512,4195.384513,4224.102461,4219.999897
106,0,4230.256307,4221.538358,4226.666563,4227.179384,4217.948615,4221.538358,4221.538358,4206.666564,4225.640922,4243.58964,4247.179383,4205.640923,4238.461435,4237.948614
107,0,4227.692204,4230.769127,4229.230666,4233.33323,4219.999897,4226.153743,4225.640922,4210.256307,4228.205025,4232.820409,4243.076819,4206.666564,4239.999896,4251.794768
108,0,4218.461435,4223.58964,4233.33323,4237.435794,4226.153743,4229.230666,4225.640922,4210.769128,4229.230666,4215.384512,4231.281948,4198.461436,4234.871691,4231.281948
109,0,4217.948615,4209.230666,4230.769127,4233.33323,4223.07682,4226.153743,4223.58964,4207.692205,4228.205025,4227.692204,4224.102461,4195.384513,4232.820409,4222.051179
110,0,4227.692204,4217.435794,4221.025538,4235.897332,4219.487076,4230.256307,4226.666563,4209.743487,4228.717845,4245.640922,4236.410153,4194.871692,4235.384512,4243.076819
111,0,4235.384512,4233.33323,4222.563999,4250.256306,4228.717845,4236.410153,4227.692204,4213.846051,4230.769127,4244.10246,4245.640922,4195.384513,4238.461435,4250.769127
112,0,4241.538358,4237.435794,4227.179384,4256.922973,4234.358871,4232.307589,4224.615281,4213.33323,4229.743486,4241.538358,4237.435794,4195.384513,4236.922973,4242.051178
113,0,4241.025537,4237.948614,4224.615281,4250.769127,4226.666563,4227.692204,4224.615281,4210.256307,4229.230666,4239.487076,4239.487076,4199.487077,4235.897332,4246.153742
114,0,4227.179384,4236.922973,4224.102461,4247.692204,4225.128102,4228.205025,4226.153743,4212.307589,4230.256307,4237.948614,4249.743486,4202.051179,4246.666563,4244.10246
115,0,4224.615281,4226.153743,4225.128102,4245.128101,4228.717845,4227.692204,4225.640922,4215.384512,4229.230666,4237.948614,4242.051178,4193.333231,4249.230665,4221.538358
116,0,4231.281948,4217.435794,4217.435794,4228.717845,4220.512717,4224.102461,4224.102461,4211.794769,4224.102461,4231.281948,4229.743486,4182.05118,4232.307589,4228.205025
117,0,4222.051179,4222.563999,4218.974256,4216.922974,4216.410153,4222.563999,4220.512717,4208.205025,4222.563999,4232.820409,4229.743486,4185.128103,4226.666563,4255.384511
118,0,4214.358871,4228.205025,4227.692204,4225.128102,4226.153743,4226.153743,4217.948615,4210.256307,4225.128102,4234.358871,4231.281948,4192.82041,4238.974255,4246.153742
119,0,4217.435794,4222.051179,4218.974256,4217.948615,4227.179384,4224.615281,4219.999897,4209.230666,4220.512717,4225.640922,4227.692204,4178.461436,4233.84605,4223.07682
120,0,4222.051179,4212.307589,4206.666564,4188.717846,4218.461435,4218.461435,4222.051179,4201.025538,4215.897333,4222.051179,4220.512717,4169.230667,4214.358871,4212.307589
121,0,4231.281948,4214.871692,4211.281948,4183.076821,4223.07682,4222.563999,4220.512717,4203.07682,4222.563999,4236.922973,4224.615281,4186.666564,4225.640922,4217.948615
122,0,4226.153743,4217.435794,4216.410153,4188.205026,4226.666563,4226.153743,4219.999897,4209.743487,4227.692204,4242.051178,4232.307589,4191.281949,4241.538358,4231.281948
123,0,4205.128102,4207.692205,4207.179384,4172.30759,4215.384512,4219.487076,4220.512717,4203.07682,4216.410153,4223.07682,4222.563999,4174.358872,4218.974256,4229.230666
124,0,4201.538359,4199.487077,4206.666564,4163.589642,4207.179384,4210.769128,4216.410153,4192.82041,4206.666564,4202.564,4208.717846,4167.692206,4199.999897,4213.33323
125,0,4208.717846,4203.07682,4214.358871,4167.692206,4211.794769,4211.794769,4216.410153,4195.384513,4209.743487,4198.461436,4216.922974,4174.871693,4217.435794,4216.922974
126,0,4190.256308,4201.025538,4213.33323,4163.589642,4212.307589,4213.846051,4218.461435,4197.435795,4213.33323,4202.051179,4227.179384,4176.410154,4224.102461,4219.487076
127,0,4187.692205,4199.999897,4209.230666,4163.076821,4211.794769,4216.410153,4220.512717,4192.30759,4210.256307,4208.205025,4219.487076,4176.922975,4212.82041,4202.051179
128,0,4216.410153,4210.769128,4213.33323,4170.769129,4213.846051,4218.461435,4221.025538,4192.82041,4207.692205,4215.384512,4211.281948,4181.025539,4213.846051,4200.512718
0,0,4209.230666,4218.461435,4216.922974,4170.256308,4213.846051,4218.974256,4218.461435,4200.512718,4210.256307,4224.102461,4222.563999,4185.640923,4219.487076,4218.461435
1,0,4186.666564,4207.692205,4215.897333,4168.717847,4212.82041,4217.435794,4213.33323,4200.512718,4215.384512,4227.692204,4223.58964,4181.538359,4211.794769,4212.307589
2,0,4207.179384,4203.589641,4213.33323,4173.846052,4214.358871,4215.384512,4215.384512,4197.435795,4214.358871,4224.102461,4204.102461,4170.769129,4206.153743,4198.461436
3,0,4223.07682,4206.666564,4212.82041,4171.79477,4210.769128,4213.846051,4218.461435,4195.897333,4213.33323,4202.564,4203.589641,4168.205026,4204.102461,4211.281948
4,0,4196.922974,4200.512718,4209.743487,4166.153744,4203.589641,4210.769128,4213.33323,4195.897333,4215.384512,4185.128103,4221.538358,4173.333231,4207.179384,4230.769127
5,0,4186.153744,4196.922974,4208.205025,4166.153744,4203.07682,4210.769128,4212.307589,4196.922974,4215.384512,4199.999897,4222.563999,4178.974257,4217.948615,4213.33323
6,0,4205.128102,4204.102461,4211.281948,4164.615283,4203.589641,4212.307589,4212.307589,4192.82041,4210.256307,4223.58964,4216.410153,4183.076821,4217.948615,4193.846051
7,0,4221.025538,4206.666564,4213.846051,4173.333231,4199.999897,4210.769128,4210.769128,4190.769128,4211.281948,4225.640922,4227.179384,4185.640923,4211.281948,4221.025538
8,0,4219.999897,4205.128102,4219.999897,4198.974256,4201.538359,4217.948615,4217.948615,4197.948615,4218.974256,4222.051179,4229.230666,4187.179385,4217.948615,4244.10246
9,0,4213.33323,4213.33323,4224.615281,4217.435794,4214.358871,4228.205025,4227.692204,4209.743487,4223.58964,4234.871691,4218.461435,4189.230667,4231.281948,4231.281948
10,0,4218.461435,4219.999897,4219.999897,4224.615281,4224.102461,4226.153743,4225.128102,4215.384512,4223.58964,4235.384512,4226.153743,4189.230667,4229.743486,4219.487076
11,0,4221.538358,4219.999897,4218.461435,4230.769127,4222.563999,4222.563999,4220.512717,4215.384512,4223.58964,4223.58964,4245.128101,4190.256308,4228.205025,4232.307589
12,0,4209.230666,4219.999897,4228.205025,4230.256307,4219.999897,4222.563999,4223.58964,4211.281948,4224.102461,4222.051179,4243.076819,4191.281949,4232.820409,4241.025537
13,0,4221.538358,4228.205025,4231.794768,4226.153743,4225.128102,4223.07682,4227.179384,4211.281948,4224.615281,4229.230666,4230.769127,4194.871692,4236.922973,4244.615281
14,0,4246.666563,4237.948614,4230.769127,4231.794768,4227.179384,4225.640922,4226.153743,4216.922974,4225.640922,4232.307589,4233.84605,4202.564,4243.076819,4247.692204
15,0,4233.33323,4236.922973,4229.230666,4235.897332,4223.58964,4227.692204,4224.102461,4219.999897,4226.153743,4239.487076,4238.461435,4196.410154,4243.58964,4231.794768
16,0,4210.256307,4227.692204,4229.230666,4234.358871,4221.538358,4227.692204,4226.666563,4220.512717,4227.179384,4245.128101,4229.743486,4184.102462,4234.358871,4218.974256
17,0,4229.230666,4231.281948,4231.794768,4242.563999,4226.666563,4229.743486,4231.794768,4224.102461,4228.205025,4245.640922,4234.871691,4193.846051,4235.897332,4236.922973
18,0,4247.692204,4238.974255,4232.307589,4251.281947,4226.153743,4224.615281,4226.666563,4223.07682,4224.615281,4244.615281,4246.153742,4203.07682,4247.179383,4261.025537
19,0,4236.410153,4238.974255,4231.281948,4253.333229,4221.025538,4222.051179,4224.102461,4219.999897,4221.538358,4229.743486,4248.717845,4197.435795,4247.692204,4258.974255
20,0,4237.435794,4244.615281,4241.538358,4257.948614,4224.615281,4233.84605,4231.794768,4227.179384,4227.692204,4213.846051,4250.256306,4207.692205,4243.58964,4239.487076
21,0,4254.871691,4253.84605,4249.230665,4262.563998,4232.307589,4236.922973,4231.794768,4234.871691,4232.820409,4229.743486,4252.820409,4219.487076,4250.769127,4244.615281
22,0,4256.410152,4249.230665,4243.58964,4264.61528,4232.820409,4227.692204,4225.128102,4228.717845,4229.230666,4252.307588,4249.230665,4205.640923,4251.794768,4268.717844
23,0,4255.897332,4245.640922,4241.025537,4268.717844,4233.33323,4235.897332,4232.307589,4225.128102,4225.128102,4252.820409,4245.640922,4203.07682,4247.692204,4275.897331
24,0,4258.461434,4253.84605,4245.640922,4268.717844,4238.461435,4243.58964,4242.563999,4232.820409,4228.717845,4251.281947,4247.692204,4212.307589,4251.281947,4262.563998
25,0,4240.512717,4254.35887,4245.640922,4262.051178,4235.897332,4232.820409,4237.948614,4230.256307,4229.743486,4251.281947,4245.128101,4203.589641,4254.35887,4253.333229
26,0,4233.84605,4250.256306,4247.179383,4266.666562,4234.358871,4232.820409,4235.897332,4221.538358,4223.58964,4242.563999,4246.153742,4198.461436,4249.743486,4246.666563
27,0,4254.35887,4249.230665,4247.692204,4268.717844,4232.307589,4241.025537,4237.948614,4224.102461,4219.487076,4231.794768,4247.179383,4205.128102,4241.538358,4237.435794
28,0,4252.820409,4241.538358,4237.435794,4237.435794,4221.025538,4229.743486,4229.743486,4224.102461,4220.512717,4222.051179,4234.358871,4199.999897,4236.410153,4244.10246
29,0,4230.769127,4228.205025,4229.230666,4207.692205,4215.897333,4216.410153,4218.974256,4212.82041,4215.384512,4211.281948,4220.512717,4190.256308,4232.307589,4251.281947
30,0,4233.84605,4227.692204,4229.230666,4221.538358,4223.07682,4222.563999,4224.615281,4210.256307,4209.230666,4213.846051,4224.102461,4191.794769,4230.256307,4239.999896
31,0,4242.563999,4236.922973,4232.307589,4241.538358,4227.179384,4227.179384,4229.230666,4216.410153,4213.846051,4226.666563,4232.307589,4195.897333,4229.743486,4214.358871
32,0,4231.794768,4244.615281,4236.410153,4245.640922,4225.640922,4223.07682,4223.58964,4219.999897,4222.563999,4239.487076,4241.538358,4201.538359,4236.410153,4219.487076
33,0,4223.58964,4243.58964,4237.948614,4256.410152,4224.102461,4221.025538,4222.563999,4220.512717,4224.102461,4246.153742,4251.281947,4204.615282,4246.153742,4257.435793
34,0,4234.358871,4242.051178,4235.897332,4260.512716,4224.102461,4228.205025,4226.666563,4220.512717,4220.512717,4241.025537,4246.153742,4197.435795,4246.153742,4266.666562
35,0,4244.615281,4243.076819,4237.948614,4252.307588,4222.563999,4230.769127,4225.128102,4217.435794,4218.974256,4230.769127,4230.769127,4193.333231,4233.84605,4238.974255
36,0,4241.538358,4247.692204,4238.461435,4263.076819,4227.179384,4225.640922,4227.179384,4221.025538,4222.563999,4234.358871,4232.820409,4203.589641,4235.897332,4231.281948
37,0,4244.615281,4248.205024,4237.435794,4274.35887,4231.794768,4231.281948,4236.922973,4231.281948,4227.692204,4234.871691,4243.076819,4206.153743,4248.717845,4238.974255
38,0,4244.10246,4244.10246,4236.922973,4261.538357,4231.794768,4237.435794,4236.410153,4233.33323,4226.153743,4232.307589,4243.076819,4199.999897,4245.640922,4233.84605
39,0,4227.179384,4245.128101,4239.487076,4261.025537,4227.179384,4228.205025,4225.128102,4228.205025,4225.128102,4242.563999,4241.538358,4201.538359,4239.487076,4237.435794
40,0,4228.717845,4243.58964,4237.435794,4265.640921,4226.666563,4223.58964,4224.615281,4225.640922,4225.128102,4247.692204,4238.974255,4200.512718,4244.615281,4251.281947
41,0,4244.10246,4232.307589,4230.769127,4238.974255,4224.615281,4227.692204,4231.281948,4227.179384,4222.563999,4238.461435,4224.615281,4195.897333,4233.84605,4239.487076
42,0,4241.025537,4227.692204,4226.153743,4222.051179,4214.871692,4226.153743,4227.692204,4222.563999,4217.948615,4224.615281,4218.461435,4192.30759,4213.846051,4214.358871
43,0,4237.435794,4238.974255,4228.205025,4246.666563,4216.922974,4223.58964,4219.999897,4216.410153,4220.512717,4220.512717,4230.256307,4187.692205,4218.974256,4214.358871
44,0,4226.153743,4239.999896,4230.769127,4264.61528,4227.179384,4227.692204,4221.025538,4218.461435,4225.128102,4230.256307,4238.461435,4186.153744,4233.84605,4233.33323
45,0,4210.769128,4230.256307,4229.743486,4254.35887,4227.179384,4229.743486,4228.205025,4224.102461,4225.640922,4233.33323,4231.281948,4189.743487,4236.922973,4240.512717
46,0,4231.281948,4229.743486,4230.256307,4246.666563,4221.538358,4229.230666,4227.692204,4224.102461,4222.051179,4220.512717,4228.717845,4191.281949,4232.307589,4232.820409
47,0,4258.974255,4234.358871,4227.692204,4244.10246,4224.615281,4225.640922,4220.512717,4217.435794,4219.487076,4219.487076,4234.871691,4194.871692,4229.743486,4228.205025
48,0,4247.179383,4236.410153,4225.128102,4241.025537,4224.615281,4222.563999,4218.461435,4211.281948,4221.025538,4232.307589,4233.33323,4201.538359,4236.922973,4239.487076
49,0,4225.640922,4239.487076,4230.769127,4243.58964,4218.974256,4224.102461,4219.487076,4209.743487,4222.563999,4236.922973,4231.281948,4200.512718,4236.922973,4252.820409
50,0,4214.871692,4233.84605,4231.794768,4235.897332,4216.410153,4218.461435,4212.82041,4207.692205,4216.922974,4226.153743,4226.666563,4191.281949,4218.974256,4231.281948
51,0,4221.025538,4222.563999,4222.563999,4219.487076,4212.82041,4208.205025,4206.666564,4205.128102,4210.769128,4214.358871,4222.051179,4184.102462,4216.922974,4213.846051
52,0,4234.871691,4223.58964,4222.051179,4225.128102,4212.307589,4213.33323,4211.794769,4211.281948,4219.487076,4222.051179,4229.230666,4188.205026,4231.794768,4238.974255
53,0,4230.256307,4235.897332,4230.769127,4248.205024,4220.512717,4224.615281,4217.948615,4223.07682,4228.717845,4239.999896,4233.33323,4197.948615,4234.871691,4248.205024
54,0,4222.563999,4234.871691,4234.871691,4253.84605,4221.025538,4223.07682,4217.948615,4220.512717,4222.051179,4222.563999,4223.07682,4198.974256,4219.487076,4218.974256
55,0,4231.794768,4229.743486,4235.384512,4246.666563,4215.384512,4220.512717,4216.922974,4217.435794,4218.974256,4212.307589,4230.769127,4199.487077,4221.538358,4227.692204
56,0,4239.487076,4233.84605,4239.487076,4249.743486,4215.897333,4223.07682,4215.897333,4224.615281,4227.179384,4238.974255,4244.615281,4209.230666,4244.615281,4254.871691
57,0,4248.205024,4238.461435,4238.974255,4257.435793,4220.512717,4223.07682,4214.871692,4225.640922,4225.128102,4245.640922,4235.897332,4212.307589,4254.871691,4245.128101
58,0,4255.384511,4236.922973,4239.999896,4251.794768,4225.128102,4220.512717,4210.769128,4219.999897,4219.487076,4230.769127,4237.435794,4208.205025,4246.666563,4242.051178
59,0,4243.076819,4236.410153,4241.538358,4243.58964,4226.153743,4221.538358,4213.33323,4218.974256,4224.102461,4236.922973,4254.871691,4209.230666,4248.717845,4262.563998
60,0,4225.128102,4235.384512,4239.999896,4248.717845,4222.563999,4224.615281,4223.58964,4221.025538,4227.692204,4247.179383,4251.281947,4215.897333,4250.769127,4252.820409
61,0,4228.205025,4236.922973,4235.897332,4246.153742,4222.051179,4227.692204,4223.07682,4216.410153,4223.07682,4238.974255,4232.820409,4209.743487,4235.384512,4229.230666
62,0,4248.205024,4238.461435,4232.307589,4234.358871,4221.538358,4224.615281,4213.33323,4214.358871,4222.051179,4227.692204,4232.307589,4196.410154,4236.410153,4239.999896
63,0,4255.384511,4237.948614,4232.820409,4238.461435,4222.051179,4221.025538,4209.743487,4215.897333,4222.563999,4219.999897,4236.922973,4193.846051,4251.281947,4256.410152
64,0,4248.717845,4244.10246,4238.974255,4252.307588,4228.205025,4223.07682,4214.358871,4222.051179,4225.128102,4223.07682,4235.897332,4203.07682,4251.281947,4250.256306
65,0,4238.974255,4246.153742,4241.538358,4248.205024,4225.128102,4226.153743,4215.384512,4223.58964,4225.128102,4227.692204,4237.435794,4205.128102,4243.58964,4234.358871
66,0,4235.384512,4241.025537,4241.538358,4244.615281,4218.974256,4226.153743,4210.769128,4216.922974,4223.07682,4231.794768,4242.563999,4205.128102,4244.615281,4227.692204
67,0,4245.128101,4241.538358,4244.10246,4251.281947,4220.512717,4219.999897,4207.179384,4217.948615,4228.205025,4239.999896,4246.666563,4212.307589,4250.256306,4244.615281
68,0,4254.35887,4241.025537,4232.307589,4245.128101,4219.487076,4218.974256,4214.358871,4223.58964,4231.281948,4239.999896,4244.615281,4206.153743,4250.256306,4260.512716
69,0,4239.487076,4230.769127,4222.563999,4233.33323,4211.794769,4216.410153,4213.846051,4218.461435,4220.512717,4229.743486,4232.307589,4190.769128,4237.435794,4248.205024
70,0,4230.256307,4235.897332,4232.820409,4232.307589,4215.384512,4211.794769,4203.589641,4209.743487,4215.897333,4226.153743,4226.666563,4195.897333,4232.307589,4241.538358
71,0,4238.461435,4238.974255,4241.538358,4224.102461,4218.974256,4213.846051,4204.615282,4209.230666,4221.025538,4210.256307,4229.230666,4204.615282,4233.33323,4239.487076
72,0,4223.58964,4222.051179,4228.717845,4203.07682,4213.846051,4219.487076,4210.769128,4211.281948,4214.358871,4188.717846,4228.717845,4193.333231,4226.153743,4228.205025
73,0,4210.256307,4217.435794,4225.128102,4203.589641,4212.82041,4215.897333,4208.717846,4212.82041,4209.230666,4201.025538,4225.128102,4186.666564,4217.948615,4227.692204
74,0,4241.538358,4234.871691,4235.897332,4225.640922,4217.948615,4215.384512,4208.205025,4221.538358,4220.512717,4230.256307,4234.871691,4202.051179,4226.666563,4243.58964
75,0,4259.999896,4238.461435,4237.948614,4234.871691,4216.410153,4219.487076,4209.230666,4224.102461,4226.666563,4229.743486,4241.025537,4209.743487,4236.410153,4250.256306
76,0,4234.871691,4229.230666,4229.743486,4226.666563,4211.794769,4217.435794,4205.128102,4214.871692,4216.922974,4217.948615,4230.256307,4196.922974,4232.820409,4233.84605
77,0,4230.769127,4225.640922,4232.307589,4227.692204,4211.281948,4213.33323,4206.153743,4209.743487,4211.281948,4221.025538,4214.871692,4190.769128,4224.615281,4211.281948
78,0,4232.307589,4223.07682,4236.922973,4220.512717,4211.281948,4211.281948,4208.205025,4209.230666,4207.692205,4212.82041,4213.33323,4197.435795,4217.435794,4220.512717
79,0,4197.948615,4209.230666,4229.743486,4180.512718,4206.153743,4206.666564,4200.512718,4199.999897,4197.948615,4186.666564,4222.051179,4193.846051,4209.743487,4237.435794
80,0,4187.692205,4196.922974,4216.922974,4147.692206,4199.487077,4204.102461,4193.846051,4189.230667,4191.281949,4180.512718,4218.974256,4175.897334,4199.487077,4215.384512
81,0,4221.025538,4201.538359,4213.846051,4163.076821,4198.461436,4202.051179,4193.846051,4191.281949,4197.435795,4201.025538,4208.205025,4170.256308,4201.538359,4196.922974
82,0,4232.820409,4216.922974,4219.999897,4196.922974,4204.102461,4205.640923,4196.922974,4199.999897,4207.692205,4214.871692,4209.230666,4178.974257,4216.410153,4210.769128
83,0,4220.512717,4223.58964,4227.692204,4210.256307,4214.358871,4210.769128,4201.538359,4206.153743,4212.307589,4217.435794,4223.58964,4187.692205,4218.974256,4220.512717
84,0,4213.846051,4219.487076,4227.692204,4214.871692,4217.435794,4208.205025,4204.615282,4208.205025,4213.33323,4215.897333,4226.153743,4188.205026,4210.256307,4219.999897
85,0,4211.281948,4218.974256,4222.563999,4224.615281,4215.384512,4205.640923,4203.589641,4206.153743,4212.82041,4208.205025,4221.025538,4186.153744,4217.435794,4218.974256
86,0,4212.82041,4222.563999,4222.051179,4231.794768,4214.871692,4207.692205,4202.564,4206.666564,4212.82041,4201.025538,4223.58964,4186.666564,4229.230666,4216.410153
87,0,4226.153743,4225.640922,4223.58964,4237.948614,4215.384512,4214.871692,4207.692205,4211.794769,4216.410153,4208.717846,4226.153743,4188.717846,4228.205025,4231.281948
88,0,4229.743486,4221.025538,4224.615281,4232.307589,4213.33323,4213.33323,4210.256307,4210.769128,4214.871692,4214.871692,4221.538358,4191.281949,4223.07682,4239.487076
89,0,4227.179384,4219.999897,4228.205025,4223.07682,4216.922974,4209.230666,4209.743487,4209.230666,4213.846051,4217.948615,4228.205025,4197.435795,4228.205025,4232.307589
90,0,4226.666563,4226.666563,4234.358871,4218.461435,4219.487076,4209.743487,4210.256307,4211.281948,4215.897333,4223.58964,4236.410153,4198.974256,4232.820409,4229.230666
91,0,4213.846051,4225.640922,4231.281948,4210.769128,4214.871692,4214.871692,4214.358871,4212.82041,4214.358871,4224.102461,4227.179384,4191.794769,4230.256307,4227.692204
92,0,4205.640923,4212.82041,4224.615281,4204.615282,4213.33323,4216.922974,4213.846051,4213.33323,4212.82041,4217.948615,4218.461435,4185.128103,4216.922974,4221.025538
93,0,4220.512717,4210.256307,4223.58964,4211.794769,4215.897333,4216.922974,4210.256307,4214.358871,4216.922974,4215.897333,4223.07682,4183.076821,4213.846051,4221.538358
94,0,4231.281948,4217.435794,4226.666563,4224.102461,4212.82041,4213.846051,4210.769128,4213.846051,4221.025538,4206.666564,4225.128102,4188.717846,4224.102461,4218.974256
95,0,4222.563999,4219.487076,4225.640922,4224.102461,4209.743487,4206.666564,4211.281948,4212.307589,4217.948615,4199.487077,4223.58964,4195.897333,4223.07682,4218.974256
96,0,4226.153743,4220.512717,4225.128102,4223.58964,4213.846051,4207.692205,4210.256307,4212.307589,4220.512717,4212.307589,4229.743486,4189.230667,4218.461435,4230.256307
97,0,4232.307589,4226.153743,4228.205025,4228.717845,4222.051179,4217.435794,4209.743487,4212.307589,4223.58964,4228.717845,4233.84605,4180.512718,4230.256307,4231.794768
98,0,4216.922974,4229.230666,4230.256307,4236.410153,4227.179384,4223.07682,4208.717846,4215.897333,4218.461435,4235.384512,4225.640922,4186.153744,4241.025537,4230.769127
99,0,4211.281948,4222.563999,4229.743486,4236.410153,4223.58964,4221.025538,4214.871692,4220.512717,4212.82041,4233.33323,4220.512717,4193.846051,4227.692204,4228.717845
100,0,4222.563999,4207.179384,4228.205025,4217.435794,4215.897333,4215.897333,4222.051179,4216.410153,4211.794769,4221.025538,4221.538358,4187.179385,4209.743487,4209.230666
101,0,4225.640922,4207.179384,4227.692204,4207.179384,4211.281948,4211.794769,4213.33323,4206.153743,4208.717846,4212.82041,4219.999897,4177.948616,4207.179384,4200.512718
102,0,4224.102461,4230.256307,4230.256307,4226.153743,4219.487076,4216.410153,4207.692205,4212.307589,4211.281948,4227.179384,4225.128102,4183.589641,4222.051179,4219.999897
103,0,4226.666563,4242.563999,4235.897332,4247.179383,4231.281948,4225.640922,4219.487076,4229.230666,4225.128102,4232.307589,4230.256307,4190.256308,4236.410153,4233.33323
104,0,4222.563999,4229.230666,4233.33323,4242.051178,4226.666563,4226.666563,4227.179384,4231.794768,4226.666563,4218.461435,4223.58964,4183.076821,4226.666563,4221.538358
105,0,4208.205025,4219.487076,4225.128102,4226.666563,4215.897333,4224.615281,4221.538358,4223.58964,4213.846051,4209.743487,4215.897333,4179.487077,4208.717846,4201.025538
106,0,4227.179384,4229.743486,4224.615281,4231.794768,4219.999897,4224.102461,4218.461435,4225.640922,4215.384512,4219.999897,4218.974256,4193.846051,4218.974256,4211.794769
107,0,4249.743486,4234.358871,4229.230666,4244.615281,4222.563999,4219.487076,4217.948615,4226.666563,4222.051179,4229.230666,4225.128102,4200.512718,4233.84605,4234.871691
108,0,4225.640922,4228.205025,4227.692204,4241.025537,4215.897333,4220.512717,4217.948615,4217.435794,4213.846051,4230.769127,4233.33323,4190.769128,4222.051179,4226.153743
109,0,4200.512718,4226.153743,4228.205025,4229.230666,4214.871692,4223.07682,4214.871692,4215.897333,4208.205025,4232.307589,4230.256307,4185.640923,4207.179384,4203.07682
110,0,4219.999897,4232.307589,4234.358871,4228.717845,4223.07682,4217.435794,4208.717846,4225.128102,4212.307589,4225.128102,4224.102461,4188.717846,4214.358871,4206.666564
111,0,4242.563999,4233.33323,4232.307589,4237.435794,4230.256307,4214.358871,4210.769128,4227.692204,4215.897333,4216.410153,4219.999897,4188.205026,4218.461435,4217.948615
112,0,4234.871691,4229.743486,4221.538358,4238.461435,4228.717845,4222.563999,4222.563999,4225.640922,4217.435794,4220.512717,4216.410153,4185.128103,4218.461435,4226.666563
113,0,4212.82041,4230.769127,4224.102461,4237.435794,4221.538358,4226.153743,4228.205025,4230.256307,4222.563999,4224.615281,4223.58964,4184.615282,4229.230666,4233.33323
114,0,4201.025538,4232.307589,4233.84605,4240.512717,4225.640922,4225.128102,4224.615281,4233.84605,4222.051179,4224.615281,4230.769127,4185.640923,4226.666563,4218.461435
115,0,4222.563999,4229.743486,4228.205025,4238.461435,4230.769127,4225.640922,4223.58964,4227.692204,4220.512717,4231.794768,4222.563999,4182.05118,4210.256307,4203.589641
116,0,4243.076819,4230.256307,4214.871692,4236.922973,4230.769127,4229.743486,4230.769127,4225.640922,4222.563999,4244.615281,4221.538358,4181.025539,4223.58964,4216.922974
117,0,4233.84605,4239.999896,4219.999897,4249.743486,4235.384512,4231.794768,4235.384512,4234.358871,4228.717845,4241.538358,4231.281948,4190.769128,4248.205024,4239.999896
118,0,4225.128102,4247.692204,4235.384512,4258.974255,4240.512717,4227.179384,4229.230666,4239.999896,4229.743486,4237.948614,4233.33323,4199.487077,4236.410153,4231.794768
119,0,4237.435794,4245.128101,4240.512717,4252.820409,4239.999896,4223.07682,4229.743486,4239.999896,4227.179384,4249.743486,4241.025537,4202.564,4220.512717,4213.33323
120,0,4242.051178,4236.922973,4236.410153,4254.871691,4235.384512,4223.58964,4233.33323,4235.897332,4227.179384,4245.128101,4246.666563,4199.487077,4230.769127,4219.999897
121,0,4215.384512,4234.358871,4231.281948,4261.538357,4232.307589,4226.666563,4228.205025,4234.358871,4228.205025,4227.179384,4237.435794,4194.871692,4235.384512,4225.640922
122,0,4195.897333,4234.358871,4227.179384,4252.820409,4232.307589,4230.256307,4231.281948,4233.33323,4226.153743,4231.794768,4230.256307,4189.230667,4228.205025,4228.717845
123,0,4222.051179,4234.871691,4225.128102,4244.10246,4234.871691,4235.897332,4239.999896,4230.256307,4227.179384,4251.281947,4226.153743,4190.256308,4234.871691,4237.948614
124,0,4254.35887,4238.461435,4230.256307,4251.281947,4235.897332,4232.820409,4231.794768,4226.666563,4229.743486,4242.051178,4223.58964,4196.410154,4234.358871,4226.153743
125,0,4242.563999,4240.512717,4232.820409,4243.076819,4233.33323,4223.58964,4221.025538,4225.640922,4225.640922,4220.512717,4229.743486,4188.717846,4221.025538,4212.307589
126,0,4214.871692,4226.666563,4227.692204,4210.256307,4222.563999,4215.384512,4221.538358,4222.051179,4219.487076,4217.948615,4224.615281,4178.974257,4214.871692,4221.025538
127,0,4213.846051,4221.538358,4225.128102,4204.615282,4220.512717,4212.307589,4223.07682,4222.051179,4222.563999,4238.461435,4221.538358,4190.769128,4228.205025,4232.307589
128,0,4223.58964,4234.358871,4232.820409,4233.84605,4232.820409,4216.410153,4222.051179,4225.128102,4228.717845,4253.84605,4237.948614,4203.07682,4241.025537,4233.33323
0,0,4234.871691,4243.076819,4235.897332,4251.794768,4240.512717,4226.666563,4224.615281,4223.07682,4228.205025,4248.205024,4243.076819,4193.846051,4242.563999,4229.743486
1,0,4244.10246,4239.999896,4235.384512,4252.307588,4235.897332,4231.281948,4231.281948,4222.051179,4228.205025,4235.384512,4225.128102,4192.82041,4236.410153,4212.82041
2,0,4242.563999,4237.435794,4235.897332,4245.128101,4233.84605,4226.666563,4236.410153,4219.487076,4226.666563,4229.230666,4225.640922,4198.974256,4230.769127,4219.487076
3,0,4225.640922,4230.769127,4231.794768,4224.615281,4227.179384,4223.07682,4229.743486,4202.051179,4221.538358,4225.640922,4233.84605,4186.666564,4224.102461,4238.974255
4,0,4217.948615,4221.538358,4221.025538,4215.384512,4221.538358,4225.640922,4220.512717,4189.230667,4218.974256,4230.256307,4224.615281,4174.871693,4218.974256,4225.128102
5,0,4224.615281,4219.999897,4214.871692,4226.153743,4225.128102,4224.102461,4222.051179,4188.717846,4224.615281,4236.410153,4216.922974,4179.487077,4215.897333,4209.230666
6,0,4203.07682,4219.999897,4219.999897,4217.948615,4226.666563,4220.512717,4227.179384,4173.846052,4222.051179,4228.205025,4211.794769,4182.564,4213.33323,4209.743487
7,0,4188.717846,4219.999897,4232.307589,4212.307589,4231.281948,4224.615281,4228.717845,4157.948616,4222.563999,4225.640922,4207.179384,4185.128103,4214.358871,4215.384512
8,0,4226.666563,4222.563999,4234.871691,4226.153743,4232.820409,4230.256307,4230.769127,4156.922975,4229.743486,4232.820409,4219.999897,4192.30759,4219.487076,4227.692204
9,0,4247.179383,4218.974256,4222.051179,4193.846051,4221.025538,4220.512717,4223.58964,4144.615283,4222.563999,4224.615281,4227.179384,4190.769128,4220.512717,4224.615281
10,0,4214.358871,4209.230666,4212.82041,4133.846053,4207.692205,4206.153743,4211.281948,4119.999899,4206.666564,4210.769128,4214.871692,4182.05118,4215.897333,4198.974256
11,0,4197.948615,4206.666564,4216.410153,4133.333232,4210.769128,4211.281948,4212.307589,4115.384515,4205.640923,4212.82041,4213.846051,4178.461436,4211.794769,4196.922974
12,0,4205.128102,4208.717846,4216.922974,4169.230667,4215.384512,4219.999897,4219.999897,4118.974258,4206.666564,4215.897333,4209.743487,4176.410154,4209.230666,4216.410153
13,0,4199.999897,4211.794769,4213.846051,4182.05118,4216.922974,4214.358871,4223.07682,4117.948617,4202.564,4214.358871,4199.487077,4179.999898,4211.281948,4219.999897
14,0,4209.743487,4218.974256,4222.051179,4191.794769,4224.102461,4212.82041,4225.128102,4127.179386,4207.692205,4223.07682,4215.384512,4190.256308,4217.435794,4220.512717
15,0,4241.538358,4233.33323,4229.230666,4214.358871,4231.794768,4224.102461,4227.692204,4142.564001,4216.922974,4231.794768,4236.410153,4190.769128,4228.717845,4234.871691
16,0,4254.35887,4243.58964,4227.179384,4228.717845,4235.897332,4228.205025,4225.128102,4142.564001,4217.948615,4227.692204,4228.717845,4183.589641,4233.84605,4233.84605
17,0,4243.58964,4249.743486,4233.33323,4233.33323,4243.076819,4231.281948,4231.281948,4143.589642,4216.410153,4235.384512,4228.205025,4193.333231,4238.974255,4232.307589
18,0,4235.384512,4250.769127,4244.615281,4238.974255,4245.640922,4237.948614,4239.999896,4149.743488,4217.435794,4251.281947,4236.410153,4209.230666,4248.717845,4244.10246
19,0,4245.640922,4252.307588,4238.974255,4246.666563,4245.128101,4235.384512,4237.435794,4154.358873,4219.487076,4255.384511,4232.307589,4207.179384,4257.948614,4252.820409
20,0,4253.84605,4249.230665,4231.281948,4247.692204,4240.512717,4227.692204,4229.743486,4156.922975,4223.07682,4243.076819,4234.871691,4196.410154,4253.333229,4247.179383
21,0,4250.769127,4247.692204,4234.358871,4243.58964,4235.897332,4227.692204,4228.717845,4156.410155,4222.563999,4242.051178,4246.153742,4196.410154,4247.179383,4247.692204
22,0,4263.589639,4252.820409,4242.051178,4247.179383,4233.33323,4226.153743,4230.256307,4151.28195,4219.999897,4247.179383,4244.10246,4201.538359,4256.922973,4271.281947
23,0,4296.410151,4262.563998,4253.333229,4247.692204,4233.33323,4218.974256,4223.58964,4144.102463,4212.307589,4222.051179,4242.051178,4211.281948,4267.179383,4313.333228
24,0,4338.461432,4272.820408,4269.743485,4238.974255,4229.743486,4210.769128,4215.384512,4142.051181,4207.179384,4195.384513,4240.512717,4233.33323,4269.743485,4357.948611
25,0,4368.205021,4279.487075,4275.897331,4234.358871,4222.051179,4206.153743,4213.33323,4137.435796,4207.692205,4211.794769,4241.025537,4245.128101,4279.999895,4406.153738
26,0,4394.358867,4285.1281,4275.897331,4236.922973,4217.435794,4209.230666,4214.358871,4134.871694,4210.256307,4225.640922,4254.35887,4234.871691,4305.64092,4451.281942
27,0,4422.051174,4293.846049,4279.487075,4238.461435,4215.384512,4211.281948,4208.205025,4134.358873,4208.717846,4209.230666,4259.487075,4225.640922,4312.307587,4458.97425
28,0,4410.256302,4295.38451,4284.61528,4237.948614,4215.897333,4206.153743,4206.153743,4131.28195,4206.666564,4198.461436,4250.769127,4231.794768,4301.025536,4450.769122
29,0,4372.307585,4282.563998,4283.076818,4238.974255,4216.922974,4208.717846,4215.384512,4133.333232,4206.153743,4197.435795,4250.769127,4242.051178,4298.461433,4458.97425
30,0,4371.281944,4272.820408,4271.281947,4245.128101,4219.487076,4218.461435,4221.538358,4142.564001,4210.769128,4206.153743,4254.35887,4241.538358,4301.025536,4447.179378
31,0,4380.512713,4273.333229,4264.10246,4260.512716,4224.615281,4221.538358,4217.948615,4151.28195,4219.487076,4224.615281,4254.35887,4232.307589,4294.87169,4397.94861
32,0,4351.794765,4276.922972,4265.640921,4276.410152,4231.794768,4223.58964,4219.487076,4157.948616,4228.717845,4235.897332,4261.025537,4228.717845,4285.640921,4362.563996
33,0,4328.205022,4273.846049,4267.179383,4278.461434,4233.84605,4224.615281,4223.07682,4162.05118,4235.897332,4247.179383,4260.512716,4229.743486,4286.153741,4359.487073
34,0,4318.461433,4266.153742,4263.589639,4278.461434,4232.820409,4223.07682,4221.025538,4163.076821,4236.410153,4256.410152,4248.205024,4226.153743,4293.333228,4353.846047
35,0,4293.846049,4261.538357,4265.640921,4280.512716,4233.84605,4228.717845,4225.640922,4164.102462,4229.743486,4241.025537,4240.512717,4217.948615,4279.487075,4312.820407
36,0,4275.897331,4254.871691,4262.051178,4269.230665,4232.307589,4232.820409,4231.794768,4164.615283,4224.102461,4230.256307,4236.922973,4208.205025,4248.717845,4273.333229
37,0,4265.640921,4235.897332,4248.717845,4248.717845,4223.58964,4222.563999,4219.487076,4156.922975,4223.07682,4222.563999,4223.07682,4199.487077,4230.256307,4274.87169
38,0,4254.871691,4227.179384,4241.025537,4239.487076,4221.025538,4216.922974,4214.871692,4154.358873,4222.051179,4198.461436,4213.846051,4197.435795,4235.384512,4276.410152
39,0,4254.871691,4230.769127,4244.615281,4235.384512,4224.102461,4224.102461,4226.153743,4155.897334,4221.025538,4195.897333,4221.538358,4192.82041,4234.871691,4250.256306
40,0,4255.384511,4232.820409,4247.692204,4237.948614,4226.666563,4227.179384,4227.179384,4151.79477,4221.538358,4221.538358,4228.205025,4187.179385,4234.871691,4237.435794
41,0,4238.974255,4235.897332,4246.153742,4248.205024,4230.256307,4224.102461,4221.025538,4154.358873,4227.179384,4238.974255,4227.179384,4195.897333,4245.640922,4238.461435
42,0,4235.384512,4240.512717,4244.10246,4242.563999,4234.871691,4227.179384,4225.640922,4166.666565,4230.256307,4243.076819,4236.922973,4207.179384,4249.230665,4242.563999
43,0,4248.205024,4238.461435,4245.128101,4237.435794,4232.820409,4230.256307,4229.743486,4172.820411,4230.256307,4246.153742,4240.512717,4205.640923,4239.487076,4246.666563
44,0,4244.10246,4239.487076,4247.692204,4255.897332,4232.307589,4228.205025,4223.07682,4174.871693,4234.358871,4253.333229,4232.307589,4201.025538,4237.435794,4237.435794
45,0,4237.435794,4248.205024,4249.230665,4269.743485,4238.974255,4226.153743,4220.512717,4178.461436,4239.487076,4249.743486,4239.487076,4203.07682,4253.333229,4238.461435
46,0,4242.051178,4248.205024,4247.179383,4267.179383,4241.538358,4226.153743,4229.230666,4177.435795,4232.820409,4230.769127,4245.640922,4207.179384,4253.84605,4244.10246
47,0,4236.410153,4239.999896,4243.58964,4263.589639,4232.820409,4226.666563,4237.948614,4179.999898,4226.153743,4228.717845,4237.948614,4207.692205,4229.743486,4223.58964
48,0,4218.461435,4232.820409,4237.435794,4249.743486,4227.179384,4226.666563,4234.871691,4188.717846,4229.743486,4241.538358,4230.769127,4195.897333,4217.948615,4212.82041
49,0,4210.769128,4223.07682,4230.769127,4228.205025,4228.717845,4225.640922,4226.666563,4187.179385,4229.743486,4235.384512,4220.512717,4183.076821,4230.769127,4227.692204
50,0,4196.410154,4204.615282,4222.563999,4207.692205,4219.487076,4219.487076,4222.051179,4175.897334,4218.461435,4216.922974,4201.538359,4175.384513,4224.102461,4208.205025
51,0,4182.564,4197.435795,4217.435794,4189.743487,4207.692205,4212.82041,4223.07682,4172.820411,4213.33323,4216.922974,4194.871692,4168.205026,4195.897333,4175.384513
52,0,4195.897333,4210.769128,4226.153743,4191.281949,4215.384512,4213.33323,4226.153743,4176.922975,4218.974256,4228.205025,4203.589641,4177.948616,4201.025538,4181.025539
53,0,4215.384512,4222.563999,4234.871691,4206.153743,4227.692204,4220.512717,4228.205025,4179.999898,4221.025538,4223.58964,4221.538358,4196.410154,4224.102461,4199.487077
54,0,4204.102461,4215.897333,4227.692204,4211.794769,4223.58964,4218.974256,4224.102461,4175.897334,4216.922974,4205.128102,4223.58964,4189.743487,4209.230666,4197.948615
55,0,4186.666564,4212.307589,4219.999897,4219.487076,4220.512717,4217.948615,4225.640922,4179.487077,4220.512717,4211.794769,4205.640923,4176.410154,4195.384513,4193.846051
56,0,4193.333231,4219.487076,4231.281948,4230.769127,4225.128102,4224.615281,4231.281948,4190.256308,4228.717845,4236.922973,4204.615282,4185.128103,4214.871692,4202.051179
57,0,4209.230666,4221.025538,4236.410153,4227.179384,4225.640922,4222.051179,4221.538358,4185.640923,4224.615281,4238.974255,4223.58964,4193.333231,4226.666563,4204.102461
58,0,4217.948615,4212.82041,4226.666563,4226.153743,4222.051179,4216.410153,4212.307589,4173.333231,4215.897333,4220.512717,4221.538358,4182.05118,4207.692205,4188.205026
59,0,4208.717846,4214.871692,4223.58964,4234.871691,4225.640922,4225.128102,4227.179384,4184.102462,4216.922974,4221.538358,4207.179384,4175.384513,4202.051179,4182.564
60,0,4191.281949,4223.58964,4234.358871,4234.871691,4227.179384,4229.743486,4237.435794,4202.051179,4228.205025,4228.205025,4215.384512,4186.153744,4211.794769,4187.692205
61,0,4192.82041,4218.974256,4235.384512,4236.922973,4223.07682,4225.640922,4231.281948,4199.487077,4233.33323,4217.435794,4225.640922,4196.410154,4215.384512,4193.333231
62,0,4201.025538,4212.307589,4231.281948,4249.230665,4223.58964,4232.307589,4232.307589,4197.435795,4233.84605,4213.33323,4217.435794,4193.333231,4217.948615,4203.589641
63,0,4196.922974,4217.948615,4233.33323,4250.256306,4229.230666,4236.922973,4233.33323,4202.051179,4232.820409,4229.743486,4218.461435,4190.256308,4221.538358,4210.256307
64,0,4191.794769,4221.538358,4232.307589,4234.871691,4228.205025,4227.179384,4223.07682,4195.384513,4230.256307,4237.435794,4224.102461,4192.82041,4214.871692,4197.948615
65,0,4193.333231,4213.846051,4224.615281,4222.051179,4220.512717,4217.948615,4220.512717,4187.692205,4228.205025,4226.666563,4215.384512,4187.692205,4201.025538,4181.538359
66,0,4190.256308,4210.256307,4223.58964,4218.461435,4220.512717,4221.025538,4226.153743,4193.333231,4229.230666,4223.58964,4211.281948,4184.615282,4205.128102,4184.615282
67,0,4192.30759,4218.974256,4231.794768,4224.102461,4224.102461,4226.153743,4224.615281,4197.435795,4225.640922,4222.051179,4216.922974,4193.333231,4219.999897,4192.30759
68,0,4205.640923,4230.256307,4234.358871,4230.256307,4228.717845,4228.717845,4224.615281,4194.358872,4219.487076,4222.563999,4220.512717,4197.948615,4229.743486,4203.07682
69,0,4204.102461,4223.58964,4225.128102,4231.281948,4228.717845,4228.717845,4227.179384,4190.769128,4215.897333,4227.179384,4221.025538,4185.640923,4219.999897,4205.128102
70,0,4193.846051,4207.692205,4214.358871,4232.307589,4224.615281,4226.153743,4223.58964,4192.82041,4220.512717,4224.615281,4219.487076,4171.281949,4201.025538,4182.05118
71,0,4183.589641,4202.051179,4214.871692,4219.487076,4220.512717,4220.512717,4220.512717,4193.846051,4225.640922,4220.512717,4211.281948,4169.743488,4198.461436,4167.692206
72,0,4170.769129,4201.025538,4215.897333,4171.281949,4214.871692,4213.33323,4223.07682,4183.589641,4217.948615,4216.410153,4202.051179,4169.230667,4205.640923,4182.05118
73,0,4169.230667,4189.743487,4211.794769,4125.128104,4204.615282,4207.692205,4216.410153,4167.179385,4203.589641,4208.205025,4191.794769,4164.102462,4189.743487,4172.30759
74,0,4179.487077,4192.30759,4212.82041,4126.666566,4203.589641,4208.717846,4206.153743,4170.769129,4205.128102,4203.589641,4191.281949,4167.692206,4175.384513,4147.179386
75,0,4172.820411,4201.538359,4215.897333,4143.589642,4210.256307,4213.33323,4214.358871,4184.615282,4213.33323,4190.256308,4193.846051,4175.897334,4188.205026,4158.974257
76,0,4163.076821,4200.512718,4213.846051,4158.974257,4213.846051,4220.512717,4228.205025,4190.769128,4215.384512,4190.256308,4203.07682,4182.564,4204.102461,4185.640923
77,0,4190.769128,4205.128102,4221.538358,4183.076821,4218.974256,4219.999897,4226.666563,4195.897333,4222.563999,4228.717845,4228.205025,4190.769128,4206.666564,4191.794769
78,0,4208.717846,4212.307589,4226.666563,4170.769129,4221.538358,4211.794769,4215.897333,4189.230667,4221.538358,4248.205024,4231.794768,4187.179385,4201.538359,4190.769128
79,0,4176.410154,4204.102461,4219.999897,4130.76913,4211.281948,4206.666564,4211.281948,4170.769129,4209.743487,4218.974256,4202.564,4173.333231,4186.153744,4167.179385
80,0,4153.333232,4201.025538,4216.922974,4143.589642,4206.666564,4216.410153,4215.897333,4168.717847,4207.692205,4206.666564,4196.922974,4168.205026,4186.666564,4153.333232
81,0,4171.281949,4207.692205,4216.922974,4193.846051,4215.897333,4225.128102,4224.102461,4182.564,4216.410153,4221.025538,4204.615282,4163.589642,4203.589641,4183.076821
82,0,4195.897333,4213.33323,4211.794769,4211.281948,4223.07682,4226.153743,4227.692204,4190.769128,4221.025538,4218.461435,4199.999897,4162.05118,4205.640923,4199.999897
83,0,4205.128102,4228.205025,4219.487076,4213.846051,4231.281948,4228.717845,4227.179384,4199.999897,4229.230666,4223.07682,4216.410153,4176.922975,4207.179384,4186.666564
84,0,4202.051179,4235.897332,4228.717845,4224.102461,4235.897332,4228.717845,4226.153743,4208.205025,4235.384512,4244.615281,4233.33323,4187.692205,4218.461435,4188.717846
85,0,4194.871692,4229.230666,4220.512717,4228.205025,4230.769127,4223.07682,4225.640922,4206.153743,4229.743486,4247.179383,4224.615281,4185.128103,4216.410153,4191.281949
86,0,4193.333231,4230.769127,4219.487076,4225.128102,4229.230666,4224.102461,4229.743486,4203.589641,4224.615281,4234.358871,4214.871692,4185.640923,4209.230666,4178.461436
87,0,4203.07682,4235.384512,4226.666563,4219.999897,4230.256307,4230.769127,4237.435794,4197.435795,4225.128102,4233.33323,4216.922974,4189.230667,4213.846051,4193.333231
88,0,4210.256307,4228.717845,4228.717845,4222.563999,4226.666563,4231.281948,4236.922973,4190.256308,4222.563999,4237.948614,4226.153743,4188.717846,4220.512717,4222.563999
89,0,4200.512718,4222.563999,4227.179384,4215.384512,4225.640922,4226.153743,4229.743486,4196.410154,4219.999897,4230.256307,4230.256307,4190.769128,4219.487076,4213.33323
90,0,4184.615282,4208.205025,4222.051179,4175.897334,4216.922974,4216.922974,4223.58964,4193.846051,4212.307589,4213.33323,4208.717846,4185.128103,4201.538359,4182.05118
91,0,4193.846051,4203.07682,4212.82041,4159.999898,4207.179384,4212.307589,4218.974256,4184.615282,4207.692205,4209.743487,4191.794769,4176.410154,4184.102462,4176.410154
92,0,4209.743487,4220.512717,4218.974256,4194.358872,4213.846051,4211.794769,4213.33323,4191.794769,4217.435794,4224.615281,4203.589641,4180.512718,4196.922974,4187.692205
93,0,4195.897333,4229.743486,4224.102461,4210.769128,4221.025538,4209.743487,4213.33323,4202.564,4223.58964,4237.435794,4214.358871,4179.999898,4215.897333,4186.153744
94,0,4183.589641,4217.948615,4217.435794,4199.999897,4215.384512,4212.307589,4220.512717,4198.974256,4218.461435,4222.051179,4208.205025,4171.79477,4209.743487,4179.487077
95,0,4201.538359,4221.538358,4221.025538,4216.410153,4222.051179,4226.153743,4227.692204,4199.487077,4218.974256,4211.281948,4217.948615,4185.640923,4214.871692,4198.974256
96,0,4222.563999,4234.358871,4227.692204,4241.538358,4233.84605,4235.897332,4228.717845,4207.692205,4226.666563,4230.769127,4237.948614,4204.102461,4235.384512,4227.692204
97,0,4213.33323,4231.794768,4213.846051,4236.922973,4231.281948,4234.871691,4230.769127,4209.230666,4225.128102,4248.205024,4230.769127,4191.281949,4230.769127,4218.974256
98,0,4192.30759,4223.58964,4204.615282,4223.58964,4220.512717,4228.717845,4232.820409,4206.666564,4219.999897,4240.512717,4211.281948,4173.333231,4217.435794,4194.871692
99,0,4195.897333,4222.051179,4214.871692,4219.487076,4215.384512,4222.563999,4227.692204,4201.538359,4217.948615,4237.435794,4221.538358,4179.999898,4222.051179,4199.999897
100,0,4215.897333,4222.051179,4220.512717,4219.999897,4216.410153,4221.538358,4222.051179,4203.589641,4221.025538,4241.538358,4236.410153,4188.205026,4226.153743,4202.051179
101,0,4215.897333,4219.999897,4212.307589,4221.025538,4218.974256,4218.461435,4217.435794,4207.179384,4222.051179,4224.102461,4223.07682,4183.589641,4217.948615,4194.358872
102,0,4203.07682,4218.974256,4211.794769,4225.128102,4222.563999,4215.384512,4215.897333,4203.07682,4216.922974,4209.230666,4214.358871,4179.487077,4211.281948,4207.179384
103,0,4190.769128,4219.487076,4213.33323,4229.743486,4221.538358,4221.025538,4218.461435,4195.384513,4213.33323,4219.487076,4209.743487,4177.948616,4210.256307,4211.281948
104,0,4186.666564,4221.025538,4208.717846,4228.205025,4214.358871,4227.692204,4221.538358,4196.410154,4216.410153,4230.769127,4207.692205,4177.435795,4214.871692,4196.922974
105,0,4206.153743,4224.615281,4212.82041,4226.153743,4216.922974,4227.179384,4223.07682,4206.153743,4221.538358,4233.33323,4224.102461,4178.461436,4224.615281,4199.487077
106,0,4229.230666,4231.794768,4219.487076,4232.820409,4227.692204,4229.230666,4227.692204,4214.358871,4225.640922,4242.563999,4236.922973,4187.179385,4227.179384,4209.230666
107,0,4226.666563,4232.820409,4218.974256,4236.410153,4224.102461,4228.717845,4226.666563,4210.256307,4224.102461,4244.10246,4229.743486,4194.358872,4221.025538,4210.769128
108,0,4222.563999,4231.281948,4219.999897,4222.051179,4221.025538,4222.563999,4222.563999,4206.666564,4222.051179,4227.179384,4221.538358,4194.358872,4222.563999,4214.871692
109,0,4212.307589,4232.307589,4225.128102,4208.717846,4229.743486,4223.07682,4227.692204,4214.358871,4224.102461,4215.897333,4217.948615,4192.30759,4227.179384,4210.769128
110,0,4192.30759,4226.666563,4220.512717,4211.281948,4228.205025,4227.179384,4230.769127,4216.922974,4222.051179,4224.102461,4216.922974,4185.128103,4218.974256,4202.051179
111,0,4193.333231,4215.384512,4213.846051,4218.461435,4214.358871,4219.999897,4219.487076,4203.589641,4211.281948,4234.871691,4216.922974,4179.999898,4205.128102,4203.589641
112,0,4208.717846,4219.487076,4211.281948,4226.153743,4216.922974,4221.538358,4215.384512,4199.487077,4206.666564,4240.512717,4216.922974,4178.461436,4214.358871,4198.461436
113,0,4209.230666,4225.640922,4212.307589,4231.794768,4228.717845,4238.461435,4229.230666,4208.205025,4213.33323,4238.974255,4212.307589,4173.846052,4219.999897,4184.615282
114,0,4205.128102,4218.974256,4213.846051,4232.307589,4230.769127,4243.076819,4234.871691,4210.256307,4219.999897,4237.435794,4205.640923,4173.333231,4204.102461,4187.179385
115,0,4204.102461,4216.410153,4216.410153,4235.384512,4225.128102,4228.205025,4224.102461,4206.153743,4222.051179,4233.84605,4206.666564,4179.999898,4201.538359,4196.410154
116,0,4191.281949,4221.025538,4216.410153,4239.487076,4221.538358,4224.102461,4223.58964,4207.179384,4221.025538,4222.051179,4222.051179,4185.640923,4216.922974,4204.615282
117,0,4188.205026,4218.461435,4213.846051,4234.358871,4223.58964,4228.205025,4231.794768,4216.922974,4227.179384,4221.025538,4230.256307,4187.692205,4225.128102,4211.281948
118,0,4204.615282,4214.358871,4211.281948,4234.358871,4223.07682,4223.07682,4232.307589,4225.128102,4233.33323,4236.922973,4221.025538,4186.153744,4220.512717,4208.717846
119,0,4216.922974,4218.461435,4212.82041,4247.179383,4222.051179,4223.07682,4229.230666,4226.153743,4231.281948,4248.205024,4216.922974,4184.102462,4213.33323,4202.051179
120,0,4225.128102,4228.717845,4217.948615,4254.35887,4230.256307,4236.922973,4230.256307,4229.230666,4232.820409,4257.435793,4228.717845,4197.435795,4221.538358,4212.82041
121,0,4223.58964,4230.769127,4216.410153,4248.205024,4236.922973,4247.692204,4230.256307,4232.820409,4242.563999,4268.717844,4236.922973,4205.640923,4241.025537,4230.769127
122,0,4200.512718,4217.948615,4211.281948,4238.461435,4228.205025,4236.922973,4227.692204,4226.666563,4239.487076,4254.871691,4223.58964,4187.692205,4235.897332,4219.487076
123,0,4194.871692,4217.435794,4215.384512,4252.307588,4226.666563,4228.717845,4228.205025,4224.615281,4231.281948,4247.179383,4215.897333,4180.512718,4225.128102,4212.307589
124,0,4213.33323,4223.07682,4217.435794,4251.794768,4232.307589,4233.84605,4229.743486,4223.58964,4228.205025,4253.84605,4225.640922,4186.666564,4229.230666,4214.871692
125,0,4200.512718,4204.615282,4204.615282,4199.999897,4215.897333,4226.153743,4222.563999,4206.666564,4219.999897,4230.256307,4221.025538,4173.333231,4216.922974,4187.692205
126,0,4177.435795,4187.179385,4197.948615,4172.820411,4195.897333,4207.179384,4211.281948,4192.82041,4207.692205,4206.153743,4205.128102,4159.487078,4195.384513,4170.769129
127,0,4192.30759,4198.461436,4200.512718,4202.564,4199.487077,4207.692205,4209.230666,4199.999897,4208.205025,4222.563999,4209.743487,4168.717847,4205.640923,4205.640923
128,0,4193.846051,4202.564,4199.487077,4218.461435,4207.179384,4222.563999,4219.999897,4208.717846,4217.948615,4233.33323,4211.281948,4175.384513,4212.82041,4218.974256
0,0,4173.333231,4197.435795,4199.999897,4221.025538,4210.769128,4233.33323,4234.358871,4216.410153,4225.128102,4232.820409,4203.07682,4177.435795,4209.230666,4190.769128
1,0,4187.692205,4208.717846,4208.717846,4247.179383,4221.025538,4238.974255,4234.358871,4225.128102,4231.794768,4250.769127,4220.512717,4189.743487,4222.563999,4197.435795
2,0,4226.153743,4226.666563,4214.871692,4257.435793,4230.256307,4237.948614,4224.615281,4227.179384,4235.897332,4270.769126,4250.256306,4201.538359,4238.974255,4228.205025
3,0,4237.435794,4231.794768,4221.025538,4247.692204,4226.153743,4230.769127,4224.102461,4224.102461,4233.84605,4267.692203,4250.256306,4207.692205,4237.948614,4228.205025
4,0,4229.230666,4231.794768,4223.07682,4255.897332,4223.58964,4228.205025,4227.179384,4224.102461,4228.717845,4252.307588,4237.435794,4207.692205,4241.538358,4231.281948
5,0,4223.58964,4230.256307,4222.051179,4261.538357,4227.179384,4227.179384,4225.128102,4226.153743,4226.153743,4243.58964,4231.794768,4199.999897,4248.205024,4236.922973
6,0,4215.384512,4220.512717,4219.487076,4242.563999,4226.153743,4224.102461,4221.025538,4224.102461,4226.153743,4250.256306,4228.717845,4191.281949,4233.33323,4210.256307
7,0,4204.615282,4211.281948,4210.769128,4229.230666,4220.512717,4224.102461,4219.999897,4221.538358,4224.102461,4250.256306,4226.153743,4184.615282,4213.846051,4193.333231
8,0,4201.025538,4212.82041,4203.589641,4233.84605,4222.563999,4229.230666,4223.58964,4224.102461,4220.512717,4242.563999,4224.615281,4179.487077,4215.897333,4209.230666
9,0,4203.07682,4214.358871,4204.615282,4216.410153,4219.999897,4223.58964,4224.615281,4223.07682,4220.512717,4233.33323,4215.897333,4174.358872,4219.999897,4217.948615
10,0,4197.435795,4201.025538,4197.435795,4186.666564,4202.564,4209.230666,4212.307589,4207.692205,4215.897333,4215.897333,4204.102461,4164.615283,4208.205025,4211.794769
11,0,4191.281949,4191.794769,4187.179385,4197.948615,4200.512718,4213.846051,4207.692205,4206.666564,4211.794769,4207.692205,4201.025538,4166.153744,4196.922974,4195.384513
12,0,4193.846051,4194.358872,4194.358872,4227.692204,4213.846051,4227.692204,4217.435794,4222.563999,4215.384512,4219.999897,4202.564,4178.461436,4195.384513,4173.846052
13,0,4192.30759,4196.410154,4203.07682,4231.281948,4215.384512,4225.128102,4217.948615,4218.974256,4217.435794,4229.230666,4208.205025,4177.435795,4200.512718,4184.102462
14,0,4180.512718,4199.487077,4199.999897,4228.717845,4214.358871,4221.538358,4207.692205,4203.07682,4213.846051,4219.999897,4217.435794,4171.281949,4211.281948,4207.692205
15,0,4193.846051,4211.794769,4200.512718,4238.461435,4222.563999,4226.153743,4206.666564,4212.307589,4217.948615,4221.025538,4225.640922,4182.564,4217.435794,4210.256307
16,0,4229.743486,4221.538358,4212.82041,4252.820409,4228.717845,4227.692204,4216.922974,4234.871691,4230.256307,4244.10246,4224.615281,4194.358872,4220.512717,4211.281948
17,0,4237.435794,4230.256307,4225.128102,4271.281947,4235.384512,4235.897332,4228.205025,4246.153742,4240.512717,4265.640921,4233.33323,4204.102461,4235.384512,4227.692204
18,0,4234.358871,4243.076819,4235.384512,4276.922972,4240.512717,4239.999896,4229.743486,4243.076819,4240.512717,4257.435793,4250.256306,4215.897333,4246.153742,4247.179383
19,0,4246.666563,4249.743486,4232.307589,4265.640921,4237.435794,4232.307589,4227.179384,4239.487076,4235.384512,4242.051178,4251.281947,4206.153743,4242.051178,4257.435793
20,0,4231.794768,4239.487076,4219.999897,4261.538357,4232.820409,4231.794768,4226.666563,4239.487076,4232.820409,4246.153742,4238.974255,4190.769128,4235.897332,4230.256307
21,0,4203.07682,4228.717845,4214.358871,4258.974255,4232.820409,4234.358871,4224.102461,4234.358871,4229.743486,4250.769127,4231.794768,4194.358872,4235.897332,4196.922974
22,0,4221.025538,4229.230666,4218.974256,4253.333229,4232.307589,4232.820409,4219.487076,4229.743486,4225.640922,4239.487076,4223.07682,4197.435795,4237.435794,4217.435794
23,0,4245.640922,4229.230666,4213.846051,4252.307588,4233.84605,4237.435794,4224.615281,4232.307589,4222.051179,4230.256307,4217.435794,4191.794769,4229.230666,4241.538358
24,0,4221.538358,4214.871692,4202.051179,4241.538358,4229.230666,4237.435794,4230.256307,4229.230666,4218.461435,4235.897332,4222.051179,4184.615282,4209.743487,4219.487076
25,0,4189.230667,4201.025538,4198.461436,4222.563999,4220.512717,4225.128102,4221.025538,4222.563999,4214.358871,4232.307589,4222.563999,4174.358872,4203.07682,4191.794769
26,0,4186.666564,4205.128102,4202.051179,4229.230666,4221.025538,4221.538358,4209.230666,4222.563999,4214.871692,4212.82041,4209.230666,4176.410154,4214.358871,4192.30759
27,0,4205.128102,4215.384512,4206.153743,4248.205024,4226.153743,4227.692204,4209.230666,4225.640922,4217.435794,4215.897333,4205.128102,4190.769128,4220.512717,4208.205025
28,0,4228.717845,4217.948615,4212.82041,4255.897332,4230.256307,4226.666563,4212.82041,4226.153743,4223.07682,4239.999896,4223.58964,4193.846051,4218.974256,4221.538358
29,0,4231.794768,4219.999897,4213.846051,4257.435793,4231.281948,4225.128102,4215.897333,4225.128102,4225.128102,4247.692204,4241.538358,4192.30759,4224.102461,4218.974256
30,0,4223.07682,4227.692204,4209.743487,4258.974255,4231.281948,4230.256307,4222.563999,4229.743486,4224.102461,4241.025537,4232.820409,4194.871692,4232.307589,4215.897333
31,0,4226.666563,4229.230666,4214.871692,4261.025537,4231.281948,4232.307589,4223.07682,4237.435794,4227.692204,4241.538358,4218.974256,4192.82041,4235.384512,4229.743486
32,0,4226.666563,4221.538358,4216.410153,4261.538357,4228.717845,4223.58964,4214.871692,4237.948614,4229.743486,4244.10246,4228.205025,4189.230667,4231.281948,4226.153743
33,0,4210.256307,4214.871692,4203.07682,4252.820409,4222.051179,4214.871692,4211.281948,4228.717845,4219.999897,4226.666563,4224.102461,4185.640923,4215.897333,4198.461436
34,0,4206.666564,4214.871692,4197.435795,4241.538358,4221.538358,4216.410153,4211.794769,4224.615281,4213.33323,4207.692205,4197.948615,4179.487077,4206.666564,4193.846051
35,0,4206.153743,4208.205025,4199.487077,4234.871691,4221.538358,4218.461435,4210.769128,4222.051179,4210.256307,4210.256307,4193.846051,4169.230667,4209.230666,4196.922974
36,0,4186.666564,4197.435795,4191.794769,4230.769127,4217.948615,4217.435794,4210.769128,4219.487076,4207.692205,4230.256307,4212.307589,4162.05118,4210.769128,4185.640923
37,0,4179.487077,4192.82041,4187.692205,4232.307589,4213.846051,4219.999897,4212.82041,4221.538358,4209.743487,4234.871691,4213.33323,4163.589642,4202.564,4182.05118
38,0,4189.743487,4198.461436,4191.281949,4231.281948,4213.846051,4221.538358,4215.384512,4221.025538,4210.256307,4219.487076,4196.922974,4161.53836,4193.846051,4185.128103
39,0,4191.281949,4201.025538,4192.30759,4217.435794,4214.358871,4215.384512,4213.33323,4216.410153,4203.589641,4206.666564,4184.615282,4152.820411,4187.179385,4182.564
40,0,4193.846051,4197.948615,4195.384513,4212.82041,4216.410153,4209.230666,4207.692205,4220.512717,4204.102461,4205.128102,4189.743487,4163.589642,4191.794769,4187.179385
41,0,4200.512718,4198.974256,4199.487077,4219.487076,4215.384512,4208.717846,4207.692205,4222.563999,4209.230666,4202.564,4207.692205,4176.410154,4202.564,4187.179385
42,0,4192.30759,4208.205025,4197.435795,4216.410153,4215.897333,4213.33323,4212.82041,4213.33323,4206.666564,4199.999897,4217.435794,4169.743488,4207.692205,4185.128103
43,0,4191.794769,4211.281948,4197.948615,4213.846051,4222.051179,4213.33323,4209.230666,4208.717846,4208.205025,4213.846051,4217.948615,4171.281949,4209.743487,4201.025538
44,0,4209.230666,4209.230666,4201.025538,4221.538358,4221.538358,4209.743487,4204.102461,4211.281948,4213.846051,4231.794768,4216.922974,4185.640923,4215.897333,4211.281948
45,0,4220.512717,4211.794769,4207.692205,4228.717845,4214.358871,4209.743487,4208.717846,4214.358871,4217.435794,4231.794768,4212.307589,4190.256308,4224.102461,4208.205025
46,0,4214.871692,4213.33323,4211.794769,4232.820409,4214.358871,4212.307589,4211.281948,4219.999897,4217.948615,4226.153743,4213.846051,4186.666564,4228.717845,4218.461435
47,0,4207.179384,4210.769128,4207.179384,4235.897332,4219.487076,4215.897333,4209.743487,4227.692204,4216.410153,4224.102461,4229.743486,4186.666564,4226.666563,4220.512717
48,0,4204.615282,4209.743487,4206.153743,4229.743486,4220.512717,4218.461435,4209.743487,4230.256307,4215.897333,4226.153743,4234.358871,4187.692205,4219.487076,4210.256307
49,0,4207.692205,4205.640923,4207.692205,4217.435794,4217.435794,4218.461435,4208.717846,4226.153743,4214.871692,4218.974256,4216.410153,4183.589641,4213.846051,4214.871692
50,0,4208.717846,4200.512718,4201.025538,4210.256307,4214.871692,4214.871692,4206.153743,4218.974256,4208.205025,4196.410154,4198.974256,4173.846052,4202.564,4202.051179
51,0,4190.256308,4203.07682,4195.897333,4202.051179,4214.871692,4213.33323,4208.205025,4213.846051,4206.666564,4196.410154,4197.435795,4173.846052,4192.30759,4176.922975
52,0,4176.410154,4201.025538,4198.974256,4189.230667,4212.307589,4212.82041,4208.205025,4208.717846,4209.230666,4215.384512,4194.358872,4177.435795,4196.410154,4185.640923
53,0,4201.025538,4195.384513,4197.435795,4184.615282,4207.692205,4209.230666,4206.153743,4208.717846,4205.128102,4216.410153,4193.846051,4170.769129,4201.025538,4203.07682
54,0,4231.281948,4200.512718,4199.999897,4184.615282,4209.743487,4204.615282,4206.666564,4213.33323,4201.025538,4205.128102,4206.666564,4173.846052,4199.487077,4189.743487
55,0,4225.128102,4213.33323,4207.692205,4185.128103,4216.410153,4207.179384,4205.128102,4215.897333,4208.205025,4212.82041,4219.487076,4185.128103,4210.256307,4194.358872
56,0,4187.692205,4207.692205,4210.256307,4188.717846,4214.358871,4210.769128,4207.692205,4215.897333,4213.846051,4223.58964,4211.794769,4183.589641,4217.948615,4221.538358
57,0,4170.256308,4192.30759,4198.461436,4182.05118,4209.743487,4208.717846,4212.82041,4215.384512,4207.692205,4210.256307,4199.999897,4176.410154,4202.564,4213.33323
58,0,4193.846051,4194.358872,4187.179385,4175.897334,4209.743487,4205.128102,4203.07682,4208.717846,4199.487077,4194.358872,4202.051179,4172.820411,4190.769128,4182.05118
59,0,4219.487076,4208.205025,4188.205026,4191.281949,4211.794769,4207.179384,4197.435795,4207.179384,4204.102461,4206.666564,4207.692205,4168.717847,4206.666564,4185.640923
60,0,4207.179384,4207.179384,4196.410154,4207.692205,4211.281948,4212.307589,4209.230666,4212.82041,4212.82041,4219.999897,4207.179384,4174.871693,4214.358871,4204.102461
61,0,4193.333231,4202.564,4200.512718,4205.128102,4211.281948,4215.384512,4214.358871,4213.33323,4208.205025,4211.281948,4207.179384,4184.102462,4203.07682,4202.564
62,0,4209.230666,4211.794769,4206.666564,4200.512718,4213.846051,4211.281948,4207.692205,4212.82041,4205.128102,4213.33323,4209.743487,4180.512718,4203.07682,4198.974256
63,0,4210.769128,4219.999897,4210.256307,4201.538359,4220.512717,4211.794769,4208.717846,4213.33323,4210.256307,4224.615281,4209.743487,4177.435795,4213.846051,4208.717846
64,0,4204.102461,4222.563999,4205.128102,4200.512718,4224.102461,4217.948615,4214.871692,4212.82041,4212.307589,4214.358871,4209.230666,4184.615282,4219.487076,4213.33323
65,0,4218.974256,4220.512717,4199.487077,4196.922974,4220.512717,4214.358871,4212.307589,4212.82041,4204.102461,4205.640923,4214.871692,4184.102462,4215.384512,4205.640923
66,0,4224.102461,4214.358871,4204.615282,4193.846051,4216.410153,4206.153743,4204.615282,4213.33323,4198.974256,4206.153743,4214.358871,4178.461436,4202.564,4205.128102
67,0,4204.615282,4211.281948,4215.384512,4202.051179,4216.410153,4212.307589,4208.717846,4214.871692,4203.07682,4201.538359,4205.640923,4181.025539,4198.461436,4217.435794
68,0,4203.07682,4218.461435,4215.384512,4217.435794,4222.051179,4224.102461,4221.538358,4224.102461,4214.871692,4212.307589,4209.743487,4186.153744,4218.974256,4222.563999
69,0,4215.897333,4217.948615,4204.102461,4215.384512,4219.999897,4221.025538,4216.410153,4226.153743,4218.974256,4226.666563,4217.948615,4180.512718,4226.153743,4207.692205
70,0,4208.205025,4207.179384,4199.999897,4211.794769,4214.358871,4214.871692,4207.692205,4222.563999,4213.33323,4225.128102,4212.82041,4171.281949,4206.666564,4201.025538
71,0,4206.666564,4211.794769,4208.717846,4229.230666,4215.897333,4218.461435,4215.897333,4226.153743,4213.33323,4223.58964,4212.82041,4177.435795,4206.153743,4202.564
72,0,4224.615281,4228.717845,4214.871692,4246.153742,4227.692204,4224.615281,4221.025538,4230.769127,4222.563999,4232.820409,4231.281948,4194.871692,4230.256307,4208.205025
73,0,4228.205025,4228.717845,4217.435794,4254.871691,4231.281948,4223.07682,4218.461435,4229.743486,4224.615281,4230.769127,4238.461435,4201.538359,4235.384512,4232.820409
74,0,4223.58964,4223.58964,4219.487076,4264.61528,4226.666563,4222.051179,4219.999897,4234.871691,4221.025538,4219.487076,4232.307589,4194.358872,4227.692204,4259.999896
75,0,4229.230666,4226.666563,4217.435794,4263.589639,4229.230666,4222.563999,4217.435794,4237.948614,4222.051179,4219.487076,4224.102461,4195.897333,4228.205025,4248.205024
76,0,4229.743486,4231.794768,4213.846051,4249.230665,4235.384512,4226.153743,4215.897333,4230.769127,4222.051179,4228.717845,4222.051179,4204.102461,4231.794768,4227.179384
77,0,4213.33323,4226.153743,4212.307589,4240.512717,4229.230666,4226.666563,4218.461435,4223.58964,4216.410153,4227.692204,4225.640922,4194.358872,4225.640922,4233.33323
78,0,4204.615282,4213.846051,4206.666564,4230.256307,4218.974256,4218.461435,4212.307589,4219.999897,4212.82041,4220.512717,4218.974256,4179.487077,4212.82041,4228.717845
79,0,4215.897333,4212.307589,4208.717846,4227.179384,4223.58964,4217.435794,4209.230666,4226.666563,4217.948615,4222.051179,4216.922974,4187.179385,4214.358871,4209.743487
80,0,4228.205025,4219.487076,4214.358871,4237.948614,4233.84605,4228.205025,4215.897333,4240.512717,4222.563999,4230.256307,4233.84605,4198.974256,4229.230666,4219.487076
81,0,4226.666563,4219.487076,4213.33323,4239.999896,4228.205025,4230.769127,4217.435794,4240.512717,4219.487076,4231.281948,4235.897332,4193.846051,4228.717845,4234.358871
82,0,4217.435794,4220.512717,4214.358871,4242.051178,4222.563999,4225.128102,4211.794769,4230.769127,4215.897333,4229.743486,4222.563999,4195.384513,4223.07682,4228.205025
83,0,4220.512717,4221.538358,4216.922974,4245.640922,4227.179384,4226.153743,4211.794769,4228.717845,4215.897333,4232.820409,4227.692204,4203.07682,4228.717845,4222.563999
84,0,4222.051179,4208.205025,4207.692205,4221.538358,4223.58964,4225.128102,4213.33323,4225.640922,4210.256307,4229.230666,4231.794768,4186.153744,4226.666563,4223.58964
85,0,4209.743487,4205.128102,4200.512718,4206.153743,4217.435794,4217.948615,4213.33323,4223.07682,4206.666564,4222.563999,4218.974256,4170.256308,4218.974256,4225.640922
86,0,4204.102461,4217.435794,4205.640923,4227.179384,4221.025538,4216.410153,4214.358871,4226.666563,4207.692205,4219.487076,4220.512717,4182.564,4219.487076,4232.307589
87,0,4205.640923,4206.666564,4201.538359,4191.794769,4216.410153,4210.769128,4207.692205,4220.512717,4200.512718,4216.922974,4229.743486,4187.692205,4217.435794,4231.794768
88,0,4195.897333,4179.999898,4189.230667,4106.666566,4198.461436,4200.512718,4193.846051,4203.589641,4189.230667,4202.564,4209.743487,4169.230667,4202.051179,4201.025538
89,0,4188.717846,4178.461436,4185.640923,4108.205028,4195.384513,4202.564,4197.435795,4206.666564,4197.435795,4199.487077,4194.358872,4162.564001,4196.410154,4176.410154
90,0,4202.051179,4197.435795,4194.871692,4173.333231,4209.743487,4210.769128,4211.794769,4223.07682,4214.358871,4213.846051,4209.743487,4173.846052,4212.82041,4193.846051
91,0,4215.384512,4215.897333,4208.205025,4198.461436,4223.58964,4218.461435,4213.846051,4231.281948,4220.512717,4225.128102,4227.179384,4187.179385,4233.84605,4227.179384
92,0,4217.435794,4224.102461,4214.871692,4204.615282,4226.666563,4220.512717,4207.692205,4230.256307,4219.999897,4230.256307,4231.281948,4196.410154,4236.410153,4239.487076
93,0,4228.205025,4229.743486,4212.307589,4229.230666,4228.205025,4222.563999,4211.281948,4231.794768,4224.102461,4231.281948,4240.512717,4199.999897,4231.281948,4241.025537
94,0,4245.128101,4234.358871,4215.897333,4241.538358,4231.794768,4229.230666,4215.384512,4237.948614,4227.692204,4233.84605,4245.128101,4198.461436,4240.512717,4250.769127
95,0,4248.205024,4238.461435,4221.025538,4242.563999,4233.33323,4232.820409,4216.410153,4241.538358,4225.640922,4242.563999,4242.563999,4197.948615,4251.281947,4253.84605
96,0,4235.897332,4235.384512,4219.487076,4249.230665,4230.256307,4227.179384,4217.948615,4241.025537,4226.153743,4239.487076,4238.461435,4194.871692,4248.717845,4243.58964
97,0,4233.84605,4228.205025,4216.922974,4255.384511,4233.33323,4227.692204,4218.974256,4243.58964,4230.769127,4232.820409,4234.871691,4192.30759,4237.435794,4238.974255
98,0,4248.717845,4234.871691,4226.666563,4266.153742,4240.512717,4231.794768,4217.948615,4246.153742,4230.256307,4239.487076,4245.640922,4203.07682,4245.128101,4252.307588
99,0,4251.794768,4251.281947,4228.205025,4268.205024,4238.974255,4227.179384,4213.33323,4238.974255,4224.102461,4242.563999,4255.897332,4207.179384,4264.10246,4266.153742
100,0,4244.615281,4248.717845,4215.384512,4255.897332,4233.33323,4223.58964,4209.230666,4234.358871,4223.58964,4230.769127,4241.538358,4197.948615,4245.640922,4250.256306
101,0,4239.999896,4236.410153,4210.769128,4249.230665,4234.358871,4228.205025,4211.281948,4241.538358,4226.153743,4228.717845,4227.692204,4194.358872,4218.461435,4237.948614
102,0,4234.871691,4241.538358,4223.58964,4246.153742,4237.435794,4228.717845,4213.33323,4242.563999,4225.640922,4235.384512,4231.281948,4198.974256,4236.922973,4261.538357
103,0,4243.076819,4252.307588,4235.384512,4241.538358,4237.435794,4225.128102,4209.230666,4235.897332,4224.615281,4231.794768,4234.871691,4210.256307,4262.051178,4268.205024
104,0,4267.179383,4250.256306,4233.33323,4245.640922,4234.871691,4224.615281,4209.743487,4239.999896,4228.205025,4223.07682,4237.948614,4222.051179,4247.692204,4248.717845
105,0,4265.128101,4237.948614,4225.128102,4242.563999,4228.205025,4222.051179,4213.846051,4239.999896,4218.461435,4209.230666,4227.179384,4204.615282,4224.102461,4251.794768
106,0,4237.948614,4225.128102,4213.846051,4219.487076,4221.025538,4215.897333,4208.205025,4225.128102,4200.512718,4198.974256,4202.564,4165.128103,4216.922974,4264.10246
107,0,4226.666563,4218.974256,4206.153743,4201.538359,4216.410153,4207.179384,4201.538359,4216.922974,4200.512718,4201.025538,4193.846051,4155.384514,4207.179384,4234.871691
108,0,4223.58964,4214.358871,4200.512718,4199.487077,4213.846051,4205.128102,4201.538359,4225.640922,4213.33323,4201.025538,4199.999897,4166.153744,4197.948615,4193.333231
109,0,4216.922974,4204.615282,4195.384513,4196.410154,4210.769128,4210.769128,4202.051179,4225.128102,4211.794769,4196.922974,4197.948615,4163.589642,4195.897333,4193.846051
110,0,4231.281948,4213.846051,4199.999897,4203.589641,4215.897333,4218.974256,4200.512718,4219.999897,4208.205025,4209.743487,4195.897333,4165.128103,4208.205025,4232.307589
111,0,4239.487076,4224.615281,4210.769128,4217.435794,4223.07682,4222.051179,4200.512718,4224.102461,4212.82041,4210.256307,4201.025538,4173.846052,4218.974256,4258.461434
112,0,4219.999897,4216.410153,4208.205025,4211.281948,4221.538358,4217.948615,4202.564,4229.743486,4209.230666,4187.692205,4210.256307,4174.871693,4213.33323,4246.666563
113,0,4218.461435,4211.281948,4204.615282,4205.640923,4217.948615,4214.871692,4203.07682,4226.666563,4202.564,4185.128103,4211.794769,4179.487077,4202.051179,4214.871692
114,0,4232.820409,4221.025538,4209.230666,4217.948615,4221.538358,4214.358871,4206.153743,4225.640922,4206.666564,4213.846051,4206.153743,4188.717846,4205.128102,4205.128102
115,0,4214.358871,4216.410153,4207.179384,4202.051179,4219.487076,4212.307589,4209.230666,4228.717845,4214.871692,4218.461435,4203.589641,4182.05118,4209.743487,4216.410153
116,0,4193.846051,4198.974256,4192.30759,4156.410155,4207.179384,4209.230666,4204.615282,4220.512717,4210.256307,4192.30759,4197.948615,4165.128103,4196.922974,4224.102461
117,0,4204.615282,4195.384513,4190.256308,4149.743488,4203.07682,4205.128102,4196.410154,4207.692205,4203.589641,4182.564,4182.05118,4157.948616,4183.589641,4208.205025
118,0,4213.33323,4205.640923,4199.487077,4171.281949,4212.307589,4206.153743,4192.30759,4211.794769,4207.179384,4189.743487,4184.615282,4157.948616,4181.538359,4187.692205
119,0,4209.743487,4209.743487,4201.538359,4178.461436,4215.384512,4209.743487,4195.384513,4225.128102,4214.358871,4193.333231,4198.974256,4159.487078,4183.589641,4188.205026
120,0,4193.333231,4200.512718,4191.794769,4175.384513,4207.692205,4207.692205,4197.435795,4221.538358,4209.743487,4185.640923,4188.717846,4157.435796,4178.974257,4184.102462
121,0,4187.179385,4195.384513,4188.205026,4176.410154,4204.102461,4204.102461,4199.487077,4212.82041,4201.025538,4178.461436,4176.922975,4156.922975,4177.948616,4184.615282
122,0,4210.769128,4201.025538,4198.974256,4179.999898,4203.589641,4206.153743,4198.461436,4212.82041,4198.461436,4181.538359,4191.281949,4158.461437,4189.743487,4209.743487
123,0,4212.82041,4201.538359,4202.564,4184.615282,4203.07682,4210.256307,4192.30759,4212.82041,4202.564,4196.922974,4199.487077,4161.53836,4201.538359,4215.897333
124,0,4183.076821,4201.538359,4198.974256,4189.230667,4209.230666,4210.769128,4194.358872,4214.358871,4206.666564,4207.179384,4194.358872,4171.281949,4202.051179,4189.230667
125,0,4187.692205,4206.666564,4198.974256,4194.358872,4214.871692,4213.846051,4203.589641,4219.487076,4208.205025,4193.846051,4195.384513,4179.999898,4199.487077,4185.128103
126,0,4220.512717,4208.717846,4205.128102,4205.128102,4214.871692,4217.435794,4201.025538,4219.999897,4208.717846,4187.692205,4193.333231,4181.025539,4201.025538,4211.794769
127,0,4214.358871,4208.205025,4207.179384,4204.615282,4214.871692,4215.897333,4192.82041,4217.435794,4209.743487,4201.538359,4194.871692,4177.435795,4196.410154,4216.410153
128,0,4177.948616,4203.589641,4202.564,4191.794769,4209.743487,4210.769128,4194.358872,4213.33323,4206.666564,4201.538359,4200.512718,4169.743488,4182.564,4186.666564
0,0,4177.948616,4200.512718,4194.358872,4195.384513,4206.153743,4212.82041,4204.102461,4210.769128,4206.153743,4189.230667,4197.948615,4163.076821,4185.640923,4172.820411
1,0,4206.666564,4203.07682,4194.871692,4206.666564,4211.794769,4217.435794,4207.692205,4214.871692,4209.230666,4186.666564,4189.743487,4163.589642,4199.487077,4192.30759
2,0,4209.743487,4205.640923,4199.999897,4204.615282,4213.846051,4215.897333,4204.102461,4218.974256,4209.743487,4195.384513,4193.333231,4161.025539,4202.051179,4212.307589
3,0,4195.384513,4204.102461,4199.999897,4197.948615,4209.230666,4211.794769,4199.999897,4215.897333,4210.256307,4200.512718,4196.922974,4159.487078,4201.538359,4206.666564
4,0,4207.179384,4212.307589,4199.487077,4205.640923,4215.384512,4219.999897,4204.102461,4219.487076,4219.487076,4214.358871,4203.589641,4172.820411,4212.82041,4203.07682
5,0,4225.128102,4222.563999,4209.230666,4222.051179,4223.07682,4232.820409,4213.33323,4233.33323,4225.640922,4230.256307,4220.512717,4183.589641,4219.487076,4223.58964
6,0,4218.974256,4226.666563,4213.846051,4232.820409,4223.07682,4234.358871,4215.897333,4238.974255,4223.07682,4235.384512,4230.256307,4184.102462,4226.153743,4244.10246
7,0,4208.205025,4225.640922,4207.179384,4230.769127,4222.563999,4229.230666,4217.435794,4236.410153,4226.153743,4235.897332,4227.692204,4187.179385,4235.384512,4237.435794
8,0,4206.666564,4218.974256,4203.07682,4217.435794,4218.974256,4227.692204,4216.922974,4233.33323,4225.640922,4224.615281,4219.487076,4184.615282,4228.717845,4217.948615
9,0,4210.769128,4213.846051,4205.640923,4209.743487,4212.82041,4227.179384,4211.794769,4232.820409,4217.948615,4204.102461,4213.33323,4174.358872,4212.82041,4212.307589
10,0,4201.538359,4206.666564,4197.435795,4209.743487,4212.82041,4226.153743,4208.717846,4231.281948,4211.794769,4196.922974,4198.974256,4169.230667,4203.589641,4206.153743
11,0,4188.717846,4195.384513,4186.666564,4211.281948,4215.897333,4222.563999,4206.666564,4223.58964,4209.230666,4209.743487,4187.179385,4166.153744,4197.948615,4193.846051
12,0,4193.846051,4198.974256,4195.897333,4221.025538,4215.897333,4221.025538,4209.743487,4223.58964,4212.82041,4217.435794,4205.640923,4165.128103,4203.589641,4207.692205
13,0,4197.435795,4212.82041,4208.205025,4234.871691,4215.897333,4224.615281,4218.461435,4235.897332,4218.974256,4216.922974,4229.743486,4173.333231,4219.487076,4225.640922
14,0,4195.384513,4212.307589,4202.051179,4237.435794,4215.897333,4227.692204,4223.07682,4238.461435,4217.948615,4223.58964,4219.487076,4179.487077,4222.563999,4210.769128
15,0,4209.743487,4207.692205,4197.948615,4234.871691,4214.358871,4224.102461,4220.512717,4230.256307,4213.33323,4227.179384,4204.102461,4176.922975,4219.487076,4204.102461
16,0,4218.461435,4206.153743,4205.640923,4233.84605,4210.769128,4221.025538,4218.461435,4229.743486,4209.743487,4222.051179,4207.692205,4175.384513,4208.717846,4218.974256
17,0,4199.999897,4201.538359,4202.564,4230.256307,4211.281948,4226.153743,4219.999897,4238.974255,4209.230666,4214.871692,4204.102461,4175.897334,4197.435795,4217.948615
18,0,4184.102462,4196.922974,4197.948615,4225.640922,4211.794769,4225.640922,4216.922974,4238.974255,4209.743487,4204.615282,4198.461436,4171.79477,4196.922974,4199.487077
19,0,4195.897333,4202.051179,4203.07682,4230.256307,4211.794769,4219.999897,4210.769128,4232.820409,4212.307589,4205.128102,4211.794769,4172.820411,4205.128102,4197.435795
20,0,4208.205025,4206.153743,4203.589641,4235.384512,4211.281948,4217.435794,4208.205025,4226.666563,4209.743487,4211.794769,4211.794769,4175.384513,4202.051179,4205.128102
21,0,4199.487077,4199.999897,4195.897333,4231.794768,4212.307589,4218.974256,4207.692205,4222.051179,4205.128102,4205.128102,4193.333231,4164.615283,4191.281949,4208.717846
22,0,4189.230667,4196.922974,4197.435795,4230.256307,4212.82041,4218.974256,4206.153743,4223.07682,4206.666564,4193.333231,4193.333231,4156.410155,4196.922974,4213.33323
23,0,4189.230667,4201.025538,4203.07682,4231.794768,4213.846051,4224.615281,4209.743487,4229.743486,4214.871692,4207.692205,4205.128102,4166.153744,4208.205025,4201.025538
24,0,4190.256308,4199.487077,4202.051179,4230.256307,4213.846051,4228.717845,4217.948615,4233.33323,4219.487076,4226.666563,4202.564,4175.384513,4199.999897,4178.974257
25,0,4204.102461,4203.07682,4198.974256,4236.922973,4219.999897,4229.230666,4222.051179,4237.948614,4221.538358,4219.487076,4211.794769,4171.79477,4201.538359,4198.461436
26,0,4225.128102,4218.461435,4205.640923,4251.794768,4228.717845,4233.33323,4224.615281,4245.128101,4227.179384,4216.922974,4231.794768,4172.30759,4230.769127,4246.153742
27,0,4217.435794,4222.051179,4214.871692,4253.333229,4228.717845,4233.33323,4225.640922,4244.615281,4224.615281,4225.128102,4226.666563,4183.076821,4239.487076,4257.948614
28,0,4195.384513,4212.82041,4214.871692,4247.179383,4223.07682,4230.769127,4224.615281,4243.076819,4216.922974,4224.615281,4214.871692,4188.717846,4217.948615,4230.256307
29,0,4203.589641,4213.846051,4210.769128,4253.333229,4226.153743,4236.410153,4230.256307,4249.743486,4219.487076,4232.820409,4222.051179,4186.666564,4212.307589,4217.435794
30,0,4219.487076,4218.461435,4215.897333,4238.974255,4229.743486,4235.384512,4227.692204,4252.820409,4227.179384,4248.717845,4225.128102,4188.717846,4218.974256,4228.205025
31,0,4208.205025,4208.205025,4216.922974,4188.717846,4217.948615,4218.461435,4213.846051,4241.025537,4219.999897,4227.179384,4213.846051,4184.615282,4209.743487,4224.102461
32,0,4203.589641,4198.974256,4205.128102,4155.897334,4208.717846,4210.769128,4209.743487,4229.743486,4208.717846,4198.974256,4206.666564,4164.102462,4203.07682,4210.256307
33,0,4212.82041,4201.025538,4197.435795,4165.640924,4214.358871,4220.512717,4213.846051,4227.692204,4207.692205,4209.230666,4206.666564,4154.871693,4208.717846,4206.666564
34,0,4207.692205,4203.589641,4198.974256,4179.999898,4218.461435,4225.640922,4211.794769,4231.281948,4211.794769,4217.435794,4208.717846,4169.230667,4212.307589,4213.33323
35,0,4198.974256,4200.512718,4197.435795,4186.666564,4212.82041,4217.948615,4205.128102,4231.794768,4210.769128,4208.205025,4207.179384,4170.769129,4209.230666,4213.33323
36,0,4206.153743,4207.179384,4199.487077,4205.640923,4217.435794,4219.999897,4212.307589,4236.922973,4215.897333,4223.07682,4214.358871,4166.666565,4220.512717,4226.666563
37,0,4206.666564,4215.384512,4210.769128,4224.615281,4224.102461,4234.358871,4225.640922,4247.179383,4226.666563,4245.640922,4229.743486,4180.512718,4233.33323,4235.897332
38,0,4195.384513,4213.846051,4207.692205,4221.025538,4215.897333,4231.794768,4227.179384,4249.743486,4223.07682,4236.410153,4235.897332,4189.743487,4225.640922,4216.410153
39,0,4201.025538,4213.846051,4201.025538,4214.871692,4213.33323,4218.974256,4220.512717,4241.538358,4214.358871,4216.410153,4225.640922,4183.589641,4215.384512,4216.410153
40,0,4222.051179,4221.538358,4209.743487,4225.640922,4224.102461,4223.58964,4223.58964,4240.512717,4218.461435,4225.640922,4226.666563,4187.179385,4227.179384,4245.640922
41,0,4226.153743,4220.512717,4215.897333,4236.410153,4226.153743,4230.256307,4230.769127,4244.615281,4224.615281,4234.358871,4228.717845,4195.384513,4233.84605,4237.948614
42,0,4214.358871,4216.410153,4212.307589,4227.179384,4223.07682,4225.128102,4227.179384,4243.58964,4217.948615,4220.512717,4218.974256,4187.179385,4222.563999,4217.948615
43,0,4215.384512,4218.974256,4215.897333,4213.846051,4225.640922,4222.563999,4215.897333,4237.435794,4210.256307,4215.384512,4218.461435,4177.948616,4221.025538,4231.794768
44,0,4227.179384,4219.487076,4215.384512,4210.769128,4225.640922,4224.102461,4213.33323,4231.281948,4208.205025,4229.743486,4229.230666,4181.538359,4231.794768,4238.461435
45,0,4224.615281,4218.461435,4210.769128,4219.487076,4223.58964,4225.640922,4223.58964,4231.281948,4212.307589,4229.743486,4228.717845,4187.692205,4233.84605,4232.820409
46,0,4221.025538,4224.102461,4212.82041,4230.256307,4226.666563,4231.794768,4230.769127,4234.358871,4213.33323,4217.948615,4218.974256,4184.102462,4227.692204,4233.33323
47,0,4229.230666,4224.102461,4209.743487,4232.820409,4230.256307,4230.769127,4225.640922,4235.384512,4211.794769,4220.512717,4217.435794,4176.922975,4227.179384,4224.102461
48,0,4221.025538,4217.948615,4202.051179,4230.769127,4231.281948,4225.640922,4222.051179,4233.84605,4215.384512,4228.205025,4219.487076,4173.846052,4227.179384,4223.58964
49,0,4202.051179,4216.922974,4205.640923,4230.256307,4229.230666,4227.692204,4224.615281,4234.358871,4217.435794,4220.512717,4217.435794,4174.358872,4224.102461,4236.410153
50,0,4196.922974,4213.33323,4211.281948,4222.563999,4221.025538,4222.563999,4218.974256,4228.717845,4207.692205,4204.102461,4214.358871,4175.384513,4214.871692,4221.538358
51,0,4200.512718,4206.666564,4210.769128,4212.82041,4219.999897,4215.897333,4209.743487,4224.102461,4205.640923,4203.589641,4218.461435,4176.922975,4212.82041,4201.538359
52,0,4215.384512,4208.717846,4209.743487,4216.410153,4226.666563,4220.512717,4215.384512,4232.307589,4214.358871,4217.435794,4222.563999,4180.512718,4226.153743,4216.410153
53,0,4227.179384,4207.179384,4207.692205,4219.487076,4224.102461,4219.999897,4223.07682,4239.487076,4213.33323,4224.615281,4220.512717,4179.999898,4227.692204,4232.307589
54,0,4207.692205,4198.461436,4209.230666,4214.358871,4216.410153,4212.307589,4218.974256,4236.410153,4203.589641,4218.461435,4208.717846,4177.948616,4207.179384,4222.563999
55,0,4202.051179,4208.205025,4216.410153,4216.410153,4219.999897,4218.974256,4215.897333,4237.435794,4205.128102,4211.281948,4208.205025,4183.589641,4209.230666,4219.999897
56,0,4228.205025,4219.487076,4215.897333,4219.487076,4225.128102,4225.128102,4221.025538,4241.538358,4211.794769,4212.82041,4225.128102,4188.205026,4230.256307,4227.179384
57,0,4231.794768,4215.384512,4208.717846,4216.410153,4223.58964,4220.512717,4225.128102,4241.025537,4212.307589,4219.487076,4230.769127,4186.153744,4233.33323,4225.640922
58,0,4218.974256,4213.33323,4212.82041,4216.922974,4222.051179,4220.512717,4223.58964,4238.461435,4212.307589,4221.025538,4217.435794,4184.102462,4228.205025,4229.230666
59,0,4225.640922,4219.999897,4217.435794,4214.871692,4225.640922,4223.07682,4219.999897,4238.974255,4212.82041,4219.487076,4213.846051,4186.153744,4231.281948,4250.256306
60,0,4224.102461,4215.897333,4217.948615,4209.230666,4226.153743,4221.025538,4218.974256,4238.461435,4209.743487,4221.538358,4217.948615,4184.615282,4230.769127,4248.717845
61,0,4211.281948,4208.205025,4211.794769,4208.717846,4225.128102,4222.051179,4223.58964,4239.487076,4208.205025,4224.102461,4213.846051,4179.487077,4227.692204,4222.563999
62,0,4211.281948,4209.230666,4209.230666,4213.846051,4224.615281,4216.922974,4218.461435,4239.999896,4208.205025,4217.948615,4214.871692,4183.589641,4220.512717,4215.384512
63,0,4217.435794,4218.974256,4215.384512,4222.563999,4228.717845,4212.82041,4214.358871,4242.051178,4209.743487,4219.999897,4226.666563,4195.384513,4220.512717,4226.666563
64,0,4226.666563,4228.717845,4222.051179,4228.717845,4231.281948,4221.538358,4223.58964,4246.153742,4215.897333,4231.281948,4230.769127,4195.897333,4236.410153,4234.871691
65,0,4228.205025,4224.102461,4218.461435,4220.512717,4226.666563,4224.102461,4223.58964,4242.051178,4213.33323,4225.640922,4225.640922,4183.589641,4236.922973,4237.435794
66,0,4217.435794,4213.33323,4213.846051,4206.153743,4226.153743,4216.922974,4217.435794,4235.384512,4209.743487,4214.871692,4215.897333,4180.512718,4215.897333,4237.435794
67,0,4218.461435,4218.974256,4218.974256,4206.666564,4231.794768,4218.461435,4222.563999,4235.897332,4215.384512,4227.692204,4216.410153,4185.128103,4219.999897,4231.794768
68,0,4238.974255,4231.281948,4224.102461,4219.487076,4238.974255,4227.692204,4229.743486,4242.563999,4220.512717,4235.897332,4229.230666,4187.692205,4244.615281,4224.102461
69,0,4253.333229,4229.743486,4221.538358,4228.205025,4236.922973,4222.563999,4228.717845,4241.538358,4217.435794,4223.58964,4235.897332,4189.230667,4243.58964,4231.794768
70,0,4248.205024,4226.153743,4219.999897,4222.051179,4229.743486,4213.846051,4221.538358,4233.84605,4212.82041,4224.615281,4232.307589,4189.743487,4235.384512,4253.333229
71,0,4232.307589,4222.563999,4222.563999,4213.33323,4226.666563,4212.82041,4213.846051,4225.640922,4207.179384,4230.769127,4225.128102,4186.153744,4232.307589,4257.435793
72,0,4221.538358,4215.384512,4221.025538,4221.025538,4230.769127,4215.897333,4215.897333,4226.153743,4207.692205,4217.948615,4215.384512,4185.128103,4222.563999,4228.717845
73,0,4218.461435,4213.846051,4221.025538,4233.33323,4231.794768,4212.307589,4217.435794,4235.897332,4210.769128,4208.717846,4208.205025,4190.769128,4220.512717,4209.743487
74,0,4226.666563,4221.025538,4219.999897,4228.717845,4231.281948,4210.769128,4213.846051,4241.025537,4210.256307,4222.563999,4218.974256,4192.82041,4231.281948,4233.84605
75,0,4233.33323,4216.922974,4214.358871,4217.948615,4225.128102,4216.922974,4214.871692,4234.871691,4210.769128,4225.640922,4226.666563,4185.128103,4231.281948,4245.640922
76,0,4224.615281,4208.717846,4213.846051,4221.538358,4222.051179,4221.025538,4219.487076,4232.820409,4215.384512,4220.512717,4224.102461,4182.564,4225.128102,4228.717845
77,0,4224.102461,4213.846051,4221.538358,4231.794768,4232.307589,4222.051179,4220.512717,4238.974255,4219.487076,4230.769127,4225.640922,4184.102462,4229.743486,4227.179384
78,0,4241.025537,4222.563999,4219.999897,4229.743486,4237.435794,4220.512717,4221.538358,4235.897332,4222.051179,4238.461435,4234.871691,4186.666564,4239.999896,4243.58964
79,0,4237.435794,4222.051179,4216.410153,4218.461435,4224.615281,4211.281948,4217.435794,4225.128102,4216.922974,4228.205025,4228.717845,4188.717846,4240.512717,4243.58964
80,0,4208.717846,4219.487076,4222.563999,4217.435794,4221.538358,4211.281948,4211.281948,4224.102461,4208.717846,4225.128102,4213.846051,4187.692205,4235.384512,4237.948614
81,0,4204.615282,4220.512717,4227.692204,4229.743486,4233.33323,4219.487076,4208.717846,4226.153743,4208.205025,4230.769127,4215.897333,4184.615282,4236.410153,4229.743486
82,0,4235.384512,4223.07682,4222.051179,4234.871691,4235.384512,4222.051179,4213.846051,4227.692204,4210.769128,4222.563999,4229.230666,4184.615282,4246.666563,4214.871692
83,0,4248.717845,4218.461435,4215.384512,4230.769127,4227.179384,4215.384512,4217.948615,4231.281948,4211.281948,4211.794769,4229.743486,4187.692205,4237.948614,4224.102461
84,0,4223.58964,4206.666564,4209.230666,4227.179384,4223.07682,4214.871692,4212.307589,4228.717845,4207.692205,4210.256307,4215.897333,4180.512718,4213.846051,4239.999896
85,0,4209.743487,4201.538359,4205.128102,4233.84605,4225.128102,4222.051179,4213.846051,4227.179384,4207.179384,4216.922974,4206.666564,4170.769129,4212.307589,4234.358871
86,0,4213.33323,4208.205025,4207.179384,4232.820409,4229.743486,4222.051179,4217.435794,4231.281948,4211.281948,4220.512717,4204.102461,4177.435795,4226.153743,4217.435794
87,0,4198.974256,4210.256307,4206.666564,4219.999897,4230.256307,4211.281948,4208.205025,4230.769127,4212.307589,4215.897333,4207.692205,4184.615282,4218.974256,4206.666564
88,0,4186.666564,4200.512718,4198.974256,4216.410153,4221.025538,4204.615282,4203.07682,4227.179384,4205.128102,4215.897333,4211.281948,4170.256308,4199.999897,4198.974256
89,0,4209.230666,4203.07682,4196.410154,4228.205025,4222.563999,4213.33323,4209.743487,4227.179384,4206.153743,4226.153743,4214.358871,4163.076821,4212.82041,4209.743487
90,0,4231.794768,4218.461435,4204.615282,4235.897332,4232.820409,4221.025538,4209.743487,4231.281948,4214.358871,4226.666563,4225.128102,4181.025539,4235.384512,4234.871691
91,0,4230.256307,4219.999897,4205.128102,4232.307589,4232.820409,4218.974256,4211.281948,4239.487076,4214.871692,4224.102461,4227.179384,4190.256308,4232.820409,4233.84605
92,0,4227.179384,4213.33323,4202.564,4231.281948,4229.230666,4214.358871,4215.384512,4237.948614,4208.717846,4219.487076,4214.358871,4180.512718,4222.563999,4225.128102
93,0,4231.794768,4224.102461,4208.205025,4233.84605,4235.384512,4214.358871,4207.692205,4226.153743,4206.666564,4212.307589,4216.922974,4177.948616,4230.256307,4239.999896
94,0,4223.58964,4226.666563,4209.230666,4233.84605,4235.384512,4217.948615,4204.102461,4221.025538,4208.717846,4215.897333,4227.179384,4182.564,4228.717845,4245.640922
95,0,4209.743487,4216.410153,4201.025538,4237.435794,4231.281948,4223.07682,4217.948615,4227.692204,4210.256307,4230.769127,4222.563999,4177.435795,4215.384512,4234.358871
96,0,4219.999897,4222.563999,4201.025538,4246.666563,4233.33323,4227.179384,4224.102461,4229.743486,4210.256307,4233.84605,4213.846051,4170.769129,4217.948615,4227.179384
97,0,4236.410153,4234.358871,4205.640923,4248.205024,4232.307589,4222.563999,4215.897333,4225.640922,4210.769128,4224.615281,4213.33323,4173.333231,4227.692204,4231.794768
98,0,4241.538358,4233.33323,4207.179384,4238.461435,4230.256307,4217.435794,4214.358871,4225.640922,4210.256307,4223.07682,4218.461435,4180.512718,4233.33323,4239.487076
99,0,4263.589639,4243.58964,4212.307589,4236.922973,4236.410153,4224.615281,4224.615281,4236.922973,4209.743487,4229.230666,4229.230666,4189.230667,4246.153742,4258.461434
100,0,4300.512715,4260.512716,4225.128102,4243.58964,4237.435794,4226.666563,4223.58964,4240.512717,4210.769128,4219.487076,4235.384512,4201.025538,4259.487075,4287.692203
101,0,4318.974253,4267.692203,4234.871691,4236.922973,4231.794768,4212.307589,4209.230666,4227.692204,4203.589641,4208.205025,4241.025537,4208.717846,4269.743485,4326.15374
102,0,4330.769125,4268.717844,4237.948614,4208.717846,4225.640922,4201.025538,4201.538359,4217.948615,4192.82041,4212.307589,4246.153742,4210.769128,4275.384511,4361.025534
103,0,4338.974253,4254.35887,4228.205025,4152.820411,4209.230666,4196.410154,4200.512718,4211.281948,4180.512718,4205.640923,4226.666563,4198.974256,4257.435793,4363.076816
104,0,4316.922971,4230.256307,4216.922974,4094.871695,4188.717846,4184.102462,4191.794769,4195.384513,4167.692206,4179.999898,4198.461436,4176.410154,4221.538358,4339.487073
105,0,4288.717844,4215.897333,4216.922974,4082.051182,4182.05118,4173.333231,4179.487077,4181.025539,4161.025539,4159.999898,4190.256308,4166.153744,4203.589641,4314.871689
106,0,4295.897331,4212.307589,4217.435794,4100.51272,4183.589641,4178.974257,4182.564,4184.102462,4169.743488,4161.53836,4199.999897,4173.846052,4207.692205,4312.820407
107,0,4301.025536,4208.717846,4212.307589,4109.743489,4179.487077,4187.179385,4191.281949,4195.384513,4181.025539,4167.692206,4200.512718,4177.435795,4211.794769,4317.435792
108,0,4275.897331,4208.717846,4209.230666,4123.076822,4183.076821,4190.769128,4189.743487,4202.564,4189.230667,4168.717847,4191.794769,4169.230667,4212.307589,4300.512715
109,0,4262.563998,4217.435794,4215.897333,4153.846052,4197.435795,4195.384513,4193.333231,4205.128102,4193.333231,4172.820411,4201.025538,4171.281949,4210.769128,4286.153741
110,0,4275.384511,4224.102461,4217.435794,4175.897334,4207.692205,4201.025538,4203.589641,4212.82041,4195.897333,4189.743487,4224.102461,4184.615282,4213.846051,4287.692203
111,0,4275.897331,4225.128102,4214.871692,4181.025539,4211.281948,4203.589641,4200.512718,4220.512717,4203.07682,4207.692205,4227.179384,4188.205026,4220.512717,4275.897331
112,0,4262.051178,4228.205025,4217.435794,4188.717846,4216.410153,4210.256307,4197.435795,4222.051179,4207.179384,4210.256307,4223.07682,4185.640923,4221.025538,4262.051178
113,0,4238.974255,4222.051179,4220.512717,4190.769128,4212.307589,4210.256307,4204.615282,4215.897333,4202.051179,4205.640923,4219.999897,4183.076821,4209.230666,4253.84605
114,0,4219.999897,4212.307589,4215.384512,4184.615282,4207.692205,4201.025538,4202.564,4211.281948,4199.487077,4209.743487,4203.07682,4185.128103,4202.051179,4230.256307
115,0,4231.281948,4214.871692,4215.384512,4190.256308,4211.281948,4200.512718,4193.333231,4216.922974,4204.102461,4208.717846,4194.871692,4186.666564,4198.974256,4210.769128
116,0,4242.051178,4221.025538,4218.461435,4202.051179,4213.33323,4208.717846,4197.948615,4226.153743,4202.564,4197.435795,4213.33323,4178.974257,4196.410154,4227.692204
117,0,4230.256307,4214.358871,4214.871692,4204.615282,4212.82041,4208.205025,4208.717846,4226.666563,4201.538359,4196.922974,4222.051179,4172.30759,4197.948615,4233.84605
118,0,4222.051179,4214.358871,4212.82041,4199.999897,4216.410153,4207.179384,4208.717846,4222.563999,4205.640923,4208.205025,4211.794769,4176.410154,4196.922974,4210.769128
119,0,4215.897333,4215.384512,4218.974256,4196.410154,4212.82041,4210.256307,4205.128102,4218.974256,4202.051179,4203.589641,4205.128102,4177.435795,4187.692205,4200.512718
120,0,4196.410154,4203.589641,4216.922974,4187.179385,4208.205025,4210.769128,4206.153743,4219.487076,4197.948615,4194.358872,4203.07682,4169.743488,4179.999898,4209.230666
121,0,4197.948615,4198.461436,4207.692205,4183.076821,4216.410153,4211.281948,4211.281948,4224.102461,4204.615282,4207.179384,4201.538359,4173.846052,4189.743487,4211.794769
122,0,4221.538358,4207.179384,4206.153743,4194.358872,4222.563999,4212.307589,4208.205025,4223.58964,4209.230666,4209.743487,4204.102461,4181.538359,4199.487077,4205.128102
123,0,4216.410153,4211.281948,4206.666564,4203.589641,4218.974256,4211.794769,4205.640923,4223.58964,4208.205025,4199.487077,4212.82041,4177.435795,4193.333231,4199.999897
124,0,4199.487077,4205.128102,4202.564,4199.999897,4214.871692,4214.871692,4213.846051,4233.33323,4210.256307,4207.179384,4215.897333,4171.79477,4184.102462,4195.384513
125,0,4200.512718,4196.410154,4197.948615,4189.230667,4210.256307,4216.410153,4219.999897,4242.563999,4213.846051,4218.974256,4211.794769,4168.205026,4187.179385,4193.846051
126,0,4178.974257,4188.205026,4193.333231,4176.410154,4206.153743,4207.692205,4210.256307,4235.384512,4209.743487,4208.205025,4205.640923,4157.435796,4184.102462,4187.692205
127,0,4140.512719,4181.538359,4184.615282,4161.025539,4205.640923,4203.07682,4205.640923,4228.717845,4203.07682,4192.30759,4193.333231,4145.640924,4167.179385,4162.564001
128,0,4150.769129,4175.897334,4183.076821,4155.384514,4205.640923,4212.307589,4217.948615,4230.769127,4199.999897,4197.435795,4181.025539,4148.717847,4162.05118,4138.461437
0,0,4191.281949,4177.948616,4186.666564,4167.179385,4208.205025,4223.58964,4223.07682,4234.358871,4206.153743,4207.179384,4192.82041,4161.53836,4174.871693,4153.333232
1,0,4191.794769,4192.30759,4194.871692,4189.230667,4208.717846,4219.999897,4214.871692,4234.358871,4209.743487,4203.07682,4211.281948,4166.153744,4185.128103,4185.640923
2,0,4171.281949,4202.051179,4199.487077,4198.974256,4209.743487,4210.769128,4210.769128,4229.743486,4204.102461,4203.589641,4212.82041,4167.179385,4191.281949,4189.230667
3,0,4174.358872,4189.230667,4199.999897,4187.692205,4210.256307,4209.743487,4211.281948,4222.051179,4201.538359,4208.717846,4209.743487,4171.79477,4193.333231,4172.820411
4,0,4201.538359,4198.461436,4203.589641,4193.333231,4219.487076,4214.871692,4208.717846,4225.640922,4206.153743,4218.461435,4224.102461,4182.564,4204.615282,4192.30759
5,0,4223.58964,4236.922973,4214.871692,4227.179384,4231.281948,4216.922974,4208.717846,4236.410153,4216.410153,4234.871691,4236.922973,4189.743487,4224.102461,4230.256307
6,0,4227.692204,4252.307588,4217.948615,4249.743486,4232.820409,4221.538358,4215.897333,4240.512717,4220.512717,4243.076819,4228.717845,4189.230667,4220.512717,4224.615281
7,0,4221.025538,4239.487076,4215.897333,4245.640922,4229.743486,4223.58964,4215.384512,4239.999896,4215.897333,4230.769127,4215.384512,4191.281949,4190.256308,4195.384513
8,0,4213.33323,4242.563999,4220.512717,4254.35887,4236.410153,4222.563999,4214.358871,4244.10246,4217.948615,4231.281948,4215.384512,4198.974256,4183.076821,4195.897333
9,0,4210.769128,4248.717845,4221.538358,4268.717844,4238.461435,4221.025538,4218.974256,4248.205024,4226.666563,4242.051178,4214.871692,4194.358872,4195.897333,4202.051179
10,0,4211.794769,4236.410153,4211.794769,4256.410152,4226.153743,4219.999897,4217.948615,4243.076819,4222.563999,4212.82041,4208.717846,4176.922975,4186.666564,4183.589641
11,0,4212.82041,4233.33323,4210.769128,4245.640922,4225.128102,4221.538358,4210.769128,4236.922973,4212.82041,4187.179385,4212.307589,4171.79477,4172.30759,4173.333231
12,0,4199.999897,4235.384512,4213.33323,4246.153742,4229.230666,4221.025538,4210.256307,4237.435794,4210.769128,4207.179384,4210.769128,4173.846052,4172.30759,4184.615282
13,0,4185.640923,4225.640922,4203.07682,4234.871691,4222.051179,4217.435794,4216.410153,4235.897332,4210.256307,4219.487076,4189.743487,4169.743488,4170.256308,4186.153744
14,0,4186.666564,4209.743487,4195.384513,4215.897333,4213.846051,4211.281948,4211.794769,4224.615281,4205.128102,4202.564,4179.487077,4165.640924,4158.461437,4167.692206
15,0,4194.358872,4203.589641,4199.487077,4213.846051,4213.846051,4209.743487,4203.589641,4222.051179,4208.205025,4202.051179,4195.897333,4165.640924,4161.025539,4161.53836
16,0,4191.794769,4204.615282,4197.948615,4217.948615,4214.871692,4213.33323,4205.640923,4229.230666,4217.948615,4222.051179,4204.102461,4167.692206,4174.358872,4176.922975
17,0,4188.717846,4206.153743,4192.82041,4217.948615,4213.33323,4219.487076,4208.717846,4232.820409,4217.948615,4216.410153,4200.512718,4167.179385,4177.435795,4186.666564
18,0,4192.30759,4203.589641,4194.358872,4222.051179,4206.666564,4223.58964,4211.794769,4230.256307,4207.692205,4186.153744,4199.487077,4162.05118,4168.205026,4169.743488
19,0,4185.640923,4206.666564,4194.358872,4227.692204,4207.692205,4223.07682,4213.846051,4227.692204,4205.640923,4185.128103,4197.948615,4165.128103,4163.076821,4162.564001
20,0,4176.922975,4215.384512,4194.871692,4230.769127,4220.512717,4225.128102,4213.846051,4230.256307,4212.307589,4217.948615,4194.871692,4173.333231,4172.30759,4180.512718
21,0,4179.999898,4215.384512,4196.410154,4228.717845,4226.153743,4226.153743,4217.435794,4236.922973,4212.307589,4227.179384,4195.897333,4164.615283,4182.564,4187.692205
22,0,4191.794769,4211.281948,4198.461436,4226.666563,4218.974256,4221.025538,4218.974256,4235.384512,4208.205025,4202.564,4197.435795,4156.922975,4174.871693,4165.128103
23,0,4210.256307,4217.948615,4198.974256,4233.33323,4220.512717,4222.563999,4214.871692,4230.256307,4207.692205,4203.07682,4204.102461,4168.717847,4166.666565,4158.974257
24,0,4210.256307,4218.974256,4201.538359,4236.922973,4225.128102,4226.153743,4212.82041,4232.820409,4213.33323,4218.461435,4211.281948,4175.897334,4175.897334,4189.743487
25,0,4181.538359,4214.358871,4199.487077,4229.743486,4220.512717,4221.538358,4213.33323,4235.384512,4217.435794,4212.307589,4205.640923,4167.692206,4188.717846,4216.410153
26,0,4184.102462,4223.07682,4199.487077,4235.897332,4217.948615,4217.948615,4211.281948,4234.871691,4219.487076,4210.256307,4204.615282,4170.769129,4197.948615,4212.82041
27,0,4228.717845,4239.487076,4209.230666,4255.384511,4221.538358,4222.563999,4209.230666,4235.897332,4216.922974,4229.230666,4219.487076,4187.692205,4198.461436,4194.871692
28,0,4236.410153,4232.307589,4214.871692,4248.717845,4222.051179,4224.102461,4207.692205,4232.820409,4210.769128,4230.769127,4222.051179,4188.717846,4179.999898,4182.564
29,0,4210.256307,4218.461435,4207.179384,4231.281948,4223.58964,4219.999897,4206.153743,4232.820409,4213.846051,4221.025538,4215.897333,4172.30759,4186.666564,4195.897333
30,0,4210.256307,4223.58964,4203.07682,4244.615281,4228.205025,4221.025538,4208.205025,4239.487076,4223.58964,4235.384512,4221.538358,4163.076821,4218.974256,4214.358871
31,0,4201.538359,4228.205025,4208.717846,4265.128101,4227.179384,4224.102461,4212.307589,4239.487076,4216.922974,4238.974255,4218.461435,4168.205026,4218.461435,4199.999897
32,0,4186.666564,4219.999897,4209.230666,4258.974255,4226.666563,4224.102461,4218.461435,4233.33323,4209.230666,4216.410153,4202.051179,4170.769129,4196.922974,4181.025539
33,0,4212.307589,4218.461435,4199.999897,4246.666563,4224.102461,4218.974256,4214.358871,4228.205025,4212.307589,4212.82041,4198.461436,4166.153744,4194.871692,4187.692205
34,0,4234.871691,4223.58964,4196.922974,4247.179383,4216.410153,4215.897333,4205.128102,4228.205025,4214.871692,4222.051179,4213.33323,4171.281949,4201.538359,4196.922974
35,0,4207.692205,4224.615281,4208.205025,4247.179383,4217.948615,4216.410153,4204.615282,4233.33323,4213.846051,4213.846051,4223.58964,4180.512718,4197.435795,4193.333231
36,0,4192.30759,4225.640922,4214.871692,4237.435794,4225.640922,4217.435794,4210.769128,4239.487076,4215.384512,4213.846051,4218.461435,4177.948616,4195.897333,4205.128102
37,0,4217.948615,4220.512717,4205.640923,4229.230666,4223.58964,4219.999897,4215.384512,4237.435794,4216.410153,4225.640922,4204.615282,4168.717847,4195.897333,4205.128102
38,0,4229.743486,4217.948615,4196.922974,4229.230666,4222.051179,4225.128102,4216.410153,4238.974255,4219.999897,4229.743486,4206.666564,4169.743488,4200.512718,4183.589641
39,0,4208.717846,4220.512717,4205.128102,4229.230666,4225.128102,4225.640922,4213.846051,4241.538358,4221.025538,4226.153743,4218.461435,4178.974257,4205.128102,4189.743487
40,0,4193.846051,4221.538358,4217.948615,4232.820409,4226.666563,4225.640922,4213.846051,4242.563999,4217.948615,4230.256307,4223.58964,4182.05118,4207.179384,4211.794769
41,0,4202.051179,4218.461435,4219.999897,4237.435794,4222.563999,4227.179384,4213.846051,4239.487076,4215.897333,4238.461435,4221.538358,4180.512718,4204.102461,4211.281948
42,0,4212.82041,4215.384512,4211.281948,4235.384512,4218.461435,4224.615281,4210.256307,4233.84605,4216.922974,4229.230666,4214.358871,4175.897334,4192.30759,4199.487077
43,0,4214.358871,4210.256307,4206.666564,4231.794768,4216.922974,4218.461435,4211.281948,4236.410153,4215.384512,4203.07682,4196.922974,4168.205026,4182.564,4182.564
44,0,4212.82041,4204.615282,4207.179384,4223.58964,4216.410153,4221.025538,4214.871692,4237.948614,4213.33323,4192.82041,4186.153744,4156.922975,4187.179385,4169.743488
45,0,4202.051179,4198.974256,4205.128102,4201.538359,4211.794769,4222.051179,4212.307589,4226.153743,4209.743487,4201.025538,4194.358872,4153.846052,4192.82041,4176.922975
46,0,4186.153744,4198.974256,4203.07682,4196.922974,4211.281948,4219.487076,4210.769128,4222.051179,4207.179384,4208.717846,4206.153743,4162.05118,4195.384513,4196.922974
47,0,4184.615282,4207.179384,4208.717846,4217.948615,4218.974256,4219.999897,4214.358871,4235.384512,4212.307589,4218.974256,4207.179384,4174.358872,4198.974256,4208.205025
48,0,4197.435795,4210.769128,4210.256307,4222.051179,4217.948615,4224.615281,4221.538358,4245.128101,4220.512717,4228.205025,4209.743487,4182.564,4199.999897,4198.461436
49,0,4217.948615,4211.281948,4206.666564,4213.33323,4211.794769,4228.205025,4225.640922,4245.640922,4225.128102,4225.640922,4214.358871,4181.538359,4200.512718,4188.205026
50,0,4229.230666,4214.358871,4208.205025,4217.948615,4212.82041,4225.128102,4217.948615,4238.974255,4218.461435,4219.487076,4210.769128,4173.333231,4202.051179,4200.512718
51,0,4214.358871,4214.871692,4206.666564,4219.999897,4216.410153,4217.948615,4208.717846,4230.256307,4210.769128,4212.307589,4207.179384,4165.640924,4202.051179,4210.769128
52,0,4187.179385,4208.717846,4199.487077,4218.974256,4216.410153,4216.410153,4207.179384,4226.153743,4207.179384,4202.564,4204.102461,4162.564001,4197.435795,4187.692205
53,0,4199.487077,4216.922974,4204.615282,4233.33323,4222.051179,4223.07682,4211.794769,4227.179384,4209.743487,4207.179384,4198.974256,4167.692206,4192.82041,4175.384513
54,0,4233.84605,4229.743486,4212.82041,4238.974255,4225.128102,4223.07682,4210.256307,4228.205025,4213.33323,4215.384512,4194.358872,4171.79477,4189.230667,4186.153744
55,0,4223.07682,4222.563999,4207.179384,4228.205025,4221.025538,4220.512717,4206.666564,4228.717845,4214.358871,4215.384512,4201.025538,4166.666565,4195.897333,4188.717846
56,0,4195.897333,4210.769128,4209.230666,4223.58964,4217.435794,4220.512717,4207.179384,4224.615281,4212.307589,4215.897333,4213.846051,4165.128103,4205.128102,4198.461436
57,0,4194.871692,4208.205025,4211.794769,4200.512718,4215.897333,4215.384512,4207.179384,4221.025538,4209.230666,4217.948615,4208.205025,4163.076821,4201.538359,4209.230666
58,0,4184.615282,4199.999897,4201.025538,4167.179385,4210.769128,4210.256307,4202.564,4221.538358,4208.717846,4213.33323,4191.794769,4154.358873,4187.692205,4187.692205
59,0,4184.102462,4198.974256,4194.871692,4174.358872,4212.307589,4214.358871,4205.128102,4226.153743,4214.358871,4213.846051,4205.128102,4160.512719,4187.179385,4165.640924
60,0,4220.512717,4212.307589,4207.692205,4200.512718,4217.435794,4221.538358,4213.33323,4234.358871,4224.615281,4218.461435,4222.051179,4181.538359,4198.974256,4187.692205
61,0,4226.666563,4216.410153,4212.307589,4198.461436,4215.384512,4219.999897,4208.205025,4236.922973,4223.07682,4217.435794,4204.102461,4181.538359,4205.128102,4215.384512
62,0,4199.999897,4210.256307,4207.692205,4197.435795,4213.846051,4212.307589,4199.999897,4229.743486,4209.743487,4213.33323,4193.333231,4166.666565,4194.871692,4203.589641
63,0,4208.205025,4213.33323,4211.794769,4220.512717,4216.410153,4209.743487,4206.153743,4227.692204,4206.666564,4212.307589,4213.846051,4167.179385,4186.666564,4190.769128
64,0,4208.205025,4212.307589,4215.384512,4228.717845,4212.307589,4211.794769,4211.281948,4234.358871,4211.794769,4212.307589,4216.410153,4165.640924,4188.205026,4185.128103
65,0,4173.333231,4206.666564,4210.769128,4214.358871,4211.281948,4215.897333,4205.640923,4235.897332,4209.743487,4216.410153,4196.922974,4153.333232,4192.82041,4174.871693
66,0,4187.692205,4213.33323,4209.230666,4212.307589,4218.974256,4220.512717,4205.640923,4228.205025,4209.743487,4218.461435,4196.410154,4157.948616,4194.871692,4182.564
67,0,4238.974255,4231.281948,4216.410153,4231.281948,4227.692204,4224.102461,4210.769128,4223.58964,4214.871692,4216.410153,4217.435794,4178.974257,4202.564,4207.692205
68,0,4251.794768,4243.58964,4226.153743,4244.615281,4232.307589,4225.640922,4208.717846,4225.128102,4217.435794,4219.999897,4221.538358,4190.256308,4216.410153,4229.743486
69,0,4226.153743,4234.358871,4225.128102,4231.281948,4226.666563,4222.051179,4203.589641,4223.07682,4213.33323,4219.999897,4203.07682,4183.589641,4216.410153,4222.563999
70,0,4212.307589,4220.512717,4212.307589,4213.33323,4219.487076,4215.384512,4204.102461,4223.07682,4212.82041,4212.82041,4205.640923,4176.922975,4211.281948,4203.589641
