title:V                                                                               , recorded:06.07.20 14.04.56, sampling:128, subject:B                                                                               , labels:COUNTER INTERPOLATED AF3 F7 F3 FC5 T7 P7 O1 O2 P8 T8 FC6 F4 F8 AF4,, units:emotiv,,,,,,,,,
48,0,4217.948615,4218.974256,4211.794769,4229.230666,4216.410153,4213.33323,4229.230666,4203.07682,4224.615281,4212.82041,4203.589641,4179.999898,4191.794769,4197.948615
49,0,4212.82041,4229.230666,4211.281948,4230.769127,4219.999897,4212.82041,4222.563999,4197.948615,4225.128102,4207.179384,4213.33323,4184.615282,4204.102461,4205.640923
50,0,4233.84605,4242.563999,4219.487076,4231.281948,4230.256307,4220.512717,4224.102461,4205.640923,4232.820409,4205.640923,4206.666564,4192.30759,4209.743487,4228.205025
51,0,4242.051178,4236.922973,4223.58964,4223.07682,4230.769127,4228.205025,4236.922973,4218.461435,4236.410153,4215.897333,4213.33323,4192.82041,4205.128102,4229.743486
52,0,4235.897332,4229.230666,4218.974256,4212.82041,4226.666563,4229.743486,4239.999896,4220.512717,4235.897332,4227.692204,4224.102461,4184.615282,4205.128102,4223.07682
53,0,4232.820409,4238.461435,4221.538358,4219.999897,4227.179384,4228.717845,4231.281948,4218.974256,4237.435794,4230.256307,4221.538358,4185.128103,4216.410153,4230.256307
54,0,4240.512717,4253.333229,4230.256307,4231.794768,4229.743486,4221.538358,4227.692204,4217.435794,4238.461435,4229.230666,4223.07682,4195.897333,4223.58964,4240.512717
55,0,4257.435793,4257.948614,4233.84605,4231.794768,4229.230666,4212.82041,4228.205025,4208.717846,4231.281948,4227.692204,4225.640922,4204.102461,4219.999897,4242.563999
56,0,4261.025537,4251.281947,4230.256307,4224.615281,4229.230666,4217.948615,4229.230666,4203.589641,4225.640922,4221.025538,4222.051179,4201.538359,4223.07682,4246.666563
57,0,4242.563999,4246.153742,4228.205025,4218.974256,4225.640922,4222.563999,4229.230666,4208.717846,4229.230666,4209.743487,4224.102461,4193.333231,4229.230666,4241.538358
58,0,4232.307589,4250.256306,4228.205025,4223.58964,4223.58964,4219.999897,4228.717845,4210.256307,4231.794768,4208.205025,4223.58964,4186.153744,4221.025538,4219.999897
59,0,4235.897332,4247.692204,4227.692204,4231.281948,4228.717845,4222.051179,4233.84605,4210.256307,4230.256307,4218.974256,4212.307589,4186.153744,4208.205025,4202.564
60,0,4234.871691,4238.461435,4223.07682,4231.281948,4229.230666,4223.07682,4236.922973,4214.358871,4228.205025,4225.128102,4214.358871,4193.333231,4205.640923,4213.33323
61,0,4243.076819,4242.563999,4223.07682,4238.461435,4227.179384,4219.999897,4229.230666,4214.358871,4229.743486,4223.58964,4223.58964,4201.025538,4216.922974,4243.076819
62,0,4252.307588,4255.384511,4232.307589,4252.820409,4232.820409,4226.153743,4231.794768,4217.948615,4234.358871,4229.743486,4222.563999,4203.589641,4235.897332,4263.076819
63,0,4245.640922,4258.461434,4237.948614,4252.820409,4234.871691,4226.666563,4236.922973,4226.153743,4239.999896,4229.743486,4222.051179,4201.025538,4236.922973,4248.717845
64,0,4241.538358,4252.820409,4229.743486,4246.666563,4235.897332,4217.948615,4227.692204,4220.512717,4233.84605,4212.307589,4226.666563,4192.82041,4220.512717,4222.563999
65,0,4242.051178,4244.10246,4221.025538,4240.512717,4234.358871,4219.999897,4221.538358,4210.769128,4225.640922,4203.589641,4220.512717,4186.666564,4211.281948,4215.384512
66,0,4243.58964,4244.10246,4221.538358,4235.384512,4218.974256,4225.128102,4222.563999,4212.307589,4224.615281,4216.410153,4210.769128,4182.564,4215.897333,4224.615281
67,0,4238.461435,4247.179383,4221.025538,4240.512717,4206.153743,4224.102461,4222.563999,4213.33323,4229.230666,4221.538358,4210.769128,4181.538359,4217.948615,4236.922973
68,0,4227.692204,4239.487076,4217.435794,4237.435794,4209.230666,4225.128102,4225.640922,4212.82041,4228.205025,4212.82041,4212.307589,4189.230667,4212.307589,4232.820409
69,0,4229.743486,4229.230666,4212.307589,4222.051179,4205.128102,4220.512717,4228.205025,4216.922974,4225.640922,4209.230666,4210.769128,4183.589641,4205.640923,4203.07682
70,0,4234.358871,4226.153743,4206.153743,4219.487076,4199.999897,4213.33323,4223.07682,4212.82041,4219.999897,4209.743487,4207.692205,4162.05118,4199.999897,4186.666564
71,0,4218.974256,4226.666563,4198.974256,4223.07682,4202.051179,4215.384512,4218.461435,4206.153743,4217.948615,4207.179384,4208.205025,4158.974257,4199.487077,4203.589641
72,0,4199.999897,4224.615281,4199.999897,4219.487076,4198.974256,4212.307589,4214.871692,4204.615282,4221.538358,4205.640923,4211.281948,4174.871693,4205.128102,4216.922974
73,0,4201.025538,4226.666563,4209.230666,4223.58964,4202.051179,4207.179384,4210.256307,4206.666564,4224.615281,4214.358871,4216.410153,4178.461436,4215.897333,4209.743487
74,0,4206.666564,4227.692204,4214.358871,4221.025538,4212.82041,4216.410153,4214.358871,4206.666564,4224.102461,4213.846051,4215.897333,4174.358872,4209.743487,4200.512718
75,0,4209.743487,4222.051179,4203.589641,4198.974256,4210.769128,4222.051179,4218.974256,4208.717846,4223.07682,4194.358872,4201.025538,4169.743488,4193.333231,4204.102461
76,0,4217.435794,4217.948615,4194.871692,4191.281949,4202.564,4215.384512,4215.897333,4209.743487,4222.051179,4194.871692,4198.461436,4169.230667,4202.564,4217.948615
77,0,4223.07682,4222.051179,4199.487077,4206.153743,4205.640923,4215.897333,4218.974256,4208.717846,4223.07682,4218.461435,4219.487076,4177.948616,4224.615281,4223.07682
78,0,4219.999897,4225.128102,4207.692205,4207.692205,4211.281948,4221.025538,4222.563999,4208.717846,4225.128102,4216.410153,4227.179384,4177.435795,4227.692204,4225.128102
79,0,4202.564,4222.051179,4206.153743,4198.974256,4209.743487,4219.999897,4219.487076,4206.153743,4223.07682,4201.538359,4216.410153,4167.692206,4221.538358,4225.128102
80,0,4198.461436,4214.871692,4197.435795,4203.589641,4203.07682,4214.358871,4222.051179,4204.615282,4219.999897,4206.666564,4211.794769,4167.179385,4217.948615,4203.07682
81,0,4222.563999,4212.82041,4193.333231,4212.307589,4203.07682,4213.33323,4224.102461,4208.205025,4221.538358,4214.871692,4205.128102,4177.435795,4210.769128,4182.564
82,0,4233.84605,4215.897333,4200.512718,4213.33323,4211.281948,4218.461435,4220.512717,4212.82041,4225.640922,4217.435794,4203.589641,4182.05118,4210.769128,4202.051179
83,0,4219.487076,4223.58964,4204.615282,4215.384512,4211.794769,4224.102461,4224.615281,4216.922974,4228.717845,4219.999897,4225.128102,4180.512718,4223.58964,4240.512717
84,0,4211.794769,4221.538358,4199.999897,4217.435794,4202.564,4222.563999,4229.230666,4217.435794,4227.692204,4213.846051,4232.307589,4176.922975,4224.615281,4243.076819
85,0,4214.871692,4208.717846,4202.051179,4214.871692,4201.538359,4219.999897,4228.205025,4217.435794,4223.58964,4210.769128,4215.897333,4172.820411,4216.410153,4218.461435
86,0,4213.33323,4205.640923,4203.589641,4210.256307,4208.717846,4225.640922,4231.794768,4218.461435,4230.769127,4213.33323,4210.256307,4174.358872,4216.922974,4209.743487
87,0,4222.051179,4218.461435,4197.435795,4211.794769,4210.256307,4228.205025,4232.820409,4216.922974,4235.384512,4213.33323,4218.974256,4177.435795,4221.025538,4220.512717
88,0,4228.205025,4223.07682,4197.435795,4215.384512,4208.717846,4224.615281,4230.256307,4212.307589,4228.205025,4215.384512,4214.871692,4177.948616,4217.435794,4216.410153
89,0,4209.230666,4212.307589,4201.025538,4208.205025,4207.692205,4218.461435,4226.153743,4206.153743,4217.435794,4210.769128,4193.333231,4172.820411,4208.205025,4196.410154
90,0,4202.051179,4207.179384,4198.974256,4203.07682,4200.512718,4214.871692,4219.999897,4204.102461,4218.974256,4202.564,4192.30759,4166.153744,4201.538359,4199.999897
91,0,4214.358871,4211.794769,4198.974256,4210.769128,4196.410154,4218.461435,4224.102461,4208.205025,4225.640922,4212.82041,4219.487076,4167.692206,4209.230666,4229.230666
92,0,4206.666564,4213.846051,4198.974256,4217.435794,4199.999897,4221.538358,4230.769127,4213.33323,4226.153743,4211.281948,4223.58964,4170.256308,4219.487076,4230.256307
93,0,4193.846051,4203.07682,4194.871692,4210.769128,4197.435795,4217.435794,4222.563999,4207.692205,4217.948615,4184.102462,4193.333231,4167.179385,4199.487077,4193.333231
94,0,4206.153743,4194.358872,4196.922974,4205.640923,4189.230667,4215.384512,4216.410153,4201.538359,4214.871692,4181.025539,4190.769128,4169.230667,4179.999898,4183.589641
95,0,4216.410153,4204.102461,4206.153743,4215.384512,4193.333231,4221.538358,4228.205025,4210.256307,4227.179384,4209.743487,4216.922974,4179.999898,4205.640923,4209.230666
96,0,4214.871692,4214.871692,4202.051179,4223.07682,4204.102461,4223.07682,4235.897332,4221.025538,4234.871691,4222.563999,4217.435794,4176.922975,4224.615281,4216.410153
97,0,4213.33323,4209.743487,4194.871692,4217.948615,4201.025538,4219.999897,4229.230666,4222.051179,4230.769127,4216.922974,4200.512718,4165.640924,4206.666564,4205.640923
98,0,4203.07682,4205.128102,4197.435795,4211.281948,4193.333231,4220.512717,4227.692204,4218.974256,4228.205025,4219.999897,4207.692205,4170.769129,4202.051179,4209.743487
99,0,4199.487077,4206.666564,4196.922974,4213.846051,4194.871692,4220.512717,4232.307589,4216.410153,4231.281948,4217.948615,4223.07682,4179.999898,4212.82041,4213.846051
100,0,4205.640923,4206.666564,4190.769128,4218.974256,4202.564,4218.974256,4229.230666,4215.384512,4228.205025,4209.743487,4219.487076,4175.897334,4208.717846,4211.281948
101,0,4200.512718,4206.666564,4195.897333,4216.922974,4202.051179,4221.538358,4223.07682,4215.897333,4223.07682,4205.640923,4207.692205,4166.153744,4203.589641,4208.205025
102,0,4199.487077,4207.179384,4199.999897,4206.153743,4198.974256,4223.07682,4229.230666,4221.538358,4222.051179,4204.102461,4207.692205,4169.743488,4207.692205,4207.179384
103,0,4216.410153,4205.128102,4191.281949,4195.897333,4200.512718,4221.025538,4235.897332,4221.538358,4227.179384,4206.666564,4213.33323,4178.461436,4204.615282,4212.307589
104,0,4215.897333,4202.051179,4185.640923,4191.794769,4198.974256,4218.974256,4228.205025,4217.948615,4227.179384,4208.717846,4205.640923,4174.871693,4195.897333,4197.948615
105,0,4187.692205,4194.358872,4190.769128,4184.615282,4192.30759,4214.871692,4220.512717,4215.384512,4224.102461,4201.538359,4193.846051,4167.692206,4182.05118,4168.717847
106,0,4174.871693,4194.871692,4193.846051,4181.025539,4192.82041,4213.33323,4222.563999,4214.358871,4222.563999,4195.384513,4196.922974,4164.615283,4181.025539,4188.205026
107,0,4188.717846,4202.564,4189.230667,4192.30759,4197.948615,4218.461435,4227.692204,4221.025538,4228.205025,4203.589641,4203.589641,4163.589642,4200.512718,4224.615281
108,0,4207.692205,4202.564,4190.256308,4202.051179,4200.512718,4220.512717,4229.743486,4227.179384,4229.743486,4211.281948,4207.179384,4168.205026,4209.230666,4210.769128
109,0,4229.230666,4207.692205,4199.999897,4205.640923,4206.666564,4219.487076,4232.820409,4223.58964,4227.692204,4212.307589,4214.358871,4172.30759,4203.589641,4205.640923
110,0,4234.871691,4224.615281,4207.179384,4210.769128,4213.33323,4228.717845,4235.897332,4222.563999,4230.256307,4219.487076,4223.58964,4179.487077,4209.230666,4225.640922
111,0,4214.358871,4227.692204,4203.589641,4209.743487,4214.358871,4235.897332,4238.461435,4225.640922,4231.794768,4226.153743,4222.563999,4182.564,4217.948615,4219.999897
112,0,4206.666564,4218.461435,4201.025538,4202.564,4213.33323,4228.205025,4235.384512,4219.487076,4228.205025,4211.794769,4214.871692,4178.461436,4207.692205,4211.794769
113,0,4220.512717,4220.512717,4200.512718,4198.461436,4211.281948,4221.538358,4226.666563,4211.281948,4224.102461,4190.769128,4213.846051,4176.410154,4201.538359,4218.974256
114,0,4217.435794,4221.538358,4199.999897,4197.948615,4206.153743,4222.051179,4219.999897,4211.281948,4224.102461,4195.384513,4213.33323,4172.30759,4209.230666,4208.717846
115,0,4197.435795,4211.281948,4201.025538,4198.974256,4203.07682,4221.025538,4221.538358,4211.281948,4223.07682,4209.743487,4208.717846,4164.102462,4203.589641,4192.30759
116,0,4196.410154,4204.615282,4198.461436,4204.102461,4203.07682,4216.410153,4223.07682,4210.256307,4221.538358,4207.692205,4206.153743,4158.974257,4187.179385,4195.897333
117,0,4203.589641,4204.102461,4190.256308,4200.512718,4202.564,4210.769128,4219.487076,4209.743487,4221.538358,4202.051179,4206.153743,4159.487078,4182.564,4202.564
118,0,4201.025538,4206.153743,4184.615282,4194.871692,4203.589641,4206.666564,4218.974256,4209.230666,4225.640922,4199.999897,4198.974256,4162.564001,4188.717846,4192.30759
119,0,4205.128102,4215.897333,4190.769128,4206.153743,4209.743487,4216.410153,4228.205025,4215.384512,4232.820409,4204.615282,4200.512718,4168.717847,4201.025538,4187.692205
120,0,4221.538358,4227.179384,4203.07682,4221.025538,4214.358871,4228.205025,4231.281948,4220.512717,4236.410153,4213.846051,4218.461435,4171.79477,4211.794769,4209.230666
121,0,4222.563999,4229.743486,4206.153743,4216.922974,4211.794769,4219.999897,4219.999897,4212.82041,4229.230666,4206.153743,4224.615281,4169.230667,4204.102461,4222.563999
122,0,4202.564,4218.461435,4201.025538,4211.794769,4209.230666,4208.205025,4215.384512,4205.128102,4221.538358,4193.846051,4216.410153,4171.79477,4191.794769,4196.922974
123,0,4202.564,4211.794769,4198.461436,4218.461435,4213.33323,4214.871692,4220.512717,4206.666564,4221.538358,4205.128102,4212.82041,4170.769129,4202.051179,4190.256308
124,0,4224.102461,4221.538358,4201.538359,4221.025538,4215.384512,4219.487076,4222.051179,4209.743487,4223.58964,4217.435794,4212.82041,4167.692206,4209.743487,4215.384512
125,0,4229.743486,4234.358871,4205.640923,4223.07682,4214.871692,4212.82041,4221.538358,4208.205025,4223.07682,4211.281948,4213.846051,4171.79477,4205.640923,4217.435794
126,0,4207.179384,4226.153743,4201.538359,4219.487076,4213.33323,4206.153743,4220.512717,4207.692205,4225.640922,4207.692205,4211.281948,4172.30759,4203.589641,4193.333231
127,0,4182.05118,4208.717846,4197.948615,4207.692205,4209.743487,4203.589641,4219.999897,4208.205025,4224.102461,4207.179384,4205.640923,4170.769129,4193.333231,4187.179385
128,0,4193.846051,4213.33323,4203.07682,4206.153743,4208.205025,4208.205025,4221.025538,4212.307589,4220.512717,4205.128102,4211.281948,4174.871693,4191.281949,4209.230666
0,0,4232.820409,4222.563999,4203.07682,4198.461436,4210.769128,4213.33323,4221.538358,4212.307589,4221.538358,4209.230666,4225.128102,4177.948616,4209.230666,4209.743487
1,0,4233.84605,4214.358871,4194.358872,4168.205026,4209.230666,4209.743487,4218.461435,4205.128102,4224.615281,4207.179384,4219.487076,4168.205026,4213.846051,4182.564
2,0,4208.205025,4210.769128,4202.564,4156.410155,4210.256307,4207.692205,4212.82041,4200.512718,4223.58964,4198.974256,4209.230666,4167.179385,4204.615282,4189.743487
3,0,4223.07682,4233.84605,4217.435794,4185.128103,4220.512717,4214.871692,4214.358871,4205.640923,4224.102461,4210.769128,4227.179384,4184.102462,4218.974256,4242.051178
4,0,4242.563999,4242.051178,4216.410153,4213.846051,4224.615281,4219.487076,4219.999897,4212.307589,4231.794768,4230.769127,4235.384512,4193.333231,4240.512717,4269.230665
5,0,4217.948615,4224.615281,4213.846051,4218.974256,4222.563999,4219.487076,4225.640922,4219.487076,4234.358871,4232.820409,4222.563999,4193.333231,4235.384512,4244.10246
6,0,4209.230666,4217.435794,4213.33323,4207.692205,4217.435794,4217.948615,4224.615281,4218.974256,4228.205025,4226.153743,4225.128102,4186.666564,4214.871692,4207.692205
7,0,4225.128102,4214.871692,4203.07682,4189.743487,4207.179384,4210.769128,4219.999897,4205.640923,4218.974256,4218.461435,4229.743486,4169.230667,4201.025538,4192.82041
8,0,4210.256307,4199.487077,4196.922974,4181.025539,4203.589641,4209.230666,4217.435794,4200.512718,4217.435794,4207.692205,4213.846051,4163.589642,4195.897333,4193.846051
9,0,4196.410154,4192.30759,4195.384513,4181.538359,4210.256307,4212.82041,4219.487076,4208.717846,4219.487076,4204.102461,4202.051179,4172.30759,4198.461436,4192.30759
10,0,4213.846051,4200.512718,4192.30759,4181.538359,4208.717846,4205.640923,4218.974256,4212.82041,4221.538358,4199.487077,4209.743487,4171.281949,4203.07682,4186.666564
11,0,4212.82041,4202.564,4193.846051,4175.897334,4200.512718,4196.922974,4214.871692,4208.205025,4217.435794,4196.410154,4211.794769,4164.102462,4207.692205,4195.384513
12,0,4193.333231,4202.564,4195.897333,4174.358872,4204.615282,4201.538359,4216.410153,4207.179384,4218.461435,4209.230666,4208.205025,4169.743488,4206.153743,4214.358871
13,0,4204.615282,4212.82041,4199.999897,4187.692205,4214.871692,4211.794769,4223.07682,4212.82041,4224.102461,4222.051179,4219.999897,4184.102462,4209.743487,4217.435794
14,0,4230.769127,4222.563999,4211.794769,4208.205025,4218.461435,4216.922974,4224.615281,4216.410153,4227.179384,4224.102461,4239.999896,4190.256308,4228.717845,4218.461435
15,0,4241.538358,4226.153743,4217.948615,4219.487076,4218.461435,4215.897333,4219.999897,4216.922974,4225.128102,4227.179384,4249.743486,4192.30759,4243.076819,4232.820409
16,0,4233.33323,4225.128102,4210.769128,4217.948615,4218.974256,4214.358871,4218.974256,4221.025538,4227.179384,4224.615281,4239.487076,4194.358872,4234.871691,4234.358871
17,0,4218.974256,4221.538358,4209.230666,4215.897333,4221.025538,4219.487076,4226.153743,4224.102461,4230.256307,4215.897333,4225.640922,4193.333231,4219.999897,4215.897333
18,0,4220.512717,4224.615281,4213.846051,4228.205025,4221.025538,4218.974256,4228.205025,4222.563999,4228.717845,4216.922974,4231.794768,4191.281949,4218.974256,4226.153743
19,0,4240.512717,4238.974255,4224.102461,4249.230665,4222.051179,4215.384512,4222.051179,4225.128102,4227.179384,4226.666563,4253.333229,4200.512718,4231.794768,4258.461434
20,0,4240.512717,4243.58964,4228.717845,4247.692204,4223.07682,4216.922974,4223.07682,4228.717845,4227.179384,4237.948614,4256.410152,4208.717846,4243.076819,4245.128101
21,0,4224.102461,4226.153743,4218.974256,4226.666563,4219.487076,4216.922974,4226.666563,4223.58964,4224.102461,4235.384512,4232.820409,4197.435795,4233.33323,4206.153743
22,0,4235.384512,4222.051179,4210.769128,4224.102461,4219.487076,4219.487076,4227.692204,4221.025538,4220.512717,4225.128102,4227.692204,4192.30759,4224.102461,4217.948615
23,0,4253.333229,4234.358871,4216.410153,4228.205025,4223.58964,4215.897333,4224.102461,4216.410153,4219.999897,4221.025538,4240.512717,4197.435795,4234.871691,4249.743486
24,0,4243.58964,4233.33323,4216.410153,4214.358871,4222.051179,4204.615282,4215.897333,4207.179384,4216.922974,4213.846051,4238.974255,4188.717846,4235.384512,4247.692204
25,0,4223.58964,4224.615281,4211.794769,4210.256307,4216.922974,4208.205025,4216.410153,4206.666564,4217.948615,4209.230666,4232.307589,4178.461436,4223.58964,4231.794768
26,0,4217.948615,4224.615281,4214.358871,4224.102461,4218.974256,4218.461435,4222.051179,4211.794769,4221.025538,4218.974256,4235.384512,4185.640923,4219.999897,4214.358871
27,0,4221.538358,4225.640922,4217.948615,4229.743486,4217.435794,4210.769128,4217.948615,4214.871692,4224.615281,4226.666563,4233.33323,4195.384513,4226.666563,4202.564
28,0,4235.897332,4228.205025,4217.435794,4234.871691,4218.461435,4210.256307,4219.999897,4225.128102,4227.179384,4230.256307,4230.256307,4195.897333,4235.897332,4225.640922
29,0,4255.384511,4228.205025,4214.871692,4245.640922,4224.615281,4221.538358,4224.102461,4230.256307,4229.230666,4229.230666,4239.999896,4193.333231,4233.33323,4248.717845
30,0,4244.615281,4229.743486,4214.358871,4250.256306,4225.640922,4214.358871,4216.922974,4219.487076,4225.640922,4218.974256,4247.179383,4189.743487,4228.717845,4239.487076
31,0,4224.102461,4236.410153,4218.461435,4247.692204,4223.07682,4207.692205,4219.999897,4219.487076,4226.153743,4217.948615,4238.461435,4188.205026,4237.948614,4233.84605
32,0,4233.84605,4234.871691,4216.922974,4239.999896,4221.538358,4216.922974,4231.794768,4228.717845,4227.692204,4230.769127,4229.230666,4189.743487,4237.435794,4227.692204
33,0,4249.230665,4226.666563,4207.692205,4229.743486,4220.512717,4219.487076,4220.512717,4223.07682,4227.692204,4227.179384,4225.640922,4188.717846,4218.974256,4205.640923
34,0,4247.179383,4235.897332,4214.358871,4232.820409,4222.563999,4213.33323,4212.307589,4217.435794,4230.769127,4212.307589,4232.307589,4194.871692,4230.769127,4218.974256
35,0,4238.974255,4244.615281,4225.640922,4239.999896,4226.153743,4207.179384,4219.999897,4216.922974,4230.769127,4212.307589,4237.948614,4202.564,4252.307588,4245.640922
36,0,4234.871691,4236.410153,4222.051179,4228.717845,4224.615281,4200.512718,4211.794769,4207.179384,4216.922974,4214.358871,4226.666563,4197.948615,4233.33323,4224.102461
37,0,4235.897332,4229.230666,4214.871692,4211.281948,4219.487076,4199.487077,4199.487077,4196.922974,4209.743487,4210.769128,4222.051179,4181.025539,4213.33323,4205.640923
38,0,4244.10246,4225.640922,4213.846051,4214.871692,4213.33323,4204.615282,4202.051179,4198.461436,4214.358871,4206.666564,4227.179384,4170.769129,4224.102461,4226.153743
39,0,4243.076819,4220.512717,4209.743487,4225.128102,4210.256307,4206.153743,4209.230666,4202.051179,4213.33323,4203.07682,4224.102461,4173.333231,4227.179384,4225.128102
40,0,4217.435794,4219.487076,4208.205025,4218.974256,4208.717846,4203.589641,4208.205025,4202.051179,4209.743487,4205.128102,4219.487076,4179.999898,4212.307589,4197.435795
41,0,4197.948615,4219.999897,4211.281948,4211.281948,4206.153743,4203.07682,4207.179384,4205.128102,4212.307589,4210.769128,4218.461435,4183.589641,4210.256307,4197.948615
42,0,4217.948615,4218.461435,4214.358871,4217.948615,4209.230666,4201.538359,4204.615282,4204.615282,4211.794769,4203.589641,4223.58964,4187.179385,4221.025538,4213.846051
43,0,4236.922973,4219.487076,4213.846051,4219.999897,4216.410153,4205.128102,4205.128102,4204.615282,4211.794769,4198.461436,4235.384512,4190.256308,4230.256307,4221.025538
44,0,4222.563999,4217.948615,4205.128102,4212.307589,4211.794769,4209.743487,4209.743487,4206.153743,4218.974256,4209.743487,4234.871691,4181.538359,4227.692204,4219.999897
45,0,4229.230666,4217.948615,4205.128102,4219.487076,4211.794769,4207.692205,4207.692205,4205.128102,4219.487076,4218.974256,4229.743486,4178.974257,4221.538358,4218.461435
46,0,4258.974255,4227.692204,4217.948615,4235.897332,4224.102461,4205.128102,4204.615282,4204.615282,4217.435794,4215.897333,4234.358871,4193.333231,4223.58964,4230.769127
47,0,4239.999896,4229.743486,4214.871692,4226.666563,4220.512717,4205.128102,4206.666564,4199.487077,4212.307589,4208.717846,4230.769127,4195.897333,4224.615281,4235.897332
48,0,4205.640923,4218.461435,4205.128102,4205.128102,4205.128102,4199.487077,4203.589641,4196.410154,4207.179384,4198.461436,4217.435794,4178.461436,4219.999897,4223.07682
49,0,4216.410153,4217.435794,4209.743487,4211.794769,4206.666564,4198.974256,4198.461436,4196.922974,4206.153743,4197.948615,4217.948615,4171.79477,4222.051179,4218.461435
50,0,4229.743486,4225.128102,4211.281948,4219.999897,4213.33323,4202.051179,4197.948615,4194.871692,4209.230666,4207.179384,4221.538358,4174.871693,4224.615281,4216.922974
51,0,4218.461435,4221.025538,4203.589641,4200.512718,4206.666564,4194.871692,4197.948615,4189.743487,4205.640923,4202.564,4216.410153,4169.230667,4216.410153,4203.07682
52,0,4217.435794,4217.435794,4209.743487,4204.615282,4207.179384,4194.871692,4201.025538,4194.358872,4209.230666,4192.82041,4216.922974,4171.79477,4211.794769,4206.153743
53,0,4246.153742,4238.461435,4227.692204,4249.743486,4222.563999,4215.384512,4215.897333,4209.230666,4218.974256,4206.153743,4232.307589,4190.256308,4233.84605,4244.615281
54,0,4280.512716,4261.025537,4235.384512,4265.128101,4230.256307,4224.102461,4221.025538,4217.435794,4223.07682,4227.692204,4251.794768,4198.974256,4271.281947,4284.61528
55,0,4298.461433,4256.410152,4233.33323,4238.461435,4220.512717,4212.307589,4214.358871,4217.948615,4224.615281,4227.179384,4257.948614,4201.025538,4286.666562,4305.1281
56,0,4308.205023,4251.281947,4233.84605,4231.794768,4212.82041,4208.717846,4216.410153,4220.512717,4225.640922,4219.999897,4263.589639,4217.435794,4288.205023,4326.666561
57,0,4330.256304,4264.10246,4246.153742,4247.692204,4218.461435,4210.769128,4214.358871,4216.410153,4218.461435,4226.153743,4270.769126,4234.871691,4294.87169,4358.461432
58,0,4346.66656,4269.743485,4253.333229,4251.281947,4224.102461,4208.205025,4204.102461,4207.179384,4209.230666,4225.128102,4258.974255,4234.871691,4296.410151,4361.538355
59,0,4333.846048,4259.999896,4250.769127,4243.58964,4222.051179,4205.640923,4206.666564,4209.230666,4212.307589,4212.82041,4247.179383,4229.230666,4286.666562,4332.307586
60,0,4308.717843,4252.820409,4251.281947,4234.871691,4219.999897,4204.102461,4213.33323,4214.871692,4216.410153,4214.871692,4262.051178,4222.563999,4278.974254,4343.076817
61,0,4303.076818,4251.794768,4250.256306,4230.256307,4216.922974,4205.128102,4209.743487,4210.256307,4211.281948,4217.435794,4269.230665,4215.384512,4276.922972,4372.307585
62,0,4320.512715,4253.84605,4242.051178,4236.410153,4217.435794,4214.871692,4212.307589,4209.743487,4207.179384,4207.692205,4254.871691,4212.82041,4284.102459,4354.358868
63,0,4318.974253,4250.769127,4238.974255,4237.948614,4223.58964,4218.461435,4219.999897,4215.897333,4213.33323,4210.256307,4252.307588,4214.871692,4286.153741,4319.999894
64,0,4286.666562,4239.487076,4242.563999,4222.051179,4221.538358,4203.07682,4212.307589,4212.307589,4213.846051,4221.025538,4254.35887,4215.897333,4271.281947,4309.230664
65,0,4270.256306,4231.281948,4240.512717,4210.769128,4210.769128,4197.948615,4206.666564,4206.153743,4209.743487,4215.897333,4242.051178,4210.256307,4254.871691,4294.87169
66,0,4287.179382,4235.897332,4236.410153,4214.871692,4217.435794,4215.384512,4217.948615,4213.846051,4215.384512,4216.922974,4243.076819,4207.692205,4256.922973,4288.205023
67,0,4290.256305,4244.615281,4235.897332,4221.538358,4230.256307,4220.512717,4221.025538,4221.025538,4225.640922,4232.307589,4251.794768,4212.82041,4259.999896,4286.666562
68,0,4256.410152,4243.076819,4233.84605,4217.435794,4226.666563,4213.33323,4212.307589,4216.922974,4222.563999,4236.410153,4248.205024,4208.205025,4254.871691,4264.61528
69,0,4238.461435,4234.358871,4226.666563,4208.717846,4221.025538,4215.897333,4210.769128,4212.307589,4218.974256,4227.692204,4248.717845,4194.871692,4254.35887,4256.922973
70,0,4254.871691,4235.384512,4222.051179,4215.897333,4223.58964,4216.410153,4211.794769,4217.435794,4225.128102,4225.640922,4255.384511,4199.999897,4254.35887,4265.640921
71,0,4259.999896,4229.743486,4219.487076,4221.025538,4223.07682,4210.256307,4210.769128,4220.512717,4227.179384,4232.307589,4249.743486,4204.615282,4243.076819,4251.794768
72,0,4239.487076,4212.307589,4219.487076,4204.102461,4219.487076,4212.307589,4210.256307,4212.82041,4220.512717,4224.615281,4239.999896,4190.256308,4229.230666,4234.358871
73,0,4228.205025,4212.82041,4223.58964,4200.512718,4222.051179,4216.410153,4212.307589,4209.743487,4217.948615,4206.153743,4239.999896,4188.205026,4221.538358,4241.538358
74,0,4238.974255,4226.666563,4232.307589,4228.205025,4225.640922,4218.974256,4217.948615,4215.384512,4221.538358,4210.769128,4239.487076,4203.07682,4227.692204,4244.615281
75,0,4246.153742,4226.153743,4232.820409,4235.897332,4222.051179,4219.999897,4221.025538,4221.025538,4224.102461,4231.281948,4233.84605,4201.538359,4239.487076,4229.230666
76,0,4234.871691,4221.538358,4230.769127,4217.948615,4217.435794,4215.897333,4216.410153,4219.487076,4223.07682,4229.743486,4234.358871,4192.30759,4232.307589,4222.051179
77,0,4219.487076,4224.615281,4234.871691,4219.999897,4219.999897,4212.82041,4216.922974,4219.487076,4224.102461,4220.512717,4242.051178,4197.948615,4217.948615,4231.794768
78,0,4227.692204,4215.897333,4229.743486,4225.128102,4217.435794,4215.897333,4222.051179,4221.025538,4225.640922,4221.025538,4233.84605,4193.846051,4219.999897,4230.769127
79,0,4241.538358,4204.615282,4212.307589,4211.281948,4208.205025,4216.922974,4219.487076,4219.999897,4223.58964,4216.922974,4218.461435,4177.435795,4227.692204,4212.82041
80,0,4220.512717,4206.666564,4207.692205,4209.743487,4207.692205,4215.897333,4215.897333,4216.922974,4223.58964,4212.82041,4223.07682,4173.846052,4223.58964,4203.589641
81,0,4199.487077,4209.743487,4214.358871,4215.897333,4211.794769,4216.922974,4216.922974,4214.358871,4222.051179,4217.948615,4223.07682,4178.974257,4207.179384,4200.512718
82,0,4201.538359,4199.999897,4215.897333,4201.538359,4210.769128,4215.384512,4216.922974,4220.512717,4219.999897,4213.846051,4207.692205,4174.871693,4196.922974,4192.82041
83,0,4195.897333,4190.256308,4210.256307,4183.589641,4210.256307,4215.384512,4218.974256,4226.666563,4219.999897,4196.922974,4212.307589,4172.820411,4203.589641,4190.256308
84,0,4178.461436,4188.205026,4204.615282,4172.820411,4205.128102,4213.846051,4217.948615,4221.025538,4223.07682,4195.897333,4222.051179,4177.435795,4203.589641,4179.487077
85,0,4170.256308,4186.153744,4203.07682,4153.846052,4197.435795,4212.82041,4215.897333,4214.871692,4215.897333,4210.256307,4208.717846,4171.79477,4191.281949,4162.05118
86,0,4176.410154,4178.974257,4205.640923,4142.051181,4197.435795,4214.358871,4216.922974,4216.922974,4210.769128,4213.33323,4201.538359,4166.153744,4183.076821,4164.102462
87,0,4187.692205,4173.333231,4204.102461,4151.79477,4197.948615,4209.743487,4212.82041,4215.897333,4213.846051,4207.179384,4211.281948,4167.692206,4179.487077,4178.461436
88,0,4188.205026,4174.871693,4201.025538,4162.564001,4199.487077,4203.589641,4208.205025,4209.743487,4219.999897,4208.717846,4206.666564,4168.717847,4187.179385,4179.999898
89,0,4184.615282,4183.589641,4206.666564,4166.666565,4207.179384,4213.33323,4214.358871,4210.769128,4221.025538,4212.82041,4200.512718,4174.358872,4198.461436,4172.820411
90,0,4189.743487,4192.82041,4212.82041,4169.743488,4210.769128,4223.58964,4218.461435,4215.897333,4219.999897,4214.871692,4213.846051,4179.487077,4194.358872,4179.487077
91,0,4190.256308,4194.871692,4213.846051,4168.717847,4211.281948,4216.922974,4212.82041,4216.922974,4217.435794,4210.769128,4222.563999,4175.384513,4193.846051,4193.846051
92,0,4188.205026,4196.922974,4216.922974,4179.999898,4217.435794,4216.410153,4219.487076,4224.102461,4221.025538,4204.102461,4220.512717,4175.897334,4207.692205,4192.82041
93,0,4201.025538,4196.922974,4218.974256,4197.948615,4217.435794,4227.692204,4231.794768,4230.769127,4226.153743,4206.666564,4218.974256,4182.05118,4205.640923,4183.589641
94,0,4190.769128,4185.640923,4208.205025,4192.82041,4207.692205,4222.051179,4225.128102,4224.102461,4219.487076,4209.743487,4206.666564,4173.333231,4185.640923,4170.769129
95,0,4161.53836,4178.974257,4204.615282,4187.179385,4206.666564,4210.769128,4218.974256,4219.487076,4218.974256,4214.358871,4198.974256,4173.333231,4182.564,4157.435796
96,0,4175.897334,4192.82041,4216.410153,4204.102461,4219.487076,4221.538358,4228.205025,4233.33323,4231.281948,4229.230666,4221.538358,4193.846051,4204.102461,4167.692206
97,0,4211.794769,4207.692205,4223.07682,4219.999897,4225.128102,4229.743486,4230.769127,4242.051178,4237.435794,4236.922973,4242.563999,4199.487077,4216.410153,4200.512718
98,0,4212.307589,4210.256307,4219.487076,4222.563999,4221.538358,4226.666563,4228.717845,4238.461435,4233.84605,4234.871691,4236.410153,4192.30759,4210.769128,4211.794769
99,0,4207.692205,4209.743487,4219.999897,4222.051179,4222.563999,4229.230666,4234.871691,4241.538358,4235.897332,4232.820409,4231.281948,4196.410154,4209.743487,4194.358872
100,0,4219.999897,4210.256307,4225.128102,4221.025538,4225.640922,4231.794768,4231.281948,4242.051178,4233.33323,4224.102461,4228.205025,4196.410154,4216.410153,4198.461436
101,0,4194.358872,4208.205025,4221.025538,4217.435794,4218.461435,4222.051179,4221.538358,4228.205025,4222.051179,4210.256307,4203.589641,4176.410154,4199.487077,4192.30759
102,0,4156.922975,4205.128102,4215.897333,4214.871692,4214.871692,4215.384512,4225.128102,4219.487076,4214.358871,4210.769128,4193.333231,4167.179385,4180.512718,4161.53836
103,0,4185.128103,4205.640923,4217.435794,4218.974256,4223.58964,4221.538358,4229.743486,4225.128102,4221.538358,4223.07682,4216.410153,4178.461436,4193.846051,4166.153744
104,0,4228.205025,4212.307589,4218.461435,4230.256307,4228.205025,4228.717845,4228.717845,4231.794768,4231.281948,4226.666563,4227.179384,4182.564,4217.948615,4198.974256
105,0,4221.538358,4219.999897,4215.384512,4234.871691,4226.666563,4232.307589,4230.769127,4233.84605,4232.820409,4224.102461,4223.58964,4176.410154,4216.410153,4199.999897
106,0,4197.435795,4219.487076,4216.410153,4233.84605,4228.717845,4229.230666,4231.794768,4233.84605,4230.256307,4227.692204,4224.102461,4182.05118,4206.153743,4185.640923
107,0,4185.128103,4211.281948,4223.07682,4239.487076,4227.179384,4223.58964,4228.205025,4233.33323,4232.820409,4222.563999,4217.948615,4192.30759,4213.846051,4199.487077
108,0,4189.230667,4215.384512,4232.307589,4243.076819,4225.128102,4227.179384,4230.256307,4235.384512,4235.897332,4213.33323,4220.512717,4194.871692,4228.205025,4220.512717
109,0,4213.33323,4220.512717,4229.230666,4235.897332,4229.230666,4233.33323,4234.871691,4239.487076,4235.384512,4225.640922,4243.58964,4193.333231,4230.769127,4209.230666
110,0,4228.717845,4210.256307,4218.461435,4225.128102,4232.820409,4228.717845,4231.794768,4240.512717,4230.769127,4243.58964,4245.640922,4190.256308,4222.563999,4182.564
111,0,4210.769128,4207.179384,4215.384512,4221.025538,4234.358871,4224.615281,4229.743486,4238.461435,4229.230666,4238.974255,4224.102461,4191.794769,4222.563999,4189.230667
112,0,4193.846051,4213.846051,4219.487076,4221.538358,4230.769127,4226.666563,4229.743486,4231.794768,4228.205025,4225.640922,4219.999897,4190.256308,4225.640922,4217.948615
113,0,4196.922974,4206.666564,4214.358871,4211.281948,4219.487076,4221.538358,4222.563999,4222.051179,4220.512717,4218.974256,4219.999897,4175.384513,4215.384512,4201.538359
114,0,4198.974256,4198.974256,4213.846051,4207.179384,4214.871692,4214.871692,4212.307589,4217.435794,4217.948615,4216.922974,4213.846051,4174.358872,4205.128102,4169.743488
115,0,4193.846051,4208.717846,4219.487076,4223.07682,4221.025538,4219.999897,4218.974256,4223.58964,4224.615281,4218.974256,4216.922974,4187.692205,4206.666564,4183.076821
116,0,4184.615282,4206.666564,4218.461435,4228.717845,4218.974256,4222.051179,4228.717845,4225.640922,4225.128102,4217.948615,4213.33323,4174.358872,4207.179384,4197.948615
117,0,4187.692205,4196.410154,4216.410153,4216.922974,4217.435794,4218.461435,4224.615281,4222.051179,4221.538358,4207.692205,4204.102461,4156.410155,4208.717846,4188.205026
118,0,4201.025538,4197.948615,4219.487076,4214.871692,4222.051179,4218.974256,4218.974256,4224.102461,4226.666563,4199.487077,4213.33323,4173.333231,4214.358871,4190.769128
119,0,4205.640923,4197.435795,4216.922974,4217.435794,4221.025538,4218.461435,4220.512717,4230.769127,4228.205025,4211.281948,4229.230666,4191.281949,4205.640923,4203.589641
120,0,4208.717846,4194.358872,4212.82041,4206.153743,4218.461435,4217.948615,4225.128102,4234.871691,4227.179384,4231.794768,4218.974256,4184.102462,4192.30759,4189.743487
121,0,4206.666564,4195.897333,4214.871692,4191.794769,4218.974256,4219.999897,4225.128102,4234.871691,4229.230666,4229.230666,4199.999897,4172.30759,4196.410154,4170.256308
122,0,4186.666564,4196.410154,4217.435794,4186.153744,4214.871692,4217.948615,4220.512717,4233.33323,4231.281948,4219.999897,4210.769128,4176.410154,4210.256307,4188.717846
123,0,4183.076821,4197.948615,4217.948615,4185.640923,4213.846051,4215.384512,4217.435794,4230.769127,4227.179384,4228.717845,4231.281948,4185.640923,4218.974256,4212.82041
124,0,4206.153743,4206.153743,4219.487076,4191.794769,4218.461435,4215.897333,4217.948615,4221.538358,4223.07682,4226.153743,4226.153743,4183.589641,4215.384512,4197.435795
125,0,4204.615282,4203.589641,4219.487076,4198.974256,4214.871692,4213.846051,4213.33323,4212.82041,4219.999897,4201.538359,4208.717846,4172.820411,4199.999897,4170.256308
126,0,4188.205026,4189.743487,4213.846051,4199.487077,4209.743487,4212.307589,4209.230666,4212.82041,4219.487076,4193.333231,4205.640923,4167.179385,4189.230667,4174.871693
127,0,4199.487077,4193.846051,4214.358871,4202.051179,4214.358871,4218.461435,4217.435794,4222.051179,4223.07682,4212.307589,4207.179384,4168.717847,4199.487077,4202.564
128,0,4208.205025,4206.666564,4217.948615,4209.743487,4220.512717,4228.717845,4229.230666,4229.743486,4232.307589,4228.205025,4210.256307,4173.333231,4214.358871,4193.846051
0,0,4206.153743,4211.794769,4224.615281,4217.435794,4223.07682,4230.769127,4232.307589,4232.307589,4236.410153,4228.205025,4219.487076,4182.564,4221.025538,4176.410154
1,0,4203.589641,4215.384512,4230.769127,4215.384512,4223.58964,4225.128102,4226.153743,4234.871691,4232.820409,4229.743486,4222.051179,4188.717846,4215.384512,4198.461436
2,0,4195.384513,4214.871692,4223.07682,4203.589641,4217.948615,4219.999897,4222.051179,4230.769127,4226.153743,4226.666563,4212.82041,4179.487077,4198.974256,4204.102461
3,0,4191.794769,4206.153743,4210.769128,4196.922974,4214.358871,4219.487076,4221.538358,4222.051179,4223.58964,4215.897333,4201.025538,4162.564001,4193.333231,4178.974257
4,0,4192.30759,4204.102461,4212.307589,4205.640923,4217.435794,4219.999897,4217.948615,4222.051179,4225.640922,4214.358871,4201.025538,4158.461437,4203.589641,4189.230667
5,0,4201.538359,4219.999897,4219.999897,4216.410153,4221.025538,4222.051179,4213.846051,4231.281948,4225.128102,4224.615281,4214.871692,4173.333231,4217.435794,4217.435794
6,0,4224.102461,4229.230666,4222.051179,4216.410153,4219.999897,4221.538358,4214.358871,4231.794768,4225.128102,4225.640922,4217.948615,4177.435795,4223.07682,4207.692205
7,0,4229.230666,4223.07682,4221.025538,4216.410153,4220.512717,4219.487076,4218.461435,4225.128102,4223.07682,4217.435794,4209.230666,4168.205026,4217.435794,4201.538359
8,0,4214.358871,4218.461435,4222.563999,4221.025538,4219.999897,4222.051179,4217.948615,4219.487076,4222.051179,4214.871692,4210.256307,4176.922975,4204.615282,4204.102461
9,0,4206.153743,4222.563999,4226.153743,4219.487076,4217.948615,4221.025538,4214.871692,4216.922974,4220.512717,4214.358871,4216.410153,4191.281949,4203.07682,4186.153744
10,0,4198.461436,4227.179384,4229.743486,4217.435794,4223.58964,4218.461435,4217.948615,4223.07682,4227.179384,4217.948615,4223.58964,4187.179385,4212.307589,4190.769128
11,0,4201.025538,4230.769127,4228.205025,4221.025538,4229.743486,4224.615281,4225.640922,4232.307589,4235.384512,4228.205025,4232.820409,4182.05118,4212.307589,4219.487076
12,0,4214.358871,4228.205025,4222.051179,4196.922974,4222.051179,4218.461435,4213.846051,4224.102461,4232.820409,4231.281948,4223.07682,4185.640923,4203.589641,4211.794769
13,0,4201.025538,4216.922974,4211.281948,4144.102463,4211.281948,4203.07682,4196.410154,4208.717846,4219.999897,4220.512717,4204.102461,4173.333231,4198.974256,4188.717846
14,0,4176.922975,4202.564,4201.025538,4118.461438,4203.589641,4202.051179,4199.487077,4208.717846,4216.922974,4207.692205,4194.871692,4151.28195,4195.897333,4186.666564
15,0,4187.692205,4199.999897,4206.153743,4136.922976,4198.974256,4202.564,4203.589641,4213.846051,4219.999897,4204.102461,4195.897333,4157.435796,4185.128103,4174.871693
16,0,4191.794769,4209.230666,4216.922974,4150.256309,4203.07682,4196.922974,4196.410154,4209.230666,4217.948615,4204.615282,4205.640923,4169.230667,4181.025539,4168.717847
17,0,4167.692206,4210.769128,4215.384512,4145.128104,4207.179384,4203.589641,4198.461436,4210.256307,4217.435794,4203.589641,4209.743487,4158.461437,4186.153744,4175.384513
18,0,4166.666565,4204.615282,4201.025538,4140.512719,4205.128102,4211.794769,4207.692205,4217.948615,4223.07682,4204.102461,4196.922974,4142.051181,4180.512718,4165.128103
19,0,4181.025539,4206.153743,4200.512718,4145.640924,4205.640923,4204.615282,4201.538359,4216.410153,4224.615281,4209.743487,4189.743487,4151.79477,4173.846052,4168.717847
20,0,4180.512718,4209.230666,4213.846051,4152.820411,4208.717846,4203.589641,4196.410154,4210.769128,4224.102461,4214.871692,4196.410154,4168.717847,4179.487077,4195.897333
21,0,4188.717846,4209.743487,4217.435794,4149.230668,4208.205025,4211.281948,4210.256307,4214.358871,4226.153743,4216.922974,4197.948615,4170.769129,4181.538359,4192.82041
22,0,4205.128102,4216.922974,4213.33323,4145.640924,4211.281948,4212.307589,4217.435794,4221.025538,4227.179384,4220.512717,4198.461436,4168.205026,4188.205026,4184.102462
23,0,4205.128102,4220.512717,4214.358871,4150.256309,4213.33323,4209.230666,4204.615282,4218.461435,4226.153743,4217.948615,4201.025538,4167.179385,4200.512718,4197.948615
24,0,4200.512718,4214.358871,4210.769128,4149.743488,4208.205025,4207.179384,4197.948615,4206.666564,4219.999897,4203.589641,4196.922974,4168.205026,4192.30759,4186.666564
25,0,4184.615282,4203.589641,4204.102461,4136.410155,4203.589641,4202.051179,4203.07682,4198.974256,4213.33323,4192.30759,4186.666564,4164.615283,4164.615283,4159.999898
26,0,4151.28195,4190.769128,4202.564,4126.666566,4204.102461,4199.487077,4197.948615,4198.974256,4210.769128,4188.717846,4177.435795,4151.79477,4152.820411,4158.461437
27,0,4154.871693,4189.230667,4207.692205,4128.717848,4203.07682,4203.07682,4191.794769,4198.974256,4214.871692,4184.615282,4176.922975,4145.128104,4165.128103,4172.820411
28,0,4178.461436,4195.897333,4209.743487,4126.666566,4197.948615,4201.025538,4196.410154,4197.435795,4214.871692,4190.256308,4177.948616,4153.333232,4176.410154,4181.538359
29,0,4171.79477,4193.333231,4203.589641,4114.871694,4194.871692,4194.871692,4196.410154,4197.948615,4211.794769,4197.435795,4169.743488,4159.487078,4165.640924,4171.281949
30,0,4163.076821,4189.743487,4198.974256,4110.25631,4196.410154,4193.333231,4183.076821,4193.333231,4206.666564,4190.256308,4165.640924,4153.333232,4151.79477,4153.846052
31,0,4168.205026,4186.153744,4197.435795,4118.974258,4193.846051,4191.281949,4176.410154,4185.128103,4203.07682,4178.974257,4172.820411,4146.666565,4154.871693,4144.615283
32,0,4172.820411,4184.615282,4198.974256,4123.589643,4187.692205,4192.30759,4182.564,4185.640923,4203.07682,4176.922975,4177.435795,4151.28195,4168.205026,4164.102462
33,0,4176.410154,4197.948615,4206.666564,4124.102463,4190.256308,4197.948615,4192.82041,4195.897333,4207.692205,4186.666564,4182.564,4162.564001,4179.487077,4195.384513
34,0,4186.153744,4210.769128,4213.846051,4120.51272,4198.461436,4198.974256,4195.384513,4200.512718,4209.743487,4196.410154,4187.179385,4163.589642,4178.461436,4190.256308
35,0,4196.922974,4206.153743,4208.205025,4122.051181,4202.051179,4198.974256,4192.82041,4199.999897,4211.281948,4189.743487,4174.358872,4153.846052,4171.281949,4171.281949
36,0,4194.358872,4207.179384,4206.666564,4139.487078,4202.051179,4198.461436,4190.256308,4199.999897,4212.307589,4182.564,4163.076821,4157.948616,4176.922975,4172.820411
37,0,4169.743488,4207.179384,4213.33323,4125.640925,4198.974256,4192.30759,4188.205026,4194.358872,4209.230666,4185.128103,4172.30759,4157.948616,4176.410154,4172.30759
38,0,4163.076821,4191.794769,4213.33323,4078.974259,4191.281949,4188.717846,4182.564,4186.666564,4202.564,4185.128103,4176.410154,4142.564001,4162.564001,4165.128103
39,0,4185.640923,4186.153744,4206.666564,4068.205029,4187.692205,4187.692205,4173.333231,4183.076821,4197.435795,4179.487077,4169.743488,4138.461437,4165.640924,4176.922975
40,0,4195.384513,4194.358872,4204.615282,4089.230669,4186.666564,4182.05118,4172.30759,4181.025539,4196.922974,4177.948616,4172.30759,4149.230668,4174.358872,4185.128103
41,0,4186.666564,4196.922974,4205.640923,4088.717849,4186.153744,4189.743487,4182.05118,4183.076821,4197.948615,4183.076821,4168.717847,4161.025539,4166.666565,4170.769129
42,0,4179.999898,4189.743487,4202.051179,4078.461439,4186.666564,4205.128102,4188.717846,4187.692205,4199.999897,4187.692205,4156.922975,4158.974257,4159.999898,4158.974257
43,0,4175.384513,4187.179385,4197.948615,4092.307592,4190.769128,4204.615282,4186.666564,4186.666564,4202.564,4191.794769,4172.820411,4146.153745,4168.717847,4164.615283
44,0,4181.538359,4204.102461,4210.769128,4117.948617,4201.025538,4201.538359,4190.256308,4191.281949,4209.230666,4193.333231,4198.974256,4155.384514,4187.692205,4186.153744
45,0,4198.974256,4222.563999,4223.58964,4135.897335,4211.281948,4209.230666,4200.512718,4209.230666,4216.922974,4202.051179,4201.025538,4176.410154,4210.256307,4208.205025
46,0,4205.128102,4222.051179,4221.025538,4145.128104,4209.743487,4210.769128,4202.564,4217.435794,4221.025538,4213.846051,4194.871692,4173.333231,4211.281948,4213.846051
47,0,4203.589641,4219.487076,4219.999897,4155.384514,4205.640923,4209.743487,4201.538359,4206.666564,4214.871692,4213.846051,4197.948615,4166.153744,4194.358872,4207.692205
48,0,4214.871692,4222.051179,4222.051179,4160.512719,4207.179384,4211.281948,4199.999897,4197.435795,4206.666564,4209.230666,4195.897333,4170.769129,4191.794769,4204.102461
49,0,4214.871692,4211.794769,4214.358871,4152.820411,4205.128102,4205.640923,4192.82041,4196.922974,4205.128102,4207.692205,4191.281949,4164.102462,4201.025538,4204.615282
50,0,4199.487077,4205.128102,4208.717846,4155.384514,4203.07682,4204.615282,4193.846051,4203.589641,4211.794769,4207.692205,4198.974256,4159.487078,4201.538359,4197.948615
51,0,4202.564,4216.410153,4221.025538,4173.333231,4208.717846,4211.794769,4202.564,4212.82041,4216.410153,4211.794769,4209.230666,4175.384513,4204.615282,4202.564
52,0,4222.563999,4222.563999,4227.692204,4176.922975,4206.153743,4207.179384,4196.922974,4212.307589,4213.846051,4217.435794,4208.717846,4183.076821,4216.410153,4225.128102
53,0,4242.051178,4225.128102,4227.179384,4170.769129,4196.922974,4198.974256,4182.564,4199.487077,4204.615282,4209.230666,4204.102461,4182.05118,4222.563999,4251.281947
54,0,4286.153741,4247.179383,4239.487076,4177.435795,4199.999897,4201.538359,4188.205026,4198.461436,4204.102461,4204.615282,4214.358871,4195.384513,4238.461435,4312.820407
55,0,4363.076816,4277.948613,4268.205024,4190.256308,4205.128102,4202.564,4198.461436,4210.769128,4212.82041,4214.871692,4237.948614,4224.102461,4274.87169,4417.435789
56,0,4434.358866,4298.974254,4288.205023,4189.230667,4199.487077,4194.358872,4191.281949,4209.743487,4210.256307,4212.307589,4254.35887,4245.128101,4302.563997,4502.563992
57,0,4480.512711,4315.38451,4294.87169,4196.410154,4192.30759,4188.205026,4182.564,4198.461436,4197.435795,4201.538359,4256.922973,4252.820409,4303.589638,4546.666555
58,0,4502.563992,4332.820407,4297.948613,4210.769128,4189.743487,4187.692205,4180.512718,4197.435795,4192.30759,4202.051179,4253.84605,4261.538357,4301.538356,4568.205016
59,0,4508.717838,4338.974253,4299.999895,4205.128102,4190.256308,4188.717846,4182.05118,4204.615282,4195.384513,4203.07682,4248.717845,4265.640921,4303.589638,4573.333222
60,0,4521.538351,4345.128099,4301.538356,4204.615282,4197.948615,4192.82041,4185.640923,4205.640923,4195.384513,4197.435795,4242.563999,4255.384511,4296.410151,4578.461427
61,0,4534.871684,4352.307586,4302.563997,4215.897333,4198.974256,4195.384513,4187.179385,4200.512718,4191.281949,4186.153744,4229.230666,4246.153742,4277.948613,4571.281939
62,0,4531.28194,4349.743483,4292.820408,4208.205025,4190.256308,4190.769128,4182.05118,4195.384513,4187.179385,4174.358872,4217.948615,4246.153742,4265.128101,4550.769119
63,0,4526.153735,4354.358868,4284.61528,4201.538359,4187.692205,4181.025539,4170.769129,4189.230667,4184.102462,4170.256308,4221.538358,4241.538358,4258.461434,4550.769119
64,0,4533.333222,4367.692201,4291.794767,4215.384512,4191.794769,4181.538359,4168.717847,4185.640923,4180.512718,4172.820411,4222.051179,4234.358871,4249.230665,4561.53835
65,0,4537.948607,4372.820406,4298.461433,4222.563999,4191.281949,4183.589641,4169.230667,4184.615282,4182.564,4168.205026,4210.256307,4235.384512,4241.538358,4551.28194
66,0,4539.999889,4376.410149,4293.333228,4219.999897,4190.256308,4179.999898,4168.205026,4185.128103,4188.205026,4167.179385,4208.205025,4236.410153,4242.563999,4545.128094
67,0,4546.666555,4386.666559,4291.794767,4230.769127,4192.30759,4183.589641,4172.820411,4190.256308,4191.281949,4176.922975,4216.410153,4234.871691,4246.666563,4555.384504
68,0,4545.640914,4395.384508,4299.487074,4239.999896,4196.922974,4189.743487,4177.948616,4194.358872,4186.153744,4182.05118,4214.358871,4235.384512,4238.974255,4554.871683
69,0,4543.589632,4394.358867,4299.487074,4235.897332,4197.948615,4182.05118,4170.769129,4188.205026,4181.025539,4172.30759,4203.589641,4229.743486,4222.563999,4543.589632
70,0,4546.153735,4389.743482,4292.307587,4230.769127,4193.846051,4179.999898,4162.564001,4179.487077,4178.974257,4163.589642,4196.410154,4223.58964,4212.307589,4533.846043
71,0,4538.461427,4386.666559,4292.820408,4232.307589,4193.846051,4189.230667,4173.846052,4184.615282,4185.128103,4165.128103,4197.948615,4226.666563,4204.615282,4522.051171
72,0,4537.435786,4395.897328,4298.974254,4241.538358,4198.974256,4188.205026,4179.999898,4190.769128,4185.640923,4158.461437,4195.384513,4227.179384,4194.358872,4509.743479
73,0,4546.666555,4407.179379,4296.410151,4247.692204,4202.051179,4183.076821,4171.281949,4189.230667,4179.999898,4149.230668,4185.640923,4223.07682,4190.256308,4506.666556
74,0,4544.102453,4406.666559,4296.922972,4246.666563,4203.589641,4186.153744,4171.79477,4192.30759,4182.05118,4159.999898,4192.82041,4228.717845,4195.384513,4516.922966
75,0,4541.53835,4405.128097,4302.563997,4244.10246,4207.179384,4188.205026,4179.999898,4196.410154,4190.256308,4176.922975,4208.205025,4237.435794,4196.922974,4519.487069
76,0,4550.769119,4412.820405,4300.512715,4245.128101,4207.179384,4187.179385,4176.922975,4190.769128,4189.230667,4171.79477,4199.487077,4230.769127,4193.846051,4515.384505
77,0,4543.076812,4419.999892,4293.846049,4250.769127,4208.205025,4191.281949,4169.743488,4186.153744,4183.589641,4159.487078,4189.230667,4214.871692,4190.256308,4512.307582
78,0,4531.28194,4417.435789,4294.358869,4247.179383,4211.281948,4193.846051,4170.256308,4184.615282,4185.640923,4161.025539,4198.974256,4217.435794,4176.410154,4486.666557
79,0,4526.666556,4406.153738,4293.333228,4232.307589,4210.256307,4188.717846,4169.230667,4176.410154,4181.538359,4161.025539,4199.999897,4224.615281,4156.410155,4461.025532
80,0,4506.153736,4393.846046,4294.358869,4226.153743,4203.07682,4182.564,4165.128103,4172.30759,4175.384513,4143.589642,4175.897334,4221.025538,4146.666565,4464.615275
81,0,4487.179377,4388.205021,4293.846049,4232.820409,4204.102461,4185.640923,4169.743488,4183.076821,4178.461436,4136.922976,4165.640924,4218.461435,4153.333232,4461.538352
82,0,4497.435787,4382.051175,4285.640921,4232.820409,4208.205025,4186.153744,4171.79477,4185.128103,4184.615282,4154.358873,4176.922975,4214.871692,4157.948616,4427.692199
83,0,4496.410146,4373.333226,4278.461434,4229.743486,4208.717846,4186.153744,4171.281949,4182.05118,4182.564,4169.743488,4176.410154,4203.589641,4155.897334,4412.307584
84,0,4452.820404,4369.230662,4279.487075,4236.410153,4209.743487,4195.384513,4175.897334,4193.846051,4185.640923,4172.30759,4170.769129,4201.538359,4158.974257,4411.794764
85,0,4412.307584,4356.41015,4273.333229,4236.410153,4210.769128,4200.512718,4182.05118,4207.692205,4192.82041,4175.897334,4178.461436,4208.205025,4155.384514,4362.563996
86,0,4385.128098,4319.999894,4255.384511,4217.948615,4205.640923,4199.999897,4185.128103,4209.230666,4197.948615,4185.128103,4182.05118,4198.974256,4142.051181,4299.487074
87,0,4343.076817,4289.230664,4239.999896,4205.640923,4207.179384,4211.281948,4192.30759,4209.743487,4203.07682,4193.333231,4176.922975,4179.487077,4154.358873,4283.076818
88,0,4302.051177,4282.563998,4234.358871,4213.846051,4221.025538,4220.512717,4198.974256,4211.281948,4209.230666,4194.871692,4185.128103,4168.205026,4192.30759,4281.538357
89,0,4277.435793,4275.897331,4229.230666,4219.487076,4227.692204,4216.410153,4194.358872,4208.205025,4210.256307,4196.922974,4201.025538,4165.640924,4213.846051,4256.410152
90,0,4242.051178,4250.769127,4218.974256,4206.153743,4224.615281,4217.435794,4191.794769,4213.33323,4212.307589,4215.384512,4213.33323,4173.846052,4218.974256,4232.307589
91,0,4184.615282,4221.025538,4211.794769,4194.358872,4226.153743,4222.563999,4199.999897,4223.07682,4218.461435,4235.897332,4219.999897,4176.410154,4227.692204,4222.051179
92,0,4158.461437,4203.589641,4207.692205,4185.640923,4222.563999,4221.025538,4202.564,4224.102461,4219.487076,4239.999896,4211.281948,4169.230667,4227.692204,4194.871692
93,0,4168.205026,4187.692205,4204.102461,4172.30759,4214.358871,4221.025538,4202.564,4219.487076,4219.487076,4235.384512,4204.102461,4168.205026,4216.922974,4156.410155
94,0,4163.076821,4172.820411,4201.538359,4174.358872,4214.871692,4225.128102,4211.794769,4222.051179,4223.58964,4233.84605,4219.487076,4169.743488,4227.179384,4149.743488
95,0,4136.922976,4170.769129,4208.717846,4185.640923,4215.897333,4224.615281,4219.999897,4228.717845,4226.666563,4238.974255,4233.33323,4168.205026,4245.640922,4178.461436
96,0,4131.794771,4173.333231,4215.897333,4190.769128,4214.871692,4222.051179,4214.871692,4226.666563,4220.512717,4236.922973,4225.640922,4174.358872,4234.871691,4182.564
97,0,4146.666565,4171.79477,4218.974256,4193.846051,4221.025538,4220.512717,4209.230666,4221.538358,4220.512717,4224.615281,4215.897333,4182.05118,4215.897333,4146.153745
98,0,4145.128104,4177.948616,4217.948615,4191.794769,4229.743486,4221.025538,4215.897333,4232.307589,4230.256307,4232.820409,4226.666563,4174.871693,4231.794768,4143.076822
99,0,4135.384514,4182.564,4212.82041,4187.179385,4228.205025,4228.717845,4226.153743,4245.128101,4236.922973,4254.871691,4233.84605,4169.230667,4244.615281,4171.281949
100,0,4130.76913,4177.435795,4206.666564,4188.205026,4223.58964,4236.410153,4224.615281,4238.974255,4229.230666,4256.410152,4221.538358,4171.281949,4223.58964,4152.307591
101,0,4124.102463,4169.743488,4204.615282,4181.025539,4222.563999,4232.820409,4215.897333,4227.692204,4223.07682,4244.10246,4210.769128,4164.615283,4212.307589,4103.076823
102,0,4110.76913,4163.589642,4205.128102,4168.205026,4222.051179,4229.743486,4217.435794,4230.769127,4225.128102,4240.512717,4206.666564,4156.410155,4220.512717,4104.102464
103,0,4099.9999,4158.974257,4199.999897,4170.256308,4218.974256,4230.256307,4225.640922,4233.84605,4223.07682,4235.897332,4199.999897,4149.230668,4211.794769,4116.410156
104,0,4088.717849,4154.358873,4192.82041,4169.743488,4212.307589,4224.615281,4225.128102,4226.666563,4212.82041,4224.102461,4195.384513,4138.461437,4188.717846,4089.74349
105,0,4087.179387,4154.358873,4196.410154,4165.640924,4214.358871,4222.563999,4224.615281,4227.692204,4215.897333,4223.07682,4204.102461,4143.076822,4185.640923,4085.128105
106,0,4102.564002,4161.53836,4208.717846,4177.435795,4223.58964,4231.281948,4232.820409,4245.128101,4227.179384,4231.281948,4212.307589,4162.564001,4202.051179,4107.692207
107,0,4106.666566,4164.102462,4212.307589,4192.82041,4224.102461,4236.410153,4243.076819,4258.461434,4233.84605,4236.410153,4204.102461,4163.076821,4203.07682,4101.538361
108,0,4097.948618,4162.05118,4205.128102,4202.564,4219.487076,4238.974255,4246.666563,4257.435793,4234.358871,4236.410153,4200.512718,4150.256309,4195.897333,4081.538362
109,0,4102.564002,4166.153744,4200.512718,4200.512718,4225.640922,4241.538358,4244.615281,4254.35887,4238.461435,4243.58964,4206.153743,4154.871693,4205.128102,4082.564003
110,0,4113.333233,4166.666565,4200.512718,4186.666564,4230.769127,4239.487076,4240.512717,4253.84605,4236.922973,4250.256306,4205.128102,4159.999898,4208.717846,4092.820413
111,0,4108.205028,4158.461437,4195.384513,4186.153744,4225.640922,4236.410153,4238.461435,4251.794768,4232.820409,4241.025537,4204.615282,4145.128104,4202.051179,4102.564002
112,0,4106.666566,4163.589642,4194.871692,4205.640923,4226.153743,4236.410153,4239.487076,4252.820409,4231.794768,4238.974255,4214.871692,4136.410155,4205.128102,4109.743489
113,0,4112.820412,4175.384513,4201.025538,4207.179384,4229.230666,4236.410153,4239.999896,4251.281947,4231.281948,4247.179383,4213.846051,4148.717847,4202.051179,4092.307592
114,0,4101.025541,4168.717847,4205.640923,4185.640923,4224.102461,4236.922973,4237.948614,4246.153742,4231.281948,4235.384512,4203.07682,4158.974257,4194.358872,4066.153747
115,0,4081.538362,4156.410155,4197.948615,4175.384513,4218.461435,4235.384512,4237.948614,4242.051178,4228.205025,4217.948615,4198.974256,4148.205027,4199.487077,4072.820413
116,0,4085.128105,4152.307591,4190.769128,4184.102462,4215.897333,4229.230666,4233.33323,4236.410153,4222.563999,4220.512717,4195.897333,4135.897335,4199.487077,4093.846054
117,0,4104.615284,4154.358873,4190.769128,4183.589641,4215.384512,4229.743486,4224.615281,4227.179384,4221.025538,4227.179384,4192.82041,4135.897335,4186.666564,4089.230669
118,0,4104.102464,4156.922975,4190.769128,4167.179385,4214.871692,4230.769127,4227.692204,4225.128102,4223.07682,4224.615281,4187.179385,4140.512719,4184.615282,4068.205029
119,0,4087.179387,4153.333232,4183.076821,4151.79477,4212.82041,4223.58964,4230.256307,4227.692204,4222.563999,4224.615281,4178.461436,4135.897335,4186.666564,4065.640926
120,0,4085.128105,4153.846052,4184.615282,4150.769129,4215.897333,4221.538358,4223.58964,4225.128102,4226.153743,4230.256307,4193.846051,4130.256309,4191.281949,4086.666567
121,0,4098.461438,4164.102462,4195.897333,4163.589642,4223.58964,4227.692204,4225.128102,4228.717845,4232.820409,4238.974255,4216.922974,4140.512719,4199.999897,4093.846054
122,0,4098.974259,4169.743488,4198.461436,4178.461436,4227.179384,4229.743486,4232.820409,4234.871691,4233.33323,4248.205024,4209.230666,4151.79477,4200.512718,4077.948618
123,0,4078.461439,4162.564001,4195.897333,4178.974257,4223.07682,4225.640922,4231.794768,4231.281948,4229.230666,4236.410153,4192.82041,4149.230668,4194.358872,4071.794772
124,0,4090.769131,4162.05118,4200.512718,4170.769129,4220.512717,4224.615281,4225.128102,4231.794768,4226.666563,4222.051179,4204.102461,4157.948616,4197.948615,4095.897336
125,0,4127.179386,4166.666565,4204.615282,4172.820411,4219.999897,4224.102461,4227.692204,4237.948614,4229.230666,4231.281948,4215.384512,4168.717847,4210.256307,4110.25631
126,0,4123.589643,4162.564001,4197.948615,4176.410154,4220.512717,4223.58964,4234.871691,4240.512717,4233.33323,4244.10246,4209.743487,4156.922975,4213.33323,4104.615284
127,0,4099.487079,4159.999898,4194.871692,4174.871693,4220.512717,4225.128102,4236.410153,4241.538358,4231.794768,4248.717845,4210.769128,4153.333232,4205.640923,4103.076823
128,0,4100.51272,4163.076821,4199.999897,4173.333231,4222.051179,4229.230666,4234.358871,4242.563999,4232.820409,4250.256306,4217.948615,4168.205026,4208.205025,4106.153746
0,0,4113.846053,4164.615283,4207.179384,4168.205026,4223.58964,4231.281948,4235.897332,4238.974255,4231.281948,4247.692204,4211.281948,4165.640924,4218.974256,4108.205028
1,0,4109.230669,4155.384514,4201.538359,4154.358873,4214.871692,4224.102461,4234.358871,4235.897332,4228.717845,4237.948614,4197.948615,4144.615283,4205.128102,4094.871695
2,0,4096.410156,4153.846052,4192.82041,4136.922976,4206.153743,4222.563999,4227.692204,4235.897332,4225.128102,4235.897332,4198.461436,4138.974258,4187.692205,4088.205028
3,0,4091.281951,4168.205026,4198.974256,4135.384514,4216.410153,4231.794768,4230.769127,4238.974255,4220.512717,4243.58964,4211.281948,4142.564001,4207.179384,4108.717848
4,0,4102.051182,4165.128103,4205.640923,4142.051181,4224.102461,4230.256307,4233.33323,4241.025537,4225.640922,4235.897332,4210.769128,4138.461437,4221.025538,4113.333233
5,0,4109.743489,4155.384514,4200.512718,4139.999899,4218.461435,4222.563999,4226.666563,4237.948614,4230.256307,4227.179384,4203.07682,4145.128104,4203.07682,4099.9999
6,0,4098.461438,4158.461437,4196.922974,4139.487078,4212.307589,4223.58964,4226.153743,4234.358871,4224.615281,4229.230666,4206.666564,4155.384514,4188.205026,4091.794772
7,0,4109.230669,4160.512719,4195.384513,4139.999899,4210.256307,4223.58964,4228.717845,4230.769127,4213.33323,4228.717845,4208.205025,4149.743488,4189.743487,4090.769131
8,0,4121.538361,4149.230668,4192.82041,4129.743489,4202.564,4207.179384,4217.948615,4219.487076,4212.82041,4210.769128,4184.615282,4133.846053,4184.615282,4083.589644
9,0,4097.435797,4147.179386,4193.333231,4119.487079,4203.07682,4203.589641,4211.281948,4210.769128,4211.794769,4210.769128,4178.461436,4136.922976,4185.128103,4085.128105
10,0,4082.564003,4156.922975,4195.897333,4127.179386,4207.179384,4215.384512,4216.922974,4213.846051,4209.230666,4229.743486,4198.974256,4149.743488,4188.205026,4095.384515
11,0,4092.820413,4149.743488,4188.205026,4126.153745,4196.410154,4211.281948,4215.897333,4210.256307,4218.974256,4215.897333,4191.794769,4140.512719,4177.948616,4094.358874
12,0,4108.717848,4154.358873,4188.717846,4110.76913,4205.128102,4209.743487,4219.487076,4205.640923,4211.794769,4208.717846,4185.128103,4135.897335,4187.179385,4108.717848
13,0,4125.128104,4168.205026,4205.128102,4110.76913,4224.102461,4219.487076,4225.640922,4210.256307,4193.333231,4221.025538,4201.538359,4145.640924,4206.153743,4116.922976
14,0,4133.846053,4163.076821,4202.564,4117.435797,4216.410153,4214.358871,4216.410153,4208.205025,4197.435795,4210.256307,4201.538359,4145.128104,4202.564,4095.384515
15,0,4117.435797,4153.333232,4191.281949,4115.897335,4201.538359,4202.564,4208.205025,4192.82041,4210.769128,4193.846051,4184.102462,4133.846053,4182.564,4079.48708
16,0,4095.384515,4156.922975,4193.846051,4122.051181,4206.666564,4210.256307,4214.358871,4191.794769,4212.82041,4208.205025,4186.666564,4136.410155,4180.512718,4098.974259
17,0,4091.281951,4157.948616,4202.051179,4139.999899,4212.82041,4213.846051,4216.410153,4201.025538,4211.794769,4223.58964,4199.487077,4150.256309,4193.846051,4116.410156
18,0,4103.076823,4156.922975,4196.410154,4147.692206,4207.179384,4206.666564,4214.358871,4197.435795,4222.051179,4215.897333,4203.07682,4149.743488,4197.435795,4105.128105
19,0,4124.102463,4167.692206,4194.871692,4146.153745,4210.256307,4215.384512,4222.563999,4197.435795,4218.974256,4215.897333,4207.692205,4144.615283,4201.538359,4111.794771
20,0,4121.02554,4166.153744,4197.948615,4155.384514,4217.435794,4223.58964,4228.717845,4208.717846,4223.58964,4227.179384,4207.692205,4148.717847,4213.33323,4132.307591
21,0,4129.230668,4172.820411,4202.051179,4172.30759,4226.153743,4228.717845,4232.820409,4219.999897,4235.897332,4242.563999,4217.948615,4162.05118,4224.615281,4141.53836
22,0,4165.640924,4192.82041,4209.230666,4182.05118,4230.256307,4234.871691,4235.897332,4219.487076,4233.84605,4246.153742,4226.153743,4167.692206,4225.128102,4134.358873
23,0,4158.974257,4197.435795,4218.461435,4187.692205,4231.281948,4234.358871,4232.820409,4214.871692,4229.230666,4242.051178,4219.487076,4165.128103,4228.205025,4130.76913
24,0,4123.076822,4186.666564,4223.07682,4193.846051,4232.307589,4228.205025,4228.205025,4213.846051,4228.717845,4235.384512,4216.922974,4166.666565,4224.102461,4142.564001
25,0,4129.743489,4173.333231,4216.410153,4189.743487,4225.640922,4224.102461,4226.666563,4210.769128,4228.717845,4218.461435,4213.33323,4165.128103,4205.640923,4145.128104
26,0,4148.205027,4170.769129,4209.743487,4178.461436,4219.487076,4224.615281,4227.179384,4206.666564,4224.102461,4216.410153,4205.128102,4161.025539,4207.179384,4139.999899
27,0,4148.717847,4186.666564,4217.435794,4184.102462,4224.102461,4224.615281,4224.102461,4209.230666,4226.153743,4234.871691,4213.33323,4165.128103,4231.281948,4142.564001
28,0,4156.410155,4196.410154,4223.07682,4191.281949,4226.153743,4225.640922,4222.051179,4212.307589,4226.666563,4237.435794,4226.153743,4169.230667,4234.871691,4149.230668
29,0,4161.53836,4187.692205,4215.897333,4183.076821,4223.07682,4225.128102,4224.615281,4208.717846,4215.897333,4226.666563,4224.102461,4168.717847,4217.435794,4153.846052
30,0,4149.743488,4184.102462,4212.307589,4184.102462,4228.205025,4223.07682,4226.666563,4209.230666,4213.846051,4229.743486,4225.128102,4173.333231,4213.33323,4152.307591
31,0,4156.922975,4191.794769,4218.461435,4203.589641,4237.948614,4229.230666,4227.692204,4212.82041,4225.128102,4240.512717,4229.743486,4179.487077,4225.640922,4154.358873
32,0,4171.281949,4195.897333,4220.512717,4208.205025,4241.538358,4236.922973,4227.692204,4213.33323,4228.205025,4239.999896,4222.563999,4181.538359,4227.692204,4158.974257
33,0,4151.28195,4196.410154,4217.948615,4194.358872,4239.999896,4235.384512,4228.717845,4215.897333,4225.640922,4236.410153,4223.07682,4184.615282,4221.025538,4157.435796
34,0,4141.53836,4202.564,4224.615281,4203.07682,4238.974255,4231.281948,4230.256307,4219.999897,4229.743486,4239.999896,4235.384512,4189.743487,4226.666563,4157.948616
35,0,4162.564001,4212.82041,4231.281948,4221.538358,4243.58964,4235.384512,4233.84605,4223.07682,4235.897332,4247.179383,4235.897332,4181.025539,4237.948614,4170.769129
36,0,4161.025539,4207.179384,4224.615281,4210.256307,4244.615281,4240.512717,4234.358871,4218.461435,4234.358871,4244.615281,4223.58964,4164.102462,4229.743486,4172.820411
37,0,4146.666565,4193.846051,4217.948615,4197.435795,4236.410153,4238.461435,4230.769127,4209.743487,4227.692204,4232.820409,4214.871692,4163.589642,4212.307589,4154.871693
38,0,4164.102462,4194.358872,4223.58964,4212.307589,4229.743486,4227.179384,4224.615281,4208.717846,4226.153743,4226.666563,4215.384512,4178.974257,4207.179384,4143.076822
39,0,4179.487077,4202.564,4227.692204,4226.153743,4234.871691,4226.666563,4226.153743,4218.974256,4231.794768,4236.922973,4226.153743,4183.589641,4221.025538,4156.410155
40,0,4163.076821,4202.051179,4226.666563,4230.256307,4241.538358,4240.512717,4235.384512,4226.666563,4242.051178,4249.743486,4234.358871,4178.974257,4232.820409,4173.333231
41,0,4157.435796,4204.615282,4225.640922,4239.487076,4245.128101,4245.640922,4239.487076,4227.179384,4243.076819,4254.35887,4238.461435,4184.615282,4232.820409,4181.538359
42,0,4176.922975,4213.33323,4228.205025,4241.538358,4243.58964,4237.435794,4237.948614,4226.666563,4241.538358,4252.307588,4245.128101,4186.666564,4229.230666,4182.564
43,0,4193.846051,4219.487076,4232.307589,4234.871691,4241.538358,4235.897332,4236.922973,4224.102461,4242.051178,4252.820409,4244.10246,4186.153744,4226.153743,4179.999898
44,0,4184.615282,4214.871692,4230.769127,4231.794768,4241.025537,4234.358871,4232.820409,4216.922974,4236.410153,4250.256306,4227.692204,4187.692205,4216.410153,4172.820411
45,0,4165.128103,4203.07682,4219.487076,4222.051179,4234.871691,4227.179384,4227.179384,4209.743487,4224.102461,4234.358871,4214.871692,4172.30759,4211.794769,4162.05118
46,0,4166.666565,4202.051179,4218.461435,4208.205025,4230.256307,4227.179384,4227.692204,4211.281948,4222.563999,4225.128102,4222.051179,4155.384514,4218.974256,4161.025539
47,0,4170.769129,4207.179384,4231.794768,4207.692205,4235.384512,4229.230666,4228.205025,4215.384512,4230.769127,4235.897332,4232.307589,4170.769129,4219.999897,4179.999898
48,0,4166.666565,4205.128102,4237.435794,4217.948615,4241.025537,4230.256307,4228.717845,4215.897333,4234.358871,4238.974255,4231.794768,4190.256308,4219.487076,4196.410154
49,0,4163.589642,4203.589641,4235.897332,4218.974256,4238.974255,4233.33323,4234.871691,4218.974256,4232.307589,4220.512717,4226.153743,4184.615282,4225.640922,4181.025539
50,0,4169.743488,4210.256307,4234.871691,4214.871692,4238.974255,4235.384512,4238.461435,4222.051179,4234.358871,4222.051179,4229.230666,4183.589641,4222.051179,4169.743488
51,0,4185.640923,4212.307589,4235.897332,4215.897333,4241.538358,4235.384512,4235.384512,4219.999897,4236.410153,4245.128101,4231.281948,4190.769128,4218.974256,4193.333231
52,0,4195.897333,4209.743487,4232.820409,4207.179384,4241.538358,4235.897332,4235.384512,4219.999897,4234.871691,4245.128101,4226.153743,4182.05118,4225.128102,4195.897333
53,0,4197.948615,4213.33323,4234.358871,4199.487077,4243.076819,4238.461435,4238.461435,4223.07682,4234.871691,4231.794768,4229.743486,4175.384513,4222.051179,4174.358872
54,0,4200.512718,4223.58964,4242.563999,4216.410153,4245.640922,4238.974255,4236.922973,4222.563999,4234.871691,4238.461435,4237.948614,4188.205026,4224.102461,4185.640923
55,0,4190.769128,4220.512717,4246.666563,4230.769127,4241.538358,4236.922973,4234.871691,4220.512717,4233.84605,4241.025537,4226.666563,4189.230667,4233.33323,4195.897333
56,0,4184.102462,4211.794769,4242.051178,4229.743486,4239.999896,4239.999896,4239.487076,4225.640922,4236.410153,4238.461435,4216.922974,4175.897334,4233.33323,4183.076821
57,0,4189.743487,4214.871692,4236.922973,4233.84605,4244.615281,4242.051178,4238.461435,4227.179384,4243.076819,4247.179383,4231.794768,4176.922975,4231.794768,4192.30759
58,0,4182.564,4220.512717,4232.820409,4232.307589,4244.10246,4239.999896,4233.33323,4222.051179,4236.410153,4244.615281,4238.461435,4178.974257,4233.84605,4208.717846
59,0,4176.922975,4210.769128,4229.230666,4215.897333,4237.435794,4237.948614,4237.948614,4220.512717,4225.640922,4228.717845,4215.897333,4171.79477,4223.07682,4184.102462
60,0,4187.179385,4200.512718,4228.717845,4210.256307,4235.384512,4237.948614,4238.974255,4222.051179,4228.205025,4230.769127,4213.33323,4174.871693,4213.846051,4162.564001
61,0,4185.128103,4204.615282,4229.743486,4215.897333,4232.307589,4235.384512,4230.769127,4222.051179,4233.84605,4241.025537,4233.84605,4183.076821,4218.974256,4176.410154
62,0,4173.333231,4212.82041,4228.717845,4213.846051,4231.281948,4233.84605,4228.717845,4220.512717,4233.33323,4234.358871,4233.33323,4181.538359,4224.615281,4184.615282
63,0,4182.564,4215.897333,4235.897332,4215.384512,4236.410153,4236.922973,4236.410153,4224.615281,4236.922973,4229.230666,4227.179384,4187.692205,4232.820409,4186.666564
64,0,4198.974256,4222.051179,4246.153742,4222.051179,4242.051178,4241.538358,4242.051178,4227.179384,4240.512717,4235.897332,4242.051178,4199.487077,4239.487076,4205.128102
65,0,4212.82041,4235.897332,4250.769127,4228.205025,4248.717845,4246.153742,4241.025537,4230.769127,4239.999896,4245.640922,4256.922973,4200.512718,4245.640922,4216.410153
66,0,4216.922974,4240.512717,4250.256306,4237.435794,4251.281947,4244.615281,4237.435794,4231.281948,4238.974255,4252.307588,4251.794768,4200.512718,4254.35887,4212.82041
67,0,4214.358871,4230.769127,4244.615281,4247.179383,4246.153742,4244.10246,4239.999896,4231.794768,4239.487076,4251.281947,4243.076819,4201.538359,4254.35887,4217.435794
68,0,4211.281948,4224.615281,4238.461435,4247.692204,4242.563999,4249.230665,4243.076819,4232.820409,4238.974255,4246.666563,4242.051178,4197.948615,4244.615281,4218.461435
69,0,4197.948615,4227.692204,4242.051178,4244.10246,4247.179383,4246.666563,4239.487076,4230.769127,4238.974255,4248.205024,4251.794768,4199.999897,4240.512717,4209.230666
70,0,4189.743487,4227.692204,4244.615281,4245.640922,4248.205024,4236.410153,4234.871691,4230.769127,4237.948614,4248.205024,4253.84605,4200.512718,4244.615281,4207.692205
71,0,4204.615282,4228.717845,4238.974255,4247.692204,4247.179383,4242.051178,4237.948614,4237.435794,4239.487076,4249.230665,4247.692204,4192.30759,4255.384511,4219.999897
72,0,4214.358871,4230.256307,4238.461435,4246.153742,4249.230665,4252.307588,4243.076819,4242.051178,4245.128101,4251.794768,4250.256306,4193.333231,4255.897332,4219.487076
73,0,4204.615282,4227.692204,4237.948614,4245.640922,4248.717845,4249.230665,4243.58964,4239.487076,4245.128101,4247.179383,4252.820409,4204.102461,4249.230665,4209.230666
74,0,4209.743487,4229.230666,4237.435794,4248.717845,4246.153742,4243.58964,4238.461435,4236.922973,4239.487076,4241.025537,4243.076819,4200.512718,4255.384511,4214.358871
75,0,4226.666563,4236.922973,4243.58964,4250.256306,4247.179383,4243.076819,4236.922973,4237.948614,4238.461435,4249.230665,4241.538358,4195.384513,4262.563998,4224.615281
76,0,4213.33323,4229.230666,4241.025537,4243.076819,4243.076819,4241.538358,4236.410153,4236.410153,4238.461435,4250.256306,4245.640922,4197.948615,4246.666563,4206.153743
77,0,4194.358872,4224.615281,4228.717845,4246.153742,4241.538358,4239.487076,4236.922973,4235.384512,4235.384512,4243.076819,4246.153742,4194.871692,4245.128101,4196.410154
78,0,4210.769128,4234.871691,4233.33323,4264.61528,4250.769127,4238.974255,4239.999896,4239.999896,4242.051178,4250.769127,4255.897332,4194.871692,4270.256306,4226.153743
79,0,4233.84605,4244.10246,4247.179383,4269.743485,4257.948614,4243.076819,4243.58964,4245.640922,4249.230665,4263.589639,4272.307588,4203.589641,4276.922972,4243.58964
80,0,4226.153743,4239.487076,4249.230665,4254.35887,4253.84605,4245.640922,4244.615281,4243.58964,4246.666563,4257.948614,4266.666562,4206.153743,4260.512716,4230.769127
81,0,4209.743487,4231.794768,4247.692204,4244.10246,4250.256306,4242.563999,4242.051178,4241.538358,4242.563999,4247.692204,4247.179383,4204.615282,4258.974255,4229.230666
82,0,4215.384512,4231.794768,4249.743486,4249.743486,4250.256306,4239.487076,4238.974255,4241.025537,4242.051178,4251.794768,4246.666563,4202.564,4269.743485,4234.871691
83,0,4230.256307,4234.358871,4246.153742,4259.487075,4251.281947,4242.051178,4238.461435,4238.974255,4238.461435,4256.410152,4255.897332,4197.435795,4265.128101,4224.615281
84,0,4226.153743,4231.794768,4244.615281,4263.076819,4249.230665,4241.538358,4239.999896,4239.487076,4240.512717,4244.10246,4251.281947,4205.128102,4249.743486,4212.307589
85,0,4210.769128,4227.692204,4247.692204,4257.435793,4245.128101,4241.025537,4241.538358,4236.922973,4241.025537,4235.897332,4243.58964,4213.846051,4248.717845,4218.974256
86,0,4210.769128,4231.281948,4248.205024,4250.256306,4242.563999,4239.487076,4236.410153,4231.281948,4231.281948,4243.076819,4241.538358,4199.999897,4250.769127,4230.769127
87,0,4224.615281,4232.307589,4245.128101,4253.84605,4241.538358,4232.820409,4227.692204,4231.281948,4228.717845,4241.538358,4240.512717,4188.717846,4244.615281,4227.179384
88,0,4230.769127,4228.717845,4237.948614,4260.512716,4241.025537,4232.820409,4229.230666,4232.820409,4239.999896,4237.435794,4244.615281,4193.333231,4239.487076,4217.435794
89,0,4215.384512,4227.692204,4228.205025,4262.051178,4239.999896,4239.999896,4233.84605,4227.179384,4236.410153,4237.435794,4239.999896,4186.153744,4236.922973,4213.33323
90,0,4201.538359,4228.717845,4226.666563,4261.538357,4239.999896,4242.051178,4228.205025,4221.025538,4222.563999,4228.717845,4226.153743,4177.435795,4236.410153,4204.102461
91,0,4211.794769,4222.563999,4232.307589,4256.410152,4237.948614,4233.84605,4223.07682,4220.512717,4226.666563,4223.07682,4231.281948,4190.769128,4233.33323,4183.589641
92,0,4219.999897,4212.307589,4228.205025,4242.563999,4239.487076,4228.717845,4224.615281,4224.102461,4236.922973,4238.974255,4242.563999,4196.922974,4231.794768,4192.82041
93,0,4204.102461,4213.33323,4224.102461,4240.512717,4238.461435,4233.84605,4226.153743,4226.666563,4234.358871,4243.076819,4231.281948,4183.076821,4233.33323,4227.692204
94,0,4192.82041,4224.615281,4227.179384,4251.794768,4238.461435,4238.461435,4233.84605,4228.205025,4231.794768,4233.33323,4226.153743,4184.102462,4242.051178,4236.410153
95,0,4208.205025,4224.102461,4228.205025,4246.666563,4238.461435,4229.743486,4229.230666,4223.58964,4233.33323,4235.384512,4239.487076,4188.717846,4250.256306,4215.897333
96,0,4217.435794,4217.948615,4218.974256,4221.538358,4233.33323,4222.563999,4209.230666,4211.281948,4226.153743,4230.769127,4235.897332,4173.333231,4239.999896,4203.07682
97,0,4197.948615,4208.205025,4208.205025,4196.410154,4222.563999,4221.538358,4205.640923,4203.07682,4215.897333,4205.128102,4209.743487,4160.512719,4213.33323,4197.948615
98,0,4171.281949,4199.487077,4204.102461,4187.692205,4214.871692,4215.384512,4212.307589,4203.589641,4210.256307,4194.358872,4197.435795,4158.974257,4196.922974,4182.564
99,0,4169.743488,4200.512718,4209.743487,4197.435795,4215.384512,4213.846051,4212.307589,4204.102461,4212.307589,4205.128102,4208.205025,4165.128103,4197.435795,4171.281949
100,0,4187.692205,4208.205025,4217.948615,4210.256307,4221.025538,4223.07682,4214.871692,4205.640923,4218.461435,4212.307589,4218.461435,4176.410154,4205.128102,4182.564
101,0,4206.153743,4211.281948,4224.615281,4212.82041,4230.769127,4227.692204,4222.051179,4210.256307,4225.128102,4216.410153,4220.512717,4177.948616,4220.512717,4205.128102
102,0,4205.128102,4210.256307,4226.153743,4211.281948,4234.871691,4226.666563,4221.538358,4210.256307,4224.102461,4220.512717,4215.384512,4166.666565,4222.563999,4201.538359
103,0,4190.256308,4204.615282,4215.384512,4209.230666,4227.179384,4224.102461,4218.461435,4208.205025,4221.025538,4214.358871,4208.205025,4162.564001,4200.512718,4173.333231
104,0,4190.256308,4202.564,4207.692205,4211.281948,4222.051179,4224.102461,4217.948615,4212.82041,4225.128102,4212.82041,4215.897333,4173.333231,4193.333231,4171.281949
105,0,4198.461436,4212.82041,4216.410153,4226.666563,4228.717845,4232.820409,4225.128102,4221.538358,4232.820409,4226.666563,4233.84605,4185.128103,4216.410153,4199.999897
106,0,4195.897333,4214.358871,4222.563999,4236.922973,4234.871691,4231.794768,4228.205025,4222.051179,4230.256307,4229.743486,4228.205025,4185.640923,4225.640922,4213.33323
107,0,4197.948615,4210.256307,4222.051179,4230.769127,4233.84605,4225.128102,4224.615281,4218.461435,4225.128102,4220.512717,4213.846051,4172.820411,4212.82041,4216.410153
108,0,4209.230666,4216.922974,4228.717845,4231.794768,4236.410153,4229.743486,4223.58964,4219.487076,4228.717845,4215.384512,4218.974256,4174.871693,4212.82041,4221.538358
109,0,4218.461435,4228.717845,4229.230666,4242.051178,4241.025537,4234.358871,4225.640922,4225.128102,4233.33323,4217.435794,4230.256307,4188.717846,4225.128102,4216.410153
110,0,4218.974256,4226.153743,4221.538358,4239.999896,4238.461435,4232.307589,4228.205025,4228.717845,4230.769127,4218.461435,4225.640922,4179.999898,4221.538358,4208.205025
111,0,4209.230666,4215.897333,4218.461435,4229.230666,4235.384512,4233.33323,4229.743486,4227.692204,4226.153743,4221.538358,4216.922974,4165.640924,4211.281948,4210.256307
112,0,4196.410154,4212.82041,4219.487076,4226.666563,4233.84605,4229.230666,4224.102461,4222.563999,4226.666563,4222.051179,4215.384512,4173.846052,4214.871692,4210.769128
113,0,4199.999897,4216.922974,4216.410153,4229.743486,4230.769127,4224.615281,4224.102461,4224.615281,4226.666563,4220.512717,4216.410153,4183.589641,4218.974256,4199.487077
114,0,4199.999897,4214.358871,4216.410153,4230.769127,4229.743486,4225.128102,4229.743486,4227.692204,4225.640922,4222.563999,4214.871692,4177.948616,4205.640923,4187.179385
115,0,4187.179385,4211.281948,4217.435794,4227.692204,4234.871691,4226.153743,4229.230666,4228.717845,4227.179384,4218.974256,4219.999897,4171.79477,4200.512718,4193.846051
116,0,4191.281949,4217.435794,4217.948615,4231.794768,4237.948614,4233.33323,4226.666563,4235.384512,4231.794768,4213.33323,4232.307589,4178.974257,4212.82041,4214.871692
117,0,4203.07682,4222.051179,4220.512717,4248.205024,4236.410153,4243.58964,4232.307589,4239.999896,4230.769127,4223.07682,4233.84605,4187.692205,4218.461435,4220.512717
118,0,4202.564,4222.563999,4221.538358,4257.948614,4235.897332,4239.999896,4234.358871,4234.358871,4227.179384,4229.743486,4219.487076,4179.999898,4209.743487,4201.025538
119,0,4195.897333,4223.58964,4217.435794,4250.256306,4235.897332,4234.358871,4229.230666,4229.743486,4231.794768,4222.563999,4211.794769,4165.128103,4205.128102,4183.589641
120,0,4185.640923,4216.410153,4216.922974,4243.58964,4234.358871,4237.948614,4228.205025,4228.205025,4232.820409,4223.58964,4216.410153,4167.179385,4209.230666,4188.205026
121,0,4181.025539,4205.640923,4216.922974,4245.640922,4232.307589,4238.974255,4227.179384,4222.051179,4222.051179,4225.640922,4217.435794,4177.948616,4206.153743,4203.07682
122,0,4197.435795,4210.256307,4213.33323,4244.615281,4230.256307,4229.743486,4223.58964,4218.461435,4219.487076,4216.922974,4215.897333,4172.820411,4193.846051,4206.666564
123,0,4214.358871,4218.974256,4214.358871,4244.615281,4232.307589,4229.743486,4222.563999,4222.563999,4225.128102,4216.410153,4219.999897,4162.05118,4192.30759,4198.461436
124,0,4205.640923,4219.487076,4216.922974,4245.128101,4231.794768,4238.974255,4224.615281,4226.153743,4226.666563,4223.07682,4222.051179,4171.79477,4210.256307,4198.974256
125,0,4191.794769,4216.922974,4213.846051,4245.128101,4229.743486,4239.487076,4226.153743,4224.102461,4222.563999,4216.922974,4216.922974,4185.640923,4211.794769,4201.538359
126,0,4196.410154,4220.512717,4211.281948,4248.717845,4237.435794,4240.512717,4234.358871,4227.692204,4227.692204,4217.948615,4219.487076,4181.538359,4201.025538,4197.948615
127,0,4207.179384,4222.563999,4218.974256,4246.153742,4239.999896,4244.10246,4234.358871,4234.358871,4233.84605,4224.102461,4227.692204,4173.333231,4207.179384,4199.999897
128,0,4205.640923,4217.435794,4218.974256,4226.666563,4228.205025,4233.33323,4219.487076,4228.717845,4229.230666,4218.461435,4229.230666,4180.512718,4209.743487,4205.640923
0,0,4186.666564,4211.794769,4214.358871,4217.948615,4225.640922,4225.128102,4216.922974,4221.025538,4224.615281,4213.846051,4214.871692,4181.538359,4194.871692,4203.589641
1,0,4173.333231,4213.33323,4214.358871,4228.205025,4234.358871,4235.384512,4226.666563,4225.128102,4227.179384,4221.538358,4197.948615,4165.128103,4191.794769,4199.487077
2,0,4198.461436,4218.461435,4213.33323,4233.84605,4232.820409,4238.461435,4227.179384,4232.307589,4233.84605,4227.179384,4203.589641,4157.435796,4208.205025,4201.538359
3,0,4233.33323,4224.102461,4214.358871,4235.897332,4233.33323,4235.384512,4228.717845,4239.999896,4235.897332,4234.871691,4228.205025,4175.384513,4222.051179,4205.128102
4,0,4230.769127,4225.640922,4220.512717,4239.487076,4239.487076,4236.410153,4233.33323,4243.58964,4233.33323,4243.076819,4234.358871,4189.743487,4216.922974,4205.128102
5,0,4207.692205,4221.538358,4219.487076,4240.512717,4235.384512,4235.897332,4231.281948,4239.487076,4226.666563,4232.307589,4222.051179,4181.538359,4204.615282,4210.769128
6,0,4195.897333,4213.846051,4215.384512,4237.948614,4227.179384,4231.794768,4227.179384,4235.897332,4226.666563,4216.922974,4218.461435,4172.820411,4206.153743,4219.999897
7,0,4190.769128,4212.82041,4217.948615,4234.358871,4228.205025,4233.84605,4230.769127,4239.999896,4230.256307,4225.640922,4221.538358,4181.025539,4218.974256,4221.538358
8,0,4199.487077,4219.487076,4225.640922,4232.820409,4234.358871,4239.999896,4237.435794,4244.615281,4230.769127,4241.025537,4226.153743,4194.358872,4219.487076,4215.897333
9,0,4227.692204,4225.640922,4231.794768,4232.307589,4235.384512,4243.076819,4235.384512,4241.538358,4231.281948,4243.076819,4234.358871,4197.948615,4213.846051,4213.846051
10,0,4234.871691,4224.102461,4229.743486,4227.179384,4232.820409,4237.435794,4227.179384,4233.84605,4228.717845,4226.666563,4230.769127,4192.30759,4214.358871,4213.846051
11,0,4202.051179,4219.487076,4222.051179,4222.563999,4231.281948,4230.769127,4224.102461,4227.692204,4222.051179,4207.692205,4214.871692,4182.05118,4208.717846,4207.692205
12,0,4176.410154,4212.307589,4219.487076,4223.58964,4230.256307,4230.256307,4225.128102,4227.179384,4222.051179,4203.589641,4209.743487,4175.384513,4191.794769,4197.948615
13,0,4191.281949,4206.153743,4217.948615,4229.743486,4228.717845,4233.33323,4221.025538,4227.179384,4222.051179,4210.256307,4214.358871,4172.30759,4193.333231,4188.717846
14,0,4226.666563,4214.871692,4214.358871,4249.743486,4232.820409,4239.487076,4225.640922,4230.769127,4224.102461,4222.051179,4222.563999,4174.871693,4223.58964,4206.666564
15,0,4234.358871,4228.205025,4217.948615,4268.205024,4239.999896,4245.128101,4238.461435,4239.487076,4231.281948,4232.307589,4228.717845,4179.487077,4239.487076,4232.307589
16,0,4214.358871,4226.153743,4218.461435,4266.153742,4240.512717,4241.025537,4234.358871,4242.563999,4231.281948,4231.794768,4225.128102,4181.538359,4229.743486,4226.666563
17,0,4196.922974,4217.948615,4218.461435,4265.128101,4236.922973,4234.358871,4222.051179,4236.410153,4224.102461,4229.230666,4222.051179,4188.205026,4224.102461,4208.717846
18,0,4208.717846,4225.640922,4226.666563,4271.794767,4238.974255,4236.922973,4232.820409,4238.461435,4228.205025,4241.538358,4239.487076,4198.461436,4227.179384,4214.358871
19,0,4238.461435,4234.358871,4232.307589,4272.820408,4242.563999,4241.025537,4243.076819,4247.179383,4234.871691,4243.58964,4245.128101,4193.333231,4226.666563,4225.640922
20,0,4239.487076,4233.84605,4230.256307,4272.820408,4244.10246,4241.025537,4231.794768,4245.640922,4232.820409,4232.307589,4227.692204,4186.666564,4227.692204,4224.102461
21,0,4224.102461,4236.410153,4237.435794,4269.230665,4243.076819,4241.025537,4229.743486,4240.512717,4233.84605,4229.743486,4225.640922,4198.461436,4228.205025,4219.999897
22,0,4227.692204,4237.435794,4235.384512,4259.487075,4241.538358,4242.563999,4236.922973,4241.538358,4233.84605,4231.281948,4238.461435,4198.461436,4228.205025,4222.051179
23,0,4234.871691,4229.743486,4220.512717,4264.61528,4237.435794,4236.922973,4228.717845,4237.948614,4228.717845,4224.615281,4225.640922,4179.487077,4227.179384,4221.538358
24,0,4226.153743,4228.717845,4221.025538,4270.769126,4234.871691,4234.871691,4224.615281,4236.410153,4228.717845,4222.563999,4212.82041,4177.435795,4226.153743,4211.281948
25,0,4225.640922,4234.871691,4234.871691,4265.128101,4233.84605,4235.384512,4231.281948,4239.487076,4228.717845,4228.717845,4229.743486,4188.205026,4223.58964,4212.82041
26,0,4227.179384,4232.820409,4233.33323,4266.153742,4238.461435,4234.358871,4227.692204,4235.897332,4221.538358,4230.769127,4238.974255,4188.717846,4222.563999,4236.410153
27,0,4222.051179,4231.794768,4229.230666,4281.025536,4244.10246,4239.999896,4229.230666,4235.897332,4225.640922,4234.871691,4234.871691,4188.717846,4227.692204,4236.922973
28,0,4226.666563,4233.84605,4231.281948,4282.051177,4239.999896,4245.640922,4239.999896,4244.10246,4236.922973,4236.410153,4233.33323,4192.82041,4231.281948,4222.051179
29,0,4217.948615,4230.769127,4231.794768,4269.743485,4236.922973,4240.512717,4236.922973,4246.153742,4237.948614,4234.871691,4232.307589,4194.358872,4236.410153,4221.025538
30,0,4205.640923,4229.230666,4231.794768,4259.487075,4236.922973,4236.410153,4232.820409,4243.58964,4232.307589,4235.897332,4232.307589,4199.487077,4231.794768,4210.769128
31,0,4228.205025,4228.205025,4231.281948,4251.794768,4233.84605,4238.461435,4237.435794,4245.640922,4230.769127,4227.179384,4236.922973,4195.384513,4216.410153,4210.256307
32,0,4244.615281,4219.487076,4229.743486,4247.692204,4222.051179,4231.794768,4229.743486,4241.538358,4226.153743,4211.281948,4230.256307,4181.538359,4210.769128,4230.769127
33,0,4227.692204,4212.82041,4227.692204,4252.820409,4214.358871,4221.538358,4220.512717,4234.871691,4221.025538,4214.871692,4212.82041,4182.564,4216.922974,4219.487076
34,0,4222.563999,4212.307589,4223.07682,4262.051178,4215.897333,4222.563999,4221.025538,4232.307589,4221.025538,4227.692204,4209.230666,4188.717846,4211.281948,4191.794769
35,0,4225.640922,4221.025538,4224.102461,4265.128101,4224.615281,4232.307589,4224.102461,4231.794768,4222.563999,4224.615281,4225.128102,4182.05118,4211.281948,4209.743487
36,0,4214.358871,4229.230666,4229.743486,4256.410152,4230.769127,4237.435794,4223.07682,4230.769127,4221.538358,4221.025538,4233.84605,4176.410154,4226.666563,4228.205025
37,0,4224.615281,4231.281948,4221.538358,4246.153742,4229.230666,4230.769127,4219.487076,4230.256307,4223.58964,4224.102461,4229.743486,4181.538359,4231.794768,4221.025538
38,0,4237.948614,4227.179384,4215.897333,4247.692204,4227.692204,4228.205025,4218.974256,4230.769127,4226.153743,4220.512717,4232.820409,4188.717846,4223.07682,4227.179384
39,0,4219.487076,4221.025538,4222.563999,4257.435793,4228.205025,4233.84605,4224.102461,4237.435794,4226.666563,4223.07682,4231.281948,4193.846051,4221.025538,4233.33323
40,0,4210.769128,4211.794769,4221.025538,4262.563998,4223.58964,4227.692204,4226.666563,4239.999896,4229.230666,4222.051179,4210.256307,4189.743487,4219.487076,4215.384512
41,0,4222.051179,4212.307589,4214.871692,4261.025537,4222.563999,4225.128102,4226.666563,4237.435794,4232.820409,4217.948615,4217.948615,4183.076821,4224.102461,4213.33323
42,0,4226.666563,4220.512717,4222.563999,4261.025537,4231.281948,4238.974255,4228.717845,4241.538358,4233.84605,4228.717845,4243.076819,4189.230667,4226.666563,4226.666563
43,0,4230.769127,4222.051179,4228.717845,4264.61528,4236.410153,4245.640922,4230.256307,4249.743486,4233.84605,4239.999896,4239.487076,4195.384513,4219.487076,4209.743487
44,0,4228.205025,4217.435794,4225.128102,4257.948614,4228.205025,4232.307589,4228.205025,4246.153742,4234.358871,4236.410153,4232.307589,4191.281949,4221.538358,4198.974256
45,0,4221.025538,4214.871692,4218.974256,4245.640922,4223.58964,4226.153743,4227.179384,4241.538358,4231.794768,4229.743486,4232.820409,4187.692205,4231.794768,4225.128102
46,0,4228.205025,4217.435794,4217.948615,4251.794768,4227.179384,4235.384512,4226.666563,4241.025537,4233.84605,4233.33323,4223.07682,4191.794769,4233.84605,4243.58964
47,0,4230.256307,4221.538358,4221.025538,4265.128101,4226.666563,4234.871691,4224.615281,4238.974255,4233.84605,4233.84605,4225.128102,4193.846051,4232.820409,4231.281948
48,0,4229.743486,4222.563999,4225.128102,4266.666562,4225.640922,4226.666563,4221.538358,4239.999896,4229.230666,4230.769127,4245.128101,4194.358872,4235.384512,4228.717845
49,0,4244.615281,4224.102461,4231.281948,4262.563998,4229.230666,4226.153743,4218.974256,4236.922973,4227.179384,4231.794768,4246.153742,4197.948615,4231.281948,4235.384512
50,0,4236.410153,4235.384512,4233.33323,4264.10246,4234.358871,4230.769127,4219.999897,4233.33323,4230.256307,4235.384512,4233.33323,4201.025538,4223.58964,4227.692204
51,0,4218.461435,4236.922973,4230.256307,4268.717844,4234.871691,4234.871691,4224.102461,4234.871691,4230.256307,4228.717845,4225.640922,4194.871692,4231.281948,4228.717845
52,0,4236.922973,4223.58964,4224.615281,4265.128101,4234.871691,4236.922973,4224.102461,4235.384512,4228.205025,4214.871692,4228.205025,4189.230667,4238.974255,4235.897332
53,0,4244.615281,4216.410153,4223.07682,4251.281947,4233.84605,4233.33323,4223.58964,4232.307589,4228.717845,4212.307589,4230.769127,4190.769128,4218.974256,4215.897333
54,0,4217.435794,4219.999897,4220.512717,4249.230665,4232.820409,4235.384512,4233.33323,4238.461435,4234.358871,4226.153743,4230.256307,4193.333231,4205.640923,4193.846051
55,0,4214.871692,4223.07682,4216.410153,4264.61528,4231.794768,4235.384512,4236.410153,4245.128101,4236.922973,4232.820409,4231.281948,4191.794769,4225.640922,4211.281948
56,0,4237.948614,4229.230666,4216.922974,4269.230665,4231.281948,4225.640922,4223.07682,4241.025537,4232.820409,4230.769127,4234.871691,4188.717846,4247.692204,4248.205024
57,0,4233.33323,4235.384512,4224.615281,4263.589639,4231.281948,4226.153743,4221.538358,4238.974255,4234.358871,4233.33323,4233.33323,4188.205026,4243.076819,4254.35887
58,0,4222.051179,4231.281948,4224.615281,4265.128101,4234.871691,4238.974255,4236.922973,4242.563999,4238.974255,4241.025537,4235.384512,4192.30759,4231.794768,4243.58964
59,0,4243.58964,4223.58964,4219.487076,4266.153742,4237.435794,4237.948614,4236.922973,4241.538358,4237.435794,4242.051178,4235.384512,4198.461436,4231.281948,4224.615281
60,0,4252.820409,4223.07682,4216.922974,4257.948614,4237.948614,4234.871691,4229.230666,4236.922973,4233.84605,4230.256307,4228.717845,4199.487077,4238.461435,4202.564
61,0,4223.07682,4222.051179,4216.922974,4252.307588,4236.922973,4239.999896,4229.743486,4235.384512,4234.358871,4216.922974,4230.256307,4191.281949,4234.871691,4209.230666
62,0,4214.871692,4221.538358,4215.897333,4256.410152,4237.435794,4237.948614,4231.281948,4238.974255,4236.410153,4220.512717,4237.435794,4184.615282,4225.128102,4244.10246
63,0,4232.820409,4224.102461,4216.410153,4254.871691,4237.435794,4231.281948,4229.230666,4241.538358,4234.871691,4230.256307,4227.179384,4185.640923,4230.256307,4249.743486
64,0,4223.58964,4219.487076,4215.384512,4237.435794,4235.384512,4226.666563,4225.640922,4235.384512,4229.230666,4225.640922,4218.461435,4188.205026,4229.230666,4212.82041
65,0,4207.692205,4209.743487,4213.33323,4230.256307,4226.666563,4222.051179,4223.58964,4227.692204,4228.717845,4216.410153,4225.128102,4184.615282,4216.922974,4193.846051
66,0,4208.717846,4210.769128,4214.871692,4240.512717,4221.538358,4223.07682,4223.58964,4226.153743,4233.33323,4220.512717,4220.512717,4178.461436,4224.615281,4211.281948
67,0,4221.538358,4221.538358,4215.897333,4248.205024,4230.256307,4231.794768,4230.769127,4230.769127,4233.84605,4224.102461,4212.307589,4181.025539,4235.897332,4230.256307
68,0,4235.897332,4231.794768,4218.974256,4255.897332,4241.538358,4237.948614,4235.384512,4236.410153,4236.410153,4228.205025,4231.281948,4193.333231,4233.33323,4235.897332
69,0,4231.794768,4229.743486,4219.999897,4239.487076,4238.461435,4231.794768,4228.717845,4236.922973,4238.461435,4230.769127,4243.58964,4192.82041,4233.84605,4236.410153
70,0,4221.538358,4216.410153,4212.307589,4204.102461,4224.615281,4223.58964,4217.435794,4227.692204,4226.153743,4214.358871,4225.640922,4180.512718,4233.33323,4232.307589
71,0,4239.999896,4214.871692,4203.589641,4208.717846,4221.025538,4222.563999,4213.846051,4221.538358,4217.948615,4208.205025,4218.461435,4182.564,4227.692204,4233.84605
72,0,4243.58964,4215.897333,4202.564,4229.230666,4224.102461,4218.974256,4212.307589,4220.512717,4222.051179,4220.512717,4226.666563,4187.692205,4229.743486,4227.179384
73,0,4208.717846,4207.179384,4202.051179,4217.435794,4224.102461,4217.435794,4211.281948,4217.948615,4222.051179,4220.512717,4223.58964,4184.615282,4229.743486,4208.717846
74,0,4201.025538,4207.179384,4203.589641,4216.922974,4219.999897,4221.538358,4216.922974,4217.948615,4216.410153,4209.743487,4211.281948,4182.564,4216.922974,4213.33323
75,0,4228.717845,4223.07682,4211.281948,4249.230665,4225.128102,4225.128102,4218.974256,4224.102461,4222.563999,4219.487076,4215.897333,4187.179385,4220.512717,4238.974255
76,0,4228.205025,4231.281948,4218.974256,4257.435793,4235.897332,4225.128102,4214.871692,4225.640922,4230.769127,4229.230666,4233.84605,4193.846051,4237.435794,4234.358871
77,0,4206.153743,4227.692204,4216.922974,4242.563999,4234.358871,4227.179384,4217.435794,4220.512717,4223.58964,4215.897333,4239.487076,4192.30759,4236.922973,4212.307589
78,0,4220.512717,4224.102461,4214.871692,4241.538358,4227.692204,4225.128102,4222.051179,4216.922974,4215.384512,4210.769128,4224.102461,4184.615282,4219.999897,4218.974256
79,0,4251.794768,4227.692204,4211.794769,4233.33323,4229.743486,4223.58964,4224.102461,4220.512717,4218.461435,4222.051179,4213.33323,4181.025539,4224.102461,4242.051178
80,0,4237.948614,4226.666563,4207.179384,4213.33323,4230.256307,4224.102461,4218.461435,4226.666563,4222.563999,4217.435794,4219.487076,4184.102462,4243.076819,4237.948614
81,0,4207.692205,4218.974256,4202.051179,4209.743487,4225.128102,4221.025538,4208.717846,4220.512717,4219.487076,4204.615282,4225.640922,4182.564,4232.820409,4214.871692
82,0,4215.384512,4222.051179,4205.128102,4231.794768,4225.640922,4221.538358,4209.743487,4213.33323,4221.538358,4213.33323,4225.640922,4181.538359,4215.897333,4213.33323
83,0,4235.384512,4233.84605,4215.384512,4248.205024,4233.33323,4230.256307,4222.051179,4218.974256,4225.640922,4232.307589,4230.769127,4182.05118,4230.256307,4230.769127
84,0,4228.717845,4233.84605,4219.999897,4249.743486,4238.461435,4238.974255,4229.743486,4232.820409,4229.743486,4233.84605,4242.051178,4186.153744,4245.640922,4238.461435
85,0,4210.256307,4223.58964,4217.948615,4252.820409,4235.897332,4233.84605,4226.666563,4236.410153,4233.84605,4224.102461,4241.025537,4192.82041,4232.307589,4234.871691
86,0,4210.256307,4218.974256,4214.358871,4252.307588,4228.717845,4224.102461,4222.051179,4228.717845,4230.256307,4222.051179,4227.179384,4189.743487,4217.948615,4234.871691
87,0,4221.538358,4214.871692,4212.307589,4251.794768,4224.102461,4224.102461,4218.461435,4225.128102,4222.051179,4222.563999,4224.102461,4188.717846,4218.974256,4238.461435
88,0,4236.922973,4216.410153,4212.82041,4261.538357,4226.666563,4231.281948,4222.051179,4234.358871,4224.615281,4228.717845,4236.410153,4198.461436,4221.538358,4243.58964
89,0,4238.974255,4225.128102,4217.435794,4266.153742,4233.33323,4233.84605,4232.307589,4240.512717,4233.33323,4234.358871,4233.33323,4204.102461,4223.58964,4235.384512
90,0,4229.743486,4232.820409,4218.974256,4266.153742,4239.487076,4237.948614,4236.922973,4238.974255,4235.897332,4235.897332,4226.666563,4202.564,4230.256307,4227.179384
91,0,4231.281948,4234.358871,4219.999897,4276.410152,4239.487076,4243.076819,4231.281948,4238.974255,4236.410153,4232.307589,4242.051178,4199.999897,4236.410153,4247.179383
92,0,4234.871691,4235.897332,4221.025538,4284.61528,4239.999896,4241.538358,4224.615281,4239.999896,4236.410153,4229.743486,4253.84605,4200.512718,4238.974255,4258.461434
93,0,4235.897332,4237.435794,4222.051179,4273.333229,4243.58964,4239.999896,4228.205025,4238.974255,4234.358871,4229.743486,4243.58964,4206.153743,4234.871691,4239.487076
94,0,4241.025537,4234.871691,4217.435794,4253.84605,4240.512717,4236.922973,4231.794768,4234.871691,4229.743486,4229.743486,4238.461435,4200.512718,4231.281948,4236.922973
95,0,4231.281948,4230.256307,4213.846051,4237.435794,4229.230666,4224.102461,4221.538358,4224.102461,4223.58964,4227.179384,4236.410153,4183.589641,4229.230666,4248.205024
96,0,4208.717846,4227.692204,4213.33323,4225.128102,4224.615281,4217.435794,4212.82041,4218.974256,4218.974256,4224.615281,4219.999897,4178.461436,4219.487076,4235.384512
97,0,4208.717846,4222.563999,4209.230666,4230.256307,4227.179384,4222.563999,4214.358871,4221.025538,4217.948615,4223.58964,4211.794769,4175.384513,4209.230666,4214.358871
98,0,4227.179384,4217.435794,4205.128102,4240.512717,4228.717845,4223.07682,4215.897333,4217.435794,4215.384512,4219.487076,4220.512717,4169.743488,4216.410153,4224.615281
99,0,4229.743486,4212.307589,4210.769128,4213.846051,4227.179384,4216.410153,4209.230666,4209.743487,4212.307589,4211.281948,4217.948615,4179.487077,4222.051179,4236.922973
100,0,4223.07682,4207.179384,4207.179384,4178.461436,4223.07682,4217.948615,4208.205025,4208.205025,4211.281948,4208.717846,4208.717846,4179.487077,4205.128102,4213.846051
101,0,4222.051179,4210.256307,4198.461436,4201.538359,4223.58964,4227.179384,4216.922974,4214.871692,4218.461435,4212.307589,4213.33323,4170.769129,4194.871692,4192.30759
102,0,4222.563999,4230.256307,4209.743487,4249.230665,4234.358871,4234.871691,4225.128102,4226.666563,4229.230666,4218.974256,4225.640922,4183.076821,4216.922974,4224.102461
103,0,4226.153743,4244.615281,4226.153743,4261.025537,4246.153742,4235.897332,4229.230666,4238.974255,4236.410153,4234.358871,4235.384512,4197.948615,4244.615281,4271.794767
104,0,4239.999896,4235.384512,4217.435794,4255.384511,4241.025537,4231.281948,4228.717845,4242.563999,4236.922973,4247.692204,4237.435794,4192.82041,4248.205024,4265.640921
105,0,4245.128101,4223.07682,4202.051179,4249.743486,4229.743486,4224.615281,4225.640922,4234.358871,4229.743486,4231.281948,4226.666563,4182.05118,4229.743486,4228.205025
106,0,4217.948615,4218.974256,4204.615282,4233.84605,4225.640922,4219.999897,4219.487076,4222.051179,4218.461435,4202.564,4213.33323,4180.512718,4206.666564,4203.589641
107,0,4197.948615,4222.051179,4209.743487,4227.179384,4228.717845,4221.025538,4217.435794,4219.999897,4216.922974,4208.205025,4218.461435,4180.512718,4206.153743,4210.256307
108,0,4217.435794,4224.615281,4206.666564,4243.076819,4231.281948,4225.128102,4221.538358,4227.179384,4222.563999,4227.692204,4221.025538,4176.410154,4221.538358,4226.153743
109,0,4227.179384,4222.563999,4206.153743,4252.820409,4233.33323,4226.153743,4227.179384,4232.307589,4226.153743,4225.640922,4208.717846,4178.974257,4217.435794,4217.435794
110,0,4213.33323,4219.999897,4211.281948,4250.256306,4232.307589,4223.58964,4225.128102,4230.769127,4224.615281,4217.948615,4212.307589,4187.692205,4203.589641,4207.692205
111,0,4222.051179,4226.666563,4212.82041,4257.435793,4230.769127,4223.07682,4221.538358,4229.743486,4225.640922,4224.615281,4232.307589,4182.05118,4220.512717,4224.615281
112,0,4244.10246,4231.281948,4213.846051,4263.589639,4233.33323,4227.179384,4223.07682,4232.820409,4228.717845,4227.692204,4230.769127,4171.79477,4235.384512,4242.563999
113,0,4242.051178,4227.179384,4209.230666,4236.922973,4232.307589,4228.717845,4223.58964,4230.256307,4225.640922,4219.999897,4212.82041,4174.358872,4222.563999,4237.435794
114,0,4222.563999,4223.58964,4201.025538,4208.717846,4227.179384,4221.025538,4212.82041,4216.410153,4215.897333,4217.948615,4207.692205,4173.846052,4216.922974,4230.256307
115,0,4213.33323,4227.692204,4197.435795,4218.974256,4231.281948,4218.461435,4205.640923,4210.769128,4217.435794,4217.948615,4218.461435,4173.333231,4225.640922,4233.33323
116,0,4217.435794,4226.153743,4199.999897,4239.999896,4233.84605,4224.102461,4213.846051,4211.794769,4227.179384,4208.205025,4223.58964,4178.461436,4223.58964,4225.128102
117,0,4227.692204,4225.640922,4202.564,4244.10246,4230.769127,4226.153743,4223.07682,4211.281948,4228.717845,4213.846051,4222.563999,4184.102462,4223.07682,4217.435794
118,0,4228.717845,4231.281948,4204.102461,4245.128101,4231.281948,4227.179384,4224.102461,4211.281948,4227.692204,4238.461435,4228.717845,4186.666564,4235.384512,4238.974255
119,0,4215.897333,4226.666563,4200.512718,4250.256306,4229.743486,4229.230666,4222.051179,4205.128102,4223.58964,4238.461435,4237.948614,4184.615282,4236.922973,4252.307588
120,0,4216.922974,4218.461435,4205.128102,4254.871691,4227.179384,4228.717845,4224.615281,4198.461436,4222.563999,4228.205025,4232.307589,4189.743487,4236.922973,4240.512717
121,0,4227.692204,4220.512717,4219.999897,4251.794768,4232.307589,4227.692204,4229.230666,4204.615282,4228.205025,4236.922973,4221.538358,4200.512718,4239.487076,4234.871691
122,0,4233.33323,4224.102461,4219.487076,4246.153742,4230.769127,4224.615281,4228.205025,4205.640923,4231.794768,4233.84605,4227.179384,4195.897333,4230.769127,4242.563999
123,0,4233.33323,4224.615281,4205.640923,4246.666563,4222.563999,4223.07682,4224.615281,4192.30759,4227.692204,4217.948615,4231.281948,4182.564,4223.07682,4235.897332
124,0,4238.461435,4230.769127,4201.538359,4244.615281,4225.640922,4226.666563,4224.102461,4191.281949,4227.692204,4223.58964,4224.102461,4183.076821,4232.307589,4221.025538
125,0,4236.410153,4223.07682,4204.615282,4233.84605,4228.717845,4226.666563,4224.102461,4193.333231,4231.794768,4227.692204,4224.102461,4184.615282,4233.84605,4225.128102
126,0,4212.307589,4211.794769,4205.128102,4227.179384,4222.051179,4219.487076,4217.948615,4185.640923,4229.743486,4216.410153,4229.230666,4179.999898,4223.58964,4241.538358
127,0,4196.922974,4215.384512,4210.769128,4233.84605,4218.461435,4216.410153,4213.33323,4182.05118,4224.615281,4216.922974,4222.563999,4181.538359,4224.615281,4235.897332
128,0,4209.230666,4219.999897,4209.230666,4243.58964,4222.563999,4222.051179,4217.435794,4182.05118,4225.128102,4229.230666,4215.897333,4181.025539,4233.84605,4224.102461
0,0,4225.640922,4213.33323,4202.564,4242.563999,4223.07682,4223.07682,4218.461435,4176.922975,4225.128102,4226.666563,4214.871692,4176.410154,4234.358871,4223.58964
1,0,4233.33323,4216.922974,4204.102461,4244.10246,4221.025538,4219.487076,4216.410153,4173.846052,4218.461435,4214.871692,4218.461435,4181.025539,4228.205025,4219.487076
2,0,4233.84605,4228.717845,4212.307589,4259.487075,4222.563999,4221.538358,4219.999897,4179.487077,4217.435794,4214.871692,4227.692204,4189.230667,4224.615281,4216.410153
3,0,4229.743486,4230.256307,4215.897333,4266.666562,4226.666563,4230.256307,4228.205025,4189.230667,4226.666563,4225.640922,4237.948614,4192.82041,4230.769127,4233.33323
4,0,4233.84605,4227.692204,4221.025538,4264.61528,4229.230666,4230.256307,4230.256307,4193.333231,4231.281948,4230.256307,4236.410153,4199.487077,4236.922973,4249.743486
5,0,4239.999896,4233.84605,4225.128102,4270.256306,4230.769127,4222.563999,4225.640922,4192.82041,4228.205025,4230.256307,4226.666563,4200.512718,4239.999896,4256.922973
6,0,4231.281948,4232.820409,4223.58964,4270.769126,4231.794768,4222.051179,4224.615281,4193.333231,4229.230666,4227.179384,4218.974256,4191.281949,4244.615281,4248.205024
7,0,4232.820409,4225.128102,4217.435794,4263.589639,4231.794768,4230.256307,4228.717845,4196.410154,4232.820409,4224.102461,4223.07682,4191.281949,4245.128101,4234.871691
8,0,4243.076819,4222.051179,4213.846051,4258.974255,4229.743486,4231.794768,4226.153743,4192.82041,4230.769127,4225.640922,4232.820409,4196.922974,4232.820409,4241.025537
9,0,4228.717845,4218.461435,4216.922974,4250.256306,4226.153743,4224.615281,4217.948615,4182.05118,4222.051179,4222.051179,4226.666563,4186.666564,4216.922974,4241.025537
10,0,4217.435794,4213.846051,4215.897333,4244.10246,4225.640922,4221.538358,4219.487076,4180.512718,4222.563999,4216.922974,4214.871692,4176.922975,4215.897333,4219.999897
11,0,4221.025538,4211.794769,4208.205025,4245.640922,4224.102461,4221.538358,4224.102461,4187.692205,4230.256307,4225.640922,4213.846051,4178.974257,4227.179384,4211.794769
12,0,4222.051179,4219.487076,4209.230666,4253.333229,4224.615281,4224.615281,4225.128102,4194.871692,4232.307589,4234.358871,4225.640922,4188.717846,4233.33323,4228.205025
13,0,4232.820409,4230.256307,4217.435794,4267.692203,4230.256307,4228.717845,4227.692204,4195.384513,4231.794768,4231.794768,4234.358871,4196.922974,4233.84605,4251.281947
14,0,4250.256306,4236.410153,4219.999897,4281.538357,4235.384512,4232.820409,4233.33323,4200.512718,4234.871691,4238.461435,4234.358871,4200.512718,4246.153742,4262.563998
15,0,4248.205024,4233.33323,4221.538358,4279.487075,4237.948614,4235.384512,4235.897332,4205.128102,4236.922973,4246.153742,4235.384512,4197.948615,4250.256306,4252.307588
16,0,4233.33323,4234.871691,4222.563999,4272.820408,4240.512717,4234.358871,4233.33323,4199.999897,4234.358871,4237.435794,4239.487076,4192.82041,4245.128101,4248.205024
17,0,4224.102461,4239.487076,4220.512717,4271.281947,4240.512717,4228.205025,4229.743486,4192.82041,4229.230666,4230.256307,4237.948614,4190.769128,4247.692204,4258.974255
18,0,4227.692204,4233.84605,4218.974256,4261.025537,4233.84605,4224.615281,4226.666563,4192.82041,4226.153743,4235.384512,4232.820409,4193.846051,4245.128101,4254.871691
19,0,4241.538358,4221.538358,4216.922974,4247.692204,4225.640922,4223.58964,4225.128102,4188.717846,4225.128102,4227.692204,4224.615281,4189.230667,4231.794768,4231.794768
20,0,4245.640922,4220.512717,4209.743487,4243.076819,4223.07682,4224.615281,4228.717845,4187.179385,4224.102461,4216.922974,4224.102461,4181.025539,4230.256307,4230.769127
21,0,4244.615281,4233.84605,4211.281948,4250.256306,4228.205025,4227.179384,4229.743486,4196.410154,4229.230666,4226.666563,4234.871691,4187.179385,4241.025537,4252.307588
22,0,4238.974255,4242.051178,4217.435794,4257.435793,4233.33323,4227.179384,4223.07682,4202.051179,4235.897332,4238.974255,4241.025537,4200.512718,4246.153742,4254.35887
23,0,4218.974256,4228.205025,4219.999897,4254.35887,4229.743486,4223.58964,4222.051179,4195.384513,4232.820409,4236.410153,4235.384512,4197.435795,4242.051178,4237.948614
24,0,4227.179384,4218.974256,4218.461435,4253.84605,4224.615281,4224.615281,4227.692204,4193.333231,4226.666563,4231.281948,4231.794768,4186.666564,4235.384512,4238.974255
25,0,4250.256306,4226.153743,4214.871692,4258.974255,4224.102461,4226.153743,4225.128102,4195.384513,4227.179384,4230.256307,4226.666563,4183.076821,4229.743486,4242.563999
26,0,4232.307589,4230.256307,4214.358871,4260.512716,4226.153743,4227.179384,4221.025538,4193.846051,4227.692204,4233.33323,4222.051179,4193.333231,4228.205025,4229.230666
27,0,4219.999897,4232.307589,4221.025538,4258.974255,4231.794768,4228.205025,4225.128102,4198.461436,4231.794768,4246.153742,4236.410153,4202.051179,4241.538358,4241.538358
28,0,4252.820409,4242.563999,4227.692204,4263.076819,4236.922973,4229.230666,4228.205025,4203.07682,4236.922973,4252.307588,4250.256306,4201.025538,4256.922973,4273.846049
29,0,4274.35887,4248.205024,4230.256307,4263.589639,4234.358871,4229.230666,4225.640922,4198.974256,4233.33323,4242.563999,4245.128101,4200.512718,4254.871691,4279.487075
30,0,4263.076819,4238.461435,4230.769127,4253.333229,4228.205025,4223.58964,4219.999897,4191.794769,4224.615281,4234.871691,4239.999896,4197.948615,4246.666563,4257.948614
31,0,4253.333229,4232.307589,4226.153743,4256.922973,4230.769127,4215.384512,4217.435794,4190.256308,4226.153743,4238.461435,4247.692204,4193.846051,4248.205024,4248.717845
32,0,4246.666563,4233.84605,4220.512717,4267.179383,4235.384512,4216.922974,4218.974256,4187.179385,4229.743486,4233.33323,4246.153742,4191.281949,4247.692204,4252.820409
33,0,4233.84605,4229.230666,4218.974256,4255.897332,4230.769127,4223.07682,4217.948615,4181.538359,4223.07682,4218.461435,4226.153743,4187.692205,4240.512717,4239.999896
34,0,4215.384512,4219.999897,4218.461435,4237.435794,4222.563999,4221.538358,4216.922974,4184.102462,4217.435794,4214.871692,4219.487076,4180.512718,4235.384512,4222.051179
35,0,4217.948615,4222.563999,4218.461435,4235.384512,4228.717845,4218.974256,4219.487076,4192.30759,4223.58964,4227.179384,4241.025537,4185.128103,4234.358871,4233.84605
36,0,4246.153742,4227.692204,4223.07682,4244.10246,4236.922973,4218.461435,4215.384512,4192.82041,4227.179384,4233.33323,4242.563999,4192.82041,4233.33323,4248.717845
37,0,4246.153742,4226.153743,4220.512717,4246.153742,4230.256307,4221.538358,4213.33323,4190.256308,4224.615281,4230.769127,4218.461435,4184.102462,4236.410153,4242.051178
38,0,4219.487076,4228.717845,4214.358871,4243.076819,4228.717845,4226.666563,4223.07682,4198.974256,4229.743486,4231.281948,4226.153743,4177.948616,4246.153742,4244.615281
39,0,4230.256307,4238.461435,4217.435794,4240.512717,4236.922973,4228.205025,4227.692204,4206.666564,4236.410153,4236.410153,4257.435793,4187.179385,4254.35887,4262.563998
40,0,4261.025537,4241.025537,4221.025538,4238.461435,4234.358871,4221.025538,4219.487076,4197.435795,4233.33323,4232.307589,4248.205024,4190.769128,4246.153742,4254.871691
41,0,4264.10246,4241.538358,4212.307589,4245.128101,4234.871691,4218.974256,4217.435794,4193.846051,4229.230666,4227.692204,4226.666563,4185.128103,4236.410153,4235.897332
42,0,4241.025537,4236.922973,4209.230666,4256.922973,4243.58964,4229.230666,4228.205025,4199.999897,4232.307589,4235.897332,4235.897332,4184.102462,4239.999896,4240.512717
43,0,4209.230666,4227.179384,4215.384512,4250.256306,4237.948614,4232.307589,4232.307589,4198.461436,4230.769127,4237.948614,4247.179383,4186.153744,4246.153742,4257.948614
44,0,4207.692205,4218.974256,4216.922974,4229.230666,4222.051179,4220.512717,4222.051179,4190.769128,4224.102461,4229.743486,4235.897332,4187.179385,4231.794768,4256.410152
45,0,4241.025537,4211.794769,4214.358871,4232.307589,4221.538358,4212.82041,4211.281948,4191.794769,4223.58964,4230.769127,4220.512717,4189.743487,4213.33323,4237.948614
46,0,4253.333229,4215.897333,4210.256307,4246.666563,4224.615281,4214.871692,4212.307589,4193.333231,4225.640922,4229.230666,4220.512717,4182.564,4218.461435,4225.640922
47,0,4233.33323,4227.692204,4202.564,4241.538358,4221.538358,4213.33323,4213.846051,4188.205026,4221.538358,4218.461435,4223.07682,4165.640924,4226.666563,4231.794768
48,0,4233.84605,4236.410153,4205.128102,4233.33323,4222.563999,4209.743487,4207.692205,4186.666564,4223.07682,4218.974256,4218.974256,4163.076821,4219.999897,4244.10246
49,0,4237.948614,4239.487076,4217.948615,4232.307589,4224.615281,4208.205025,4204.102461,4187.692205,4225.640922,4224.102461,4216.410153,4176.922975,4211.281948,4234.358871
50,0,4235.897332,4244.615281,4219.487076,4235.384512,4226.153743,4210.256307,4210.256307,4187.692205,4222.051179,4225.640922,4215.897333,4186.153744,4210.769128,4222.051179
51,0,4255.384511,4245.640922,4218.461435,4235.384512,4229.743486,4218.461435,4216.922974,4189.743487,4219.999897,4221.538358,4218.461435,4183.589641,4210.769128,4239.487076
52,0,4257.435793,4242.051178,4222.563999,4230.769127,4229.230666,4223.58964,4213.846051,4193.846051,4221.025538,4206.666564,4226.153743,4183.076821,4208.717846,4253.333229
53,0,4235.897332,4244.615281,4223.58964,4237.948614,4224.102461,4217.435794,4209.743487,4194.871692,4217.948615,4203.589641,4227.179384,4187.179385,4200.512718,4239.487076
54,0,4238.974255,4249.743486,4219.999897,4252.307588,4226.153743,4213.33323,4215.384512,4197.435795,4217.948615,4226.153743,4222.051179,4184.615282,4201.025538,4238.461435
55,0,4249.230665,4241.025537,4216.922974,4237.435794,4226.666563,4214.358871,4215.897333,4196.410154,4219.999897,4230.256307,4217.948615,4173.333231,4206.153743,4244.615281
56,0,4228.205025,4222.051179,4211.281948,4206.153743,4218.974256,4210.256307,4204.102461,4186.153744,4215.384512,4211.281948,4210.256307,4164.102462,4193.333231,4219.487076
57,0,4208.717846,4217.948615,4209.743487,4197.948615,4217.948615,4206.153743,4202.051179,4183.076821,4215.897333,4208.717846,4202.564,4163.589642,4176.922975,4196.410154
58,0,4225.128102,4229.230666,4208.717846,4199.487077,4224.615281,4218.974256,4217.435794,4196.410154,4224.615281,4217.948615,4208.205025,4167.692206,4184.615282,4221.025538
59,0,4248.717845,4235.384512,4208.205025,4204.102461,4226.153743,4230.769127,4226.153743,4205.640923,4228.205025,4220.512717,4214.871692,4174.358872,4201.025538,4248.205024
60,0,4245.128101,4232.820409,4208.717846,4222.563999,4224.615281,4227.179384,4218.974256,4201.025538,4227.692204,4218.974256,4208.205025,4170.769129,4201.025538,4237.435794
61,0,4227.692204,4226.666563,4206.666564,4233.33323,4221.538358,4220.512717,4215.384512,4198.461436,4227.692204,4217.435794,4197.948615,4158.974257,4189.743487,4218.974256
62,0,4214.358871,4223.07682,4205.640923,4230.256307,4218.974256,4225.640922,4223.07682,4204.102461,4227.179384,4215.897333,4205.640923,4162.05118,4188.205026,4226.153743
63,0,4211.794769,4223.58964,4210.256307,4233.84605,4221.538358,4229.230666,4226.666563,4208.205025,4229.743486,4215.384512,4221.538358,4173.333231,4195.384513,4238.974255
64,0,4221.025538,4221.538358,4210.769128,4235.897332,4224.615281,4224.615281,4222.563999,4207.179384,4228.717845,4215.384512,4216.410153,4168.205026,4188.717846,4228.205025
65,0,4228.205025,4222.051179,4211.281948,4231.794768,4226.666563,4222.563999,4221.538358,4209.743487,4228.717845,4216.922974,4209.743487,4169.230667,4185.640923,4214.358871
66,0,4221.025538,4222.563999,4216.410153,4232.307589,4225.128102,4225.128102,4222.563999,4209.743487,4233.33323,4215.384512,4210.256307,4184.102462,4194.871692,4218.974256
67,0,4213.33323,4215.384512,4212.82041,4230.256307,4218.461435,4229.743486,4224.615281,4202.051179,4234.358871,4209.743487,4195.897333,4177.948616,4175.897334,4221.025538
68,0,4219.999897,4210.769128,4207.692205,4225.128102,4216.410153,4228.205025,4223.07682,4200.512718,4229.230666,4211.281948,4189.743487,4159.999898,4154.358873,4209.230666
69,0,4232.307589,4220.512717,4212.82041,4230.769127,4223.58964,4223.07682,4219.999897,4209.230666,4233.84605,4223.58964,4221.538358,4167.179385,4191.794769,4226.666563
70,0,4236.410153,4217.948615,4216.410153,4236.922973,4220.512717,4222.051179,4221.025538,4210.769128,4239.999896,4229.230666,4243.58964,4176.410154,4236.410153,4257.948614
71,0,4221.025538,4200.512718,4212.82041,4222.563999,4207.692205,4222.563999,4217.948615,4202.564,4233.84605,4222.051179,4227.179384,4173.333231,4224.615281,4245.128101
72,0,4203.07682,4195.897333,4216.410153,4213.33323,4209.230666,4219.999897,4207.179384,4196.922974,4229.230666,4213.846051,4210.769128,4173.333231,4205.128102,4223.07682
73,0,4218.974256,4209.230666,4224.102461,4227.179384,4223.58964,4218.974256,4209.743487,4202.564,4237.435794,4225.128102,4225.640922,4183.589641,4223.07682,4237.435794
74,0,4238.974255,4215.384512,4231.281948,4236.410153,4230.256307,4222.563999,4224.615281,4211.794769,4244.10246,4236.410153,4242.563999,4197.435795,4235.384512,4250.256306
75,0,4230.256307,4221.538358,4233.84605,4229.743486,4229.230666,4226.666563,4226.666563,4214.871692,4242.051178,4234.358871,4239.487076,4202.564,4231.794768,4253.333229
76,0,4229.743486,4226.666563,4233.33323,4230.256307,4226.666563,4226.153743,4218.974256,4209.230666,4234.871691,4229.230666,4230.769127,4190.256308,4234.871691,4261.538357
77,0,4254.35887,4220.512717,4227.179384,4238.974255,4228.205025,4226.153743,4223.07682,4208.717846,4235.897332,4232.307589,4235.384512,4181.538359,4237.948614,4268.205024
78,0,4252.307588,4212.82041,4222.051179,4236.410153,4227.692204,4226.666563,4227.692204,4215.897333,4241.538358,4236.410153,4243.076819,4188.205026,4225.640922,4256.410152
79,0,4219.999897,4213.846051,4225.640922,4235.897332,4223.58964,4226.666563,4225.128102,4219.487076,4239.999896,4231.794768,4238.461435,4191.281949,4214.358871,4234.871691
80,0,4224.102461,4219.999897,4231.281948,4251.281947,4227.692204,4229.743486,4225.640922,4222.051179,4241.025537,4229.230666,4232.307589,4193.333231,4228.205025,4235.384512
81,0,4237.948614,4225.128102,4231.281948,4254.871691,4234.871691,4236.922973,4231.281948,4228.717845,4250.769127,4235.384512,4239.487076,4195.384513,4246.666563,4265.128101
82,0,4233.33323,4222.563999,4233.33323,4238.974255,4231.281948,4238.974255,4232.307589,4231.794768,4253.333229,4240.512717,4241.025537,4194.871692,4238.461435,4267.179383
83,0,4241.538358,4213.846051,4231.794768,4226.666563,4223.58964,4230.769127,4227.692204,4224.615281,4241.025537,4236.410153,4221.538358,4192.82041,4214.358871,4233.84605
84,0,4251.794768,4215.384512,4227.692204,4230.256307,4225.640922,4227.179384,4230.256307,4226.153743,4237.435794,4227.179384,4219.487076,4190.256308,4212.307589,4234.871691
85,0,4231.794768,4220.512717,4228.205025,4229.230666,4229.230666,4233.84605,4237.948614,4230.769127,4239.999896,4223.58964,4237.435794,4189.230667,4229.743486,4250.769127
86,0,4216.410153,4216.922974,4230.769127,4227.179384,4230.769127,4236.922973,4238.461435,4229.230666,4238.461435,4226.153743,4239.487076,4193.846051,4232.820409,4239.999896
87,0,4234.871691,4221.538358,4232.820409,4243.58964,4231.794768,4235.897332,4234.871691,4227.692204,4238.461435,4223.58964,4228.205025,4195.384513,4221.538358,4242.563999
88,0,4248.717845,4229.743486,4233.84605,4251.794768,4233.33323,4236.922973,4238.461435,4229.230666,4241.538358,4219.999897,4225.128102,4191.794769,4228.205025,4264.10246
89,0,4235.897332,4220.512717,4230.769127,4231.794768,4232.820409,4235.897332,4237.435794,4225.640922,4238.461435,4225.640922,4224.102461,4191.281949,4235.897332,4253.84605
90,0,4228.717845,4223.07682,4230.769127,4226.153743,4236.410153,4235.897332,4229.743486,4224.102461,4238.461435,4241.538358,4236.922973,4193.846051,4229.230666,4237.435794
91,0,4250.256306,4244.615281,4238.974255,4248.205024,4243.58964,4240.512717,4230.769127,4229.230666,4245.128101,4245.128101,4253.333229,4191.281949,4231.281948,4255.897332
92,0,4263.589639,4243.076819,4233.84605,4246.666563,4243.58964,4234.871691,4231.794768,4229.230666,4240.512717,4235.384512,4247.692204,4183.076821,4245.128101,4270.769126
93,0,4246.666563,4226.666563,4227.179384,4233.84605,4235.897332,4226.153743,4225.128102,4222.051179,4232.820409,4231.281948,4235.897332,4182.05118,4251.281947,4255.384511
94,0,4236.922973,4231.794768,4237.948614,4249.230665,4235.897332,4235.384512,4226.153743,4222.563999,4233.84605,4239.487076,4235.384512,4190.769128,4247.179383,4246.153742
95,0,4244.10246,4241.025537,4245.640922,4262.563998,4239.487076,4240.512717,4231.281948,4225.640922,4236.410153,4242.563999,4233.84605,4196.922974,4235.897332,4250.256306
96,0,4241.025537,4237.948614,4235.384512,4243.076819,4236.410153,4228.205025,4225.128102,4221.025538,4234.358871,4234.358871,4233.84605,4194.871692,4228.205025,4252.307588
97,0,4238.974255,4232.820409,4231.794768,4226.666563,4229.743486,4221.025538,4218.461435,4213.846051,4232.307589,4224.102461,4235.897332,4186.666564,4229.230666,4249.743486
98,0,4252.820409,4233.33323,4235.897332,4238.974255,4229.743486,4229.743486,4224.615281,4218.461435,4231.281948,4217.948615,4235.897332,4181.025539,4228.717845,4242.051178
99,0,4258.974255,4238.461435,4235.897332,4249.743486,4234.871691,4235.384512,4231.281948,4228.717845,4234.871691,4223.58964,4235.897332,4185.128103,4232.820409,4244.10246
100,0,4247.179383,4240.512717,4234.871691,4246.153742,4237.435794,4234.358871,4230.256307,4232.307589,4239.487076,4236.410153,4238.461435,4193.333231,4246.666563,4260.512716
