title:V                                                                               , recorded:06.07.20 13.59.23, sampling:128, subject:B                                                                               , labels:COUNTER INTERPOLATED AF3 F7 F3 FC5 T7 P7 O1 O2 P8 T8 FC6 F4 F8 AF4,, units:emotiv,,,,,,,,,
1,0,4248.205024,4206.153743,4202.051179,4227.692204,4210.769128,4210.256307,4227.692204,4226.153743,4227.692204,4197.435795,4211.281948,4182.564,4222.051179,4255.897332
2,0,4247.692204,4198.974256,4201.538359,4227.179384,4205.128102,4208.205025,4222.563999,4223.07682,4227.179384,4207.179384,4216.410153,4181.538359,4219.999897,4243.58964
3,0,4251.281947,4206.153743,4213.33323,4237.435794,4214.871692,4210.769128,4223.07682,4233.84605,4236.410153,4222.051179,4235.897332,4192.82041,4231.281948,4254.35887
4,0,4253.84605,4215.384512,4216.410153,4239.487076,4222.563999,4215.897333,4224.615281,4242.051178,4241.025537,4228.205025,4239.487076,4198.974256,4235.897332,4262.563998
5,0,4264.10246,4214.358871,4214.871692,4233.84605,4213.33323,4209.743487,4223.58964,4232.307589,4231.281948,4226.153743,4232.307589,4195.384513,4228.717845,4256.922973
6,0,4268.205024,4212.82041,4214.871692,4231.794768,4213.846051,4208.205025,4224.615281,4229.743486,4227.179384,4224.102461,4236.922973,4192.30759,4225.640922,4240.512717
7,0,4267.692203,4215.897333,4212.307589,4235.384512,4223.07682,4218.461435,4227.179384,4237.948614,4236.922973,4225.128102,4239.487076,4191.281949,4227.692204,4243.076819
8,0,4261.025537,4218.974256,4214.358871,4237.435794,4223.58964,4223.58964,4232.307589,4239.487076,4240.512717,4224.615281,4233.33323,4192.30759,4234.358871,4271.794767
9,0,4253.84605,4218.461435,4219.487076,4228.717845,4222.563999,4218.974256,4235.384512,4235.384512,4235.897332,4228.717845,4237.948614,4196.410154,4243.58964,4273.333229
10,0,4262.051178,4215.384512,4214.358871,4221.025538,4221.538358,4213.33323,4228.205025,4232.820409,4232.820409,4236.410153,4238.461435,4196.922974,4230.256307,4246.153742
11,0,4253.333229,4203.07682,4203.07682,4217.435794,4207.692205,4208.205025,4223.07682,4229.743486,4229.743486,4218.461435,4213.846051,4180.512718,4197.948615,4228.717845
12,0,4230.769127,4191.794769,4197.948615,4207.179384,4199.487077,4206.666564,4225.128102,4225.640922,4226.666563,4193.333231,4208.717846,4167.692206,4201.538359,4223.58964
13,0,4239.999896,4192.30759,4198.974256,4196.410154,4206.666564,4210.256307,4223.07682,4223.58964,4226.153743,4198.461436,4226.666563,4171.281949,4228.205025,4223.07682
14,0,4243.58964,4196.922974,4203.07682,4201.538359,4208.717846,4208.717846,4216.922974,4221.538358,4223.07682,4209.743487,4225.128102,4172.820411,4230.256307,4228.205025
15,0,4221.025538,4193.846051,4202.051179,4206.153743,4206.666564,4208.717846,4217.435794,4221.538358,4223.07682,4206.153743,4214.358871,4168.717847,4217.948615,4229.743486
16,0,4223.07682,4187.692205,4196.410154,4192.82041,4209.230666,4214.871692,4225.128102,4225.128102,4226.666563,4208.205025,4211.281948,4167.179385,4214.871692,4221.538358
17,0,4239.999896,4186.666564,4198.974256,4182.05118,4209.230666,4214.358871,4224.102461,4223.58964,4226.666563,4212.307589,4208.717846,4170.769129,4209.230666,4203.07682
18,0,4236.922973,4189.743487,4204.615282,4192.30759,4205.640923,4209.230666,4217.948615,4219.999897,4224.102461,4214.871692,4216.922974,4172.30759,4210.769128,4199.999897
19,0,4228.205025,4191.281949,4200.512718,4203.589641,4205.640923,4210.769128,4215.384512,4219.487076,4226.153743,4211.794769,4227.179384,4170.769129,4223.07682,4228.205025
20,0,4217.948615,4184.615282,4192.82041,4193.846051,4206.666564,4212.307589,4216.922974,4216.410153,4221.538358,4193.333231,4219.487076,4167.179385,4215.384512,4238.461435
21,0,4214.871692,4179.999898,4193.846051,4185.128103,4204.102461,4202.051179,4216.922974,4213.846051,4219.487076,4192.30759,4210.256307,4162.564001,4205.640923,4219.487076
22,0,4221.538358,4179.999898,4195.897333,4184.615282,4198.461436,4193.846051,4215.384512,4214.871692,4223.07682,4210.256307,4200.512718,4158.461437,4205.640923,4207.179384
23,0,4212.307589,4170.256308,4188.717846,4167.179385,4190.256308,4197.435795,4213.846051,4210.769128,4221.538358,4209.743487,4189.230667,4153.333232,4197.435795,4195.897333
24,0,4204.615282,4164.615283,4187.179385,4145.128104,4185.640923,4197.435795,4210.256307,4205.128102,4216.410153,4196.922974,4197.435795,4153.333232,4191.281949,4190.256308
25,0,4214.358871,4173.846052,4195.384513,4148.717847,4191.281949,4195.384513,4211.281948,4212.307589,4217.948615,4193.333231,4217.948615,4161.53836,4195.897333,4210.256307
26,0,4218.974256,4184.102462,4198.974256,4172.820411,4198.461436,4203.589641,4219.487076,4222.563999,4225.640922,4189.230667,4215.384512,4167.179385,4196.410154,4215.384512
27,0,4221.025538,4189.230667,4198.974256,4196.922974,4206.153743,4216.410153,4232.307589,4229.743486,4229.230666,4194.871692,4207.692205,4168.717847,4208.205025,4204.102461
28,0,4235.384512,4195.384513,4209.743487,4202.051179,4209.230666,4212.82041,4232.307589,4232.307589,4229.230666,4213.33323,4223.58964,4174.358872,4228.717845,4216.922974
29,0,4244.10246,4206.153743,4216.922974,4188.205026,4208.205025,4202.564,4225.128102,4230.769127,4227.692204,4225.640922,4235.897332,4179.487077,4225.128102,4230.256307
30,0,4235.384512,4207.692205,4214.871692,4185.640923,4210.256307,4207.692205,4230.256307,4229.230666,4229.230666,4227.179384,4226.153743,4175.384513,4213.33323,4229.743486
31,0,4226.666563,4201.025538,4213.846051,4202.051179,4210.769128,4218.974256,4237.435794,4231.281948,4227.692204,4227.179384,4218.974256,4168.205026,4218.461435,4239.999896
32,0,4234.358871,4198.974256,4214.358871,4209.743487,4208.205025,4215.897333,4232.307589,4231.281948,4225.128102,4214.871692,4219.487076,4167.692206,4223.58964,4233.84605
33,0,4244.10246,4203.07682,4212.82041,4204.102461,4214.871692,4208.717846,4224.615281,4230.256307,4227.179384,4196.410154,4224.615281,4175.384513,4222.563999,4206.666564
34,0,4244.10246,4206.666564,4211.281948,4207.179384,4221.025538,4211.281948,4227.179384,4234.871691,4232.307589,4207.692205,4235.897332,4183.589641,4223.07682,4213.846051
35,0,4236.410153,4210.256307,4213.33323,4214.871692,4213.846051,4214.358871,4231.794768,4239.487076,4232.820409,4236.922973,4242.051178,4184.102462,4222.051179,4246.153742
36,0,4231.794768,4212.82041,4216.922974,4215.897333,4211.281948,4212.307589,4230.769127,4239.999896,4231.794768,4238.974255,4235.897332,4183.589641,4225.128102,4250.256306
37,0,4246.153742,4207.692205,4218.461435,4215.384512,4219.487076,4213.33323,4227.692204,4239.999896,4231.794768,4225.640922,4227.179384,4184.615282,4233.33323,4238.461435
38,0,4259.999896,4203.589641,4215.897333,4219.487076,4218.461435,4219.487076,4231.281948,4242.051178,4231.794768,4227.179384,4223.07682,4184.615282,4230.256307,4230.769127
39,0,4252.820409,4208.205025,4216.922974,4221.538358,4212.307589,4221.538358,4232.820409,4239.487076,4227.692204,4222.051179,4228.205025,4184.102462,4219.487076,4233.84605
40,0,4247.179383,4211.281948,4221.025538,4213.846051,4211.281948,4214.871692,4224.102461,4233.33323,4223.58964,4194.871692,4235.384512,4181.538359,4218.461435,4237.435794
41,0,4247.692204,4210.256307,4223.07682,4207.692205,4211.794769,4212.307589,4224.615281,4232.307589,4222.563999,4191.794769,4232.820409,4178.461436,4226.666563,4217.948615
42,0,4247.692204,4213.846051,4225.640922,4211.281948,4217.435794,4218.461435,4235.384512,4235.897332,4227.179384,4226.666563,4235.897332,4181.538359,4235.384512,4219.487076
43,0,4259.487075,4223.07682,4228.717845,4224.615281,4224.102461,4222.051179,4234.358871,4237.435794,4233.33323,4245.640922,4243.076819,4191.281949,4236.410153,4252.820409
44,0,4264.10246,4227.179384,4226.666563,4229.230666,4225.640922,4222.563999,4230.769127,4238.974255,4232.307589,4236.410153,4241.025537,4194.358872,4235.897332,4259.999896
45,0,4255.384511,4219.487076,4223.58964,4221.025538,4222.563999,4221.025538,4237.948614,4241.538358,4226.666563,4229.743486,4234.871691,4185.640923,4236.410153,4228.717845
46,0,4256.410152,4217.948615,4222.051179,4217.435794,4221.025538,4220.512717,4240.512717,4244.615281,4225.128102,4230.769127,4237.435794,4179.487077,4240.512717,4223.07682
47,0,4254.35887,4223.58964,4224.615281,4218.461435,4222.563999,4222.051179,4232.820409,4244.615281,4228.717845,4226.153743,4242.563999,4184.102462,4242.563999,4243.58964
48,0,4246.153742,4221.538358,4225.640922,4219.487076,4222.563999,4216.410153,4231.281948,4241.538358,4224.615281,4214.871692,4237.435794,4186.153744,4232.307589,4236.922973
49,0,4253.333229,4215.897333,4224.615281,4225.640922,4220.512717,4204.102461,4231.281948,4240.512717,4225.128102,4211.794769,4230.256307,4183.076821,4221.025538,4227.692204
50,0,4263.589639,4224.102461,4224.615281,4235.384512,4225.128102,4209.230666,4231.794768,4244.10246,4232.820409,4231.794768,4233.84605,4183.076821,4232.820409,4233.84605
51,0,4260.512716,4231.281948,4229.230666,4237.435794,4230.256307,4225.640922,4236.922973,4245.128101,4234.871691,4247.692204,4238.461435,4185.128103,4247.179383,4233.33323
52,0,4259.999896,4227.692204,4230.769127,4235.384512,4229.743486,4222.563999,4235.384512,4243.58964,4230.256307,4235.384512,4242.051178,4191.281949,4239.999896,4231.794768
53,0,4248.717845,4223.58964,4228.205025,4228.205025,4227.179384,4212.307589,4229.230666,4247.179383,4229.743486,4229.743486,4249.230665,4197.435795,4233.84605,4245.640922
54,0,4227.692204,4221.538358,4226.153743,4215.897333,4223.58964,4210.769128,4227.692204,4245.128101,4227.692204,4233.84605,4248.717845,4189.743487,4234.358871,4245.640922
55,0,4231.281948,4221.025538,4219.999897,4211.794769,4223.07682,4211.281948,4227.179384,4234.871691,4223.58964,4219.999897,4235.384512,4178.461436,4223.07682,4211.281948
56,0,4248.205024,4219.999897,4216.922974,4218.974256,4226.153743,4214.871692,4224.615281,4233.84605,4225.640922,4204.615282,4228.717845,4178.974257,4217.948615,4199.487077
57,0,4241.538358,4215.384512,4221.025538,4222.051179,4225.640922,4214.871692,4226.666563,4237.948614,4229.230666,4215.897333,4229.230666,4183.076821,4223.58964,4217.948615
58,0,4225.128102,4212.307589,4225.128102,4220.512717,4219.487076,4210.256307,4227.692204,4233.33323,4227.179384,4230.769127,4229.230666,4185.128103,4225.128102,4223.58964
59,0,4232.307589,4222.563999,4225.640922,4225.640922,4224.615281,4212.82041,4224.102461,4233.33323,4229.230666,4230.256307,4239.999896,4186.666564,4227.692204,4224.102461
60,0,4244.10246,4229.230666,4224.102461,4231.794768,4231.281948,4218.974256,4226.153743,4238.461435,4229.743486,4225.128102,4245.640922,4183.076821,4227.692204,4228.717845
61,0,4245.128101,4222.563999,4223.07682,4230.256307,4228.717845,4217.948615,4232.307589,4238.461435,4225.640922,4223.58964,4233.84605,4185.640923,4221.538358,4225.128102
62,0,4243.58964,4219.487076,4225.640922,4233.84605,4226.666563,4218.974256,4234.871691,4236.410153,4225.128102,4224.102461,4228.205025,4190.769128,4221.025538,4218.461435
63,0,4231.794768,4225.640922,4224.615281,4239.487076,4229.230666,4219.999897,4232.307589,4235.897332,4223.07682,4231.281948,4241.538358,4183.589641,4228.205025,4230.256307
64,0,4229.230666,4227.692204,4223.07682,4235.384512,4226.666563,4215.384512,4228.717845,4230.769127,4217.948615,4237.435794,4246.666563,4178.461436,4229.230666,4228.717845
65,0,4237.948614,4225.128102,4226.666563,4232.820409,4225.128102,4214.358871,4230.256307,4229.230666,4219.487076,4230.769127,4241.025537,4187.179385,4226.153743,4208.205025
66,0,4235.897332,4223.58964,4230.256307,4236.922973,4229.743486,4217.435794,4235.384512,4232.820409,4223.58964,4210.769128,4233.33323,4186.666564,4225.640922,4213.33323
67,0,4228.717845,4222.563999,4223.07682,4232.820409,4228.205025,4217.435794,4237.948614,4233.84605,4220.512717,4199.999897,4224.102461,4176.922975,4224.102461,4240.512717
68,0,4230.769127,4221.025538,4213.846051,4230.769127,4223.58964,4212.82041,4232.307589,4231.794768,4221.538358,4211.281948,4227.179384,4178.974257,4222.051179,4238.974255
69,0,4232.820409,4224.615281,4213.846051,4241.025537,4223.07682,4215.384512,4232.307589,4233.84605,4225.128102,4234.871691,4240.512717,4184.615282,4228.205025,4212.82041
70,0,4228.205025,4225.128102,4222.051179,4250.256306,4222.563999,4218.974256,4235.897332,4238.461435,4225.640922,4244.615281,4244.10246,4183.589641,4234.871691,4210.256307
71,0,4229.743486,4221.538358,4228.205025,4245.640922,4222.563999,4210.769128,4228.717845,4237.435794,4225.640922,4235.897332,4241.538358,4183.076821,4235.897332,4226.666563
72,0,4236.922973,4222.051179,4227.179384,4234.871691,4225.640922,4205.640923,4226.153743,4236.922973,4227.692204,4223.07682,4243.076819,4186.153744,4237.435794,4243.58964
73,0,4235.384512,4225.640922,4226.153743,4232.307589,4228.205025,4211.794769,4236.410153,4243.58964,4229.230666,4218.974256,4243.076819,4185.128103,4243.076819,4254.35887
74,0,4229.743486,4225.640922,4224.102461,4229.230666,4225.128102,4209.743487,4235.897332,4244.10246,4228.205025,4222.051179,4236.410153,4181.025539,4235.384512,4221.538358
75,0,4232.820409,4222.563999,4222.563999,4221.025538,4219.999897,4205.640923,4225.640922,4235.384512,4225.640922,4225.640922,4235.897332,4183.076821,4223.07682,4190.769128
76,0,4234.358871,4222.563999,4225.128102,4221.025538,4222.051179,4215.897333,4232.820409,4238.461435,4227.692204,4233.84605,4247.692204,4191.794769,4231.794768,4226.666563
77,0,4230.769127,4225.128102,4227.692204,4227.692204,4224.102461,4222.563999,4242.051178,4244.615281,4231.281948,4242.051178,4255.384511,4189.230667,4245.640922,4257.948614
78,0,4241.538358,4232.307589,4228.717845,4228.717845,4226.153743,4217.948615,4235.384512,4238.974255,4229.743486,4242.051178,4252.820409,4182.05118,4244.10246,4229.743486
79,0,4249.743486,4234.358871,4232.820409,4227.179384,4232.307589,4215.384512,4233.84605,4236.410153,4227.179384,4237.948614,4248.717845,4190.256308,4239.999896,4217.435794
80,0,4236.922973,4229.230666,4229.230666,4222.051179,4231.794768,4215.897333,4237.435794,4235.897332,4226.666563,4227.692204,4247.179383,4195.897333,4246.153742,4239.487076
81,0,4228.717845,4228.717845,4220.512717,4212.82041,4223.07682,4208.205025,4229.743486,4226.666563,4223.07682,4218.974256,4241.025537,4184.102462,4239.487076,4230.769127
82,0,4239.487076,4235.897332,4223.58964,4220.512717,4224.102461,4205.640923,4227.179384,4225.640922,4222.051179,4217.948615,4236.922973,4180.512718,4222.051179,4219.999897
83,0,4249.743486,4240.512717,4233.84605,4234.871691,4229.743486,4212.82041,4236.410153,4236.922973,4225.640922,4221.538358,4241.025537,4195.384513,4220.512717,4230.256307
84,0,4243.58964,4240.512717,4231.281948,4226.153743,4225.640922,4211.281948,4233.33323,4239.999896,4227.179384,4229.230666,4243.58964,4197.435795,4231.794768,4233.33323
85,0,4226.153743,4234.358871,4224.615281,4216.410153,4221.538358,4204.102461,4223.07682,4233.33323,4224.102461,4234.358871,4235.384512,4184.102462,4223.07682,4224.615281
86,0,4220.512717,4231.794768,4224.102461,4218.461435,4225.640922,4208.205025,4226.153743,4229.743486,4221.025538,4226.666563,4225.640922,4176.922975,4202.051179,4203.589641
87,0,4235.897332,4233.84605,4221.538358,4209.743487,4226.153743,4212.82041,4231.281948,4228.717845,4222.051179,4212.307589,4226.153743,4177.435795,4203.589641,4187.179385
88,0,4236.922973,4232.820409,4215.384512,4201.538359,4221.538358,4209.230666,4229.230666,4232.820409,4224.102461,4208.717846,4230.769127,4172.30759,4213.33323,4205.640923
89,0,4222.563999,4232.820409,4219.487076,4211.281948,4222.051179,4210.769128,4229.230666,4234.871691,4223.58964,4207.692205,4227.692204,4167.692206,4204.615282,4230.769127
90,0,4227.179384,4239.487076,4231.281948,4218.974256,4224.615281,4214.358871,4231.281948,4229.743486,4219.487076,4211.281948,4221.025538,4177.435795,4202.564,4225.128102
91,0,4243.076819,4242.563999,4234.871691,4215.384512,4222.051179,4212.307589,4231.281948,4229.743486,4222.051179,4221.025538,4224.102461,4188.205026,4222.051179,4221.025538
92,0,4232.820409,4239.999896,4227.692204,4214.358871,4222.563999,4211.281948,4231.794768,4237.948614,4224.615281,4218.974256,4234.871691,4185.128103,4231.794768,4217.948615
93,0,4218.461435,4240.512717,4225.128102,4222.051179,4228.717845,4210.769128,4231.281948,4238.461435,4221.538358,4216.922974,4238.461435,4180.512718,4219.487076,4202.564
94,0,4228.717845,4236.922973,4229.230666,4228.205025,4229.743486,4212.82041,4230.256307,4230.769127,4219.999897,4225.640922,4234.871691,4186.153744,4210.256307,4204.615282
95,0,4235.384512,4226.666563,4225.128102,4223.07682,4223.58964,4219.487076,4232.307589,4230.769127,4223.58964,4225.128102,4231.794768,4183.589641,4211.281948,4210.769128
96,0,4226.666563,4226.666563,4222.563999,4215.384512,4226.153743,4222.563999,4237.435794,4237.435794,4225.128102,4216.922974,4227.179384,4175.897334,4211.794769,4213.846051
97,0,4229.230666,4242.051178,4229.743486,4218.974256,4236.410153,4220.512717,4242.051178,4242.051178,4227.179384,4230.769127,4226.666563,4182.05118,4215.897333,4226.666563
98,0,4237.435794,4247.692204,4230.256307,4222.051179,4230.769127,4221.538358,4241.025537,4244.10246,4229.230666,4241.538358,4234.871691,4190.769128,4222.051179,4218.974256
99,0,4223.58964,4237.435794,4222.051179,4213.33323,4220.512717,4221.025538,4235.897332,4242.051178,4220.512717,4218.974256,4237.435794,4185.640923,4224.102461,4205.128102
100,0,4215.897333,4229.743486,4223.58964,4204.615282,4223.07682,4211.794769,4230.769127,4233.33323,4212.307589,4201.025538,4229.230666,4179.999898,4219.487076,4221.025538
101,0,4227.692204,4233.33323,4224.615281,4202.051179,4226.666563,4213.33323,4234.871691,4230.769127,4218.461435,4216.922974,4228.717845,4182.05118,4215.384512,4228.205025
102,0,4236.922973,4234.871691,4224.615281,4205.128102,4225.640922,4222.051179,4240.512717,4236.410153,4225.128102,4229.743486,4233.33323,4186.666564,4219.487076,4220.512717
103,0,4238.974255,4238.974255,4233.33323,4208.717846,4231.794768,4222.563999,4239.487076,4239.487076,4224.615281,4227.179384,4234.358871,4196.410154,4228.717845,4230.769127
104,0,4236.410153,4245.128101,4241.025537,4202.564,4233.33323,4222.051179,4239.999896,4238.974255,4224.615281,4229.230666,4234.358871,4198.461436,4228.717845,4231.281948
105,0,4237.948614,4246.666563,4238.974255,4199.487077,4224.615281,4225.128102,4241.538358,4238.461435,4224.102461,4231.794768,4238.461435,4187.692205,4224.102461,4229.230666
106,0,4246.153742,4245.640922,4241.538358,4209.230666,4225.128102,4221.538358,4238.974255,4241.538358,4225.640922,4232.820409,4243.58964,4189.743487,4232.307589,4239.487076
107,0,4251.281947,4245.128101,4243.58964,4218.974256,4232.820409,4218.461435,4238.461435,4246.153742,4229.230666,4241.538358,4243.58964,4202.564,4243.58964,4238.461435
108,0,4247.179383,4241.538358,4239.999896,4216.410153,4231.281948,4217.435794,4237.948614,4241.538358,4226.666563,4235.897332,4244.10246,4199.999897,4235.897332,4228.205025
109,0,4245.128101,4244.615281,4243.58964,4215.897333,4229.743486,4214.358871,4232.307589,4233.33323,4222.051179,4221.538358,4248.205024,4197.948615,4229.230666,4239.999896
110,0,4251.794768,4249.743486,4245.640922,4222.563999,4235.897332,4219.999897,4235.897332,4235.897332,4226.666563,4236.410153,4250.769127,4211.281948,4244.10246,4252.820409
111,0,4252.820409,4245.640922,4237.435794,4219.999897,4237.435794,4226.666563,4243.076819,4241.538358,4228.205025,4246.666563,4245.640922,4204.102461,4246.666563,4234.358871
112,0,4238.974255,4238.461435,4231.281948,4206.666564,4230.769127,4222.051179,4242.563999,4237.435794,4223.07682,4232.307589,4235.384512,4177.948616,4226.666563,4219.999897
113,0,4228.205025,4236.410153,4234.871691,4184.102462,4226.153743,4214.358871,4235.897332,4229.743486,4221.025538,4230.769127,4224.102461,4174.871693,4216.922974,4225.640922
114,0,4234.871691,4231.794768,4232.307589,4159.999898,4221.538358,4206.666564,4226.666563,4224.615281,4217.948615,4228.205025,4223.07682,4185.640923,4218.974256,4231.794768
115,0,4228.205025,4219.487076,4226.666563,4148.717847,4212.307589,4196.922974,4220.512717,4219.487076,4208.717846,4208.205025,4223.58964,4184.615282,4211.794769,4215.897333
116,0,4211.794769,4219.999897,4229.230666,4154.358873,4213.846051,4198.461436,4222.563999,4220.512717,4207.692205,4214.358871,4221.538358,4181.025539,4215.897333,4207.692205
117,0,4219.999897,4233.33323,4234.871691,4161.53836,4222.051179,4206.153743,4227.692204,4221.538358,4218.461435,4231.794768,4228.717845,4186.153744,4227.179384,4216.922974
118,0,4238.974255,4236.922973,4230.256307,4168.205026,4224.102461,4207.179384,4230.256307,4221.538358,4222.563999,4216.922974,4240.512717,4185.128103,4223.58964,4225.640922
119,0,4242.051178,4228.717845,4227.692204,4183.076821,4223.58964,4207.692205,4232.820409,4227.692204,4218.461435,4207.179384,4233.84605,4178.974257,4214.871692,4231.794768
120,0,4215.897333,4221.025538,4223.58964,4155.897334,4221.025538,4204.615282,4228.717845,4225.640922,4211.794769,4216.922974,4207.692205,4168.717847,4206.153743,4206.666564
121,0,4180.512718,4206.153743,4206.666564,4075.384516,4203.07682,4189.230667,4216.922974,4206.153743,4199.999897,4206.153743,4193.333231,4157.435796,4192.30759,4170.769129
122,0,4169.230667,4183.076821,4192.30759,4023.589645,4186.153744,4178.461436,4213.846051,4192.82041,4190.256308,4182.05118,4193.333231,4146.153745,4181.025539,4172.30759
123,0,4179.487077,4175.384513,4195.384513,4026.666568,4186.153744,4182.05118,4218.461435,4195.897333,4188.717846,4175.897334,4185.128103,4142.051181,4166.153744,4177.435795
124,0,4178.974257,4179.999898,4202.051179,4027.692209,4186.666564,4180.512718,4214.871692,4194.871692,4188.717846,4174.358872,4173.846052,4143.589642,4149.743488,4151.28195
125,0,4172.820411,4180.512718,4198.974256,4020.512722,4188.205026,4178.461436,4210.256307,4193.333231,4188.717846,4169.230667,4182.05118,4143.076822,4158.461437,4147.179386
126,0,4177.435795,4175.897334,4194.871692,4023.076825,4189.743487,4185.640923,4216.410153,4193.846051,4190.256308,4172.820411,4188.205026,4144.615283,4174.358872,4173.846052
127,0,4185.640923,4178.461436,4201.538359,4025.128107,4188.717846,4190.769128,4221.025538,4192.30759,4191.794769,4188.205026,4179.999898,4151.28195,4169.230667,4174.358872
128,0,4187.179385,4188.205026,4210.769128,4034.358876,4190.769128,4189.743487,4218.974256,4198.974256,4198.461436,4200.512718,4188.205026,4156.922975,4166.153744,4160.512719
0,0,4184.615282,4192.82041,4211.281948,4046.153747,4195.384513,4188.717846,4221.538358,4206.153743,4199.487077,4201.025538,4204.615282,4156.922975,4179.999898,4172.820411
1,0,4183.076821,4192.82041,4207.692205,4049.743491,4192.30759,4188.205026,4222.563999,4200.512718,4192.30759,4192.82041,4197.435795,4154.871693,4186.153744,4183.076821
2,0,4187.179385,4192.30759,4206.153743,4057.948619,4193.333231,4189.230667,4221.538358,4197.435795,4190.769128,4183.076821,4188.205026,4151.79477,4181.025539,4182.564
3,0,4187.179385,4185.128103,4205.640923,4063.589644,4198.461436,4189.230667,4222.563999,4202.051179,4192.82041,4175.384513,4189.743487,4152.820411,4174.358872,4184.102462
4,0,4193.333231,4186.666564,4206.153743,4061.538362,4199.487077,4192.30759,4226.666563,4205.640923,4193.333231,4187.179385,4196.410154,4166.666565,4177.435795,4185.128103
5,0,4191.794769,4194.358872,4207.179384,4068.717849,4197.948615,4193.333231,4225.640922,4206.153743,4192.82041,4195.897333,4197.435795,4169.230667,4185.640923,4173.846052
6,0,4166.666565,4193.846051,4201.538359,4078.974259,4197.435795,4193.846051,4222.563999,4202.564,4193.333231,4182.05118,4191.281949,4150.769129,4182.564,4163.076821
7,0,4165.640924,4194.871692,4199.999897,4076.410157,4202.051179,4196.922974,4226.666563,4194.871692,4187.179385,4183.589641,4190.769128,4143.589642,4176.922975,4175.897334
8,0,4192.82041,4199.999897,4198.974256,4070.769131,4201.538359,4196.410154,4224.615281,4190.256308,4187.179385,4190.769128,4187.692205,4154.871693,4177.435795,4184.102462
9,0,4199.999897,4198.974256,4199.999897,4081.538362,4195.897333,4188.717846,4213.33323,4190.256308,4188.717846,4176.922975,4174.871693,4157.435796,4168.717847,4171.79477
10,0,4187.179385,4192.82041,4205.128102,4093.333233,4196.410154,4182.05118,4210.769128,4189.230667,4187.179385,4167.179385,4163.589642,4148.717847,4151.79477,4158.461437
11,0,4186.153744,4192.82041,4210.769128,4094.358874,4202.564,4186.666564,4220.512717,4192.30759,4187.692205,4177.948616,4176.922975,4152.820411,4164.102462,4166.153744
12,0,4182.05118,4192.82041,4212.307589,4097.435797,4200.512718,4191.794769,4230.256307,4199.487077,4195.384513,4189.743487,4201.538359,4159.999898,4190.256308,4187.692205
13,0,4189.230667,4199.999897,4213.33323,4108.717848,4202.564,4193.333231,4233.84605,4206.666564,4205.128102,4200.512718,4205.640923,4161.53836,4195.897333,4203.589641
14,0,4205.128102,4207.179384,4216.410153,4109.743489,4209.230666,4193.846051,4232.820409,4207.179384,4209.743487,4201.025538,4196.922974,4157.435796,4187.179385,4200.512718
15,0,4200.512718,4205.128102,4216.922974,4106.153746,4207.179384,4195.897333,4228.717845,4206.666564,4208.717846,4193.333231,4201.538359,4157.948616,4191.794769,4200.512718
16,0,4190.256308,4204.615282,4215.384512,4109.230669,4203.07682,4194.871692,4227.179384,4208.717846,4202.051179,4183.589641,4202.564,4169.743488,4198.461436,4195.384513
17,0,4186.153744,4197.948615,4212.307589,4107.692207,4200.512718,4189.230667,4225.640922,4203.589641,4201.025538,4173.333231,4187.179385,4168.205026,4187.179385,4167.692206
18,0,4186.666564,4188.205026,4209.230666,4102.564002,4198.974256,4189.230667,4226.153743,4198.974256,4204.615282,4184.615282,4187.179385,4152.820411,4178.974257,4168.205026
19,0,4192.30759,4192.82041,4208.717846,4105.128105,4202.051179,4194.871692,4229.743486,4205.128102,4204.615282,4207.179384,4203.07682,4153.846052,4188.717846,4208.717846
20,0,4185.640923,4197.435795,4208.717846,4112.307592,4204.102461,4195.384513,4232.820409,4207.692205,4202.051179,4203.589641,4204.615282,4162.05118,4196.922974,4216.922974
21,0,4179.999898,4196.410154,4208.717846,4118.974258,4208.205025,4194.871692,4235.384512,4208.205025,4204.615282,4196.410154,4197.948615,4161.025539,4191.281949,4184.102462
22,0,4194.358872,4206.153743,4217.435794,4129.230668,4216.410153,4200.512718,4232.820409,4211.794769,4209.230666,4200.512718,4196.410154,4169.230667,4187.692205,4170.256308
23,0,4198.461436,4216.410153,4222.051179,4138.974258,4218.461435,4206.666564,4232.307589,4217.948615,4212.307589,4199.999897,4202.564,4179.999898,4199.999897,4191.794769
24,0,4192.82041,4211.794769,4216.922974,4138.974258,4212.82041,4205.640923,4241.025537,4226.666563,4218.974256,4208.205025,4214.871692,4171.79477,4209.743487,4216.410153
25,0,4198.974256,4212.82041,4217.435794,4137.948617,4214.871692,4203.07682,4244.615281,4231.794768,4222.051179,4220.512717,4219.999897,4168.205026,4204.102461,4210.256307
26,0,4198.461436,4214.871692,4225.128102,4145.128104,4218.461435,4198.974256,4235.897332,4226.153743,4219.999897,4216.410153,4215.897333,4175.384513,4200.512718,4187.692205
27,0,4193.846051,4212.82041,4225.640922,4148.717847,4217.948615,4196.410154,4235.897332,4225.128102,4221.025538,4209.230666,4216.922974,4180.512718,4209.743487,4198.974256
28,0,4200.512718,4216.922974,4225.640922,4147.692206,4218.974256,4199.487077,4244.10246,4231.281948,4225.640922,4202.564,4210.256307,4186.153744,4209.743487,4222.051179
29,0,4204.615282,4224.615281,4228.717845,4153.333232,4223.58964,4207.179384,4245.640922,4229.230666,4224.102461,4198.461436,4203.589641,4183.076821,4203.07682,4225.128102
30,0,4205.128102,4224.615281,4227.692204,4157.435796,4224.102461,4208.717846,4243.076819,4224.102461,4223.58964,4202.564,4214.358871,4174.358872,4204.615282,4215.897333
31,0,4211.281948,4226.666563,4223.07682,4152.307591,4223.07682,4205.128102,4241.025537,4224.615281,4226.153743,4211.281948,4223.07682,4179.999898,4211.281948,4215.897333
32,0,4207.692205,4232.307589,4225.640922,4154.358873,4226.153743,4205.640923,4240.512717,4225.640922,4227.179384,4217.435794,4222.051179,4188.205026,4214.358871,4224.102461
33,0,4201.025538,4228.717845,4229.743486,4162.564001,4229.743486,4211.794769,4242.563999,4225.128102,4227.692204,4224.615281,4222.563999,4185.640923,4210.256307,4219.999897
34,0,4206.666564,4219.999897,4229.230666,4158.461437,4228.717845,4211.281948,4242.563999,4224.102461,4224.615281,4223.58964,4212.82041,4184.615282,4204.615282,4204.102461
35,0,4206.666564,4223.07682,4227.692204,4151.79477,4227.179384,4207.692205,4238.461435,4220.512717,4221.538358,4216.410153,4207.692205,4187.179385,4211.281948,4207.179384
36,0,4206.666564,4231.281948,4229.230666,4162.05118,4227.179384,4206.666564,4237.948614,4224.102461,4229.230666,4216.922974,4229.743486,4187.692205,4223.07682,4230.256307
37,0,4212.307589,4224.615281,4232.820409,4167.692206,4225.640922,4207.692205,4241.025537,4231.281948,4234.871691,4224.102461,4237.948614,4187.179385,4218.974256,4232.820409
38,0,4215.897333,4218.974256,4234.358871,4158.974257,4225.640922,4208.717846,4243.076819,4231.281948,4229.743486,4230.769127,4223.58964,4188.205026,4213.33323,4223.07682
39,0,4208.205025,4226.153743,4233.33323,4159.999898,4222.563999,4205.640923,4239.487076,4225.128102,4225.640922,4209.743487,4215.384512,4188.717846,4216.922974,4221.025538
40,0,4201.538359,4231.794768,4229.743486,4168.205026,4222.563999,4205.640923,4236.922973,4222.563999,4229.230666,4189.230667,4214.871692,4190.256308,4219.487076,4215.897333
41,0,4211.794769,4230.769127,4234.358871,4170.769129,4230.769127,4214.871692,4242.563999,4223.07682,4233.33323,4213.33323,4221.538358,4191.281949,4219.487076,4210.769128
42,0,4228.205025,4232.820409,4237.948614,4172.820411,4236.410153,4216.410153,4246.153742,4225.128102,4232.307589,4246.153742,4238.461435,4190.769128,4223.58964,4231.794768
43,0,4214.358871,4227.692204,4230.256307,4165.128103,4227.692204,4204.102461,4235.384512,4223.58964,4228.205025,4236.922973,4235.384512,4187.692205,4219.487076,4237.948614
44,0,4189.230667,4218.461435,4222.051179,4153.333232,4223.58964,4202.564,4228.717845,4216.922974,4222.563999,4217.948615,4216.922974,4182.564,4210.256307,4212.82041
45,0,4194.358872,4219.487076,4225.640922,4157.435796,4226.153743,4209.743487,4233.84605,4209.743487,4219.487076,4215.384512,4208.205025,4180.512718,4211.794769,4210.256307
46,0,4209.230666,4231.794768,4230.256307,4170.256308,4225.128102,4210.256307,4237.948614,4210.256307,4218.461435,4218.974256,4213.846051,4181.538359,4218.461435,4229.230666
47,0,4211.281948,4236.922973,4229.743486,4177.948616,4226.153743,4209.230666,4239.487076,4215.897333,4224.102461,4224.615281,4225.640922,4181.538359,4215.897333,4216.410153
48,0,4210.256307,4230.256307,4227.179384,4177.435795,4230.769127,4209.743487,4241.538358,4217.435794,4223.58964,4214.871692,4230.256307,4178.461436,4212.307589,4195.384513
49,0,4206.153743,4231.281948,4229.743486,4179.487077,4233.33323,4210.256307,4241.025537,4217.435794,4222.563999,4200.512718,4222.051179,4185.128103,4214.871692,4217.948615
50,0,4215.897333,4242.563999,4239.487076,4188.205026,4235.897332,4214.358871,4240.512717,4225.128102,4232.820409,4226.666563,4221.538358,4199.487077,4228.717845,4248.205024
51,0,4229.230666,4241.538358,4238.974255,4190.256308,4236.410153,4213.846051,4239.999896,4232.307589,4240.512717,4254.35887,4228.717845,4196.922974,4235.384512,4242.563999
52,0,4214.358871,4228.717845,4223.58964,4181.538359,4230.769127,4210.769128,4239.999896,4228.205025,4233.84605,4232.820409,4233.84605,4180.512718,4221.538358,4219.999897
53,0,4199.999897,4233.33323,4226.153743,4187.179385,4230.256307,4210.256307,4240.512717,4223.07682,4228.205025,4208.205025,4234.358871,4181.538359,4211.281948,4208.717846
54,0,4215.384512,4250.769127,4244.615281,4207.692205,4234.871691,4211.281948,4237.435794,4221.025538,4232.307589,4226.666563,4232.307589,4195.897333,4219.999897,4216.410153
55,0,4230.769127,4254.35887,4249.230665,4217.435794,4236.922973,4214.871692,4240.512717,4224.102461,4238.461435,4248.717845,4232.820409,4202.051179,4230.769127,4244.615281
56,0,4228.717845,4245.128101,4244.615281,4216.410153,4235.384512,4212.82041,4242.563999,4226.153743,4237.948614,4230.769127,4227.692204,4199.999897,4231.281948,4259.487075
57,0,4223.58964,4243.58964,4245.640922,4216.410153,4239.999896,4211.794769,4243.58964,4222.563999,4235.384512,4214.871692,4231.281948,4201.025538,4235.897332,4237.435794
58,0,4225.128102,4254.871691,4250.769127,4225.128102,4247.179383,4222.051179,4251.794768,4222.563999,4238.461435,4234.871691,4251.281947,4208.205025,4241.025537,4225.640922
59,0,4237.435794,4263.589639,4251.794768,4233.33323,4252.820409,4228.717845,4257.435793,4228.717845,4244.615281,4255.897332,4259.999896,4210.256307,4241.025537,4253.84605
60,0,4236.410153,4254.35887,4245.640922,4229.743486,4251.794768,4221.538358,4250.256306,4225.128102,4242.051178,4245.640922,4242.563999,4201.025538,4233.84605,4269.230665
61,0,4226.153743,4252.820409,4238.974255,4228.205025,4247.179383,4218.974256,4242.051178,4221.538358,4236.922973,4235.384512,4227.179384,4193.846051,4229.230666,4243.58964
62,0,4229.230666,4260.512716,4244.10246,4240.512717,4245.640922,4224.615281,4243.58964,4230.769127,4241.538358,4247.692204,4228.205025,4201.025538,4228.717845,4221.538358
63,0,4234.871691,4257.948614,4249.230665,4248.717845,4253.84605,4230.256307,4251.281947,4237.435794,4247.692204,4252.820409,4241.538358,4208.205025,4231.794768,4237.948614
64,0,4232.307589,4255.384511,4247.692204,4239.487076,4256.922973,4230.769127,4251.794768,4229.230666,4243.58964,4232.307589,4252.820409,4204.102461,4235.384512,4255.384511
65,0,4231.281948,4263.076819,4249.230665,4230.256307,4250.256306,4222.051179,4238.974255,4222.563999,4235.897332,4219.487076,4246.666563,4199.487077,4233.84605,4243.076819
66,0,4227.179384,4263.589639,4252.820409,4230.769127,4247.692204,4217.948615,4236.922973,4223.58964,4237.948614,4232.820409,4239.999896,4203.07682,4234.358871,4238.974255
67,0,4221.538358,4258.461434,4251.794768,4229.230666,4251.794768,4227.179384,4252.307588,4228.205025,4243.58964,4250.256306,4252.307588,4210.769128,4243.58964,4259.999896
68,0,4233.33323,4257.948614,4252.820409,4228.717845,4250.256306,4229.743486,4254.35887,4227.692204,4243.58964,4252.820409,4257.435793,4215.897333,4249.230665,4261.025537
69,0,4248.717845,4258.974255,4256.922973,4233.33323,4249.230665,4227.179384,4248.205024,4224.102461,4239.999896,4248.717845,4248.717845,4215.897333,4244.615281,4250.256306
70,0,4247.692204,4260.512716,4260.512716,4237.435794,4254.871691,4231.281948,4252.820409,4230.769127,4244.10246,4248.205024,4248.205024,4212.82041,4244.615281,4255.897332
71,0,4230.256307,4262.051178,4257.948614,4238.974255,4255.897332,4232.820409,4256.922973,4235.897332,4250.256306,4254.871691,4257.435793,4212.307589,4249.743486,4253.84605
72,0,4221.025538,4261.538357,4254.871691,4245.128101,4249.230665,4228.205025,4251.281947,4229.230666,4251.281947,4269.743485,4262.051178,4218.974256,4253.333229,4251.281947
73,0,4244.10246,4270.769126,4259.999896,4260.512716,4251.794768,4228.205025,4250.769127,4231.281948,4252.820409,4263.076819,4259.487075,4216.410153,4257.435793,4272.820408
74,0,4265.128101,4279.487075,4262.051178,4265.640921,4260.512716,4234.358871,4257.948614,4242.563999,4255.897332,4235.897332,4258.461434,4206.666564,4258.461434,4276.922972
75,0,4246.153742,4269.230665,4256.410152,4253.333229,4254.871691,4237.435794,4258.974255,4239.999896,4252.820409,4235.384512,4254.871691,4209.743487,4253.84605,4248.205024
76,0,4230.769127,4263.076819,4254.35887,4248.717845,4251.281947,4240.512717,4259.487075,4237.435794,4249.743486,4265.128101,4251.794768,4215.384512,4252.820409,4239.487076
77,0,4239.487076,4266.153742,4257.435793,4247.692204,4256.410152,4240.512717,4258.461434,4240.512717,4250.769127,4270.769126,4251.794768,4205.128102,4247.692204,4251.281947
78,0,4237.435794,4265.128101,4252.307588,4236.410153,4254.871691,4230.256307,4250.769127,4236.410153,4250.256306,4255.897332,4252.820409,4198.974256,4241.025537,4258.974255
79,0,4226.153743,4256.410152,4249.230665,4235.384512,4246.666563,4221.538358,4245.128101,4230.256307,4246.666563,4249.743486,4246.666563,4202.564,4246.153742,4252.307588
80,0,4230.769127,4252.820409,4253.333229,4246.153742,4246.666563,4225.640922,4248.205024,4230.256307,4242.563999,4250.256306,4242.563999,4196.410154,4250.256306,4236.410153
81,0,4238.974255,4255.384511,4256.410152,4245.640922,4245.640922,4225.640922,4249.743486,4227.692204,4241.538358,4251.281947,4243.076819,4193.846051,4243.58964,4231.281948
82,0,4241.538358,4257.435793,4253.333229,4242.563999,4241.025537,4225.640922,4253.84605,4228.205025,4243.58964,4241.538358,4244.10246,4207.692205,4245.640922,4251.281947
83,0,4258.974255,4259.999896,4255.897332,4248.717845,4240.512717,4232.307589,4255.897332,4231.281948,4245.128101,4226.666563,4252.307588,4221.025538,4261.025537,4285.640921
84,0,4290.256305,4272.820408,4269.743485,4257.435793,4245.128101,4234.871691,4248.205024,4226.666563,4240.512717,4237.435794,4264.61528,4226.666563,4284.61528,4332.307586
85,0,4328.205022,4291.794767,4283.076818,4263.076819,4244.615281,4228.205025,4242.051178,4221.025538,4236.410153,4252.307588,4265.128101,4231.794768,4299.487074,4381.538354
86,0,4375.384508,4298.461433,4286.153741,4265.128101,4237.948614,4223.58964,4246.153742,4223.58964,4236.410153,4250.256306,4262.051178,4243.58964,4306.153741,4423.589635
87,0,4403.589636,4299.999895,4290.256305,4266.153742,4234.358871,4215.897333,4245.128101,4225.640922,4237.435794,4246.153742,4269.743485,4256.410152,4317.948612,4450.256301
88,0,4393.333226,4308.717843,4296.922972,4264.10246,4235.384512,4208.717846,4239.999896,4221.025538,4235.384512,4244.10246,4266.153742,4253.333229,4317.948612,4432.820404
89,0,4382.051175,4313.333228,4296.922972,4263.589639,4237.435794,4214.871692,4239.487076,4221.538358,4236.410153,4246.153742,4250.256306,4243.076819,4304.102459,4414.871687
90,0,4378.974252,4304.102459,4285.640921,4266.153742,4238.461435,4222.051179,4239.487076,4221.025538,4236.922973,4241.538358,4248.717845,4237.948614,4300.512715,4441.538353
91,0,4361.025534,4290.769126,4270.256306,4261.538357,4238.974255,4223.07682,4241.025537,4216.410153,4231.281948,4231.794768,4250.256306,4230.769127,4303.076818,4435.897327
92,0,4337.948612,4287.692203,4266.153742,4256.922973,4242.563999,4223.58964,4239.999896,4213.33323,4224.102461,4235.897332,4238.974255,4219.999897,4290.256305,4371.281944
93,0,4327.692202,4288.717844,4269.230665,4262.563998,4247.179383,4225.640922,4239.487076,4215.897333,4229.230666,4239.999896,4233.33323,4218.974256,4277.948613,4339.487073
94,0,4313.333228,4283.076818,4269.230665,4258.974255,4245.640922,4227.692204,4246.666563,4219.999897,4237.435794,4230.256307,4234.358871,4225.128102,4277.435793,4343.589637
95,0,4287.692203,4275.897331,4266.153742,4248.205024,4244.10246,4228.205025,4248.205024,4219.487076,4234.358871,4233.33323,4223.58964,4221.025538,4272.820408,4318.974253
96,0,4264.10246,4264.10246,4258.974255,4243.58964,4238.974255,4218.461435,4233.33323,4208.205025,4223.58964,4235.897332,4211.794769,4205.128102,4246.666563,4281.025536
97,0,4250.256306,4258.461434,4252.307588,4239.999896,4233.33323,4213.33323,4230.256307,4204.615282,4224.615281,4230.256307,4214.871692,4196.922974,4232.307589,4275.897331
98,0,4248.205024,4259.487075,4257.948614,4238.461435,4235.384512,4221.025538,4240.512717,4215.897333,4233.84605,4241.025537,4211.794769,4203.07682,4239.999896,4271.794767
99,0,4247.692204,4253.333229,4261.538357,4236.922973,4237.948614,4222.051179,4239.487076,4217.948615,4230.256307,4242.563999,4207.692205,4206.153743,4234.358871,4244.10246
100,0,4243.076819,4243.58964,4256.410152,4237.435794,4233.33323,4217.435794,4232.820409,4207.692205,4226.153743,4224.102461,4211.281948,4198.461436,4219.999897,4233.33323
101,0,4243.076819,4249.230665,4252.307588,4245.128101,4234.871691,4224.102461,4237.435794,4208.717846,4234.358871,4234.871691,4215.897333,4197.948615,4228.205025,4249.743486
102,0,4237.435794,4257.435793,4253.84605,4246.666563,4238.974255,4229.743486,4242.051178,4218.461435,4241.538358,4252.820409,4215.384512,4203.07682,4236.410153,4256.410152
103,0,4228.205025,4252.307588,4254.871691,4249.230665,4237.948614,4227.692204,4242.563999,4220.512717,4238.974255,4242.051178,4215.897333,4209.230666,4230.256307,4246.153742
104,0,4229.230666,4238.461435,4251.281947,4235.384512,4230.769127,4223.07682,4242.051178,4216.410153,4230.256307,4225.640922,4208.717846,4204.615282,4223.58964,4230.769127
105,0,4213.33323,4226.153743,4241.025537,4176.410154,4218.461435,4215.384512,4237.435794,4208.717846,4219.487076,4221.538358,4184.615282,4185.128103,4211.794769,4216.922974
106,0,4179.999898,4219.999897,4233.33323,4133.333232,4212.82041,4207.179384,4233.33323,4197.948615,4217.948615,4222.051179,4171.281949,4174.358872,4198.974256,4205.128102
107,0,4182.564,4218.461435,4227.692204,4154.871693,4218.461435,4205.640923,4235.897332,4197.948615,4220.512717,4222.563999,4186.153744,4176.410154,4199.999897,4186.153744
108,0,4202.564,4216.922974,4224.102461,4177.435795,4218.974256,4207.692205,4237.435794,4206.666564,4223.07682,4217.435794,4198.461436,4173.846052,4202.051179,4179.487077
109,0,4191.794769,4221.538358,4230.769127,4179.999898,4217.948615,4214.358871,4239.999896,4210.769128,4227.179384,4206.666564,4191.281949,4174.871693,4199.487077,4196.410154
110,0,4188.717846,4229.230666,4236.410153,4193.846051,4227.692204,4222.563999,4243.076819,4212.82041,4229.743486,4215.384512,4196.410154,4186.153744,4206.666564,4200.512718
111,0,4202.564,4228.205025,4231.794768,4202.051179,4235.384512,4224.615281,4241.538358,4217.435794,4228.205025,4234.358871,4203.589641,4186.666564,4215.897333,4192.30759
112,0,4199.487077,4227.179384,4229.743486,4206.153743,4233.84605,4228.205025,4244.615281,4222.051179,4233.84605,4236.922973,4187.179385,4181.025539,4215.384512,4199.999897
113,0,4190.256308,4235.384512,4234.871691,4218.974256,4236.922973,4233.84605,4254.35887,4224.615281,4239.999896,4232.820409,4188.205026,4186.666564,4211.794769,4201.538359
114,0,4191.281949,4242.563999,4235.384512,4218.974256,4244.10246,4233.84605,4256.922973,4227.692204,4239.999896,4245.640922,4214.871692,4193.846051,4215.897333,4198.974256
115,0,4191.794769,4237.948614,4237.948614,4220.512717,4239.487076,4229.743486,4249.230665,4224.615281,4237.435794,4255.897332,4216.922974,4194.358872,4217.435794,4200.512718
116,0,4202.051179,4233.33323,4243.076819,4232.307589,4236.922973,4235.384512,4249.230665,4221.025538,4235.897332,4247.179383,4201.025538,4191.794769,4215.384512,4192.82041
117,0,4211.794769,4233.84605,4244.10246,4234.871691,4244.615281,4239.487076,4253.333229,4223.07682,4237.435794,4232.820409,4202.564,4191.794769,4214.871692,4186.666564
118,0,4205.640923,4236.410153,4236.922973,4237.435794,4250.256306,4234.871691,4253.84605,4232.820409,4242.051178,4238.461435,4210.256307,4195.384513,4221.538358,4210.769128
119,0,4196.410154,4234.358871,4230.256307,4248.717845,4247.179383,4233.84605,4253.333229,4241.025537,4245.640922,4251.794768,4199.487077,4191.794769,4224.102461,4220.512717
120,0,4185.640923,4232.820409,4229.743486,4251.281947,4245.128101,4242.563999,4258.461434,4244.615281,4243.58964,4249.230665,4192.82041,4183.589641,4216.410153,4196.922974
121,0,4182.564,4233.84605,4236.922973,4247.179383,4241.025537,4243.076819,4258.974255,4241.025537,4239.999896,4239.999896,4205.128102,4187.692205,4213.846051,4189.743487
122,0,4201.538359,4235.897332,4240.512717,4248.205024,4237.948614,4233.33323,4248.717845,4234.871691,4236.922973,4246.153742,4220.512717,4201.538359,4226.153743,4201.538359
123,0,4217.435794,4237.435794,4237.948614,4250.256306,4242.563999,4233.33323,4246.666563,4235.897332,4239.487076,4255.384511,4223.07682,4206.666564,4228.205025,4199.999897
124,0,4203.07682,4234.871691,4232.820409,4249.230665,4244.10246,4237.435794,4254.35887,4235.384512,4239.999896,4253.333229,4209.230666,4196.410154,4214.871692,4195.897333
125,0,4182.05118,4232.820409,4231.281948,4250.769127,4237.948614,4232.307589,4249.743486,4230.769127,4237.948614,4244.615281,4195.897333,4184.102462,4212.307589,4205.128102
126,0,4186.153744,4235.897332,4233.84605,4252.307588,4239.487076,4231.794768,4242.051178,4229.230666,4234.871691,4236.410153,4200.512718,4189.743487,4220.512717,4204.615282
127,0,4194.871692,4238.461435,4238.461435,4251.281947,4244.10246,4238.461435,4244.615281,4227.179384,4230.256307,4233.84605,4204.615282,4203.589641,4215.384512,4181.025539
128,0,4193.846051,4234.871691,4243.076819,4255.897332,4239.999896,4239.487076,4244.615281,4223.58964,4228.205025,4234.358871,4198.461436,4201.538359,4205.128102,4170.256308
0,0,4193.333231,4228.717845,4241.025537,4255.384511,4235.897332,4233.33323,4237.948614,4225.128102,4235.897332,4234.358871,4206.153743,4192.30759,4210.769128,4195.897333
1,0,4193.846051,4226.153743,4235.897332,4232.820409,4234.871691,4226.153743,4236.410153,4225.640922,4241.025537,4238.461435,4214.358871,4190.256308,4219.487076,4221.025538
2,0,4199.487077,4235.897332,4238.461435,4232.307589,4237.435794,4225.128102,4242.051178,4221.025538,4236.922973,4247.179383,4204.615282,4193.333231,4219.487076,4211.794769
3,0,4211.794769,4249.743486,4249.743486,4269.230665,4245.128101,4228.717845,4241.025537,4219.487076,4232.307589,4245.128101,4199.999897,4196.410154,4216.410153,4185.640923
4,0,4213.33323,4251.794768,4248.717845,4271.794767,4246.153742,4227.179384,4237.435794,4216.922974,4228.717845,4238.461435,4213.846051,4194.358872,4216.922974,4181.538359
5,0,4193.333231,4238.974255,4236.922973,4227.692204,4237.948614,4228.717845,4238.461435,4211.281948,4225.640922,4243.58964,4216.410153,4189.743487,4222.563999,4206.153743
6,0,4181.538359,4228.205025,4229.743486,4203.07682,4238.461435,4238.974255,4241.538358,4209.743487,4228.717845,4236.410153,4204.102461,4186.153744,4224.102461,4215.384512
7,0,4189.743487,4227.179384,4233.84605,4205.640923,4241.538358,4239.487076,4239.999896,4209.743487,4232.307589,4209.230666,4195.384513,4182.05118,4204.102461,4175.384513
8,0,4198.974256,4233.33323,4239.487076,4213.33323,4242.051178,4232.307589,4236.410153,4208.205025,4231.281948,4214.871692,4197.435795,4182.05118,4192.82041,4158.461437
9,0,4191.281949,4234.871691,4239.487076,4223.07682,4239.487076,4225.640922,4236.922973,4206.666564,4228.717845,4239.999896,4193.846051,4187.179385,4206.153743,4187.179385
10,0,4175.384513,4231.281948,4232.820409,4227.179384,4231.281948,4223.07682,4239.487076,4208.717846,4227.179384,4230.769127,4189.230667,4181.025539,4210.256307,4195.384513
11,0,4181.025539,4226.666563,4229.230666,4227.692204,4223.58964,4219.999897,4232.820409,4207.692205,4226.153743,4214.358871,4196.410154,4174.871693,4197.948615,4181.538359
12,0,4198.461436,4225.640922,4231.794768,4231.794768,4228.717845,4223.58964,4227.692204,4206.153743,4227.179384,4229.230666,4206.153743,4189.230667,4197.948615,4179.999898
13,0,4195.384513,4226.153743,4237.948614,4236.410153,4234.871691,4234.358871,4236.922973,4211.281948,4228.717845,4238.974255,4205.128102,4197.948615,4208.717846,4189.743487
14,0,4191.281949,4231.794768,4241.025537,4241.538358,4236.922973,4241.538358,4244.615281,4217.948615,4231.281948,4227.179384,4202.051179,4185.640923,4214.871692,4200.512718
15,0,4193.846051,4233.33323,4236.922973,4241.538358,4239.487076,4237.948614,4240.512717,4222.563999,4236.410153,4220.512717,4197.435795,4176.922975,4215.384512,4199.487077
16,0,4183.589641,4227.179384,4231.281948,4238.461435,4235.384512,4233.84605,4238.461435,4221.025538,4237.948614,4232.307589,4198.461436,4185.128103,4211.281948,4191.794769
17,0,4185.128103,4230.256307,4237.435794,4245.640922,4234.358871,4234.871691,4238.974255,4219.487076,4239.487076,4243.076819,4215.384512,4198.974256,4214.358871,4196.410154
18,0,4203.07682,4230.769127,4247.692204,4255.384511,4236.410153,4229.230666,4232.307589,4220.512717,4239.487076,4236.922973,4219.487076,4204.615282,4221.538358,4199.999897
19,0,4204.615282,4224.102461,4250.769127,4254.871691,4230.769127,4224.102461,4227.179384,4219.487076,4237.948614,4233.84605,4205.128102,4203.07682,4216.410153,4206.153743
20,0,4202.564,4226.153743,4246.666563,4255.384511,4228.717845,4228.205025,4227.179384,4215.384512,4236.922973,4239.487076,4205.128102,4198.974256,4209.743487,4209.743487
21,0,4209.230666,4233.33323,4240.512717,4258.974255,4236.410153,4234.871691,4228.205025,4217.948615,4239.999896,4235.384512,4214.871692,4194.871692,4215.897333,4196.410154
22,0,4196.922974,4221.538358,4237.948614,4253.333229,4236.410153,4237.435794,4227.692204,4224.102461,4241.025537,4226.153743,4201.025538,4186.153744,4209.743487,4178.974257
23,0,4180.512718,4209.743487,4237.435794,4245.640922,4232.820409,4238.974255,4232.820409,4225.128102,4237.435794,4226.666563,4189.743487,4182.05118,4193.333231,4177.948616
24,0,4192.30759,4222.051179,4243.076819,4249.743486,4236.922973,4236.922973,4233.84605,4222.563999,4238.461435,4227.692204,4207.179384,4188.205026,4201.538359,4197.435795
25,0,4215.384512,4244.10246,4248.717845,4264.61528,4244.615281,4236.922973,4233.33323,4226.666563,4247.692204,4239.487076,4228.205025,4198.461436,4228.717845,4229.743486
26,0,4223.58964,4253.84605,4248.205024,4276.922972,4248.205024,4239.487076,4238.461435,4235.897332,4256.410152,4263.076819,4232.307589,4206.666564,4234.358871,4232.820409
27,0,4221.025538,4248.717845,4247.179383,4278.974254,4245.128101,4237.435794,4237.435794,4236.922973,4251.794768,4269.743485,4223.07682,4209.230666,4229.230666,4211.794769
28,0,4213.33323,4239.487076,4252.820409,4272.307588,4236.410153,4233.33323,4228.205025,4226.666563,4242.051178,4253.84605,4212.82041,4210.769128,4230.256307,4208.717846
29,0,4205.640923,4239.999896,4249.743486,4264.61528,4235.897332,4235.384512,4230.256307,4218.974256,4237.435794,4239.999896,4218.461435,4206.153743,4229.743486,4209.230666
30,0,4208.205025,4239.999896,4242.563999,4267.179383,4244.10246,4237.435794,4237.435794,4221.538358,4244.10246,4233.84605,4226.666563,4198.461436,4231.281948,4205.128102
31,0,4210.769128,4234.358871,4244.615281,4274.35887,4249.230665,4235.897332,4231.794768,4225.640922,4252.820409,4239.999896,4221.538358,4198.974256,4236.410153,4226.153743
32,0,4208.205025,4233.84605,4247.179383,4271.794767,4245.128101,4236.410153,4224.615281,4221.538358,4250.256306,4246.666563,4217.435794,4204.615282,4226.153743,4237.435794
33,0,4215.384512,4242.051178,4247.179383,4270.256306,4242.051178,4239.487076,4226.153743,4217.435794,4244.10246,4232.820409,4219.487076,4203.07682,4216.922974,4223.07682
34,0,4225.128102,4246.666563,4248.717845,4278.461434,4242.563999,4243.58964,4233.84605,4226.666563,4249.230665,4229.743486,4215.384512,4199.487077,4230.256307,4213.846051
35,0,4224.615281,4244.10246,4252.820409,4284.61528,4239.999896,4244.10246,4240.512717,4237.948614,4253.333229,4253.333229,4217.948615,4204.615282,4238.461435,4210.256307
36,0,4225.640922,4250.769127,4257.435793,4284.102459,4240.512717,4240.512717,4237.948614,4239.487076,4256.410152,4261.025537,4235.384512,4209.230666,4233.84605,4222.563999
37,0,4227.692204,4256.922973,4256.410152,4281.025536,4245.128101,4240.512717,4229.230666,4241.025537,4264.61528,4250.256306,4235.384512,4204.615282,4233.33323,4238.974255
38,0,4222.563999,4249.230665,4250.256306,4277.435793,4243.58964,4241.025537,4227.179384,4246.153742,4272.307588,4251.281947,4221.025538,4200.512718,4236.922973,4226.153743
39,0,4219.487076,4239.487076,4246.666563,4275.384511,4240.512717,4239.999896,4226.153743,4236.410153,4274.35887,4253.84605,4216.922974,4198.974256,4232.820409,4211.281948
40,0,4223.07682,4243.076819,4242.563999,4275.897331,4244.615281,4240.512717,4220.512717,4222.051179,4279.999895,4248.717845,4221.538358,4195.897333,4227.179384,4222.563999
41,0,4225.640922,4248.205024,4242.051178,4277.435793,4242.563999,4238.974255,4217.435794,4223.07682,4283.589639,4238.974255,4215.897333,4194.871692,4217.435794,4216.410153
42,0,4222.563999,4245.128101,4247.179383,4281.025536,4234.358871,4238.461435,4221.538358,4231.281948,4281.538357,4230.256307,4210.769128,4198.461436,4214.871692,4202.564
43,0,4221.025538,4237.435794,4249.230665,4278.974254,4233.33323,4239.487076,4224.102461,4227.179384,4290.769126,4228.205025,4215.384512,4195.897333,4224.615281,4215.384512
44,0,4229.230666,4243.58964,4246.153742,4279.487075,4240.512717,4242.563999,4225.128102,4228.717845,4299.999895,4233.84605,4225.640922,4198.461436,4237.948614,4234.358871
45,0,4228.717845,4251.794768,4246.666563,4283.076818,4241.025537,4242.051178,4225.128102,4239.999896,4275.897331,4244.615281,4233.33323,4204.615282,4237.435794,4232.820409
46,0,4220.512717,4249.743486,4244.615281,4278.974254,4238.974255,4238.974255,4223.58964,4241.025537,4284.102459,4257.948614,4232.307589,4203.07682,4229.230666,4222.051179
47,0,4228.205025,4249.743486,4244.615281,4280.512716,4244.615281,4237.435794,4224.102461,4235.384512,4371.794765,4260.512716,4221.025538,4198.974256,4232.307589,4221.025538
48,0,4235.897332,4249.743486,4245.128101,4283.589639,4248.205024,4237.435794,4224.102461,4229.230666,4433.333225,4256.922973,4213.846051,4199.487077,4234.358871,4229.743486
49,0,4222.563999,4242.563999,4244.10246,4275.384511,4241.538358,4236.410153,4221.538358,4223.07682,4423.076815,4249.230665,4217.948615,4200.512718,4221.025538,4229.230666
50,0,4215.384512,4237.948614,4241.538358,4267.692203,4235.384512,4237.435794,4222.051179,4219.999897,4413.333225,4227.692204,4221.538358,4197.435795,4213.33323,4211.794769
51,0,4221.538358,4238.461435,4240.512717,4273.333229,4232.307589,4239.487076,4219.999897,4219.487076,4416.922969,4222.051179,4221.025538,4192.30759,4219.487076,4193.333231
52,0,4215.897333,4239.999896,4242.051178,4282.051177,4230.769127,4242.051178,4219.999897,4218.461435,4406.666559,4236.922973,4215.897333,4188.717846,4223.07682,4203.07682
53,0,4208.205025,4241.538358,4243.076819,4277.435793,4234.871691,4243.076819,4220.512717,4214.358871,4405.128097,4235.897332,4205.128102,4194.358872,4213.33323,4207.692205
54,0,4209.743487,4232.820409,4235.897332,4262.563998,4232.307589,4232.820409,4210.769128,4205.128102,4402.563995,4225.640922,4199.999897,4194.871692,4201.538359,4187.179385
55,0,4208.717846,4227.179384,4229.743486,4261.025537,4228.205025,4227.179384,4206.153743,4205.128102,4398.461431,4233.84605,4211.794769,4189.230667,4206.666564,4185.640923
56,0,4205.640923,4237.948614,4236.410153,4272.820408,4230.769127,4231.281948,4216.410153,4218.461435,4403.076815,4237.948614,4220.512717,4193.333231,4221.025538,4209.230666
57,0,4214.871692,4245.128101,4242.563999,4270.256306,4236.410153,4232.820409,4222.563999,4225.640922,4405.128097,4230.256307,4218.461435,4197.435795,4224.102461,4217.948615
58,0,4215.897333,4236.410153,4237.435794,4259.487075,4235.384512,4237.435794,4222.051179,4222.563999,4399.999892,4229.743486,4212.82041,4188.717846,4215.897333,4201.025538
59,0,4201.025538,4227.692204,4229.230666,4261.025537,4232.820409,4247.179383,4226.666563,4222.051179,4396.410149,4236.410153,4208.717846,4178.461436,4212.307589,4198.461436
60,0,4195.897333,4226.153743,4231.281948,4262.051178,4232.307589,4242.563999,4222.563999,4219.999897,4393.846046,4238.974255,4215.897333,4179.487077,4212.82041,4217.435794
61,0,4203.589641,4236.410153,4232.307589,4261.025537,4233.84605,4236.410153,4216.410153,4218.974256,4393.846046,4234.358871,4222.563999,4182.05118,4218.461435,4228.717845
62,0,4216.922974,4242.563999,4227.179384,4268.205024,4231.794768,4238.974255,4215.897333,4218.974256,4394.871687,4234.358871,4207.692205,4176.922975,4219.999897,4215.384512
63,0,4226.153743,4237.435794,4229.230666,4264.10246,4231.794768,4233.33323,4214.871692,4214.871692,4393.333226,4239.487076,4203.07682,4180.512718,4215.897333,4206.153743
64,0,4226.666563,4234.358871,4238.461435,4249.230665,4233.84605,4227.692204,4214.358871,4213.33323,4389.230662,4225.128102,4221.538358,4196.922974,4213.846051,4202.051179
65,0,4212.307589,4236.922973,4230.769127,4251.794768,4232.820409,4234.871691,4219.999897,4221.538358,4389.230662,4215.384512,4227.692204,4202.051179,4221.538358,4185.640923
66,0,4185.128103,4229.743486,4216.922974,4257.948614,4231.794768,4237.948614,4224.102461,4226.666563,4388.205021,4235.384512,4216.922974,4185.640923,4221.538358,4197.435795
67,0,4187.179385,4226.153743,4222.051179,4247.179383,4233.33323,4236.922973,4223.58964,4222.563999,4382.563995,4252.820409,4217.435794,4178.974257,4214.871692,4227.692204
68,0,4223.58964,4238.461435,4238.974255,4245.640922,4228.205025,4238.974255,4219.487076,4219.999897,4375.384508,4245.128101,4217.948615,4192.82041,4215.897333,4219.487076
69,0,4232.307589,4243.076819,4241.025537,4258.974255,4223.58964,4234.871691,4215.897333,4219.487076,4371.794765,4231.794768,4210.769128,4194.871692,4214.358871,4196.410154
70,0,4210.256307,4234.358871,4233.33323,4263.589639,4231.794768,4230.256307,4216.922974,4221.025538,4373.846047,4229.743486,4218.461435,4183.076821,4215.384512,4202.051179
71,0,4214.871692,4233.33323,4232.307589,4261.025537,4238.461435,4231.794768,4218.974256,4221.538358,4376.92297,4239.999896,4232.820409,4188.205026,4233.33323,4219.487076
72,0,4232.820409,4238.461435,4234.871691,4268.205024,4234.871691,4232.307589,4218.974256,4216.922974,4371.794765,4253.84605,4239.487076,4203.07682,4247.692204,4226.153743
73,0,4214.871692,4237.948614,4237.435794,4266.153742,4234.358871,4230.769127,4219.487076,4217.435794,4364.102457,4250.256306,4241.025537,4205.128102,4248.717845,4233.84605
74,0,4199.487077,4232.307589,4238.461435,4246.666563,4236.922973,4231.281948,4221.025538,4221.025538,4365.640919,4241.538358,4241.025537,4199.999897,4254.35887,4248.205024
75,0,4219.999897,4226.153743,4236.922973,4243.58964,4232.820409,4228.205025,4219.999897,4222.563999,4371.281944,4246.666563,4237.948614,4198.974256,4254.35887,4244.10246
76,0,4240.512717,4227.692204,4231.281948,4262.563998,4231.794768,4227.692204,4222.051179,4228.717845,4371.281944,4250.256306,4235.384512,4202.051179,4244.615281,4217.948615
77,0,4228.205025,4230.256307,4231.281948,4269.743485,4230.769127,4231.794768,4225.128102,4230.769127,4366.66656,4239.999896,4240.512717,4203.589641,4243.076819,4206.666564
78,0,4209.230666,4228.717845,4232.820409,4265.128101,4230.256307,4230.769127,4222.563999,4225.128102,4362.051175,4235.384512,4245.128101,4201.025538,4247.692204,4235.384512
79,0,4207.692205,4226.153743,4233.33323,4263.076819,4233.33323,4227.179384,4218.461435,4218.974256,4358.974252,4239.999896,4238.974255,4196.922974,4245.640922,4254.35887
80,0,4217.948615,4230.256307,4232.307589,4260.512716,4233.84605,4235.897332,4221.025538,4217.435794,4356.41015,4246.666563,4234.358871,4199.999897,4241.025537,4241.025537
81,0,4232.307589,4230.769127,4230.769127,4259.999896,4230.769127,4238.461435,4221.538358,4218.461435,4355.897329,4246.153742,4238.461435,4201.025538,4243.58964,4232.820409
82,0,4235.384512,4228.717845,4232.820409,4265.640921,4234.358871,4228.717845,4219.487076,4226.153743,4357.435791,4251.281947,4247.692204,4198.974256,4257.948614,4242.051178
83,0,4225.128102,4229.230666,4242.051178,4265.640921,4237.435794,4226.666563,4223.07682,4226.153743,4353.846047,4257.435793,4252.307588,4205.640923,4258.461434,4257.948614
84,0,4224.615281,4232.307589,4243.076819,4265.128101,4233.84605,4237.948614,4229.230666,4219.999897,4346.66656,4248.205024,4253.333229,4210.256307,4248.205024,4259.999896
85,0,4233.84605,4233.33323,4236.922973,4266.666562,4233.33323,4240.512717,4229.230666,4224.615281,4347.692201,4236.410153,4241.025537,4204.615282,4249.230665,4237.948614
86,0,4228.205025,4231.281948,4234.871691,4265.128101,4234.358871,4233.84605,4227.179384,4229.743486,4354.358868,4252.307588,4234.358871,4203.589641,4252.307588,4227.179384
87,0,4211.281948,4229.743486,4240.512717,4263.589639,4234.871691,4229.230666,4226.666563,4227.179384,4353.333227,4268.205024,4250.256306,4212.307589,4243.58964,4244.615281
88,0,4219.487076,4232.820409,4241.538358,4258.974255,4235.384512,4228.205025,4223.07682,4223.58964,4343.589637,4253.333229,4256.410152,4210.769128,4243.076819,4258.461434
89,0,4243.58964,4230.769127,4235.897332,4256.410152,4233.33323,4233.84605,4221.538358,4225.640922,4342.563996,4249.230665,4242.051178,4201.538359,4252.307588,4252.307588
90,0,4233.33323,4225.640922,4232.307589,4262.563998,4233.33323,4238.461435,4228.205025,4229.230666,4348.205022,4254.871691,4233.84605,4197.948615,4241.025537,4237.435794
91,0,4214.358871,4229.230666,4233.84605,4270.256306,4233.84605,4234.871691,4230.256307,4231.281948,4345.128099,4234.358871,4237.435794,4201.025538,4230.256307,4224.615281
92,0,4228.717845,4238.974255,4236.922973,4267.179383,4234.358871,4233.33323,4222.051179,4229.230666,4338.461432,4224.615281,4242.563999,4207.179384,4244.615281,4237.435794
93,0,4244.10246,4246.153742,4237.435794,4256.922973,4238.461435,4239.487076,4226.153743,4226.153743,4336.922971,4246.666563,4250.769127,4203.589641,4255.384511,4255.384511
94,0,4241.025537,4242.051178,4237.948614,4250.256306,4238.461435,4244.10246,4238.461435,4225.640922,4334.871689,4248.717845,4248.205024,4194.871692,4243.076819,4236.922973
95,0,4241.025537,4234.871691,4235.384512,4245.640922,4238.461435,4237.948614,4228.717845,4224.102461,4331.794766,4237.948614,4231.281948,4199.487077,4233.33323,4223.58964
96,0,4241.025537,4235.897332,4234.871691,4243.076819,4243.076819,4231.281948,4216.410153,4221.538358,4330.256304,4255.897332,4231.281948,4204.102461,4242.563999,4247.179383
97,0,4242.563999,4245.640922,4235.897332,4247.692204,4248.717845,4237.435794,4230.256307,4227.179384,4327.692202,4266.666562,4255.897332,4202.051179,4259.999896,4268.717844
98,0,4242.051178,4244.10246,4234.358871,4256.922973,4248.205024,4242.563999,4239.999896,4233.33323,4323.589638,4247.692204,4265.640921,4208.205025,4257.435793,4257.435793
99,0,4238.461435,4239.487076,4235.384512,4249.230665,4248.205024,4239.999896,4236.922973,4232.307589,4323.589638,4249.743486,4253.84605,4215.384512,4248.717845,4251.281947
100,0,4243.076819,4238.974255,4236.410153,4223.58964,4246.153742,4239.999896,4234.871691,4228.205025,4317.435792,4257.948614,4244.615281,4205.640923,4250.256306,4246.153742
101,0,4245.128101,4234.358871,4230.256307,4206.153743,4243.076819,4237.435794,4229.743486,4225.640922,4308.205023,4245.640922,4242.051178,4195.384513,4245.128101,4236.410153
102,0,4228.717845,4225.640922,4228.717845,4202.564,4240.512717,4225.128102,4222.563999,4221.025538,4307.692202,4241.025537,4238.461435,4197.435795,4229.743486,4237.948614
103,0,4218.461435,4222.051179,4228.717845,4199.999897,4235.384512,4224.615281,4224.615281,4218.461435,4312.820407,4252.820409,4237.948614,4196.410154,4231.794768,4227.692204
104,0,4221.538358,4215.897333,4222.563999,4194.871692,4230.256307,4230.769127,4227.179384,4216.922974,4312.307587,4247.179383,4229.743486,4188.717846,4233.84605,4217.435794
105,0,4225.640922,4211.281948,4218.974256,4199.487077,4229.230666,4228.205025,4222.563999,4212.82041,4309.743484,4232.307589,4225.640922,4185.128103,4222.563999,4232.820409
106,0,4223.58964,4218.461435,4223.07682,4212.307589,4233.84605,4228.205025,4223.07682,4211.794769,4314.358869,4225.640922,4238.461435,4192.30759,4218.974256,4239.487076
107,0,4210.256307,4220.512717,4219.999897,4213.33323,4233.84605,4231.281948,4224.615281,4215.897333,4316.922971,4223.07682,4241.025537,4197.948615,4226.153743,4223.07682
108,0,4203.589641,4208.205025,4212.307589,4202.051179,4222.563999,4228.205025,4221.538358,4215.384512,4310.769125,4230.256307,4222.051179,4188.717846,4228.205025,4208.717846
109,0,4212.82041,4204.615282,4211.281948,4195.897333,4217.948615,4225.640922,4218.461435,4208.205025,4303.076818,4238.461435,4211.281948,4176.410154,4221.025538,4207.179384
110,0,4214.871692,4214.871692,4213.846051,4203.589641,4226.666563,4227.179384,4221.538358,4209.743487,4307.692202,4234.358871,4228.205025,4181.025539,4220.512717,4220.512717
111,0,4202.564,4213.846051,4215.897333,4208.717846,4225.640922,4228.717845,4224.615281,4213.846051,4310.769125,4223.58964,4243.58964,4192.30759,4221.025538,4222.563999
112,0,4209.230666,4208.717846,4216.922974,4215.384512,4218.974256,4228.205025,4222.051179,4212.307589,4306.153741,4228.205025,4234.871691,4191.281949,4218.461435,4210.256307
113,0,4227.179384,4216.922974,4219.487076,4225.128102,4225.128102,4224.102461,4220.512717,4217.435794,4307.692202,4234.871691,4223.07682,4184.615282,4221.025538,4226.666563
114,0,4223.07682,4217.435794,4219.487076,4224.615281,4230.256307,4227.692204,4224.102461,4224.615281,4312.820407,4225.640922,4228.717845,4185.128103,4227.179384,4238.974255
115,0,4205.128102,4201.538359,4223.07682,4225.128102,4218.974256,4229.230666,4221.538358,4217.948615,4305.64092,4217.948615,4230.256307,4190.769128,4219.999897,4215.897333
116,0,4212.82041,4207.179384,4231.794768,4245.640922,4221.538358,4228.205025,4219.487076,4216.922974,4300.512715,4233.84605,4230.256307,4195.384513,4214.871692,4218.974256
117,0,4230.769127,4220.512717,4231.794768,4264.61528,4235.384512,4234.358871,4224.102461,4224.615281,4310.256305,4251.794768,4240.512717,4197.948615,4221.538358,4235.897332
118,0,4227.692204,4215.897333,4222.563999,4265.128101,4236.922973,4237.948614,4227.179384,4229.230666,4316.922971,4252.307588,4241.025537,4197.435795,4230.769127,4223.58964
119,0,4224.615281,4221.025538,4227.179384,4272.820408,4231.794768,4229.743486,4223.58964,4226.666563,4310.769125,4246.666563,4231.281948,4197.435795,4232.820409,4219.487076
120,0,4232.820409,4242.051178,4237.435794,4281.538357,4232.820409,4225.128102,4221.538358,4221.025538,4302.563997,4239.999896,4228.205025,4197.435795,4222.051179,4229.743486
121,0,4231.281948,4238.974255,4230.256307,4271.281947,4232.307589,4231.794768,4220.512717,4216.410153,4298.974254,4216.410153,4221.538358,4190.769128,4203.07682,4210.256307
122,0,4224.102461,4228.205025,4218.974256,4264.61528,4233.33323,4235.384512,4222.563999,4222.563999,4300.512715,4197.948615,4216.922974,4187.179385,4198.461436,4197.435795
123,0,4229.743486,4234.358871,4220.512717,4267.179383,4236.922973,4230.256307,4227.692204,4227.692204,4302.563997,4216.922974,4226.666563,4194.358872,4204.102461,4221.025538
124,0,4226.153743,4235.384512,4224.102461,4262.051178,4232.307589,4226.153743,4224.615281,4223.58964,4301.025536,4248.205024,4234.871691,4196.922974,4203.589641,4232.820409
125,0,4205.640923,4224.615281,4222.563999,4253.333229,4226.153743,4229.230666,4219.999897,4221.538358,4297.948613,4250.256306,4227.692204,4187.692205,4203.589641,4216.410153
126,0,4202.051179,4216.922974,4213.846051,4243.076819,4224.102461,4231.281948,4225.128102,4219.487076,4295.897331,4233.84605,4216.922974,4181.538359,4202.564,4202.564
127,0,4221.538358,4216.410153,4203.589641,4234.871691,4221.538358,4225.128102,4221.538358,4217.948615,4292.307587,4225.128102,4210.769128,4183.076821,4192.30759,4202.564
128,0,4226.153743,4219.999897,4205.640923,4239.487076,4221.025538,4224.102461,4214.358871,4219.487076,4287.692203,4229.230666,4211.281948,4178.461436,4186.666564,4204.615282
0,0,4207.692205,4223.07682,4214.358871,4242.563999,4226.153743,4229.743486,4219.487076,4218.461435,4289.230664,4217.948615,4214.871692,4177.435795,4190.769128,4202.564
1,0,4198.461436,4218.461435,4217.435794,4228.717845,4224.102461,4227.692204,4217.948615,4208.717846,4287.179382,4184.615282,4215.384512,4188.205026,4188.205026,4194.871692
2,0,4205.640923,4214.871692,4211.794769,4223.07682,4218.461435,4223.07682,4207.692205,4203.589641,4278.461434,4187.179385,4214.358871,4189.743487,4186.666564,4191.794769
3,0,4212.82041,4219.999897,4206.666564,4238.461435,4221.538358,4225.128102,4211.794769,4207.179384,4272.307588,4225.128102,4209.230666,4176.410154,4191.281949,4199.487077
4,0,4206.666564,4208.717846,4199.999897,4202.564,4217.435794,4219.487076,4213.33323,4197.948615,4266.666562,4224.615281,4202.051179,4167.179385,4185.640923,4206.153743
5,0,4166.666565,4170.256308,4187.179385,4087.179387,4188.717846,4191.794769,4191.794769,4173.333231,4249.743486,4183.076821,4187.692205,4155.897334,4155.897334,4181.538359
6,0,4124.615284,4142.051181,4171.79477,3994.871697,4163.589642,4169.230667,4174.358872,4157.435796,4233.84605,4160.512719,4165.128103,4136.410155,4125.640925,4139.999899
7,0,4123.589643,4137.948617,4166.666565,3994.871697,4158.974257,4170.769129,4174.871693,4155.897334,4232.307589,4155.897334,4150.256309,4129.743489,4119.999899,4119.487079
8,0,4136.922976,4137.948617,4166.153744,4020.512722,4162.05118,4177.435795,4175.384513,4155.897334,4238.461435,4146.153745,4157.435796,4127.179386,4128.717848,4126.666566
9,0,4129.743489,4133.846053,4160.512719,4009.743492,4162.05118,4176.922975,4177.948616,4152.820411,4240.512717,4141.53836,4158.974257,4118.974258,4128.205027,4139.999899
10,0,4125.640925,4132.820412,4154.871693,4005.640928,4162.05118,4178.974257,4187.692205,4153.333232,4234.871691,4141.53836,4148.205027,4122.051181,4119.487079,4129.743489
11,0,4136.410155,4136.922976,4161.025539,4022.564004,4162.05118,4181.025539,4185.128103,4155.897334,4231.794768,4146.666565,4151.28195,4131.794771,4112.820412,4107.179387
12,0,4141.53836,4147.179386,4166.666565,4030.256312,4166.153744,4180.512718,4179.487077,4161.025539,4236.922973,4163.589642,4164.102462,4136.410155,4118.974258,4123.076822
13,0,4136.922976,4152.820411,4165.640924,4030.256312,4169.743488,4178.461436,4183.076821,4164.102462,4241.538358,4168.717847,4164.615283,4138.461437,4131.28195,4155.897334
14,0,4128.717848,4156.922975,4165.640924,4041.025542,4173.333231,4181.025539,4184.102462,4161.53836,4237.435794,4155.897334,4164.102462,4137.435796,4132.307591,4152.820411
15,0,4139.487078,4167.692206,4169.743488,4064.615285,4182.564,4188.205026,4186.666564,4162.564001,4238.461435,4162.05118,4168.205026,4135.897335,4131.794771,4145.640924
16,0,4165.128103,4174.358872,4172.820411,4084.615285,4190.256308,4195.897333,4196.410154,4173.333231,4245.640922,4177.435795,4174.358872,4146.153745,4148.205027,4153.846052
17,0,4164.102462,4166.666565,4172.820411,4091.281951,4187.692205,4197.435795,4197.435795,4183.076821,4246.153742,4175.897334,4184.102462,4154.358873,4158.974257,4157.435796
18,0,4145.128104,4163.076821,4167.179385,4091.794772,4178.461436,4192.30759,4188.205026,4177.948616,4237.948614,4171.281949,4180.512718,4148.205027,4148.205027,4157.948616
19,0,4152.820411,4172.30759,4167.179385,4107.692207,4181.538359,4194.358872,4188.205026,4176.922975,4238.461435,4173.846052,4172.30759,4150.769129,4146.666565,4159.487078
20,0,4164.102462,4176.922975,4177.435795,4125.128104,4189.743487,4197.948615,4194.358872,4184.615282,4245.640922,4180.512718,4185.640923,4161.53836,4161.53836,4161.025539
21,0,4157.948616,4178.461436,4176.922975,4119.999899,4190.256308,4198.461436,4199.999897,4187.179385,4247.692204,4196.922974,4205.640923,4161.025539,4174.358872,4176.410154
22,0,4165.128103,4182.05118,4170.769129,4122.051181,4187.179385,4199.999897,4201.025538,4184.615282,4244.615281,4199.487077,4201.538359,4152.307591,4174.358872,4193.333231
23,0,4182.05118,4185.128103,4176.410154,4143.589642,4193.846051,4207.179384,4198.461436,4188.717846,4243.076819,4189.743487,4192.82041,4155.897334,4166.153744,4186.153744
24,0,4182.05118,4184.615282,4182.05118,4156.410155,4201.538359,4209.230666,4198.461436,4195.897333,4246.666563,4203.07682,4203.589641,4166.666565,4169.230667,4177.948616
25,0,4183.076821,4191.281949,4181.538359,4163.076821,4201.025538,4207.179384,4204.102461,4198.974256,4253.84605,4214.358871,4209.743487,4171.79477,4191.281949,4200.512718
26,0,4195.384513,4203.589641,4189.230667,4180.512718,4199.487077,4209.743487,4207.179384,4201.025538,4255.384511,4204.615282,4206.153743,4172.30759,4196.410154,4209.230666
27,0,4199.487077,4215.897333,4193.333231,4195.384513,4207.692205,4210.769128,4206.153743,4204.102461,4253.333229,4209.743487,4214.871692,4169.230667,4186.153744,4198.974256
28,0,4195.897333,4210.769128,4186.153744,4197.435795,4210.256307,4209.743487,4207.692205,4204.102461,4251.794768,4212.307589,4213.846051,4165.128103,4184.102462,4206.666564
29,0,4192.30759,4197.435795,4182.05118,4197.948615,4201.538359,4212.307589,4210.769128,4198.461436,4246.666563,4201.538359,4206.153743,4167.179385,4179.999898,4203.589641
30,0,4196.410154,4206.153743,4189.230667,4201.538359,4199.487077,4210.769128,4207.179384,4201.025538,4247.692204,4198.461436,4211.794769,4176.922975,4176.922975,4186.666564
31,0,4206.153743,4218.974256,4193.846051,4208.717846,4209.230666,4207.179384,4204.615282,4207.692205,4253.84605,4207.179384,4213.846051,4180.512718,4195.384513,4209.743487
32,0,4206.666564,4216.410153,4192.82041,4218.461435,4210.769128,4208.717846,4210.256307,4203.589641,4248.717845,4215.384512,4208.205025,4172.820411,4204.102461,4235.384512
33,0,4204.615282,4218.461435,4189.743487,4221.538358,4209.743487,4213.846051,4213.33323,4198.461436,4239.999896,4216.922974,4219.999897,4168.717847,4189.743487,4215.384512
34,0,4211.281948,4221.538358,4187.179385,4210.256307,4211.794769,4211.794769,4209.230666,4201.538359,4243.076819,4213.846051,4225.640922,4173.846052,4186.666564,4195.384513
35,0,4206.153743,4207.179384,4181.025539,4197.435795,4207.179384,4205.128102,4206.153743,4200.512718,4243.58964,4207.692205,4202.051179,4170.769129,4183.076821,4188.717846
36,0,4195.384513,4198.974256,4173.846052,4199.999897,4202.564,4203.589641,4204.102461,4194.871692,4237.948614,4195.897333,4192.30759,4159.999898,4173.333231,4182.564
37,0,4192.30759,4203.589641,4172.820411,4202.564,4201.538359,4207.179384,4202.564,4195.897333,4237.435794,4178.974257,4199.999897,4155.384514,4171.281949,4190.769128
38,0,4183.589641,4203.07682,4177.948616,4199.999897,4202.051179,4210.256307,4204.102461,4199.487077,4241.538358,4197.435795,4199.487077,4159.487078,4172.820411,4197.948615
39,0,4177.948616,4201.538359,4182.05118,4207.179384,4204.615282,4208.205025,4204.102461,4199.999897,4239.487076,4219.999897,4198.461436,4164.615283,4177.435795,4190.256308
40,0,4194.871692,4209.743487,4180.512718,4214.871692,4211.794769,4210.769128,4203.589641,4203.589641,4238.461435,4201.538359,4209.230666,4168.205026,4186.666564,4197.948615
41,0,4206.153743,4215.897333,4178.974257,4215.384512,4215.897333,4213.33323,4207.179384,4207.692205,4244.10246,4197.948615,4219.999897,4173.846052,4190.256308,4213.33323
42,0,4197.948615,4214.358871,4180.512718,4223.58964,4214.871692,4212.82041,4212.82041,4211.281948,4249.230665,4218.461435,4225.128102,4181.025539,4192.82041,4208.717846
43,0,4192.30759,4209.743487,4181.025539,4233.33323,4209.743487,4212.82041,4211.794769,4210.256307,4248.205024,4213.846051,4225.640922,4177.948616,4194.358872,4195.897333
44,0,4195.897333,4211.281948,4178.974257,4230.256307,4208.205025,4218.461435,4214.871692,4212.307589,4252.820409,4213.33323,4218.974256,4170.256308,4197.435795,4207.179384
45,0,4198.461436,4216.922974,4184.615282,4232.820409,4211.281948,4224.615281,4225.128102,4221.538358,4258.461434,4239.487076,4213.33323,4173.333231,4204.102461,4223.07682
46,0,4197.435795,4219.487076,4190.769128,4241.025537,4212.82041,4226.666563,4223.58964,4222.563999,4254.35887,4243.58964,4221.538358,4179.487077,4202.051179,4222.563999
47,0,4194.871692,4217.948615,4189.230667,4238.974255,4214.871692,4222.051179,4209.743487,4211.281948,4252.820409,4222.051179,4223.07682,4181.538359,4187.179385,4211.281948
48,0,4198.974256,4215.897333,4183.076821,4234.871691,4218.461435,4216.922974,4209.230666,4210.256307,4251.281947,4217.948615,4212.82041,4176.922975,4187.179385,4202.564
49,0,4207.179384,4214.358871,4180.512718,4236.922973,4217.435794,4219.487076,4217.948615,4216.410153,4245.128101,4213.846051,4210.769128,4160.512719,4198.974256,4208.205025
50,0,4205.640923,4214.871692,4174.358872,4235.384512,4214.358871,4222.051179,4213.33323,4213.846051,4239.487076,4201.538359,4212.307589,4152.307591,4198.461436,4204.615282
51,0,4196.410154,4216.922974,4170.769129,4231.794768,4215.384512,4218.974256,4209.230666,4210.769128,4242.051178,4206.666564,4213.33323,4164.102462,4190.769128,4193.333231
52,0,4188.205026,4215.384512,4177.948616,4232.307589,4219.999897,4221.538358,4218.974256,4212.82041,4246.666563,4228.717845,4222.051179,4173.333231,4193.846051,4209.230666
53,0,4188.205026,4210.769128,4183.076821,4231.794768,4218.974256,4228.205025,4223.07682,4210.769128,4246.666563,4231.281948,4224.615281,4171.79477,4203.589641,4223.07682
54,0,4198.974256,4212.307589,4180.512718,4234.358871,4213.846051,4225.640922,4214.358871,4208.205025,4242.563999,4215.897333,4219.487076,4172.30759,4202.051179,4201.538359
55,0,4212.307589,4216.410153,4176.410154,4234.358871,4216.922974,4218.974256,4208.205025,4210.769128,4241.025537,4217.435794,4218.461435,4171.281949,4198.461436,4197.948615
56,0,4195.384513,4206.666564,4173.333231,4211.281948,4218.461435,4217.948615,4213.33323,4210.769128,4239.999896,4219.487076,4211.794769,4164.102462,4198.974256,4214.358871
57,0,4166.666565,4194.358872,4168.205026,4186.153744,4212.307589,4216.410153,4221.025538,4208.205025,4237.435794,4210.769128,4204.615282,4158.461437,4190.769128,4200.512718
58,0,4168.205026,4190.256308,4164.102462,4178.974257,4206.666564,4207.692205,4213.846051,4203.07682,4233.84605,4210.256307,4203.589641,4153.333232,4176.922975,4171.281949
59,0,4182.564,4189.743487,4161.025539,4179.999898,4207.692205,4205.128102,4203.589641,4202.564,4229.230666,4201.538359,4198.974256,4152.820411,4178.461436,4174.871693
60,0,4175.897334,4188.205026,4164.615283,4189.743487,4210.769128,4214.871692,4209.743487,4204.615282,4227.179384,4179.999898,4197.435795,4155.384514,4184.102462,4205.128102
61,0,4176.922975,4197.948615,4170.256308,4213.846051,4214.358871,4225.128102,4219.999897,4207.179384,4236.922973,4194.871692,4208.205025,4158.974257,4186.153744,4213.846051
62,0,4193.333231,4208.717846,4170.256308,4237.948614,4213.846051,4225.640922,4217.948615,4212.307589,4241.025537,4230.256307,4211.281948,4160.512719,4190.256308,4192.30759
63,0,4196.410154,4217.948615,4177.435795,4256.410152,4216.410153,4224.102461,4215.897333,4220.512717,4236.922973,4239.487076,4220.512717,4167.692206,4206.666564,4210.769128
64,0,4199.487077,4224.615281,4189.230667,4266.666562,4223.58964,4223.07682,4215.897333,4224.102461,4238.974255,4232.820409,4239.999896,4182.564,4221.025538,4236.922973
65,0,4207.692205,4220.512717,4182.564,4263.589639,4224.102461,4219.999897,4212.307589,4221.538358,4243.076819,4232.820409,4236.410153,4185.640923,4213.33323,4207.692205
66,0,4205.640923,4212.307589,4173.333231,4261.025537,4218.461435,4211.794769,4211.794769,4219.487076,4239.999896,4236.410153,4216.410153,4172.820411,4199.487077,4196.410154
67,0,4201.538359,4216.410153,4177.435795,4263.076819,4215.384512,4208.205025,4213.33323,4216.922974,4235.897332,4232.820409,4214.358871,4165.128103,4203.07682,4231.794768
68,0,4194.871692,4219.999897,4181.538359,4261.538357,4214.358871,4214.871692,4214.871692,4216.410153,4234.871691,4213.33323,4218.974256,4172.30759,4204.102461,4227.692204
69,0,4185.128103,4214.871692,4183.589641,4263.076819,4216.410153,4218.974256,4215.384512,4215.384512,4230.256307,4193.846051,4215.384512,4174.358872,4194.871692,4199.999897
70,0,4197.435795,4217.435794,4187.179385,4267.692203,4216.922974,4211.281948,4210.769128,4214.871692,4230.256307,4198.461436,4214.358871,4173.846052,4193.846051,4199.999897
71,0,4217.948615,4224.615281,4186.153744,4263.076819,4215.897333,4211.794769,4211.281948,4218.974256,4231.794768,4217.435794,4212.82041,4178.461436,4202.051179,4208.717846
72,0,4211.281948,4226.153743,4184.102462,4263.076819,4217.948615,4222.563999,4216.410153,4225.128102,4232.820409,4236.410153,4216.922974,4181.025539,4212.82041,4215.384512
73,0,4201.025538,4229.230666,4188.205026,4274.35887,4224.102461,4221.538358,4212.307589,4220.512717,4232.820409,4240.512717,4233.33323,4182.564,4222.563999,4226.666563
74,0,4206.666564,4230.769127,4188.205026,4275.384511,4227.179384,4214.871692,4209.230666,4212.82041,4231.794768,4225.640922,4235.897332,4183.589641,4216.922974,4231.794768
75,0,4210.769128,4225.640922,4184.615282,4264.10246,4224.615281,4216.410153,4216.922974,4216.410153,4230.769127,4218.461435,4222.051179,4181.538359,4202.051179,4224.102461
76,0,4214.871692,4225.640922,4183.076821,4262.563998,4226.153743,4223.07682,4223.07682,4223.58964,4232.820409,4230.256307,4225.128102,4179.999898,4206.666564,4217.948615
77,0,4220.512717,4233.33323,4186.666564,4274.87169,4230.769127,4224.615281,4217.435794,4223.07682,4235.897332,4242.563999,4238.461435,4187.179385,4227.692204,4235.897332
78,0,4223.58964,4239.999896,4194.358872,4281.025536,4234.871691,4225.128102,4218.461435,4223.58964,4236.410153,4244.615281,4234.358871,4195.897333,4241.025537,4251.794768
79,0,4217.435794,4233.84605,4196.922974,4276.410152,4228.205025,4223.58964,4224.102461,4224.102461,4230.769127,4235.384512,4224.102461,4193.333231,4224.102461,4228.205025
80,0,4209.230666,4227.692204,4191.281949,4270.256306,4224.102461,4225.640922,4223.07682,4222.051179,4223.58964,4230.769127,4230.256307,4186.153744,4207.692205,4212.307589
81,0,4215.897333,4232.307589,4191.794769,4271.281947,4231.794768,4230.769127,4223.07682,4224.102461,4225.640922,4229.743486,4233.84605,4185.640923,4219.487076,4229.743486
82,0,4227.179384,4234.358871,4192.30759,4275.897331,4236.410153,4231.281948,4224.102461,4229.230666,4233.33323,4225.640922,4229.230666,4183.076821,4229.230666,4239.487076
83,0,4217.948615,4227.179384,4191.281949,4274.35887,4231.794768,4225.640922,4217.948615,4225.640922,4231.794768,4227.179384,4232.307589,4177.948616,4221.025538,4233.84605
84,0,4215.384512,4233.84605,4193.846051,4274.35887,4232.307589,4222.563999,4217.435794,4223.07682,4229.230666,4236.922973,4235.897332,4183.076821,4224.615281,4240.512717
85,0,4235.384512,4243.076819,4201.025538,4278.974254,4235.897332,4222.563999,4219.487076,4224.615281,4230.256307,4236.410153,4231.794768,4195.384513,4236.410153,4245.128101
86,0,4227.179384,4238.461435,4200.512718,4280.512716,4232.307589,4221.025538,4214.358871,4221.025538,4225.640922,4231.281948,4238.461435,4196.410154,4234.358871,4234.358871
87,0,4207.179384,4232.820409,4196.410154,4278.974254,4228.205025,4224.102461,4218.974256,4219.999897,4227.692204,4236.922973,4247.179383,4193.846051,4225.128102,4223.58964
88,0,4226.666563,4233.84605,4197.948615,4287.692203,4232.307589,4231.794768,4231.794768,4224.102461,4234.358871,4249.230665,4240.512717,4193.333231,4225.128102,4232.307589
89,0,4246.153742,4238.461435,4204.615282,4297.948613,4238.974255,4227.692204,4227.179384,4226.666563,4234.871691,4247.692204,4232.820409,4197.435795,4232.307589,4255.384511
90,0,4231.281948,4241.025537,4207.179384,4297.948613,4243.076819,4223.58964,4222.563999,4224.102461,4231.281948,4238.461435,4230.769127,4200.512718,4231.281948,4247.692204
91,0,4216.922974,4236.922973,4202.564,4291.794767,4243.076819,4230.256307,4232.307589,4211.794769,4230.769127,4243.076819,4231.281948,4194.358872,4216.922974,4221.538358
92,0,4211.794769,4231.794768,4199.487077,4284.102459,4237.435794,4228.717845,4228.717845,4184.102462,4228.717845,4235.897332,4234.358871,4185.640923,4214.358871,4233.84605
93,0,4212.82041,4233.33323,4199.999897,4276.410152,4234.871691,4219.999897,4214.871692,4162.05118,4227.692204,4215.384512,4235.384512,4185.128103,4226.666563,4252.307588
94,0,4215.897333,4229.230666,4201.025538,4266.666562,4233.33323,4221.538358,4216.922974,4158.974257,4226.153743,4219.999897,4232.820409,4192.30759,4217.435794,4224.102461
95,0,4212.307589,4223.58964,4198.974256,4256.922973,4227.179384,4223.58964,4225.128102,4158.974257,4224.102461,4245.640922,4234.871691,4199.999897,4212.307589,4220.512717
96,0,4216.410153,4231.281948,4201.538359,4266.153742,4227.179384,4223.07682,4220.512717,4151.79477,4226.666563,4251.281947,4232.820409,4204.102461,4231.794768,4265.128101
97,0,4226.153743,4237.948614,4204.102461,4278.974254,4238.461435,4229.230666,4219.487076,4150.769129,4229.230666,4235.897332,4231.281948,4202.051179,4226.153743,4266.666562
98,0,4211.281948,4230.256307,4198.461436,4268.717844,4236.922973,4228.717845,4224.102461,4156.410155,4226.666563,4222.051179,4239.999896,4201.538359,4204.102461,4222.051179
99,0,4203.07682,4226.153743,4201.025538,4265.640921,4229.230666,4223.58964,4222.563999,4156.922975,4229.230666,4230.769127,4257.435793,4210.769128,4229.230666,4228.717845
100,0,4224.102461,4227.179384,4213.33323,4282.563998,4231.281948,4222.051179,4218.461435,4149.230668,4230.256307,4242.051178,4264.10246,4214.871692,4269.743485,4276.922972
101,0,4232.820409,4226.666563,4208.205025,4281.538357,4230.769127,4220.512717,4221.025538,4147.692206,4227.692204,4235.384512,4260.512716,4209.743487,4271.794767,4292.307587
102,0,4227.179384,4225.128102,4200.512718,4276.922972,4228.205025,4224.615281,4227.179384,4155.897334,4229.230666,4239.999896,4263.589639,4210.256307,4265.128101,4275.384511
103,0,4227.179384,4227.179384,4208.205025,4290.256305,4234.871691,4234.871691,4229.743486,4158.974257,4231.281948,4264.61528,4268.205024,4219.999897,4274.35887,4259.999896
104,0,4224.102461,4224.102461,4216.922974,4290.256305,4237.435794,4234.358871,4227.692204,4156.410155,4227.692204,4269.743485,4266.153742,4222.563999,4276.922972,4268.205024
105,0,4223.58964,4221.025538,4215.897333,4276.922972,4234.871691,4228.717845,4226.153743,4156.410155,4225.128102,4257.948614,4265.640921,4214.871692,4272.307588,4298.461433
106,0,4225.640922,4217.435794,4211.794769,4273.846049,4235.384512,4228.205025,4228.205025,4157.435796,4227.179384,4248.717845,4259.999896,4210.256307,4262.563998,4293.333228
107,0,4222.563999,4213.33323,4207.179384,4275.384511,4234.358871,4228.205025,4229.230666,4158.974257,4231.281948,4245.128101,4252.820409,4214.358871,4257.435793,4254.871691
108,0,4225.128102,4219.999897,4208.205025,4278.461434,4233.84605,4225.128102,4226.153743,4166.666565,4239.999896,4242.563999,4259.487075,4221.025538,4263.076819,4256.922973
109,0,4223.58964,4227.692204,4216.410153,4278.461434,4237.435794,4226.666563,4224.615281,4171.281949,4247.179383,4233.84605,4260.512716,4218.461435,4264.10246,4279.999895
110,0,4206.153743,4218.974256,4215.384512,4264.10246,4235.384512,4231.794768,4228.717845,4165.128103,4247.179383,4234.358871,4246.153742,4206.153743,4256.922973,4268.717844
111,0,4201.538359,4206.666564,4207.179384,4256.922973,4228.717845,4230.769127,4227.179384,4157.435796,4244.10246,4248.717845,4241.538358,4196.922974,4249.230665,4251.794768
112,0,4226.153743,4212.82041,4210.769128,4272.820408,4230.256307,4226.666563,4223.58964,4159.999898,4251.281947,4252.820409,4251.794768,4202.051179,4249.743486,4255.897332
113,0,4234.358871,4218.461435,4214.871692,4280.512716,4234.358871,4231.281948,4231.794768,4169.230667,4253.84605,4244.615281,4251.281947,4207.179384,4248.717845,4252.307588
114,0,4210.256307,4213.846051,4207.179384,4278.974254,4237.948614,4241.538358,4241.025537,4176.922975,4247.179383,4243.58964,4245.128101,4205.128102,4247.179383,4242.563999
115,0,4198.461436,4213.846051,4208.717846,4282.563998,4237.435794,4241.025537,4239.999896,4179.487077,4248.717845,4239.999896,4247.179383,4204.615282,4254.35887,4252.820409
116,0,4209.743487,4213.33323,4213.33323,4272.307588,4233.33323,4233.33323,4239.487076,4181.025539,4253.333229,4234.871691,4246.666563,4198.461436,4259.999896,4266.153742
117,0,4217.435794,4205.640923,4203.589641,4249.743486,4230.256307,4225.128102,4235.384512,4177.435795,4246.153742,4240.512717,4233.84605,4185.640923,4247.692204,4251.281947
118,0,4214.358871,4202.564,4192.82041,4239.487076,4228.717845,4222.563999,4224.615281,4170.769129,4237.435794,4239.999896,4233.84605,4188.205026,4237.435794,4230.769127
119,0,4203.589641,4205.128102,4198.974256,4238.974255,4223.58964,4226.153743,4224.615281,4169.230667,4238.974255,4231.794768,4252.307588,4200.512718,4243.076819,4232.307589
120,0,4198.974256,4209.743487,4203.07682,4230.769127,4224.102461,4229.230666,4228.717845,4171.79477,4243.58964,4241.538358,4257.948614,4199.999897,4249.743486,4239.999896
121,0,4209.743487,4210.256307,4202.051179,4227.692204,4226.666563,4227.692204,4224.102461,4170.256308,4239.999896,4247.692204,4242.051178,4193.333231,4248.717845,4250.256306
122,0,4214.358871,4208.205025,4201.538359,4238.974255,4226.153743,4229.230666,4225.640922,4172.30759,4236.410153,4226.153743,4232.307589,4192.82041,4248.205024,4257.435793
123,0,4193.846051,4204.615282,4201.538359,4250.769127,4227.692204,4233.84605,4233.84605,4179.487077,4241.025537,4211.281948,4233.84605,4196.922974,4242.051178,4232.820409
124,0,4179.487077,4200.512718,4202.051179,4251.281947,4231.281948,4232.820409,4231.281948,4181.025539,4241.025537,4218.461435,4239.999896,4194.871692,4234.358871,4213.846051
125,0,4198.461436,4199.487077,4201.538359,4247.692204,4227.692204,4224.102461,4224.102461,4175.897334,4232.820409,4219.999897,4245.128101,4187.692205,4234.358871,4236.922973
126,0,4211.794769,4203.589641,4202.051179,4244.615281,4227.179384,4223.07682,4224.102461,4175.897334,4234.358871,4218.974256,4239.999896,4188.205026,4238.461435,4243.58964
127,0,4198.974256,4206.153743,4201.538359,4240.512717,4230.769127,4228.717845,4228.717845,4181.025539,4240.512717,4226.153743,4233.84605,4193.333231,4234.871691,4217.435794
128,0,4187.179385,4204.615282,4203.07682,4236.922973,4224.102461,4228.205025,4228.717845,4182.05118,4233.33323,4232.307589,4229.230666,4189.230667,4229.230666,4218.974256
0,0,4193.846051,4202.051179,4204.615282,4218.461435,4218.461435,4223.07682,4226.666563,4178.974257,4227.692204,4229.743486,4222.051179,4184.615282,4226.153743,4239.999896
1,0,4197.435795,4190.769128,4195.384513,4173.846052,4217.948615,4219.487076,4222.051179,4171.281949,4227.692204,4207.179384,4216.410153,4179.999898,4218.974256,4226.153743
2,0,4183.589641,4179.487077,4184.102462,4128.717848,4212.82041,4209.743487,4212.82041,4162.05118,4221.025538,4182.564,4215.897333,4167.692206,4214.358871,4203.07682
3,0,4159.487078,4171.281949,4179.999898,4098.974259,4197.948615,4195.384513,4201.538359,4148.205027,4212.307589,4180.512718,4203.07682,4161.53836,4204.102461,4192.82041
4,0,4156.922975,4164.615283,4175.897334,4083.076823,4193.333231,4189.230667,4198.974256,4138.974258,4209.743487,4185.128103,4185.640923,4158.461437,4184.102462,4177.435795
5,0,4163.076821,4156.922975,4171.79477,4081.025541,4197.435795,4192.82041,4205.128102,4139.999899,4207.692205,4181.025539,4181.025539,4147.692206,4174.358872,4170.256308
6,0,4150.256309,4158.461437,4171.281949,4089.230669,4198.461436,4201.025538,4209.743487,4147.179386,4207.179384,4177.435795,4189.743487,4145.640924,4188.717846,4186.153744
7,0,4146.153745,4165.640924,4172.30759,4091.794772,4196.410154,4202.051179,4207.692205,4149.230668,4210.256307,4170.769129,4199.999897,4151.79477,4198.974256,4186.666564
8,0,4164.102462,4168.205026,4170.256308,4090.769131,4194.358872,4197.435795,4205.128102,4148.717847,4212.307589,4172.30759,4205.128102,4151.28195,4199.487077,4181.538359
9,0,4163.589642,4163.076821,4172.30759,4092.820413,4190.769128,4192.82041,4203.07682,4149.230668,4211.281948,4189.230667,4203.07682,4150.769129,4201.538359,4186.153744
10,0,4145.128104,4157.435796,4173.333231,4091.281951,4191.281949,4193.846051,4203.589641,4149.743488,4209.743487,4190.256308,4195.897333,4148.717847,4193.333231,4184.102462
11,0,4138.461437,4152.307591,4171.281949,4092.820413,4191.281949,4198.461436,4206.666564,4153.846052,4210.256307,4172.30759,4185.640923,4145.640924,4183.589641,4175.384513
12,0,4146.666565,4155.384514,4169.230667,4106.153746,4194.871692,4205.128102,4212.307589,4163.589642,4216.410153,4180.512718,4185.128103,4154.358873,4193.333231,4175.384513
13,0,4163.076821,4171.79477,4176.922975,4126.666566,4204.102461,4211.794769,4215.897333,4168.717847,4223.07682,4198.461436,4197.948615,4166.666565,4209.743487,4179.487077
14,0,4176.922975,4183.589641,4184.615282,4137.948617,4206.153743,4209.743487,4211.281948,4164.102462,4218.974256,4190.769128,4209.230666,4164.102462,4211.281948,4193.846051
15,0,4174.871693,4177.435795,4182.05118,4138.974258,4197.948615,4202.051179,4205.640923,4163.076821,4213.846051,4184.102462,4207.692205,4158.974257,4202.051179,4203.589641
16,0,4171.79477,4171.79477,4183.076821,4147.179386,4197.435795,4205.128102,4213.33323,4172.30759,4214.871692,4200.512718,4204.102461,4166.153744,4198.461436,4191.794769
17,0,4173.846052,4182.564,4190.256308,4164.615283,4205.128102,4214.358871,4219.487076,4177.435795,4216.410153,4212.307589,4208.205025,4172.30759,4208.205025,4194.358872
18,0,4165.128103,4189.743487,4188.205026,4170.769129,4209.743487,4214.871692,4216.410153,4173.846052,4215.897333,4205.128102,4203.589641,4167.692206,4215.897333,4211.794769
19,0,4165.128103,4188.717846,4182.05118,4167.692206,4210.256307,4213.33323,4217.948615,4175.384513,4221.538358,4195.897333,4198.461436,4167.692206,4212.82041,4203.589641
20,0,4185.128103,4193.333231,4187.179385,4172.30759,4209.743487,4215.384512,4221.025538,4176.922975,4222.051179,4193.846051,4213.33323,4173.846052,4212.307589,4192.30759
21,0,4195.384513,4190.256308,4186.666564,4174.871693,4209.743487,4216.922974,4216.922974,4171.79477,4213.33323,4185.640923,4223.07682,4169.230667,4214.358871,4203.589641
22,0,4179.999898,4176.410154,4178.974257,4167.692206,4207.692205,4216.410153,4214.358871,4170.256308,4209.743487,4176.410154,4207.179384,4161.025539,4205.640923,4212.82041
23,0,4161.025539,4178.974257,4181.025539,4165.128103,4206.153743,4211.794769,4217.948615,4177.435795,4213.846051,4192.82041,4198.461436,4166.666565,4197.435795,4193.333231
24,0,4161.53836,4195.897333,4188.717846,4176.922975,4209.230666,4207.692205,4218.461435,4183.076821,4216.922974,4220.512717,4204.102461,4172.820411,4201.025538,4173.846052
25,0,4188.205026,4204.102461,4191.794769,4187.692205,4215.897333,4212.307589,4216.410153,4184.102462,4216.922974,4224.102461,4209.743487,4169.743488,4215.897333,4204.102461
26,0,4215.384512,4198.974256,4193.333231,4187.179385,4216.922974,4218.461435,4215.897333,4187.179385,4214.871692,4205.128102,4215.384512,4164.615283,4220.512717,4237.435794
27,0,4204.102461,4194.871692,4194.358872,4189.230667,4215.384512,4221.025538,4217.435794,4192.30759,4215.897333,4199.487077,4217.948615,4167.179385,4216.922974,4227.179384
28,0,4176.410154,4193.846051,4197.435795,4200.512718,4213.846051,4219.999897,4221.538358,4193.333231,4215.897333,4206.153743,4214.358871,4175.897334,4214.871692,4211.794769
29,0,4181.538359,4197.435795,4202.051179,4208.717846,4216.410153,4220.512717,4225.128102,4196.410154,4212.307589,4209.230666,4219.487076,4182.564,4215.897333,4209.230666
30,0,4197.435795,4200.512718,4198.974256,4206.666564,4218.974256,4222.051179,4228.205025,4201.025538,4209.743487,4209.743487,4223.58964,4183.076821,4218.461435,4204.102461
31,0,4197.948615,4199.487077,4188.205026,4201.025538,4216.410153,4223.58964,4225.128102,4197.948615,4210.256307,4217.948615,4220.512717,4173.333231,4229.230666,4219.999897
32,0,4196.410154,4196.410154,4188.717846,4201.538359,4214.871692,4219.999897,4222.563999,4190.256308,4211.281948,4229.230666,4218.461435,4168.205026,4229.743486,4236.922973
33,0,4194.871692,4207.692205,4197.435795,4212.307589,4222.051179,4216.922974,4223.58964,4192.30759,4213.33323,4232.307589,4222.563999,4178.974257,4221.025538,4218.461435
34,0,4190.256308,4219.487076,4200.512718,4218.974256,4226.666563,4219.999897,4220.512717,4198.974256,4213.33323,4230.769127,4229.743486,4182.564,4229.230666,4209.230666
35,0,4189.743487,4208.205025,4192.82041,4215.384512,4219.999897,4221.025538,4218.461435,4194.871692,4211.281948,4223.07682,4222.051179,4168.205026,4238.974255,4221.025538
36,0,4204.102461,4199.487077,4190.769128,4215.384512,4217.948615,4213.846051,4218.461435,4190.256308,4209.743487,4214.871692,4213.33323,4165.640924,4229.743486,4229.743486
37,0,4211.794769,4209.743487,4201.025538,4219.487076,4220.512717,4207.692205,4215.897333,4187.692205,4199.487077,4209.230666,4218.974256,4176.922975,4223.07682,4229.230666
38,0,4197.948615,4215.384512,4207.692205,4215.897333,4216.922974,4217.435794,4216.922974,4184.615282,4194.871692,4198.974256,4219.999897,4177.435795,4221.538358,4216.922974
39,0,4186.153744,4210.769128,4207.692205,4219.487076,4214.871692,4221.538358,4223.58964,4186.153744,4200.512718,4192.30759,4211.794769,4177.435795,4212.307589,4197.948615
40,0,4193.846051,4211.281948,4205.640923,4229.230666,4219.999897,4213.33323,4224.102461,4192.82041,4201.538359,4206.153743,4216.410153,4180.512718,4209.230666,4194.871692
41,0,4201.538359,4208.205025,4202.564,4213.33323,4219.487076,4208.205025,4214.358871,4190.256308,4198.974256,4224.102461,4220.512717,4171.281949,4217.948615,4212.82041
42,0,4193.333231,4198.461436,4195.897333,4188.717846,4212.82041,4210.769128,4209.743487,4185.640923,4203.589641,4224.102461,4207.692205,4163.589642,4217.435794,4228.205025
43,0,4176.922975,4194.871692,4194.871692,4199.999897,4212.307589,4215.897333,4222.051179,4190.769128,4204.102461,4206.153743,4196.410154,4167.179385,4203.589641,4218.974256
44,0,4176.922975,4207.692205,4196.410154,4230.769127,4223.07682,4222.563999,4229.743486,4197.435795,4202.564,4203.589641,4204.615282,4164.615283,4204.615282,4202.564
45,0,4203.07682,4212.82041,4196.922974,4235.897332,4228.717845,4224.615281,4217.948615,4195.897333,4207.179384,4215.897333,4216.922974,4156.922975,4218.461435,4202.564
46,0,4207.179384,4204.102461,4197.948615,4227.179384,4222.051179,4220.512717,4213.846051,4194.358872,4203.589641,4216.410153,4219.487076,4165.640924,4222.051179,4212.307589
47,0,4180.512718,4196.410154,4201.025538,4230.256307,4212.82041,4217.948615,4222.051179,4192.30759,4193.333231,4202.051179,4212.82041,4174.358872,4208.205025,4220.512717
48,0,4183.589641,4201.538359,4200.512718,4233.33323,4212.82041,4213.33323,4217.948615,4188.717846,4193.846051,4201.025538,4208.205025,4171.281949,4199.487077,4213.33323
49,0,4201.538359,4208.205025,4199.487077,4221.538358,4218.461435,4205.640923,4208.717846,4188.717846,4196.410154,4208.205025,4202.051179,4167.692206,4200.512718,4185.128103
50,0,4204.102461,4207.692205,4200.512718,4210.256307,4224.102461,4212.82041,4215.897333,4195.384513,4193.846051,4202.051179,4203.589641,4168.717847,4205.640923,4197.948615
51,0,4199.999897,4204.102461,4202.564,4214.871692,4224.615281,4221.025538,4221.025538,4199.999897,4194.871692,4203.589641,4214.358871,4169.230667,4209.743487,4247.179383
52,0,4185.640923,4207.692205,4203.07682,4221.538358,4218.974256,4213.846051,4215.897333,4194.871692,4196.410154,4210.769128,4215.897333,4167.692206,4207.179384,4243.58964
53,0,4181.538359,4211.281948,4201.538359,4216.410153,4217.435794,4212.82041,4215.897333,4196.922974,4194.871692,4202.564,4211.281948,4169.743488,4201.538359,4204.102461
54,0,4205.128102,4205.640923,4199.999897,4216.922974,4217.948615,4219.487076,4217.435794,4202.564,4192.82041,4200.512718,4215.384512,4175.384513,4200.512718,4202.564
55,0,4221.025538,4210.256307,4205.640923,4230.256307,4219.487076,4220.512717,4218.461435,4203.07682,4196.922974,4222.563999,4222.563999,4181.538359,4212.307589,4220.512717
56,0,4207.692205,4221.538358,4211.281948,4228.717845,4219.487076,4214.871692,4221.538358,4203.589641,4198.974256,4226.666563,4214.871692,4174.871693,4219.999897,4221.538358
57,0,4194.871692,4218.974256,4205.640923,4216.922974,4220.512717,4214.871692,4222.051179,4203.589641,4196.922974,4201.025538,4206.153743,4166.153744,4216.922974,4227.692204
58,0,4197.948615,4209.743487,4201.538359,4221.538358,4222.563999,4220.512717,4219.999897,4202.051179,4195.384513,4206.153743,4218.974256,4175.384513,4215.384512,4227.692204
59,0,4204.615282,4212.307589,4209.743487,4236.410153,4229.230666,4228.717845,4228.717845,4215.384512,4201.025538,4233.33323,4237.948614,4190.769128,4221.538358,4226.153743
60,0,4211.281948,4222.563999,4219.487076,4239.999896,4234.358871,4229.230666,4237.948614,4226.153743,4205.128102,4218.974256,4235.384512,4190.769128,4222.563999,4238.461435
61,0,4220.512717,4236.922973,4217.948615,4236.410153,4233.33323,4225.640922,4235.897332,4216.922974,4201.025538,4198.974256,4227.179384,4182.564,4218.461435,4249.743486
62,0,4218.461435,4244.10246,4215.897333,4242.051178,4231.794768,4226.153743,4231.794768,4210.769128,4202.564,4216.410153,4224.615281,4182.564,4213.846051,4238.974255
63,0,4207.179384,4243.58964,4217.435794,4247.179383,4233.84605,4227.692204,4229.743486,4217.948615,4205.128102,4228.205025,4212.307589,4186.153744,4203.07682,4219.487076
64,0,4211.794769,4244.615281,4217.435794,4237.435794,4234.358871,4224.102461,4223.07682,4214.871692,4197.435795,4209.230666,4199.487077,4180.512718,4182.564,4207.692205
65,0,4217.435794,4246.666563,4210.769128,4225.640922,4231.794768,4217.948615,4218.974256,4208.717846,4193.846051,4205.640923,4204.102461,4175.384513,4168.205026,4208.205025
66,0,4203.07682,4244.10246,4210.769128,4233.33323,4230.769127,4217.948615,4223.58964,4214.871692,4204.102461,4221.025538,4205.640923,4181.538359,4175.384513,4223.07682
67,0,4204.102461,4242.563999,4217.435794,4244.10246,4236.922973,4225.640922,4227.179384,4218.974256,4203.589641,4219.999897,4206.666564,4184.102462,4190.256308,4227.692204
68,0,4223.58964,4246.666563,4216.922974,4242.051178,4240.512717,4228.717845,4226.153743,4215.384512,4193.846051,4207.692205,4215.384512,4177.435795,4186.153744,4212.82041
69,0,4227.179384,4254.35887,4212.82041,4243.58964,4237.435794,4228.205025,4229.743486,4216.410153,4197.435795,4204.615282,4217.948615,4178.461436,4183.076821,4213.33323
70,0,4232.307589,4257.435793,4221.538358,4248.205024,4236.922973,4230.256307,4236.922973,4223.58964,4203.589641,4214.871692,4221.538358,4192.30759,4199.999897,4228.717845
71,0,4237.948614,4256.410152,4228.717845,4245.640922,4238.974255,4227.692204,4231.794768,4223.07682,4201.025538,4222.051179,4226.153743,4195.384513,4208.717846,4226.666563
72,0,4225.640922,4260.512716,4228.717845,4247.692204,4240.512717,4221.538358,4223.07682,4222.051179,4203.07682,4223.58964,4223.07682,4189.230667,4198.461436,4225.640922
73,0,4228.717845,4268.717844,4235.897332,4261.538357,4248.717845,4228.205025,4232.307589,4234.358871,4209.743487,4228.205025,4233.84605,4204.102461,4205.128102,4249.743486
74,0,4255.897332,4271.794767,4243.076819,4270.769126,4255.384511,4239.487076,4247.692204,4242.563999,4212.307589,4230.256307,4253.333229,4219.999897,4228.205025,4267.179383
75,0,4265.128101,4269.230665,4238.461435,4268.717844,4248.717845,4235.384512,4244.615281,4239.999896,4208.717846,4225.640922,4241.025537,4209.743487,4229.743486,4258.974255
76,0,4251.794768,4268.717844,4232.307589,4264.10246,4243.58964,4229.743486,4234.358871,4235.897332,4202.051179,4220.512717,4226.153743,4197.948615,4216.922974,4248.205024
77,0,4237.948614,4262.051178,4232.307589,4250.256306,4242.563999,4232.307589,4236.410153,4228.717845,4194.358872,4221.025538,4232.820409,4196.410154,4210.769128,4242.051178
78,0,4222.563999,4247.692204,4226.153743,4224.102461,4233.33323,4228.717845,4235.384512,4223.07682,4193.333231,4223.58964,4225.128102,4187.692205,4205.128102,4235.384512
79,0,4211.794769,4231.794768,4216.410153,4200.512718,4221.025538,4219.487076,4227.179384,4215.897333,4190.769128,4206.153743,4198.461436,4171.281949,4190.769128,4209.230666
80,0,4214.358871,4228.717845,4209.230666,4195.384513,4219.999897,4219.999897,4229.743486,4212.82041,4188.717846,4187.692205,4192.82041,4164.102462,4184.102462,4194.358872
81,0,4229.743486,4242.563999,4215.897333,4216.410153,4229.743486,4225.640922,4238.461435,4219.487076,4197.435795,4198.974256,4210.256307,4174.871693,4198.461436,4225.640922
82,0,4241.025537,4253.84605,4227.692204,4245.640922,4236.410153,4228.717845,4239.487076,4229.743486,4202.564,4225.640922,4228.205025,4191.281949,4209.743487,4246.666563
83,0,4223.58964,4239.487076,4221.538358,4244.10246,4227.179384,4225.640922,4233.84605,4226.666563,4194.871692,4218.461435,4212.82041,4179.487077,4189.230667,4217.948615
84,0,4204.615282,4229.230666,4209.230666,4231.794768,4222.563999,4226.153743,4233.33323,4222.563999,4194.358872,4195.897333,4190.256308,4165.640924,4174.871693,4199.487077
85,0,4219.487076,4238.974255,4212.82041,4241.538358,4227.179384,4230.256307,4234.871691,4226.153743,4198.461436,4196.922974,4206.153743,4177.948616,4194.358872,4224.615281
86,0,4229.230666,4234.871691,4211.281948,4244.10246,4222.563999,4226.666563,4233.84605,4226.153743,4192.30759,4205.128102,4217.948615,4178.461436,4198.461436,4228.205025
87,0,4209.230666,4224.615281,4205.128102,4235.384512,4217.948615,4223.58964,4231.794768,4223.58964,4189.230667,4202.564,4195.897333,4169.230667,4175.897334,4197.435795
88,0,4208.717846,4232.820409,4214.358871,4252.307588,4228.717845,4230.769127,4231.281948,4226.666563,4192.82041,4209.743487,4201.538359,4179.487077,4182.564,4199.487077
89,0,4234.358871,4239.487076,4224.615281,4270.256306,4234.358871,4233.84605,4234.358871,4230.256307,4195.384513,4229.230666,4229.743486,4184.615282,4211.281948,4238.461435
90,0,4229.230666,4232.820409,4214.871692,4255.897332,4226.666563,4229.230666,4235.897332,4226.666563,4194.871692,4222.563999,4211.281948,4170.769129,4206.153743,4245.128101
91,0,4199.487077,4224.615281,4206.153743,4242.563999,4222.563999,4226.666563,4229.743486,4224.102461,4193.846051,4190.769128,4190.256308,4167.692206,4181.025539,4209.743487
92,0,4204.615282,4222.563999,4212.82041,4249.230665,4223.58964,4227.179384,4227.692204,4232.307589,4198.974256,4188.205026,4213.33323,4179.999898,4183.589641,4203.07682
93,0,4230.769127,4231.794768,4219.487076,4250.256306,4224.102461,4228.205025,4233.33323,4237.948614,4207.179384,4221.538358,4223.07682,4185.640923,4205.128102,4231.794768
94,0,4218.461435,4236.410153,4212.82041,4245.128101,4223.07682,4223.58964,4231.281948,4233.84605,4203.589641,4238.461435,4207.179384,4182.564,4204.615282,4233.33323
95,0,4203.07682,4227.692204,4203.07682,4247.692204,4222.563999,4224.102461,4231.281948,4235.897332,4202.051179,4228.205025,4212.307589,4182.564,4192.30759,4210.769128
96,0,4222.051179,4222.563999,4206.153743,4251.281947,4223.58964,4233.33323,4235.384512,4238.461435,4208.205025,4225.128102,4221.538358,4186.153744,4197.435795,4208.205025
97,0,4225.640922,4227.179384,4208.717846,4251.281947,4225.640922,4238.461435,4237.948614,4238.461435,4204.102461,4232.820409,4212.82041,4179.487077,4208.205025,4226.666563
98,0,4198.974256,4224.615281,4203.589641,4253.84605,4226.153743,4236.922973,4240.512717,4241.025537,4197.948615,4223.58964,4207.692205,4170.256308,4199.487077,4233.33323
99,0,4205.128102,4224.615281,4207.692205,4262.563998,4228.205025,4234.358871,4239.999896,4239.487076,4202.051179,4213.33323,4215.384512,4178.974257,4198.974256,4224.102461
100,0,4228.717845,4231.281948,4216.410153,4264.61528,4228.205025,4225.640922,4232.307589,4234.358871,4201.025538,4213.33323,4217.435794,4185.128103,4210.769128,4217.435794
101,0,4225.128102,4230.256307,4209.743487,4254.871691,4225.640922,4225.128102,4235.384512,4236.922973,4195.384513,4215.384512,4224.102461,4184.615282,4210.769128,4222.051179
102,0,4217.948615,4221.025538,4206.666564,4247.692204,4224.615281,4230.769127,4241.025537,4241.025537,4195.384513,4223.07682,4228.205025,4191.794769,4206.666564,4229.230666
103,0,4215.384512,4217.948615,4215.384512,4232.820409,4223.07682,4221.025538,4230.256307,4234.358871,4195.384513,4233.84605,4216.410153,4187.692205,4208.205025,4229.743486
104,0,4214.358871,4220.512717,4215.897333,4206.666564,4219.487076,4210.256307,4223.07682,4224.615281,4191.794769,4216.922974,4198.461436,4173.846052,4198.974256,4216.410153
105,0,4223.07682,4221.538358,4205.128102,4193.333231,4218.461435,4219.999897,4231.281948,4221.538358,4187.692205,4190.769128,4200.512718,4175.897334,4193.333231,4204.102461
106,0,4225.640922,4218.461435,4202.564,4194.358872,4216.922974,4226.666563,4234.871691,4223.58964,4185.640923,4196.410154,4212.82041,4182.05118,4200.512718,4205.640923
107,0,4219.999897,4219.487076,4209.743487,4199.999897,4213.846051,4213.846051,4225.640922,4224.615281,4187.692205,4217.948615,4215.384512,4179.487077,4205.128102,4226.666563
108,0,4225.128102,4225.640922,4216.410153,4211.794769,4217.948615,4210.769128,4222.563999,4225.128102,4192.82041,4227.179384,4212.307589,4182.564,4208.717846,4242.051178
109,0,4230.769127,4222.563999,4213.846051,4214.871692,4218.461435,4219.999897,4228.717845,4226.666563,4190.256308,4212.82041,4209.743487,4179.487077,4208.205025,4226.153743
110,0,4229.743486,4216.922974,4207.692205,4208.717846,4211.794769,4217.435794,4227.692204,4223.07682,4186.666564,4198.974256,4202.051179,4166.153744,4198.974256,4212.307589
111,0,4220.512717,4219.487076,4211.281948,4216.410153,4210.769128,4214.871692,4225.128102,4217.948615,4187.179385,4208.205025,4197.435795,4168.205026,4200.512718,4221.025538
112,0,4210.769128,4228.205025,4214.358871,4231.281948,4219.999897,4223.58964,4234.358871,4224.615281,4192.30759,4219.999897,4211.281948,4185.128103,4216.922974,4230.769127
113,0,4218.974256,4230.769127,4212.82041,4238.974255,4226.153743,4226.153743,4236.922973,4228.717845,4193.846051,4217.948615,4227.692204,4189.743487,4224.615281,4218.974256
114,0,4231.281948,4228.205025,4210.769128,4242.563999,4225.640922,4220.512717,4231.794768,4223.58964,4191.794769,4214.871692,4225.128102,4177.948616,4220.512717,4216.410153
115,0,4234.871691,4233.33323,4211.794769,4251.794768,4224.615281,4223.58964,4235.384512,4224.615281,4194.871692,4216.922974,4220.512717,4176.922975,4217.435794,4231.281948
116,0,4235.384512,4247.179383,4213.846051,4269.743485,4231.281948,4231.794768,4242.051178,4240.512717,4207.692205,4234.871691,4239.999896,4193.333231,4228.205025,4243.076819
117,0,4227.692204,4244.615281,4217.948615,4281.538357,4235.897332,4233.84605,4242.563999,4245.128101,4210.769128,4248.717845,4241.538358,4192.82041,4236.922973,4250.769127
118,0,4231.794768,4231.794768,4214.871692,4274.87169,4230.256307,4228.717845,4237.435794,4234.871691,4198.974256,4234.358871,4216.922974,4179.487077,4235.384512,4249.230665
119,0,4242.563999,4238.974255,4212.82041,4268.717844,4228.717845,4223.07682,4233.84605,4230.769127,4193.846051,4223.07682,4221.025538,4184.102462,4232.307589,4233.33323
120,0,4236.410153,4247.692204,4211.794769,4269.230665,4233.84605,4227.692204,4236.922973,4230.256307,4197.948615,4231.794768,4239.487076,4187.692205,4234.358871,4233.33323
121,0,4227.692204,4237.435794,4210.769128,4264.10246,4229.230666,4228.205025,4234.871691,4225.640922,4195.384513,4222.563999,4225.640922,4172.820411,4232.820409,4242.563999
122,0,4226.666563,4235.897332,4211.281948,4263.076819,4222.563999,4222.563999,4226.666563,4224.615281,4191.281949,4212.82041,4216.410153,4166.666565,4224.102461,4236.410153
123,0,4230.256307,4239.999896,4209.743487,4265.640921,4224.615281,4223.58964,4227.179384,4229.230666,4195.384513,4224.615281,4229.230666,4176.410154,4217.948615,4227.692204
124,0,4241.538358,4237.948614,4207.179384,4263.589639,4229.230666,4224.102461,4228.717845,4228.717845,4197.435795,4226.666563,4225.640922,4184.102462,4224.102461,4226.153743
125,0,4237.435794,4241.025537,4210.256307,4266.666562,4229.230666,4221.538358,4223.58964,4227.692204,4197.435795,4215.897333,4215.897333,4186.153744,4229.230666,4216.410153
126,0,4222.563999,4244.615281,4211.794769,4273.333229,4226.666563,4224.615281,4224.102461,4230.769127,4201.025538,4217.948615,4221.538358,4184.615282,4222.051179,4218.974256
127,0,4225.128102,4230.256307,4209.230666,4266.153742,4223.07682,4221.538358,4227.179384,4227.179384,4205.128102,4230.256307,4223.58964,4183.076821,4216.410153,4235.384512
128,0,4219.487076,4218.974256,4209.743487,4254.871691,4221.538358,4208.717846,4223.58964,4221.025538,4201.025538,4225.640922,4217.435794,4183.076821,4214.871692,4237.435794
0,0,4214.871692,4230.769127,4213.33323,4259.999896,4224.102461,4211.794769,4224.615281,4225.640922,4199.487077,4208.205025,4217.435794,4184.615282,4217.948615,4242.051178
1,0,4232.820409,4240.512717,4214.871692,4265.640921,4227.692204,4224.102461,4224.615281,4228.205025,4201.025538,4208.717846,4221.538358,4182.05118,4225.128102,4235.384512
2,0,4242.051178,4239.487076,4214.358871,4265.640921,4231.794768,4225.128102,4224.102461,4226.153743,4206.666564,4227.692204,4229.743486,4183.076821,4230.769127,4222.051179
3,0,4238.974255,4236.922973,4213.33323,4266.666562,4230.256307,4219.999897,4229.230666,4226.153743,4206.153743,4237.435794,4230.256307,4190.769128,4231.794768,4229.230666
4,0,4237.948614,4233.84605,4212.82041,4254.35887,4229.230666,4222.051179,4230.256307,4227.179384,4198.461436,4226.666563,4221.025538,4192.82041,4230.769127,4238.974255
5,0,4225.640922,4231.281948,4213.846051,4242.563999,4228.717845,4225.640922,4228.717845,4228.717845,4197.948615,4221.538358,4226.666563,4189.743487,4226.666563,4241.025537
6,0,4219.487076,4236.410153,4212.82041,4252.820409,4228.205025,4220.512717,4228.717845,4235.384512,4210.256307,4237.948614,4247.179383,4192.30759,4232.820409,4246.666563
7,0,4243.076819,4243.58964,4216.922974,4265.640921,4227.692204,4213.33323,4226.153743,4237.435794,4215.897333,4247.179383,4245.128101,4198.974256,4243.076819,4243.076819
8,0,4258.974255,4248.205024,4225.128102,4272.307588,4231.281948,4217.435794,4225.640922,4232.307589,4212.307589,4244.10246,4229.230666,4198.461436,4243.58964,4240.512717
9,0,4243.076819,4246.153742,4223.58964,4274.87169,4233.33323,4224.102461,4227.692204,4229.230666,4214.358871,4242.563999,4231.794768,4189.743487,4241.025537,4252.820409
10,0,4233.33323,4241.025537,4215.897333,4265.128101,4231.281948,4222.563999,4227.179384,4227.692204,4216.922974,4232.307589,4241.025537,4184.102462,4244.10246,4255.384511
11,0,4242.563999,4238.974255,4214.871692,4258.974255,4232.307589,4222.051179,4224.615281,4228.717845,4212.307589,4209.230666,4237.435794,4187.179385,4245.128101,4244.10246
12,0,4244.615281,4243.076819,4217.948615,4271.794767,4236.410153,4226.153743,4229.743486,4233.84605,4209.230666,4212.307589,4233.84605,4186.666564,4243.076819,4248.717845
13,0,4236.922973,4242.563999,4224.102461,4278.974254,4234.871691,4225.128102,4230.769127,4230.256307,4207.179384,4237.435794,4233.84605,4183.076821,4242.051178,4258.974255
14,0,4237.948614,4243.58964,4226.666563,4275.897331,4231.281948,4223.07682,4226.153743,4221.025538,4209.743487,4247.692204,4235.897332,4195.384513,4245.640922,4251.794768
15,0,4246.666563,4247.692204,4221.025538,4275.384511,4231.281948,4221.025538,4224.102461,4226.153743,4219.487076,4242.563999,4241.025537,4205.640923,4250.769127,4241.025537
16,0,4249.743486,4247.692204,4215.384512,4268.205024,4234.871691,4219.487076,4228.205025,4237.948614,4223.07682,4236.922973,4246.153742,4198.461436,4251.794768,4247.179383
17,0,4245.640922,4245.640922,4221.538358,4263.076819,4236.922973,4224.102461,4229.230666,4237.948614,4222.051179,4236.922973,4243.076819,4196.922974,4251.794768,4261.025537
18,0,4236.922973,4241.538358,4226.153743,4270.769126,4237.435794,4228.205025,4224.615281,4233.33323,4224.615281,4237.948614,4238.974255,4201.025538,4251.281947,4252.307588
19,0,4232.820409,4237.948614,4222.563999,4276.410152,4234.358871,4226.153743,4226.666563,4238.461435,4230.256307,4237.948614,4239.999896,4196.410154,4251.281947,4243.58964
20,0,4234.358871,4236.410153,4221.025538,4275.897331,4230.769127,4224.615281,4228.717845,4241.025537,4235.384512,4232.820409,4238.461435,4187.692205,4247.692204,4255.897332
21,0,4246.153742,4244.615281,4226.666563,4279.487075,4233.33323,4231.281948,4228.205025,4236.410153,4244.615281,4239.487076,4242.051178,4193.846051,4246.666563,4265.640921
22,0,4261.538357,4251.794768,4235.384512,4282.051177,4238.461435,4240.512717,4232.307589,4236.922973,4252.820409,4255.384511,4245.640922,4207.179384,4253.333229,4259.999896
23,0,4258.974255,4249.230665,4235.897332,4282.051177,4238.974255,4239.999896,4237.435794,4241.025537,4253.84605,4258.461434,4252.307588,4207.179384,4253.333229,4254.35887
24,0,4241.538358,4242.051178,4233.33323,4282.051177,4237.435794,4235.897332,4234.358871,4240.512717,4250.769127,4247.179383,4252.307588,4196.922974,4246.153742,4256.410152
25,0,4236.410153,4244.10246,4231.794768,4271.281947,4241.538358,4237.948614,4233.33323,4240.512717,4246.666563,4245.128101,4234.871691,4193.333231,4253.333229,4256.410152
26,0,4252.307588,4250.256306,4233.33323,4261.538357,4241.538358,4238.974255,4236.922973,4239.999896,4243.58964,4238.974255,4230.256307,4200.512718,4259.999896,4248.717845
27,0,4266.153742,4248.717845,4234.358871,4270.256306,4239.999896,4238.461435,4235.897332,4241.025537,4242.051178,4227.692204,4245.128101,4204.615282,4249.743486,4240.512717
28,0,4260.512716,4244.10246,4235.897332,4278.974254,4238.974255,4233.33323,4227.692204,4239.999896,4241.538358,4238.461435,4244.10246,4199.487077,4245.640922,4243.58964
29,0,4245.128101,4247.179383,4235.897332,4281.538357,4238.974255,4225.640922,4224.102461,4234.358871,4237.435794,4256.922973,4236.922973,4192.30759,4258.461434,4259.487075
30,0,4243.58964,4244.10246,4233.84605,4279.487075,4235.897332,4230.769127,4228.717845,4230.769127,4228.717845,4248.205024,4238.974255,4189.743487,4249.230665,4252.820409
31,0,4257.948614,4236.410153,4232.820409,4268.717844,4231.794768,4239.999896,4231.281948,4232.307589,4223.58964,4236.410153,4226.666563,4185.640923,4232.820409,4233.84605
32,0,4264.61528,4238.974255,4235.384512,4265.640921,4232.820409,4227.179384,4225.128102,4234.358871,4226.153743,4245.640922,4217.435794,4184.102462,4242.563999,4231.794768
33,0,4255.384511,4239.487076,4233.84605,4267.179383,4233.33323,4214.358871,4221.025538,4234.871691,4226.666563,4236.410153,4231.794768,4186.666564,4254.871691,4235.384512
34,0,4249.230665,4233.33323,4228.205025,4255.897332,4232.820409,4226.153743,4227.179384,4237.948614,4225.128102,4212.82041,4239.999896,4192.30759,4250.256306,4245.128101
35,0,4253.333229,4239.999896,4231.794768,4253.333229,4236.922973,4231.794768,4230.769127,4239.487076,4225.128102,4225.128102,4235.897332,4196.922974,4246.153742,4256.410152
36,0,4253.84605,4246.153742,4239.487076,4267.179383,4241.538358,4229.743486,4225.128102,4239.999896,4224.102461,4249.743486,4233.33323,4194.358872,4246.153742,4239.999896
37,0,4253.333229,4240.512717,4237.948614,4267.179383,4241.538358,4234.358871,4226.153743,4242.563999,4223.58964,4248.205024,4230.769127,4191.794769,4245.128101,4221.538358
38,0,4259.999896,4240.512717,4229.230666,4260.512716,4237.948614,4232.820409,4232.820409,4241.025537,4226.153743,4242.563999,4231.794768,4193.333231,4251.281947,4241.025537
39,0,4255.897332,4234.358871,4221.025538,4264.10246,4227.692204,4225.640922,4230.769127,4234.871691,4224.615281,4239.487076,4230.256307,4184.615282,4243.076819,4249.743486
40,0,4246.153742,4226.666563,4217.948615,4265.128101,4223.07682,4227.179384,4223.58964,4234.358871,4223.07682,4224.615281,4223.58964,4176.922975,4223.58964,4228.717845
41,0,4240.512717,4233.84605,4227.692204,4267.179383,4233.84605,4227.692204,4224.615281,4239.487076,4227.692204,4224.615281,4221.538358,4185.640923,4227.692204,4229.230666
42,0,4235.897332,4236.922973,4232.820409,4263.076819,4238.974255,4228.205025,4233.84605,4245.128101,4230.769127,4240.512717,4230.256307,4192.30759,4246.153742,4236.410153
43,0,4234.358871,4223.58964,4220.512717,4251.281947,4227.179384,4232.307589,4236.922973,4243.076819,4224.615281,4226.153743,4230.769127,4180.512718,4241.025537,4225.640922
44,0,4246.153742,4221.538358,4213.33323,4253.84605,4224.615281,4230.256307,4229.743486,4235.384512,4219.999897,4203.07682,4219.487076,4170.256308,4224.102461,4222.563999
45,0,4254.871691,4235.384512,4225.640922,4271.794767,4234.871691,4221.538358,4222.051179,4230.256307,4220.512717,4218.974256,4218.974256,4182.05118,4227.179384,4221.025538
46,0,4251.794768,4241.538358,4232.307589,4274.87169,4234.358871,4222.563999,4223.07682,4234.358871,4221.538358,4247.692204,4235.384512,4198.974256,4247.692204,4225.128102
47,0,4254.35887,4238.974255,4231.281948,4267.179383,4228.205025,4231.794768,4228.205025,4238.461435,4220.512717,4242.563999,4238.974255,4193.846051,4252.307588,4247.179383
48,0,4258.974255,4243.58964,4234.871691,4268.717844,4235.897332,4235.384512,4229.230666,4234.871691,4219.487076,4234.871691,4237.948614,4181.025539,4245.640922,4254.35887
49,0,4257.435793,4243.076819,4238.974255,4272.820408,4241.025537,4229.230666,4228.717845,4232.307589,4221.538358,4246.153742,4246.153742,4186.153744,4247.179383,4246.666563
50,0,4259.487075,4237.435794,4237.435794,4270.256306,4236.410153,4227.179384,4229.230666,4235.384512,4226.153743,4241.538358,4241.025537,4198.974256,4252.820409,4248.205024
51,0,4261.538357,4239.999896,4239.487076,4266.153742,4237.948614,4231.794768,4228.205025,4239.487076,4225.128102,4229.743486,4228.205025,4201.538359,4252.820409,4236.922973
52,0,4261.538357,4246.666563,4246.666563,4269.743485,4241.025537,4233.33323,4226.666563,4242.051178,4222.563999,4243.58964,4239.999896,4199.999897,4255.384511,4233.84605
