title:V                                                                               , recorded:06.07.20 13.57.02, sampling:128, subject:B                                                                               , labels:COUNTER INTERPOLATED AF3 F7 F3 FC5 T7 P7 O1 O2 P8 T8 FC6 F4 F8 AF4,, units:emotiv,,,,,,,,,
126,0,4179.999898,4187.692205,4199.487077,4151.28195,4210.256307,4215.897333,4202.564,4203.589641,4195.897333,4160.512719,4183.589641,4163.589642,4178.461436,4175.384513
127,0,4199.487077,4192.30759,4209.230666,4175.897334,4196.410154,4217.948615,4208.717846,4213.33323,4203.589641,4189.743487,4197.948615,4181.025539,4203.589641,4187.179385
128,0,4230.256307,4207.179384,4217.435794,4211.281948,4193.333231,4221.538358,4211.794769,4222.051179,4216.410153,4229.743486,4216.410153,4185.640923,4235.384512,4216.922974
0,0,4252.307588,4217.435794,4220.512717,4220.512717,4211.794769,4228.717845,4208.205025,4224.102461,4218.461435,4211.794769,4230.769127,4184.615282,4244.10246,4244.10246
1,0,4245.128101,4218.974256,4222.563999,4216.410153,4222.051179,4234.871691,4212.82041,4231.794768,4221.025538,4209.743487,4238.461435,4198.974256,4256.410152,4267.692203
2,0,4218.974256,4212.307589,4222.563999,4216.410153,4206.666564,4224.102461,4215.384512,4234.871691,4222.051179,4249.743486,4235.384512,4201.538359,4257.948614,4264.10246
3,0,4218.461435,4206.153743,4217.435794,4217.435794,4197.948615,4215.384512,4202.564,4220.512717,4211.281948,4240.512717,4230.256307,4187.179385,4240.512717,4245.128101
4,0,4246.153742,4211.794769,4218.461435,4217.435794,4213.846051,4222.051179,4195.897333,4209.743487,4208.717846,4195.897333,4234.358871,4190.769128,4236.922973,4243.076819
5,0,4253.333229,4217.948615,4224.615281,4219.487076,4217.435794,4221.538358,4206.666564,4215.384512,4219.999897,4195.384513,4237.948614,4204.102461,4246.153742,4245.128101
6,0,4235.384512,4212.307589,4229.230666,4224.615281,4205.640923,4212.82041,4206.153743,4219.999897,4221.025538,4207.692205,4227.179384,4204.615282,4240.512717,4234.871691
7,0,4218.461435,4206.153743,4226.153743,4226.153743,4209.230666,4211.281948,4194.871692,4210.769128,4213.846051,4211.794769,4216.410153,4198.461436,4232.307589,4231.281948
8,0,4217.435794,4210.256307,4227.692204,4227.179384,4212.307589,4216.410153,4198.461436,4208.205025,4209.743487,4211.794769,4220.512717,4196.922974,4234.358871,4244.10246
9,0,4228.717845,4215.384512,4234.871691,4232.820409,4194.871692,4217.435794,4206.666564,4215.384512,4206.666564,4191.281949,4232.820409,4197.948615,4233.84605,4253.84605
10,0,4233.84605,4212.307589,4228.205025,4232.820409,4192.30759,4211.794769,4204.102461,4216.410153,4208.717846,4197.435795,4229.743486,4192.82041,4227.179384,4247.179383
11,0,4234.358871,4206.153743,4216.410153,4219.999897,4206.153743,4209.230666,4201.538359,4209.230666,4214.871692,4231.794768,4213.846051,4182.564,4229.230666,4227.692204
12,0,4246.153742,4208.205025,4213.33323,4213.846051,4208.717846,4217.948615,4206.153743,4213.33323,4221.538358,4234.358871,4218.974256,4181.538359,4237.435794,4219.487076
13,0,4243.58964,4214.358871,4217.948615,4219.487076,4209.743487,4227.179384,4207.692205,4222.051179,4224.615281,4212.82041,4232.820409,4188.717846,4232.820409,4225.128102
14,0,4211.281948,4208.717846,4217.948615,4209.230666,4210.256307,4223.07682,4207.179384,4219.487076,4218.461435,4203.07682,4218.974256,4184.615282,4222.563999,4225.128102
15,0,4195.384513,4193.333231,4212.82041,4193.333231,4192.82041,4208.717846,4203.07682,4210.769128,4203.589641,4202.564,4199.487077,4176.410154,4216.922974,4220.512717
16,0,4217.948615,4196.410154,4213.846051,4205.128102,4191.281949,4209.743487,4203.07682,4213.846051,4203.07682,4215.897333,4213.33323,4180.512718,4224.102461,4225.128102
17,0,4227.692204,4208.717846,4222.051179,4227.692204,4215.897333,4221.538358,4207.692205,4222.563999,4215.897333,4209.230666,4227.692204,4186.666564,4229.743486,4224.615281
18,0,4209.743487,4205.128102,4223.07682,4229.743486,4223.07682,4222.051179,4207.179384,4220.512717,4216.922974,4193.846051,4220.512717,4184.615282,4224.615281,4224.102461
19,0,4210.256307,4199.487077,4219.999897,4227.179384,4203.07682,4212.82041,4199.999897,4215.384512,4208.205025,4199.487077,4214.358871,4185.128103,4217.435794,4217.435794
20,0,4231.794768,4208.205025,4222.051179,4230.769127,4198.461436,4212.307589,4195.384513,4217.948615,4208.205025,4182.564,4215.384512,4186.153744,4216.410153,4206.666564
21,0,4222.563999,4200.512718,4218.461435,4219.487076,4202.564,4209.230666,4193.333231,4211.794769,4206.666564,4149.230668,4204.102461,4174.871693,4210.256307,4206.153743
22,0,4197.948615,4191.281949,4211.794769,4208.717846,4198.461436,4207.692205,4194.871692,4204.615282,4205.640923,4184.102462,4200.512718,4173.333231,4208.717846,4212.307589
23,0,4210.769128,4206.666564,4218.461435,4221.538358,4202.051179,4214.358871,4196.410154,4213.33323,4210.769128,4233.84605,4213.846051,4186.153744,4220.512717,4215.897333
24,0,4231.794768,4217.948615,4222.051179,4228.205025,4213.33323,4216.410153,4195.897333,4219.999897,4212.307589,4218.461435,4221.538358,4184.615282,4229.743486,4220.512717
25,0,4232.820409,4209.230666,4219.999897,4223.07682,4213.33323,4218.461435,4197.948615,4217.435794,4213.33323,4201.025538,4222.563999,4176.410154,4230.769127,4218.461435
26,0,4230.769127,4206.153743,4221.538358,4229.230666,4211.794769,4225.640922,4199.999897,4217.948615,4215.897333,4213.846051,4225.128102,4183.589641,4229.230666,4206.666564
27,0,4207.692205,4207.179384,4222.051179,4229.230666,4217.948615,4226.153743,4197.948615,4220.512717,4212.82041,4214.871692,4218.461435,4191.794769,4222.051179,4210.769128
28,0,4176.922975,4196.410154,4216.922974,4211.281948,4211.281948,4218.461435,4195.384513,4214.871692,4207.692205,4179.487077,4203.589641,4182.564,4208.205025,4208.717846
29,0,4201.538359,4191.794769,4212.82041,4208.205025,4201.025538,4218.461435,4197.435795,4207.692205,4207.692205,4153.333232,4202.051179,4171.79477,4205.640923,4193.846051
30,0,4234.871691,4191.281949,4212.82041,4217.948615,4204.102461,4222.563999,4195.897333,4202.564,4204.615282,4173.333231,4202.051179,4170.769129,4210.256307,4199.999897
31,0,4210.769128,4187.179385,4209.743487,4212.307589,4209.230666,4222.051179,4193.333231,4203.589641,4205.128102,4194.871692,4198.974256,4171.281949,4205.640923,4216.410153
32,0,4187.179385,4189.230667,4207.692205,4206.666564,4207.692205,4218.974256,4193.333231,4211.794769,4211.281948,4195.384513,4206.153743,4174.358872,4198.461436,4203.589641
33,0,4198.974256,4198.974256,4210.256307,4212.307589,4210.769128,4215.897333,4193.333231,4216.922974,4211.794769,4224.615281,4224.615281,4179.999898,4213.33323,4190.256308
34,0,4202.051179,4197.435795,4214.358871,4209.743487,4216.410153,4214.871692,4191.794769,4210.769128,4206.153743,4234.871691,4227.179384,4180.512718,4230.256307,4213.33323
35,0,4206.153743,4196.922974,4214.358871,4211.281948,4210.769128,4220.512717,4193.333231,4208.717846,4207.692205,4177.435795,4220.512717,4182.564,4228.205025,4234.871691
36,0,4216.410153,4204.102461,4216.410153,4216.922974,4196.410154,4225.640922,4197.435795,4217.435794,4210.769128,4170.769129,4225.128102,4190.256308,4219.487076,4221.538358
37,0,4215.384512,4203.07682,4214.358871,4200.512718,4194.871692,4216.410153,4194.871692,4217.948615,4211.281948,4227.179384,4220.512717,4181.538359,4212.82041,4205.640923
38,0,4219.999897,4197.435795,4209.743487,4188.717846,4207.179384,4204.102461,4187.692205,4207.179384,4208.205025,4210.769128,4201.538359,4169.743488,4209.230666,4198.461436
39,0,4217.948615,4204.615282,4211.794769,4209.230666,4219.487076,4207.179384,4186.666564,4210.256307,4204.102461,4160.512719,4204.102461,4174.358872,4211.281948,4199.999897
40,0,4193.846051,4205.640923,4216.410153,4219.487076,4215.384512,4215.897333,4191.794769,4221.538358,4209.743487,4180.512718,4215.384512,4180.512718,4212.307589,4209.743487
41,0,4204.615282,4201.538359,4213.846051,4211.281948,4209.743487,4224.102461,4199.487077,4226.666563,4217.948615,4219.999897,4213.846051,4181.538359,4217.435794,4221.025538
42,0,4239.999896,4204.615282,4213.846051,4219.487076,4214.358871,4223.07682,4198.461436,4222.563999,4213.33323,4204.615282,4214.358871,4182.05118,4216.410153,4213.33323
43,0,4227.692204,4206.153743,4218.974256,4230.256307,4215.384512,4215.897333,4196.410154,4219.999897,4213.846051,4201.025538,4218.461435,4182.564,4209.743487,4198.974256
44,0,4212.307589,4210.256307,4221.538358,4230.256307,4214.871692,4217.435794,4200.512718,4226.153743,4230.769127,4242.051178,4225.640922,4185.640923,4228.205025,4225.640922
45,0,4234.871691,4216.922974,4216.922974,4229.743486,4218.461435,4223.07682,4199.999897,4226.153743,4227.692204,4238.974255,4234.358871,4188.205026,4252.820409,4255.384511
46,0,4227.692204,4211.281948,4213.846051,4225.640922,4213.33323,4220.512717,4192.82041,4216.410153,4211.281948,4196.922974,4228.717845,4184.102462,4242.051178,4225.128102
47,0,4196.410154,4203.07682,4219.999897,4223.58964,4203.07682,4213.33323,4191.794769,4213.846051,4211.281948,4202.564,4219.487076,4181.538359,4224.102461,4197.435795
48,0,4209.230666,4208.205025,4221.538358,4226.153743,4211.794769,4212.82041,4199.999897,4219.487076,4212.307589,4220.512717,4227.179384,4186.666564,4228.717845,4224.102461
49,0,4216.922974,4205.640923,4214.871692,4218.974256,4215.384512,4210.769128,4197.435795,4213.33323,4204.102461,4179.487077,4222.563999,4187.692205,4228.205025,4233.84605
50,0,4194.871692,4193.333231,4208.717846,4211.794769,4206.153743,4207.692205,4188.205026,4207.179384,4203.589641,4158.461437,4207.692205,4177.948616,4218.461435,4204.102461
51,0,4201.538359,4190.769128,4203.07682,4218.974256,4207.692205,4210.256307,4190.256308,4208.205025,4204.615282,4209.743487,4208.717846,4166.153744,4210.256307,4188.205026
52,0,4219.487076,4196.410154,4197.948615,4223.58964,4209.743487,4211.794769,4197.435795,4203.589641,4204.102461,4225.640922,4216.922974,4166.666565,4213.33323,4195.384513
53,0,4203.589641,4194.358872,4200.512718,4218.974256,4201.025538,4205.640923,4191.794769,4190.769128,4209.230666,4182.05118,4221.025538,4170.769129,4217.948615,4209.230666
54,0,4187.692205,4195.384513,4201.025538,4214.871692,4200.512718,4211.281948,4187.692205,4189.230667,4217.948615,4185.640923,4222.051179,4165.640924,4219.999897,4218.461435
55,0,4196.922974,4205.640923,4198.461436,4220.512717,4207.179384,4224.102461,4195.384513,4195.384513,4219.999897,4223.58964,4213.33323,4168.717847,4225.128102,4205.128102
56,0,4212.307589,4211.794769,4201.538359,4229.743486,4214.871692,4219.487076,4194.871692,4188.205026,4215.897333,4227.179384,4210.256307,4177.435795,4232.307589,4193.333231
57,0,4222.051179,4212.307589,4206.666564,4230.769127,4217.435794,4209.743487,4193.333231,4179.999898,4216.410153,4213.846051,4218.461435,4172.30759,4223.07682,4209.230666
58,0,4219.487076,4216.922974,4207.692205,4234.358871,4213.33323,4217.435794,4201.538359,4187.692205,4216.922974,4203.07682,4219.487076,4167.692206,4211.794769,4229.743486
59,0,4199.487077,4209.743487,4205.640923,4238.461435,4207.179384,4213.846051,4202.051179,4190.256308,4210.769128,4187.692205,4213.33323,4172.30759,4213.846051,4219.999897
60,0,4173.846052,4193.333231,4198.974256,4212.82041,4207.179384,4198.974256,4194.871692,4178.974257,4205.640923,4195.897333,4209.230666,4165.128103,4211.794769,4192.30759
61,0,4176.410154,4191.794769,4195.897333,4187.179385,4210.769128,4204.102461,4195.897333,4175.897334,4207.179384,4187.692205,4199.999897,4156.922975,4198.974256,4177.435795
62,0,4204.615282,4199.999897,4195.897333,4204.102461,4214.871692,4217.948615,4200.512718,4188.205026,4205.640923,4140.512719,4199.999897,4165.128103,4201.025538,4181.538359
63,0,4213.846051,4204.102461,4197.948615,4228.205025,4216.410153,4219.999897,4199.487077,4196.410154,4210.769128,4164.102462,4219.999897,4173.333231,4220.512717,4204.615282
64,0,4209.230666,4211.794769,4204.102461,4224.102461,4211.281948,4214.358871,4196.410154,4192.30759,4222.051179,4236.922973,4226.666563,4172.820411,4227.692204,4229.230666
65,0,4209.230666,4219.487076,4206.666564,4219.487076,4211.281948,4214.358871,4196.922974,4192.30759,4222.563999,4243.076819,4219.999897,4174.871693,4223.07682,4224.102461
66,0,4195.384513,4216.922974,4200.512718,4224.615281,4221.538358,4218.974256,4201.025538,4196.922974,4219.999897,4204.102461,4224.615281,4176.922975,4225.128102,4205.640923
67,0,4198.461436,4218.974256,4202.564,4229.230666,4229.743486,4221.538358,4205.640923,4200.512718,4228.205025,4201.025538,4233.84605,4177.435795,4235.384512,4216.922974
68,0,4234.871691,4228.205025,4212.307589,4234.358871,4226.666563,4217.948615,4208.205025,4202.564,4228.205025,4214.871692,4222.563999,4179.999898,4237.948614,4232.820409
69,0,4240.512717,4227.179384,4209.743487,4234.871691,4217.948615,4216.410153,4206.153743,4196.410154,4216.410153,4223.58964,4212.307589,4174.358872,4228.717845,4224.615281
70,0,4212.307589,4221.025538,4204.102461,4228.205025,4214.871692,4216.922974,4198.974256,4185.640923,4216.410153,4216.410153,4220.512717,4168.717847,4217.948615,4214.871692
71,0,4200.512718,4221.538358,4205.128102,4227.692204,4218.461435,4216.410153,4199.487077,4188.717846,4225.128102,4188.205026,4229.743486,4174.358872,4223.07682,4218.461435
72,0,4193.333231,4217.948615,4205.640923,4233.84605,4215.384512,4217.435794,4203.589641,4195.384513,4223.58964,4196.922974,4224.615281,4180.512718,4227.692204,4211.794769
73,0,4194.871692,4211.281948,4200.512718,4229.743486,4208.717846,4218.974256,4203.589641,4194.871692,4221.538358,4223.58964,4215.897333,4171.281949,4223.07682,4192.82041
74,0,4208.205025,4205.128102,4194.358872,4217.948615,4208.717846,4215.897333,4203.07682,4195.384513,4222.051179,4198.974256,4212.82041,4158.461437,4217.948615,4194.358872
75,0,4212.82041,4206.153743,4192.30759,4218.461435,4211.794769,4212.82041,4205.640923,4199.487077,4219.999897,4188.717846,4210.256307,4161.025539,4221.538358,4212.82041
76,0,4211.281948,4213.846051,4201.538359,4228.205025,4212.82041,4216.922974,4204.102461,4201.538359,4220.512717,4229.743486,4213.846051,4172.30759,4226.666563,4221.538358
77,0,4195.897333,4213.846051,4203.07682,4226.153743,4215.384512,4218.974256,4198.974256,4207.179384,4224.615281,4236.922973,4227.179384,4175.897334,4227.692204,4216.922974
78,0,4178.974257,4205.640923,4196.922974,4216.410153,4213.846051,4216.922974,4199.999897,4211.281948,4222.563999,4223.58964,4229.743486,4174.871693,4226.666563,4196.922974
79,0,4197.435795,4211.794769,4201.538359,4214.871692,4212.307589,4218.974256,4204.102461,4207.692205,4222.563999,4232.307589,4218.974256,4179.999898,4226.666563,4180.512718
80,0,4229.743486,4225.640922,4214.871692,4224.102461,4220.512717,4225.128102,4203.589641,4205.640923,4227.179384,4215.384512,4222.051179,4183.589641,4231.794768,4201.538359
81,0,4224.102461,4223.07682,4212.82041,4221.538358,4222.051179,4223.58964,4200.512718,4203.589641,4224.102461,4195.897333,4233.33323,4174.358872,4233.33323,4233.33323
82,0,4193.846051,4209.743487,4198.461436,4197.948615,4208.717846,4217.948615,4199.999897,4196.922974,4216.922974,4200.512718,4223.07682,4164.102462,4223.07682,4219.487076
83,0,4176.922975,4203.589641,4190.769128,4185.128103,4198.974256,4218.461435,4201.538359,4194.358872,4214.871692,4207.692205,4209.230666,4162.05118,4206.666564,4179.487077
84,0,4185.128103,4209.743487,4193.333231,4195.897333,4205.128102,4214.871692,4202.564,4201.025538,4221.538358,4225.640922,4212.82041,4165.640924,4202.564,4165.640924
85,0,4194.871692,4214.871692,4201.538359,4207.692205,4218.974256,4209.743487,4202.564,4203.07682,4226.153743,4213.846051,4218.974256,4169.230667,4213.846051,4183.589641
86,0,4194.358872,4211.794769,4204.615282,4213.846051,4226.153743,4216.922974,4206.153743,4199.999897,4226.153743,4186.153744,4221.538358,4173.333231,4223.07682,4214.871692
87,0,4196.410154,4206.666564,4198.974256,4216.410153,4216.410153,4226.153743,4210.256307,4203.07682,4229.230666,4208.205025,4219.999897,4169.743488,4217.948615,4210.769128
88,0,4196.410154,4213.846051,4194.871692,4208.205025,4209.743487,4221.025538,4209.743487,4210.769128,4236.922973,4247.179383,4214.358871,4166.153744,4211.281948,4182.05118
89,0,4196.922974,4221.538358,4198.974256,4200.512718,4218.461435,4206.666564,4206.666564,4211.281948,4237.948614,4236.922973,4209.230666,4174.358872,4211.794769,4185.640923
90,0,4212.307589,4223.58964,4203.589641,4209.230666,4224.615281,4206.666564,4204.615282,4208.205025,4230.769127,4214.871692,4222.563999,4184.615282,4219.487076,4211.794769
91,0,4214.358871,4226.153743,4207.179384,4215.897333,4214.871692,4213.33323,4199.999897,4204.102461,4227.692204,4204.615282,4234.358871,4176.922975,4223.07682,4214.358871
92,0,4198.974256,4228.205025,4205.128102,4211.281948,4208.205025,4219.487076,4200.512718,4205.640923,4232.307589,4212.307589,4226.666563,4164.102462,4220.512717,4210.769128
93,0,4193.846051,4217.948615,4195.897333,4206.666564,4209.743487,4219.999897,4203.589641,4205.128102,4230.769127,4234.358871,4212.307589,4162.05118,4213.33323,4211.281948
94,0,4198.461436,4211.281948,4193.846051,4210.769128,4214.358871,4216.410153,4201.025538,4198.974256,4222.563999,4222.051179,4212.307589,4163.589642,4211.794769,4196.410154
95,0,4194.358872,4215.897333,4199.999897,4221.538358,4216.922974,4216.410153,4200.512718,4197.948615,4221.538358,4199.487077,4216.922974,4170.256308,4211.794769,4163.589642
96,0,4196.922974,4219.487076,4203.07682,4225.640922,4213.846051,4217.435794,4206.666564,4204.615282,4228.205025,4219.999897,4214.871692,4176.922975,4212.82041,4166.153744
97,0,4212.307589,4217.948615,4206.666564,4223.58964,4208.717846,4217.435794,4212.307589,4212.82041,4235.384512,4230.256307,4222.051179,4176.410154,4224.615281,4218.461435
98,0,4209.230666,4218.461435,4207.179384,4222.051179,4212.82041,4217.435794,4213.846051,4214.871692,4235.384512,4204.102461,4235.384512,4177.948616,4236.410153,4244.615281
99,0,4202.051179,4225.128102,4206.666564,4218.974256,4223.07682,4214.871692,4210.769128,4209.230666,4228.205025,4202.051179,4235.897332,4185.128103,4236.922973,4223.07682
100,0,4210.256307,4233.33323,4213.33323,4220.512717,4227.179384,4210.769128,4205.128102,4203.07682,4227.692204,4235.897332,4228.205025,4191.281949,4233.33323,4210.769128
101,0,4217.435794,4231.794768,4218.461435,4231.794768,4223.58964,4214.358871,4211.794769,4211.281948,4236.922973,4261.538357,4230.769127,4191.281949,4232.307589,4208.717846
102,0,4224.615281,4230.769127,4219.487076,4240.512717,4223.58964,4223.58964,4218.974256,4218.974256,4238.461435,4254.871691,4239.487076,4190.769128,4236.922973,4207.179384
103,0,4244.615281,4244.10246,4225.128102,4232.820409,4231.281948,4230.769127,4214.358871,4216.410153,4232.820409,4222.563999,4244.10246,4194.358872,4248.717845,4231.794768
104,0,4234.358871,4238.461435,4222.051179,4209.743487,4224.615281,4226.153743,4210.256307,4211.281948,4228.205025,4214.871692,4234.358871,4184.102462,4243.58964,4244.615281
105,0,4195.897333,4216.922974,4206.153743,4196.922974,4209.230666,4211.794769,4207.179384,4206.666564,4227.692204,4254.35887,4219.999897,4167.179385,4225.128102,4218.461435
106,0,4188.717846,4215.384512,4205.128102,4213.33323,4211.794769,4206.666564,4194.871692,4201.538359,4227.692204,4241.025537,4216.922974,4171.79477,4222.051179,4195.384513
107,0,4213.846051,4231.794768,4214.871692,4233.33323,4229.743486,4217.435794,4185.640923,4204.615282,4226.666563,4186.666564,4228.205025,4188.205026,4234.871691,4202.564
108,0,4224.102461,4232.820409,4215.897333,4230.769127,4231.281948,4222.051179,4192.82041,4211.794769,4230.256307,4222.051179,4236.410153,4186.153744,4238.974255,4222.051179
109,0,4214.358871,4225.128102,4211.281948,4225.128102,4222.563999,4222.051179,4201.538359,4216.922974,4237.435794,4282.051177,4239.999896,4183.076821,4239.487076,4224.615281
110,0,4209.743487,4225.640922,4214.358871,4230.256307,4221.025538,4224.102461,4198.461436,4216.410153,4235.384512,4245.640922,4241.025537,4187.179385,4242.051178,4202.051179
111,0,4223.58964,4231.281948,4216.922974,4235.897332,4223.07682,4221.025538,4196.922974,4213.33323,4230.769127,4211.794769,4238.461435,4186.666564,4242.563999,4196.410154
112,0,4231.281948,4229.230666,4215.897333,4235.384512,4218.461435,4211.794769,4199.487077,4213.846051,4231.281948,4244.10246,4232.307589,4185.128103,4236.922973,4218.461435
113,0,4218.974256,4222.563999,4211.794769,4229.230666,4215.897333,4210.769128,4198.461436,4214.358871,4229.230666,4263.589639,4224.102461,4179.487077,4231.794768,4230.256307
114,0,4208.717846,4223.58964,4210.769128,4230.256307,4223.58964,4219.999897,4197.435795,4208.717846,4225.128102,4242.051178,4216.922974,4172.820411,4234.358871,4215.384512
115,0,4219.999897,4234.871691,4217.435794,4244.615281,4232.307589,4225.128102,4202.051179,4210.256307,4226.666563,4218.461435,4224.102461,4178.974257,4241.538358,4215.897333
116,0,4233.33323,4242.051178,4223.58964,4249.230665,4235.897332,4224.102461,4205.640923,4218.461435,4228.717845,4213.33323,4235.384512,4190.769128,4242.563999,4225.640922
117,0,4223.07682,4231.794768,4217.435794,4234.358871,4233.33323,4222.563999,4206.666564,4218.974256,4229.743486,4242.563999,4232.820409,4190.769128,4235.897332,4198.461436
118,0,4211.794769,4218.461435,4208.205025,4226.666563,4226.153743,4216.410153,4206.153743,4210.769128,4226.153743,4247.692204,4224.615281,4177.948616,4226.666563,4182.564
119,0,4219.487076,4224.615281,4206.153743,4236.922973,4218.461435,4214.358871,4202.564,4205.640923,4220.512717,4197.435795,4227.692204,4170.256308,4227.692204,4216.922974
120,0,4227.179384,4237.948614,4210.769128,4243.58964,4217.948615,4227.692204,4206.153743,4213.33323,4224.615281,4199.487077,4231.281948,4178.461436,4239.487076,4236.922973
121,0,4215.897333,4229.743486,4209.743487,4235.384512,4223.58964,4232.307589,4212.307589,4217.948615,4227.692204,4261.538357,4223.07682,4184.615282,4238.461435,4204.615282
122,0,4202.564,4214.871692,4202.564,4232.820409,4223.07682,4220.512717,4206.666564,4210.256307,4222.051179,4259.487075,4221.538358,4176.922975,4230.769127,4187.179385
123,0,4205.640923,4211.281948,4202.051179,4234.871691,4208.717846,4211.281948,4196.410154,4200.512718,4216.410153,4213.33323,4218.461435,4167.179385,4224.615281,4196.922974
124,0,4214.358871,4207.692205,4202.051179,4216.410153,4197.948615,4213.33323,4198.461436,4204.615282,4213.33323,4191.281949,4207.179384,4161.53836,4213.33323,4196.410154
125,0,4201.538359,4197.435795,4192.82041,4203.07682,4202.564,4217.435794,4206.666564,4206.666564,4211.794769,4170.256308,4203.07682,4159.487078,4203.589641,4195.897333
126,0,4188.205026,4203.07682,4190.769128,4222.051179,4213.846051,4216.410153,4206.666564,4202.051179,4219.487076,4193.333231,4210.769128,4162.564001,4213.33323,4204.102461
127,0,4199.487077,4222.051179,4206.666564,4241.025537,4214.871692,4212.307589,4199.999897,4205.128102,4226.666563,4259.999896,4211.794769,4167.692206,4226.153743,4195.897333
128,0,4212.307589,4227.179384,4210.256307,4238.461435,4218.974256,4217.948615,4202.051179,4209.230666,4225.640922,4261.538357,4215.384512,4169.743488,4228.717845,4186.666564
0,0,4213.846051,4214.358871,4197.948615,4234.871691,4222.563999,4223.58964,4208.205025,4190.769128,4224.615281,4218.974256,4222.563999,4169.230667,4222.051179,4191.281949
1,0,4216.410153,4209.230666,4194.871692,4234.871691,4210.769128,4218.974256,4207.179384,4158.461437,4224.102461,4217.435794,4213.846051,4162.05118,4214.358871,4189.230667
2,0,4214.871692,4216.410153,4201.025538,4236.922973,4205.640923,4216.410153,4203.589641,4146.666565,4221.025538,4205.128102,4201.025538,4157.948616,4210.256307,4190.256308
3,0,4205.640923,4219.487076,4200.512718,4236.410153,4221.025538,4217.435794,4204.102461,4150.256309,4220.512717,4165.128103,4211.794769,4163.076821,4209.743487,4203.07682
4,0,4193.846051,4210.769128,4194.871692,4222.051179,4222.051179,4214.358871,4206.666564,4143.589642,4218.461435,4182.564,4215.384512,4162.564001,4209.743487,4192.30759
5,0,4183.589641,4206.666564,4192.30759,4213.33323,4204.615282,4216.410153,4208.205025,4133.333232,4213.846051,4227.179384,4199.487077,4155.384514,4209.230666,4179.999898
6,0,4183.589641,4206.153743,4194.871692,4210.769128,4200.512718,4216.922974,4209.230666,4135.897335,4217.435794,4217.948615,4197.948615,4153.846052,4197.435795,4190.769128
7,0,4189.743487,4196.922974,4194.358872,4184.102462,4204.102461,4206.153743,4208.717846,4140.512719,4218.974256,4188.717846,4203.589641,4154.358873,4182.05118,4183.589641
8,0,4193.846051,4188.717846,4191.281949,4155.897334,4200.512718,4200.512718,4204.615282,4131.28195,4214.871692,4197.435795,4196.410154,4152.820411,4184.615282,4166.153744
9,0,4196.410154,4199.487077,4192.30759,4167.179385,4204.102461,4205.640923,4200.512718,4125.640925,4213.846051,4205.128102,4194.871692,4155.897334,4195.897333,4180.512718
10,0,4190.769128,4211.794769,4192.30759,4189.230667,4213.846051,4204.615282,4201.025538,4132.307591,4215.384512,4195.384513,4197.948615,4157.948616,4200.512718,4191.794769
11,0,4179.999898,4204.615282,4186.666564,4188.717846,4211.281948,4198.974256,4202.051179,4133.846053,4217.435794,4207.179384,4194.871692,4153.846052,4203.07682,4176.922975
12,0,4187.692205,4202.564,4187.179385,4190.769128,4203.589641,4209.230666,4206.153743,4137.948617,4222.051179,4213.846051,4208.717846,4160.512719,4205.640923,4184.102462
13,0,4197.435795,4211.281948,4196.410154,4203.589641,4207.692205,4221.025538,4211.281948,4148.205027,4224.102461,4189.230667,4216.410153,4169.230667,4198.974256,4199.487077
14,0,4196.410154,4217.435794,4201.025538,4210.256307,4221.025538,4217.435794,4209.743487,4152.307591,4223.58964,4196.410154,4206.153743,4165.640924,4202.051179,4202.051179
15,0,4202.564,4211.281948,4203.07682,4202.564,4222.051179,4210.256307,4207.692205,4147.692206,4221.538358,4229.743486,4210.256307,4162.05118,4214.871692,4206.153743
16,0,4205.640923,4204.102461,4202.051179,4186.666564,4210.256307,4208.205025,4210.256307,4145.640924,4216.922974,4231.794768,4215.897333,4162.564001,4213.846051,4203.589641
17,0,4191.281949,4205.128102,4199.999897,4182.564,4204.615282,4207.179384,4207.692205,4142.564001,4210.256307,4202.564,4196.922974,4157.948616,4198.974256,4184.102462
18,0,4202.051179,4208.205025,4201.538359,4196.410154,4212.82041,4205.640923,4203.07682,4142.051181,4208.717846,4201.025538,4191.281949,4159.487078,4197.948615,4193.333231
19,0,4219.487076,4208.205025,4209.743487,4205.640923,4211.794769,4199.999897,4203.589641,4147.692206,4210.256307,4212.307589,4207.692205,4173.333231,4206.153743,4216.922974
20,0,4199.487077,4218.461435,4215.897333,4214.358871,4205.640923,4205.128102,4208.717846,4151.79477,4221.025538,4192.82041,4222.051179,4183.076821,4210.769128,4213.33323
21,0,4204.615282,4232.820409,4224.615281,4230.256307,4216.922974,4222.051179,4216.922974,4159.487078,4232.307589,4181.538359,4231.794768,4188.205026,4221.538358,4224.102461
22,0,4255.897332,4239.487076,4234.871691,4236.922973,4232.307589,4226.666563,4220.512717,4172.820411,4234.358871,4220.512717,4244.10246,4198.461436,4239.487076,4255.897332
23,0,4262.051178,4238.461435,4233.33323,4234.358871,4229.743486,4217.948615,4218.974256,4177.948616,4232.307589,4267.179383,4241.025537,4199.999897,4236.922973,4250.256306
24,0,4221.538358,4227.179384,4215.897333,4226.666563,4214.358871,4214.358871,4212.82041,4169.743488,4225.640922,4249.230665,4215.384512,4181.538359,4211.794769,4220.512717
25,0,4212.82041,4215.384512,4208.205025,4215.897333,4206.666564,4213.33323,4205.640923,4165.128103,4218.461435,4212.307589,4202.051179,4171.79477,4207.179384,4213.33323
26,0,4222.051179,4220.512717,4214.871692,4221.025538,4218.461435,4214.871692,4204.102461,4168.205026,4223.07682,4221.025538,4215.897333,4179.999898,4226.666563,4217.435794
27,0,4213.846051,4231.281948,4215.897333,4236.410153,4234.871691,4220.512717,4209.743487,4168.205026,4228.717845,4240.512717,4227.692204,4181.025539,4231.794768,4219.999897
28,0,4201.025538,4228.205025,4212.82041,4236.922973,4231.281948,4218.461435,4210.256307,4162.05118,4218.461435,4239.999896,4216.922974,4174.358872,4216.410153,4216.922974
29,0,4205.640923,4224.102461,4212.82041,4231.281948,4223.58964,4214.358871,4206.153743,4159.487078,4213.846051,4206.153743,4208.717846,4175.384513,4208.717846,4200.512718
30,0,4224.102461,4221.025538,4213.846051,4232.307589,4224.102461,4211.794769,4206.153743,4161.53836,4218.974256,4168.717847,4212.82041,4177.948616,4210.256307,4197.948615
31,0,4225.640922,4219.487076,4215.384512,4234.871691,4224.102461,4215.384512,4212.82041,4169.230667,4217.948615,4199.487077,4217.948615,4178.461436,4217.948615,4225.640922
32,0,4207.692205,4225.128102,4215.897333,4230.256307,4216.922974,4217.948615,4212.307589,4173.846052,4216.410153,4251.794768,4213.846051,4177.435795,4218.461435,4230.256307
33,0,4213.846051,4231.281948,4214.871692,4229.230666,4218.974256,4215.897333,4206.153743,4170.769129,4224.102461,4226.666563,4211.794769,4175.897334,4213.846051,4213.33323
34,0,4227.179384,4226.666563,4213.33323,4230.769127,4228.205025,4214.871692,4208.205025,4164.615283,4228.205025,4181.538359,4218.974256,4182.564,4214.358871,4207.692205
35,0,4205.128102,4217.948615,4208.205025,4214.358871,4227.692204,4213.846051,4209.743487,4163.589642,4219.487076,4202.051179,4214.871692,4179.999898,4211.281948,4196.922974
36,0,4184.615282,4213.33323,4205.128102,4202.564,4221.025538,4211.281948,4207.179384,4165.640924,4211.794769,4208.717846,4198.974256,4166.666565,4203.07682,4192.30759
37,0,4200.512718,4219.487076,4216.410153,4223.07682,4228.205025,4212.82041,4211.281948,4172.30759,4217.948615,4190.256308,4205.128102,4177.948616,4210.256307,4219.487076
38,0,4223.07682,4227.179384,4228.205025,4241.538358,4235.384512,4217.948615,4215.897333,4176.410154,4224.615281,4209.743487,4224.615281,4193.333231,4221.025538,4234.871691
39,0,4233.84605,4230.769127,4224.615281,4235.897332,4230.769127,4223.58964,4215.384512,4178.974257,4225.640922,4240.512717,4232.820409,4187.179385,4223.58964,4227.692204
40,0,4235.897332,4229.230666,4224.102461,4234.358871,4222.051179,4224.615281,4219.487076,4186.153744,4225.640922,4239.487076,4225.640922,4181.025539,4226.666563,4221.025538
41,0,4227.179384,4227.179384,4226.153743,4238.974255,4218.974256,4220.512717,4223.58964,4189.743487,4229.230666,4226.153743,4218.461435,4187.179385,4227.179384,4215.897333
42,0,4216.410153,4228.717845,4225.640922,4237.948614,4221.538358,4217.435794,4221.025538,4185.640923,4226.153743,4229.743486,4221.025538,4188.205026,4223.58964,4230.256307
43,0,4213.846051,4234.358871,4225.128102,4237.948614,4228.717845,4217.435794,4222.051179,4185.640923,4221.025538,4227.179384,4226.153743,4187.692205,4221.538358,4241.025537
44,0,4213.846051,4228.717845,4221.538358,4233.33323,4230.769127,4213.846051,4221.538358,4189.743487,4221.025538,4203.07682,4218.974256,4187.179385,4210.769128,4216.922974
45,0,4212.307589,4218.461435,4215.897333,4226.666563,4226.153743,4216.410153,4218.461435,4186.153744,4217.948615,4191.281949,4208.205025,4183.076821,4206.153743,4203.07682
46,0,4218.461435,4225.128102,4218.461435,4225.640922,4229.743486,4222.051179,4222.563999,4181.538359,4212.307589,4196.410154,4214.358871,4185.640923,4224.102461,4213.846051
47,0,4220.512717,4235.384512,4223.58964,4230.256307,4239.487076,4217.435794,4224.102461,4183.076821,4214.358871,4207.692205,4223.58964,4183.076821,4229.230666,4213.846051
48,0,4216.410153,4233.84605,4221.025538,4241.538358,4235.384512,4213.846051,4219.999897,4186.666564,4225.128102,4233.84605,4226.153743,4174.358872,4218.461435,4221.025538
49,0,4217.435794,4227.692204,4223.58964,4246.666563,4219.999897,4219.487076,4219.487076,4187.692205,4224.102461,4253.84605,4223.58964,4174.871693,4221.538358,4233.33323
50,0,4207.692205,4233.84605,4228.717845,4241.025537,4228.205025,4224.102461,4224.615281,4193.846051,4221.538358,4256.410152,4223.58964,4185.128103,4237.948614,4232.307589
51,0,4178.461436,4242.051178,4228.205025,4233.33323,4248.205024,4219.999897,4223.07682,4198.974256,4230.769127,4243.076819,4225.640922,4194.358872,4239.487076,4241.025537
52,0,4163.076821,4241.025537,4227.692204,4230.769127,4243.58964,4222.051179,4221.025538,4197.435795,4235.384512,4221.025538,4231.794768,4196.922974,4232.307589,4243.58964
53,0,4172.30759,4233.84605,4230.256307,4231.281948,4233.33323,4226.153743,4221.538358,4195.384513,4226.666563,4216.922974,4234.871691,4191.281949,4228.717845,4222.051179
54,0,4175.384513,4230.256307,4225.640922,4226.153743,4236.922973,4214.358871,4216.922974,4195.897333,4221.025538,4232.307589,4229.743486,4185.128103,4230.769127,4223.58964
55,0,4155.897334,4221.025538,4215.384512,4204.615282,4226.153743,4203.07682,4212.307589,4189.230667,4217.435794,4203.07682,4217.948615,4184.102462,4220.512717,4230.256307
56,0,4146.153745,4215.384512,4212.82041,4192.30759,4212.307589,4208.205025,4214.871692,4183.076821,4209.230666,4181.025539,4211.281948,4174.871693,4208.717846,4223.07682
57,0,4161.53836,4222.563999,4221.538358,4210.256307,4218.461435,4211.794769,4212.82041,4184.615282,4208.205025,4227.692204,4216.410153,4170.256308,4215.384512,4216.410153
58,0,4171.281949,4229.743486,4222.051179,4226.153743,4228.717845,4215.384512,4212.82041,4194.358872,4219.487076,4249.230665,4225.128102,4177.435795,4226.666563,4213.33323
59,0,4161.53836,4228.717845,4220.512717,4223.07682,4229.743486,4223.58964,4223.58964,4204.102461,4226.666563,4222.051179,4219.999897,4181.025539,4221.538358,4213.846051
60,0,4170.769129,4226.666563,4223.07682,4217.948615,4228.717845,4223.07682,4228.205025,4206.153743,4216.922974,4221.538358,4212.82041,4185.640923,4216.922974,4225.640922
61,0,4187.692205,4229.230666,4224.615281,4225.128102,4222.051179,4210.256307,4218.974256,4206.153743,4212.307589,4237.435794,4223.07682,4191.794769,4227.179384,4242.051178
62,0,4178.974257,4234.871691,4228.205025,4231.794768,4214.871692,4206.666564,4218.974256,4209.230666,4222.051179,4244.10246,4236.410153,4187.692205,4236.922973,4248.717845
63,0,4171.79477,4232.307589,4232.307589,4223.07682,4223.58964,4215.384512,4226.666563,4211.281948,4219.999897,4223.58964,4235.897332,4181.025539,4232.820409,4242.051178
64,0,4186.666564,4230.769127,4227.692204,4211.794769,4232.307589,4218.461435,4225.128102,4215.384512,4210.769128,4180.512718,4233.84605,4188.717846,4229.743486,4227.179384
65,0,4193.846051,4238.461435,4224.615281,4219.487076,4227.179384,4214.358871,4219.999897,4217.948615,4219.487076,4189.230667,4234.871691,4196.410154,4236.410153,4231.794768
66,0,4176.410154,4235.897332,4225.640922,4226.153743,4215.897333,4212.307589,4217.948615,4208.717846,4223.58964,4246.153742,4223.58964,4185.640923,4228.717845,4240.512717
67,0,4169.743488,4227.692204,4219.999897,4217.435794,4216.410153,4214.871692,4220.512717,4205.640923,4214.871692,4257.948614,4216.410153,4172.30759,4215.384512,4232.307589
68,0,4182.05118,4231.281948,4222.051179,4216.410153,4225.640922,4210.256307,4220.512717,4208.205025,4214.871692,4237.435794,4221.538358,4175.897334,4219.487076,4227.179384
69,0,4188.717846,4234.358871,4229.743486,4223.58964,4231.281948,4208.717846,4217.435794,4210.769128,4217.948615,4228.205025,4221.538358,4181.538359,4221.538358,4223.07682
70,0,4180.512718,4224.102461,4225.640922,4217.435794,4227.179384,4213.33323,4217.948615,4211.794769,4213.846051,4207.692205,4211.281948,4173.846052,4207.692205,4205.128102
71,0,4182.05118,4226.666563,4222.051179,4213.846051,4225.128102,4217.948615,4223.58964,4212.82041,4218.461435,4217.435794,4210.769128,4172.820411,4215.384512,4216.922974
72,0,4189.230667,4239.487076,4228.205025,4227.179384,4225.640922,4215.897333,4222.051179,4212.307589,4225.128102,4243.58964,4222.051179,4183.076821,4230.769127,4257.435793
73,0,4183.076821,4240.512717,4226.153743,4230.256307,4226.153743,4211.281948,4218.461435,4216.922974,4219.487076,4215.384512,4230.256307,4186.153744,4225.128102,4252.820409
74,0,4180.512718,4229.230666,4221.538358,4218.461435,4219.999897,4212.82041,4222.051179,4223.58964,4214.871692,4177.435795,4231.794768,4189.743487,4221.025538,4214.358871
75,0,4186.666564,4228.717845,4225.128102,4216.922974,4211.281948,4219.487076,4224.102461,4224.102461,4219.999897,4204.615282,4229.230666,4192.82041,4224.102461,4215.384512
76,0,4188.205026,4235.384512,4229.230666,4224.102461,4216.922974,4218.461435,4222.563999,4221.538358,4223.07682,4255.897332,4221.538358,4189.743487,4221.025538,4238.461435
77,0,4190.256308,4229.230666,4227.179384,4217.435794,4231.794768,4213.846051,4225.128102,4215.897333,4219.487076,4251.794768,4217.435794,4182.564,4220.512717,4244.615281
78,0,4190.769128,4217.435794,4221.538358,4201.538359,4227.179384,4209.230666,4220.512717,4208.205025,4211.281948,4217.435794,4216.410153,4173.846052,4212.82041,4241.538358
79,0,4183.589641,4217.948615,4218.461435,4203.589641,4212.307589,4204.102461,4212.82041,4205.640923,4207.179384,4207.692205,4212.82041,4173.846052,4196.922974,4230.769127
80,0,4186.153744,4229.230666,4222.051179,4219.487076,4217.435794,4209.230666,4220.512717,4210.256307,4213.846051,4213.33323,4208.717846,4182.05118,4199.487077,4222.563999
81,0,4199.487077,4237.948614,4228.717845,4224.615281,4232.307589,4221.025538,4230.256307,4219.999897,4222.051179,4212.307589,4215.897333,4184.102462,4213.846051,4230.769127
82,0,4203.589641,4236.922973,4232.307589,4219.487076,4234.358871,4221.025538,4228.205025,4224.102461,4221.538358,4219.487076,4225.640922,4184.615282,4214.871692,4232.820409
83,0,4197.435795,4232.820409,4229.743486,4217.435794,4226.153743,4213.33323,4224.102461,4218.461435,4216.922974,4204.615282,4217.948615,4193.333231,4209.743487,4220.512717
84,0,4193.333231,4235.384512,4227.179384,4219.999897,4218.974256,4214.358871,4222.563999,4218.461435,4217.435794,4186.666564,4213.33323,4196.410154,4213.33323,4232.307589
85,0,4197.948615,4234.871691,4226.153743,4222.563999,4218.974256,4217.435794,4222.051179,4223.58964,4218.461435,4218.974256,4227.179384,4191.281949,4217.948615,4249.230665
86,0,4211.281948,4229.743486,4220.512717,4217.948615,4217.948615,4212.307589,4222.051179,4221.538358,4214.358871,4237.435794,4236.922973,4189.230667,4218.974256,4244.10246
87,0,4210.256307,4228.205025,4219.999897,4203.589641,4212.82041,4205.128102,4210.769128,4210.769128,4207.179384,4218.974256,4228.205025,4186.666564,4210.256307,4237.435794
88,0,4201.025538,4232.307589,4222.563999,4199.487077,4216.410153,4199.487077,4200.512718,4207.692205,4205.640923,4231.281948,4219.487076,4178.461436,4205.128102,4238.974255
89,0,4194.358872,4228.205025,4219.999897,4208.205025,4216.922974,4194.358872,4209.230666,4210.256307,4206.666564,4236.922973,4211.794769,4176.410154,4204.102461,4227.692204
90,0,4186.153744,4221.538358,4219.487076,4212.307589,4213.846051,4203.589641,4222.563999,4213.846051,4210.769128,4205.640923,4210.256307,4179.487077,4205.640923,4218.461435
91,0,4190.769128,4217.948615,4224.102461,4212.307589,4212.82041,4216.410153,4222.563999,4214.871692,4213.33323,4194.871692,4216.922974,4174.358872,4207.179384,4221.025538
92,0,4204.102461,4218.461435,4220.512717,4213.846051,4215.897333,4218.461435,4219.999897,4215.897333,4212.82041,4215.384512,4216.922974,4166.666565,4206.666564,4224.615281
93,0,4196.922974,4216.922974,4217.435794,4215.897333,4217.948615,4214.871692,4225.640922,4218.974256,4215.897333,4209.230666,4215.897333,4171.281949,4204.102461,4228.717845
94,0,4187.692205,4217.948615,4224.615281,4219.487076,4221.025538,4209.230666,4225.640922,4223.07682,4220.512717,4186.666564,4229.230666,4183.589641,4208.205025,4232.307589
95,0,4201.025538,4221.025538,4227.692204,4223.07682,4216.922974,4203.07682,4218.461435,4221.025538,4212.82041,4198.461436,4230.769127,4188.205026,4205.128102,4230.256307
96,0,4211.794769,4219.999897,4222.563999,4216.922974,4212.307589,4207.179384,4223.58964,4221.025538,4207.179384,4235.897332,4215.897333,4182.564,4196.922974,4225.640922
97,0,4206.666564,4223.07682,4225.128102,4216.410153,4219.999897,4212.307589,4234.358871,4230.769127,4218.974256,4247.179383,4222.563999,4186.666564,4207.692205,4232.820409
98,0,4209.743487,4237.435794,4238.461435,4230.769127,4223.07682,4210.256307,4227.692204,4230.769127,4221.538358,4236.922973,4237.435794,4197.948615,4231.281948,4257.948614
99,0,4219.487076,4240.512717,4242.563999,4222.563999,4212.307589,4207.692205,4217.435794,4217.435794,4207.692205,4221.538358,4225.128102,4192.30759,4225.640922,4251.281947
100,0,4212.82041,4226.153743,4228.205025,4189.230667,4212.82041,4210.256307,4221.025538,4210.769128,4200.512718,4207.692205,4207.692205,4175.384513,4192.30759,4217.948615
101,0,4197.435795,4224.615281,4223.58964,4185.128103,4230.256307,4211.794769,4224.102461,4215.897333,4211.281948,4210.256307,4211.794769,4175.384513,4185.128103,4217.948615
102,0,4202.564,4227.692204,4228.205025,4204.102461,4230.256307,4209.230666,4220.512717,4218.461435,4218.461435,4218.461435,4217.948615,4181.538359,4209.230666,4236.922973
103,0,4215.384512,4223.07682,4224.102461,4209.230666,4218.974256,4210.256307,4220.512717,4217.435794,4213.846051,4225.640922,4221.538358,4181.025539,4222.051179,4245.128101
104,0,4201.025538,4224.102461,4226.153743,4208.717846,4219.999897,4212.307589,4219.487076,4219.999897,4215.384512,4223.07682,4230.256307,4188.717846,4212.82041,4235.384512
105,0,4196.922974,4230.769127,4228.717845,4210.256307,4223.58964,4207.179384,4217.435794,4224.615281,4225.128102,4217.948615,4238.461435,4198.461436,4211.794769,4221.025538
106,0,4218.974256,4219.487076,4220.512717,4201.025538,4214.871692,4205.640923,4222.051179,4226.153743,4224.102461,4229.230666,4231.794768,4190.769128,4218.974256,4233.33323
107,0,4217.435794,4210.256307,4213.846051,4193.846051,4211.281948,4212.82041,4228.717845,4226.666563,4216.922974,4247.179383,4220.512717,4177.435795,4217.948615,4258.974255
108,0,4199.487077,4218.461435,4219.487076,4202.564,4219.487076,4208.717846,4223.58964,4224.615281,4216.410153,4230.769127,4218.974256,4178.461436,4213.846051,4245.128101
109,0,4207.692205,4225.640922,4225.640922,4216.922974,4223.58964,4206.666564,4220.512717,4225.128102,4220.512717,4216.410153,4231.794768,4190.256308,4222.051179,4233.33323
110,0,4215.384512,4222.563999,4229.743486,4220.512717,4217.435794,4217.435794,4226.153743,4226.153743,4219.487076,4229.743486,4233.33323,4193.333231,4224.615281,4234.358871
111,0,4210.256307,4228.205025,4230.256307,4217.948615,4218.974256,4218.461435,4223.58964,4223.58964,4212.82041,4214.358871,4221.538358,4185.128103,4211.281948,4222.051179
112,0,4207.179384,4233.84605,4231.281948,4218.974256,4227.692204,4213.846051,4217.948615,4222.051179,4213.33323,4209.230666,4218.974256,4177.435795,4204.615282,4229.743486
113,0,4199.999897,4227.179384,4225.640922,4223.07682,4227.179384,4218.461435,4224.102461,4228.717845,4221.538358,4248.205024,4225.128102,4177.435795,4214.358871,4247.179383
114,0,4193.846051,4215.384512,4214.871692,4219.487076,4221.538358,4214.358871,4226.666563,4228.205025,4218.461435,4251.794768,4220.512717,4178.461436,4206.153743,4225.128102
115,0,4204.615282,4214.358871,4216.410153,4212.307589,4222.051179,4206.153743,4218.974256,4222.563999,4213.846051,4217.435794,4215.384512,4177.948616,4190.769128,4202.051179
116,0,4209.743487,4217.435794,4229.743486,4215.384512,4218.461435,4214.871692,4220.512717,4229.743486,4225.128102,4217.948615,4228.205025,4190.256308,4212.82041,4217.435794
117,0,4208.205025,4219.999897,4230.256307,4235.897332,4219.487076,4222.051179,4226.666563,4236.922973,4230.769127,4254.35887,4244.615281,4199.487077,4246.666563,4248.717845
118,0,4214.871692,4220.512717,4220.512717,4229.230666,4225.640922,4212.82041,4222.051179,4229.743486,4215.897333,4253.84605,4235.897332,4186.666564,4239.487076,4256.922973
119,0,4196.410154,4211.281948,4213.846051,4174.358872,4216.922974,4205.128102,4216.922974,4215.384512,4206.153743,4210.769128,4208.717846,4168.717847,4202.564,4223.58964
120,0,4173.846052,4202.051179,4213.846051,4156.410155,4206.153743,4204.102461,4217.948615,4213.33323,4210.769128,4202.051179,4203.07682,4171.79477,4189.743487,4197.948615
121,0,4190.769128,4207.179384,4216.410153,4202.051179,4211.794769,4204.615282,4219.487076,4220.512717,4209.743487,4235.384512,4215.384512,4183.589641,4200.512718,4208.205025
122,0,4211.794769,4216.922974,4217.435794,4228.717845,4216.922974,4210.769128,4221.538358,4224.102461,4202.564,4214.871692,4219.487076,4176.922975,4206.153743,4211.281948
123,0,4202.051179,4212.82041,4217.435794,4221.025538,4212.82041,4212.307589,4218.974256,4224.102461,4205.640923,4168.717847,4213.846051,4167.692206,4206.153743,4211.794769
124,0,4199.999897,4213.846051,4219.999897,4230.769127,4215.897333,4210.769128,4220.512717,4228.205025,4223.07682,4217.435794,4221.025538,4177.948616,4218.461435,4238.461435
125,0,4219.487076,4225.640922,4224.102461,4246.153742,4217.948615,4209.230666,4224.615281,4232.820409,4230.256307,4271.794767,4236.922973,4192.30759,4230.769127,4247.692204
126,0,4217.435794,4224.102461,4219.999897,4236.922973,4211.281948,4203.589641,4219.487076,4230.769127,4217.435794,4246.666563,4233.33323,4185.128103,4223.58964,4227.692204
127,0,4204.102461,4212.82041,4213.846051,4226.666563,4209.743487,4199.999897,4212.307589,4227.179384,4209.230666,4210.256307,4217.435794,4174.871693,4213.33323,4215.897333
128,0,4214.358871,4224.102461,4218.974256,4232.820409,4225.128102,4213.33323,4220.512717,4232.307589,4223.07682,4221.538358,4228.717845,4191.794769,4217.948615,4221.025538
0,0,4222.051179,4234.871691,4225.640922,4242.051178,4234.358871,4224.615281,4230.256307,4237.948614,4229.743486,4251.794768,4243.076819,4201.025538,4227.692204,4228.717845
1,0,4212.307589,4227.179384,4221.538358,4245.128101,4230.769127,4220.512717,4226.666563,4234.358871,4216.410153,4249.230665,4229.230666,4186.153744,4235.384512,4237.435794
2,0,4217.948615,4223.58964,4223.07682,4247.692204,4233.84605,4216.410153,4218.974256,4229.743486,4210.256307,4211.794769,4218.461435,4184.102462,4232.820409,4241.538358
3,0,4239.487076,4234.358871,4231.794768,4248.717845,4236.410153,4217.435794,4217.948615,4230.256307,4213.846051,4195.897333,4232.820409,4199.487077,4228.717845,4243.58964
4,0,4235.384512,4237.435794,4231.281948,4241.538358,4215.897333,4209.230666,4221.538358,4231.281948,4214.871692,4225.640922,4237.435794,4195.897333,4229.230666,4244.615281
5,0,4209.230666,4226.153743,4223.58964,4229.743486,4205.640923,4202.051179,4221.025538,4230.256307,4214.871692,4243.58964,4226.153743,4175.384513,4223.58964,4229.743486
6,0,4211.794769,4221.025538,4224.102461,4224.102461,4223.07682,4211.281948,4218.461435,4232.820409,4218.461435,4234.871691,4219.999897,4175.384513,4213.846051,4215.384512
7,0,4226.666563,4225.128102,4225.128102,4222.563999,4230.256307,4219.487076,4223.07682,4234.871691,4216.922974,4240.512717,4223.58964,4183.076821,4217.435794,4231.281948
8,0,4217.435794,4223.07682,4218.974256,4217.435794,4225.128102,4210.256307,4222.051179,4232.307589,4214.871692,4257.435793,4227.692204,4177.948616,4222.051179,4244.10246
9,0,4206.153743,4212.82041,4217.435794,4216.922974,4222.051179,4204.102461,4212.82041,4226.153743,4215.384512,4239.487076,4226.153743,4176.410154,4215.384512,4215.897333
10,0,4217.435794,4209.230666,4220.512717,4219.999897,4219.487076,4212.307589,4210.769128,4225.640922,4215.897333,4223.58964,4222.051179,4186.666564,4215.384512,4204.102461
11,0,4212.307589,4210.769128,4222.051179,4214.871692,4219.487076,4211.281948,4213.846051,4228.717845,4214.871692,4244.615281,4220.512717,4185.128103,4218.974256,4232.820409
12,0,4189.743487,4209.230666,4219.487076,4210.256307,4217.948615,4205.128102,4218.461435,4229.230666,4212.307589,4218.974256,4221.538358,4181.025539,4215.384512,4230.769127
13,0,4197.435795,4210.769128,4218.974256,4222.051179,4212.82041,4206.666564,4222.051179,4228.717845,4212.307589,4174.358872,4218.461435,4189.743487,4207.692205,4197.948615
14,0,4221.025538,4221.538358,4222.051179,4235.897332,4225.640922,4211.794769,4220.512717,4230.256307,4217.948615,4202.051179,4221.538358,4192.30759,4214.358871,4217.948615
15,0,4218.974256,4222.563999,4226.153743,4233.33323,4233.84605,4217.948615,4222.051179,4232.820409,4219.999897,4233.84605,4226.666563,4188.205026,4225.640922,4261.538357
16,0,4221.025538,4219.487076,4226.666563,4232.820409,4221.025538,4221.538358,4231.794768,4238.974255,4220.512717,4235.384512,4227.692204,4188.717846,4227.692204,4256.410152
17,0,4230.769127,4223.07682,4230.769127,4242.051178,4216.922974,4210.769128,4224.615281,4234.358871,4220.512717,4252.820409,4226.666563,4187.692205,4219.999897,4226.666563
18,0,4216.410153,4226.666563,4235.897332,4244.10246,4228.717845,4206.153743,4209.230666,4224.102461,4216.922974,4245.640922,4227.179384,4192.82041,4222.563999,4223.58964
19,0,4206.666564,4218.974256,4229.230666,4235.384512,4233.33323,4218.461435,4213.33323,4228.205025,4214.871692,4207.179384,4227.692204,4204.102461,4227.692204,4230.769127
20,0,4228.205025,4213.846051,4216.922974,4224.615281,4231.794768,4221.538358,4223.58964,4238.461435,4219.487076,4225.128102,4227.179384,4195.897333,4223.58964,4228.205025
21,0,4235.384512,4214.358871,4214.358871,4220.512717,4221.538358,4209.230666,4218.974256,4236.410153,4218.461435,4246.153742,4217.435794,4176.410154,4215.384512,4231.794768
22,0,4221.025538,4216.922974,4216.922974,4225.640922,4214.871692,4206.666564,4211.281948,4231.281948,4212.307589,4228.205025,4215.897333,4177.435795,4213.846051,4244.10246
23,0,4212.82041,4219.999897,4226.666563,4236.922973,4225.128102,4210.769128,4216.410153,4233.84605,4214.358871,4227.692204,4230.769127,4195.897333,4222.051179,4233.33323
24,0,4206.666564,4220.512717,4235.384512,4238.461435,4232.307589,4216.410153,4227.179384,4238.974255,4222.051179,4237.435794,4231.794768,4198.974256,4226.153743,4215.384512
25,0,4213.846051,4222.051179,4230.769127,4234.358871,4228.717845,4222.563999,4229.743486,4241.025537,4226.153743,4241.538358,4219.999897,4187.692205,4217.948615,4222.051179
26,0,4234.871691,4226.153743,4228.717845,4240.512717,4229.230666,4224.615281,4226.666563,4239.999896,4226.666563,4236.410153,4227.692204,4188.205026,4216.922974,4229.743486
27,0,4235.897332,4222.563999,4228.717845,4241.538358,4235.384512,4216.922974,4222.051179,4238.974255,4221.538358,4198.461436,4235.897332,4190.769128,4223.07682,4228.717845
28,0,4216.410153,4216.922974,4218.461435,4231.794768,4229.743486,4207.692205,4211.281948,4231.281948,4213.846051,4171.79477,4222.563999,4178.974257,4215.384512,4232.307589
29,0,4209.230666,4219.487076,4216.410153,4230.256307,4221.025538,4212.307589,4206.666564,4226.666563,4213.846051,4219.999897,4220.512717,4176.922975,4210.769128,4235.897332
30,0,4224.615281,4220.512717,4228.717845,4238.461435,4222.563999,4216.410153,4213.846051,4231.281948,4220.512717,4258.461434,4233.84605,4194.871692,4226.666563,4225.128102
31,0,4238.461435,4221.538358,4227.179384,4235.384512,4230.256307,4212.82041,4217.948615,4233.84605,4224.615281,4245.128101,4241.025537,4203.07682,4240.512717,4228.205025
32,0,4222.563999,4220.512717,4215.384512,4217.435794,4231.281948,4213.33323,4220.512717,4230.256307,4222.563999,4248.717845,4232.307589,4190.256308,4228.717845,4243.58964
33,0,4207.692205,4218.461435,4216.922974,4212.307589,4230.769127,4219.999897,4225.640922,4232.820409,4222.051179,4248.205024,4227.179384,4182.05118,4221.025538,4235.384512
34,0,4223.07682,4222.563999,4228.205025,4229.230666,4234.871691,4220.512717,4219.999897,4235.384512,4221.025538,4214.358871,4239.487076,4195.897333,4229.743486,4223.58964
35,0,4233.33323,4227.692204,4231.281948,4242.051178,4240.512717,4214.871692,4208.717846,4232.820409,4219.999897,4218.461435,4247.179383,4202.564,4232.820409,4241.538358
36,0,4229.230666,4225.128102,4226.153743,4235.384512,4232.820409,4209.743487,4210.256307,4227.692204,4218.974256,4245.128101,4227.692204,4184.615282,4225.128102,4241.538358
37,0,4240.512717,4228.717845,4221.025538,4232.820409,4220.512717,4210.769128,4213.846051,4224.615281,4218.974256,4241.025537,4218.974256,4177.435795,4228.717845,4226.666563
38,0,4236.922973,4233.84605,4225.640922,4239.999896,4223.58964,4212.307589,4210.256307,4226.153743,4221.538358,4241.025537,4236.922973,4189.743487,4235.897332,4244.615281
39,0,4208.717846,4226.153743,4224.615281,4238.461435,4238.461435,4215.897333,4213.846051,4233.33323,4227.179384,4228.717845,4234.358871,4193.333231,4232.820409,4240.512717
40,0,4201.538359,4215.384512,4216.922974,4231.281948,4237.435794,4222.051179,4221.025538,4236.922973,4229.230666,4182.05118,4214.871692,4186.153744,4224.102461,4196.410154
41,0,4220.512717,4215.897333,4211.281948,4227.692204,4230.769127,4219.487076,4214.358871,4233.84605,4219.487076,4197.948615,4220.512717,4184.102462,4209.230666,4204.102461
42,0,4224.102461,4216.410153,4211.794769,4223.58964,4235.384512,4208.205025,4208.205025,4228.717845,4214.358871,4258.974255,4228.205025,4183.589641,4204.615282,4226.153743
43,0,4219.999897,4218.461435,4218.974256,4218.461435,4234.358871,4210.256307,4211.794769,4224.615281,4216.410153,4254.871691,4219.999897,4182.05118,4221.538358,4208.717846
44,0,4226.153743,4222.051179,4223.07682,4218.974256,4222.051179,4214.871692,4213.33323,4221.538358,4213.846051,4229.230666,4219.999897,4184.615282,4230.769127,4223.07682
45,0,4224.102461,4222.051179,4219.999897,4224.615281,4221.025538,4209.743487,4210.256307,4216.922974,4212.307589,4223.07682,4226.153743,4186.666564,4219.487076,4251.794768
46,0,4226.666563,4225.640922,4222.563999,4230.256307,4235.384512,4213.846051,4211.794769,4218.461435,4221.025538,4212.82041,4226.153743,4190.769128,4222.051179,4237.948614
47,0,4239.487076,4230.256307,4228.205025,4232.307589,4234.358871,4221.025538,4213.33323,4222.051179,4225.128102,4224.615281,4228.205025,4192.82041,4230.769127,4222.563999
48,0,4239.487076,4222.563999,4225.128102,4234.358871,4224.615281,4223.58964,4216.410153,4227.692204,4225.128102,4244.10246,4232.820409,4190.256308,4224.102461,4235.384512
49,0,4228.717845,4209.743487,4223.07682,4232.307589,4226.666563,4221.538358,4218.974256,4237.948614,4226.153743,4236.922973,4226.153743,4191.281949,4219.999897,4232.307589
50,0,4233.33323,4223.07682,4228.717845,4230.256307,4239.487076,4215.384512,4212.82041,4244.10246,4220.512717,4222.051179,4229.230666,4196.922974,4235.384512,4226.153743
51,0,4242.563999,4244.10246,4233.33323,4241.025537,4243.58964,4211.281948,4209.230666,4238.461435,4211.281948,4201.025538,4244.615281,4201.025538,4243.58964,4246.153742
52,0,4239.999896,4241.025537,4232.820409,4244.615281,4229.230666,4214.358871,4215.384512,4236.410153,4220.512717,4207.179384,4247.179383,4197.435795,4234.871691,4268.205024
53,0,4225.640922,4222.051179,4228.717845,4220.512717,4216.922974,4216.922974,4218.461435,4237.435794,4231.794768,4242.051178,4230.769127,4191.794769,4218.974256,4244.10246
54,0,4220.512717,4216.922974,4221.538358,4205.640923,4226.666563,4215.897333,4212.307589,4229.230666,4223.58964,4247.692204,4215.384512,4190.769128,4208.205025,4202.051179
55,0,4232.820409,4222.051179,4219.999897,4224.102461,4237.948614,4218.974256,4209.743487,4226.153743,4214.871692,4218.461435,4212.307589,4187.179385,4203.07682,4207.179384
56,0,4228.717845,4219.999897,4217.435794,4232.307589,4233.33323,4224.615281,4214.358871,4234.358871,4221.025538,4208.205025,4219.999897,4183.076821,4200.512718,4233.33323
57,0,4211.794769,4218.974256,4221.538358,4221.025538,4226.666563,4222.051179,4215.897333,4236.922973,4219.999897,4215.897333,4224.615281,4190.256308,4202.051179,4230.769127
58,0,4226.153743,4222.563999,4230.769127,4218.974256,4222.051179,4212.307589,4212.82041,4232.307589,4210.769128,4230.769127,4219.487076,4197.435795,4207.179384,4219.487076
59,0,4237.435794,4220.512717,4233.33323,4223.58964,4213.846051,4205.128102,4209.230666,4231.794768,4212.82041,4238.974255,4215.384512,4188.205026,4209.230666,4219.999897
60,0,4225.640922,4220.512717,4228.205025,4223.58964,4216.410153,4208.717846,4207.179384,4233.84605,4221.025538,4221.538358,4217.948615,4183.589641,4209.743487,4224.102461
61,0,4230.769127,4224.615281,4221.025538,4225.640922,4227.692204,4216.922974,4206.666564,4233.33323,4221.025538,4208.717846,4215.897333,4188.717846,4209.230666,4231.794768
62,0,4239.487076,4224.102461,4216.410153,4226.153743,4236.410153,4216.922974,4204.615282,4232.820409,4210.769128,4211.794769,4212.82041,4184.102462,4208.205025,4231.794768
63,0,4227.179384,4218.974256,4215.897333,4222.051179,4238.461435,4214.358871,4206.666564,4235.897332,4207.692205,4222.051179,4219.999897,4186.153744,4202.051179,4210.256307
64,0,4217.948615,4218.461435,4215.384512,4223.58964,4231.794768,4217.948615,4207.692205,4238.974255,4213.846051,4236.410153,4224.102461,4194.358872,4197.948615,4201.538359
65,0,4219.999897,4222.563999,4214.358871,4228.205025,4227.179384,4224.615281,4213.846051,4243.076819,4218.974256,4229.230666,4216.922974,4189.743487,4204.102461,4216.410153
66,0,4217.435794,4223.07682,4222.563999,4224.102461,4227.179384,4223.58964,4219.487076,4245.128101,4217.435794,4213.846051,4210.256307,4184.102462,4209.230666,4217.948615
67,0,4228.205025,4220.512717,4234.358871,4217.435794,4226.666563,4217.948615,4214.358871,4248.717845,4224.615281,4225.640922,4216.922974,4192.82041,4214.358871,4221.025538
68,0,4234.871691,4215.384512,4230.769127,4219.487076,4216.922974,4210.256307,4207.692205,4251.794768,4226.153743,4228.717845,4219.487076,4199.999897,4215.897333,4235.384512
69,0,4219.487076,4215.897333,4218.974256,4224.615281,4216.410153,4210.769128,4209.743487,4249.743486,4214.871692,4201.025538,4214.358871,4194.871692,4208.717846,4224.102461
70,0,4211.794769,4216.410153,4222.563999,4222.563999,4225.128102,4216.922974,4207.692205,4239.999896,4212.82041,4185.640923,4207.179384,4186.153744,4192.82041,4188.205026
71,0,4224.102461,4212.82041,4226.153743,4217.948615,4224.615281,4215.384512,4203.589641,4234.358871,4219.999897,4204.102461,4204.615282,4183.589641,4190.256308,4189.743487
72,0,4214.358871,4205.640923,4214.358871,4203.07682,4214.358871,4213.846051,4203.07682,4235.384512,4217.435794,4223.58964,4208.205025,4181.538359,4196.922974,4211.794769
73,0,4197.948615,4207.692205,4210.256307,4195.897333,4214.358871,4223.58964,4206.666564,4240.512717,4216.922974,4241.538358,4215.897333,4183.589641,4204.615282,4207.179384
74,0,4214.871692,4217.948615,4224.102461,4215.384512,4219.487076,4229.230666,4211.794769,4243.076819,4220.512717,4244.10246,4223.07682,4190.769128,4209.743487,4203.589641
75,0,4227.179384,4217.435794,4219.999897,4214.358871,4217.435794,4221.538358,4207.179384,4235.384512,4212.82041,4212.307589,4221.025538,4184.615282,4208.205025,4215.897333
76,0,4205.128102,4197.948615,4199.999897,4166.153744,4207.692205,4207.179384,4193.846051,4219.999897,4203.07682,4178.461436,4200.512718,4168.717847,4191.281949,4198.461436
77,0,4187.692205,4189.230667,4196.410154,4137.435796,4199.999897,4205.128102,4195.897333,4214.871692,4205.128102,4178.974257,4181.025539,4160.512719,4174.871693,4162.564001
78,0,4190.256308,4198.974256,4202.051179,4153.846052,4204.615282,4214.358871,4201.025538,4216.410153,4210.769128,4206.153743,4185.640923,4157.948616,4179.999898,4163.589642
79,0,4197.948615,4202.564,4202.564,4169.743488,4216.410153,4215.897333,4197.948615,4222.051179,4219.487076,4229.743486,4205.128102,4163.589642,4201.538359,4196.410154
80,0,4220.512717,4208.205025,4211.794769,4185.128103,4220.512717,4217.435794,4204.615282,4237.948614,4223.58964,4226.153743,4218.974256,4184.615282,4222.563999,4226.153743
81,0,4267.692203,4235.384512,4231.794768,4217.948615,4218.461435,4223.07682,4211.281948,4243.58964,4222.051179,4215.384512,4226.666563,4198.461436,4243.58964,4265.128101
82,0,4322.563997,4262.563998,4248.717845,4238.974255,4221.538358,4220.512717,4203.589641,4236.922973,4225.128102,4224.102461,4237.948614,4205.128102,4265.128101,4327.179381
83,0,4372.820406,4274.35887,4256.410152,4235.897332,4226.153743,4212.82041,4202.564,4234.871691,4224.102461,4236.922973,4252.307588,4219.999897,4286.666562,4401.025533
84,0,4414.358866,4285.1281,4260.512716,4230.256307,4221.025538,4209.743487,4207.179384,4236.410153,4216.410153,4248.205024,4263.076819,4237.435794,4305.64092,4459.48707
85,0,4430.256302,4292.820408,4267.179383,4235.384512,4203.07682,4205.128102,4197.948615,4230.256307,4216.922974,4247.179383,4267.179383,4242.051178,4306.666561,4474.871685
86,0,4428.20502,4299.487074,4272.820408,4247.692204,4209.230666,4204.102461,4190.256308,4228.717845,4226.153743,4226.153743,4257.948614,4234.871691,4300.512715,4460.512711
87,0,4420.512712,4298.461433,4266.666562,4249.743486,4229.743486,4211.281948,4194.358872,4229.743486,4223.07682,4216.410153,4236.922973,4227.692204,4297.948613,4431.794763
88,0,4392.820405,4282.051177,4249.230665,4234.358871,4219.999897,4217.948615,4201.025538,4228.717845,4213.33323,4218.974256,4226.666563,4218.461435,4284.102459,4399.487072
89,0,4353.846047,4260.512716,4238.974255,4224.102461,4204.102461,4217.948615,4205.640923,4230.256307,4213.846051,4207.179384,4225.640922,4199.999897,4257.435793,4365.128098
90,0,4337.948612,4253.84605,4239.487076,4229.230666,4217.948615,4216.410153,4201.538359,4232.307589,4224.615281,4214.358871,4226.153743,4193.846051,4247.692204,4338.461432
91,0,4317.948612,4246.666563,4237.948614,4221.538358,4224.102461,4213.846051,4194.358872,4230.769127,4227.179384,4236.410153,4228.717845,4203.07682,4252.307588,4312.307587
92,0,4279.999895,4234.358871,4232.820409,4209.230666,4206.153743,4215.384512,4202.564,4232.307589,4223.58964,4227.179384,4232.820409,4203.07682,4248.205024,4290.769126
93,0,4269.743485,4229.230666,4238.461435,4224.102461,4202.564,4213.33323,4207.179384,4237.435794,4228.205025,4210.769128,4229.743486,4196.922974,4239.487076,4281.025536
94,0,4284.102459,4234.358871,4242.563999,4231.794768,4224.102461,4210.769128,4194.871692,4236.410153,4236.922973,4230.769127,4231.281948,4199.487077,4248.205024,4281.025536
95,0,4281.538357,4235.384512,4234.871691,4209.743487,4237.948614,4215.897333,4196.410154,4235.897332,4238.974255,4252.307588,4235.897332,4203.589641,4260.512716,4281.538357
96,0,4263.076819,4230.769127,4229.230666,4204.102461,4234.358871,4221.025538,4209.743487,4239.999896,4233.84605,4233.33323,4232.820409,4205.640923,4253.84605,4258.974255
97,0,4257.948614,4235.897332,4235.897332,4227.179384,4226.666563,4221.025538,4205.640923,4240.512717,4232.307589,4211.281948,4233.84605,4205.640923,4244.10246,4236.410153
98,0,4253.84605,4242.051178,4239.487076,4234.871691,4228.205025,4222.051179,4199.487077,4235.384512,4232.307589,4229.743486,4240.512717,4198.974256,4247.692204,4239.999896
99,0,4231.794768,4228.717845,4234.358871,4220.512717,4226.666563,4223.58964,4204.615282,4234.358871,4234.358871,4254.871691,4232.820409,4195.384513,4238.461435,4232.307589
100,0,4216.410153,4212.307589,4226.153743,4213.846051,4213.846051,4217.948615,4204.102461,4233.84605,4233.84605,4245.128101,4213.846051,4194.871692,4211.281948,4197.435795
101,0,4231.281948,4213.33323,4224.615281,4216.922974,4213.33323,4212.307589,4199.487077,4229.743486,4232.820409,4230.256307,4212.307589,4188.205026,4202.564,4195.897333
102,0,4235.897332,4217.435794,4224.615281,4215.384512,4227.692204,4213.846051,4202.564,4233.33323,4232.307589,4219.999897,4218.974256,4181.025539,4215.384512,4221.025538
103,0,4219.999897,4218.461435,4221.538358,4215.384512,4236.922973,4218.461435,4205.128102,4239.487076,4232.820409,4217.435794,4222.051179,4188.717846,4227.179384,4208.717846
104,0,4219.487076,4228.717845,4229.743486,4227.179384,4230.769127,4221.025538,4205.640923,4239.487076,4235.897332,4236.410153,4226.666563,4200.512718,4228.205025,4199.999897
105,0,4232.307589,4239.487076,4238.974255,4235.897332,4228.205025,4225.640922,4208.205025,4239.999896,4241.025537,4245.640922,4233.33323,4199.487077,4227.692204,4226.666563
106,0,4233.84605,4235.897332,4234.358871,4230.256307,4234.358871,4231.281948,4210.256307,4239.999896,4243.076819,4234.358871,4232.307589,4196.410154,4229.743486,4224.102461
107,0,4225.640922,4231.794768,4230.256307,4227.179384,4235.384512,4231.794768,4211.281948,4243.58964,4242.563999,4245.640922,4230.256307,4194.871692,4233.33323,4203.07682
108,0,4208.717846,4226.153743,4230.256307,4225.128102,4220.512717,4223.07682,4209.743487,4250.769127,4238.461435,4257.435793,4223.07682,4188.205026,4227.179384,4196.410154
109,0,4197.948615,4210.769128,4218.974256,4205.640923,4211.794769,4212.82041,4207.179384,4243.58964,4231.794768,4238.974255,4209.230666,4178.974257,4208.717846,4173.333231
110,0,4192.82041,4195.384513,4207.692205,4192.82041,4215.897333,4201.025538,4198.461436,4223.07682,4225.640922,4205.640923,4194.871692,4171.281949,4184.102462,4145.128104
111,0,4183.589641,4195.897333,4209.230666,4201.025538,4219.999897,4205.128102,4200.512718,4223.58964,4229.230666,4163.076821,4194.358872,4174.358872,4178.461436,4159.487078
112,0,4186.666564,4202.564,4215.384512,4204.615282,4223.07682,4221.538358,4210.769128,4239.999896,4235.897332,4151.28195,4204.615282,4187.692205,4194.871692,4174.358872
113,0,4198.461436,4205.640923,4216.922974,4201.538359,4227.179384,4221.538358,4208.717846,4237.948614,4240.512717,4213.846051,4212.307589,4183.076821,4210.256307,4181.025539
114,0,4187.692205,4203.07682,4217.435794,4204.615282,4219.999897,4210.769128,4203.07682,4229.743486,4243.076819,4265.640921,4210.256307,4171.79477,4204.102461,4187.692205
115,0,4175.384513,4201.025538,4218.974256,4198.461436,4215.384512,4213.846051,4207.692205,4230.769127,4243.58964,4250.256306,4202.564,4175.384513,4194.358872,4162.05118
116,0,4187.179385,4203.589641,4216.922974,4190.256308,4223.58964,4220.512717,4210.769128,4233.84605,4245.640922,4235.897332,4201.025538,4172.820411,4202.564,4152.820411
117,0,4204.102461,4216.410153,4217.435794,4207.692205,4230.256307,4219.999897,4205.640923,4232.820409,4250.769127,4225.640922,4214.358871,4171.79477,4221.025538,4196.410154
118,0,4211.281948,4230.769127,4230.769127,4231.794768,4232.820409,4222.563999,4208.205025,4235.897332,4258.461434,4202.564,4231.794768,4192.30759,4229.230666,4216.410153
119,0,4206.666564,4223.58964,4233.33323,4230.769127,4227.179384,4223.07682,4210.769128,4236.410153,4258.461434,4210.769128,4222.563999,4194.871692,4211.794769,4191.281949
120,0,4198.461436,4212.82041,4217.948615,4218.974256,4226.153743,4217.948615,4206.153743,4229.743486,4251.281947,4233.33323,4202.051179,4170.769129,4197.435795,4178.974257
121,0,4203.07682,4219.999897,4218.974256,4223.58964,4236.410153,4219.999897,4206.666564,4229.743486,4250.256306,4216.922974,4202.564,4173.333231,4208.205025,4176.922975
122,0,4205.128102,4225.640922,4232.820409,4230.256307,4236.922973,4225.640922,4212.82041,4240.512717,4258.461434,4201.025538,4212.307589,4190.256308,4213.33323,4177.435795
123,0,4189.230667,4209.230666,4228.205025,4216.922974,4226.153743,4219.487076,4211.794769,4236.410153,4256.922973,4223.07682,4204.615282,4178.461436,4192.82041,4172.820411
124,0,4192.30759,4201.025538,4214.871692,4208.717846,4227.692204,4213.33323,4206.666564,4225.640922,4255.384511,4241.025537,4199.999897,4162.564001,4194.358872,4166.666565
125,0,4212.82041,4212.82041,4216.410153,4223.58964,4229.743486,4220.512717,4210.256307,4228.717845,4265.128101,4228.205025,4211.281948,4170.769129,4222.563999,4181.025539
126,0,4215.384512,4222.051179,4221.538358,4234.358871,4225.128102,4229.230666,4212.307589,4236.410153,4267.692203,4230.256307,4226.153743,4179.487077,4234.358871,4197.948615
127,0,4197.948615,4215.897333,4221.025538,4223.07682,4227.179384,4224.102461,4207.179384,4234.871691,4260.512716,4243.58964,4223.58964,4176.410154,4224.102461,4188.717846
128,0,4192.30759,4209.230666,4218.974256,4212.82041,4232.307589,4218.974256,4207.179384,4235.384512,4259.487075,4239.487076,4207.179384,4180.512718,4212.307589,4173.333231
0,0,4189.743487,4213.846051,4223.07682,4221.025538,4231.794768,4218.974256,4204.615282,4234.871691,4258.461434,4227.179384,4206.666564,4189.230667,4207.179384,4162.564001
1,0,4178.974257,4219.487076,4225.640922,4232.307589,4230.769127,4213.846051,4198.461436,4230.769127,4253.84605,4202.051179,4219.999897,4182.564,4216.922974,4165.128103
2,0,4177.948616,4208.205025,4220.512717,4227.179384,4227.179384,4210.769128,4197.435795,4228.717845,4251.794768,4185.128103,4211.281948,4169.743488,4219.999897,4182.05118
3,0,4192.30759,4197.948615,4216.410153,4217.948615,4224.615281,4219.487076,4201.538359,4226.666563,4252.820409,4220.512717,4196.410154,4170.256308,4210.256307,4184.615282
4,0,4206.153743,4199.999897,4218.461435,4216.922974,4218.974256,4226.153743,4206.666564,4224.615281,4259.487075,4251.281947,4203.07682,4180.512718,4204.102461,4174.358872
5,0,4206.666564,4204.615282,4221.025538,4216.410153,4211.794769,4221.538358,4210.769128,4224.615281,4274.35887,4230.769127,4214.871692,4179.999898,4202.564,4178.974257
6,0,4203.589641,4208.717846,4224.615281,4220.512717,4220.512717,4215.897333,4207.179384,4229.230666,4280.512716,4219.487076,4212.82041,4174.358872,4205.128102,4183.589641
7,0,4202.051179,4209.743487,4222.563999,4220.512717,4233.33323,4214.358871,4201.538359,4231.281948,4270.769126,4233.84605,4206.666564,4173.333231,4211.281948,4180.512718
8,0,4193.333231,4203.589641,4213.846051,4205.128102,4226.666563,4217.948615,4204.102461,4226.666563,4264.61528,4231.794768,4204.102461,4168.205026,4207.179384,4182.564
9,0,4177.948616,4198.974256,4210.256307,4198.974256,4214.871692,4223.58964,4208.717846,4226.666563,4270.769126,4217.435794,4201.538359,4160.512719,4200.512718,4174.358872
10,0,4177.948616,4202.564,4213.846051,4214.358871,4218.461435,4223.07682,4209.230666,4233.33323,4275.384511,4210.256307,4203.589641,4166.153744,4207.692205,4155.897334
11,0,4192.30759,4201.538359,4215.384512,4222.051179,4221.025538,4217.948615,4209.743487,4229.230666,4270.256306,4211.794769,4209.743487,4176.410154,4206.666564,4155.897334
12,0,4189.743487,4201.538359,4216.410153,4208.205025,4219.487076,4216.922974,4207.692205,4223.07682,4269.743485,4229.230666,4212.307589,4175.384513,4201.538359,4176.410154
13,0,4177.948616,4204.615282,4218.974256,4198.974256,4215.897333,4218.461435,4205.128102,4228.205025,4273.846049,4226.666563,4206.666564,4175.384513,4205.128102,4176.922975
14,0,4186.153744,4206.666564,4218.461435,4206.666564,4212.82041,4218.974256,4208.205025,4233.33323,4269.230665,4188.205026,4205.128102,4183.589641,4204.102461,4171.79477
15,0,4196.410154,4204.102461,4217.435794,4196.410154,4212.82041,4213.33323,4207.179384,4225.128102,4253.333229,4170.256308,4202.051179,4182.05118,4193.846051,4171.79477
16,0,4188.717846,4196.922974,4213.846051,4153.846052,4211.281948,4204.102461,4197.435795,4214.358871,4245.640922,4204.615282,4194.358872,4168.717847,4190.256308,4156.410155
17,0,4173.846052,4186.666564,4206.153743,4125.128104,4205.128102,4203.07682,4191.281949,4209.230666,4251.794768,4227.692204,4192.82041,4154.871693,4186.153744,4147.692206
18,0,4168.205026,4183.589641,4199.487077,4129.743489,4206.666564,4211.794769,4199.999897,4213.33323,4257.435793,4215.384512,4194.871692,4150.256309,4185.640923,4172.30759
19,0,4169.230667,4187.692205,4205.640923,4134.358873,4211.794769,4215.897333,4206.153743,4214.871692,4252.820409,4192.30759,4186.153744,4155.897334,4187.179385,4161.53836
20,0,4169.230667,4191.794769,4209.230666,4127.692207,4210.256307,4214.871692,4202.564,4210.256307,4247.692204,4198.461436,4179.999898,4164.615283,4182.564,4129.230668
21,0,4164.102462,4185.640923,4205.640923,4122.051181,4201.025538,4213.33323,4198.461436,4208.205025,4250.256306,4223.07682,4184.615282,4162.05118,4176.922975,4145.128104
22,0,4157.435796,4175.897334,4197.948615,4122.051181,4199.999897,4210.256307,4200.512718,4209.743487,4248.205024,4183.076821,4185.128103,4153.333232,4177.435795,4163.076821
23,0,4144.615283,4174.871693,4194.358872,4121.538361,4206.153743,4208.205025,4200.512718,4211.794769,4239.487076,4118.974258,4184.102462,4153.846052,4174.358872,4151.28195
24,0,4145.640924,4181.538359,4197.948615,4122.564002,4205.640923,4210.769128,4197.435795,4216.922974,4239.999896,4171.281949,4184.615282,4159.999898,4174.871693,4152.307591
25,0,4159.999898,4181.538359,4203.589641,4124.102463,4196.922974,4208.717846,4197.948615,4220.512717,4245.640922,4263.076819,4176.922975,4163.076821,4177.435795,4141.53836
26,0,4150.256309,4172.820411,4201.538359,4121.538361,4197.948615,4205.128102,4202.051179,4214.358871,4241.538358,4232.820409,4176.410154,4163.076821,4169.743488,4118.461438
27,0,4144.102463,4176.922975,4197.948615,4125.640925,4207.692205,4209.230666,4206.666564,4217.435794,4241.538358,4179.487077,4191.281949,4161.025539,4177.948616,4146.153745
28,0,4171.79477,4186.153744,4202.051179,4130.76913,4202.564,4212.82041,4203.589641,4223.58964,4246.666563,4197.435795,4195.897333,4157.435796,4193.846051,4183.589641
29,0,4181.538359,4181.538359,4203.07682,4116.410156,4189.230667,4209.230666,4195.897333,4215.384512,4238.974255,4185.640923,4186.666564,4156.922975,4184.102462,4170.256308
30,0,4154.871693,4173.333231,4201.538359,4108.205028,4189.743487,4208.205025,4193.846051,4202.051179,4227.692204,4151.79477,4177.948616,4153.846052,4167.692206,4155.384514
31,0,4156.410155,4186.666564,4205.128102,4133.333232,4203.07682,4212.82041,4197.435795,4208.205025,4234.358871,4184.102462,4176.410154,4152.820411,4181.538359,4161.53836
32,0,4172.820411,4197.948615,4209.743487,4156.410155,4203.07682,4208.717846,4194.871692,4216.410153,4238.974255,4232.820409,4183.076821,4160.512719,4198.974256,4148.717847
33,0,4168.717847,4187.692205,4212.82041,4149.743488,4198.974256,4203.07682,4192.30759,4215.384512,4232.307589,4231.281948,4190.256308,4167.692206,4184.615282,4146.153745
34,0,4170.256308,4179.487077,4213.846051,4147.179386,4197.948615,4203.589641,4197.435795,4215.897333,4229.743486,4204.102461,4190.256308,4167.179385,4169.743488,4171.281949
35,0,4176.922975,4188.205026,4211.794769,4151.79477,4198.461436,4205.640923,4196.922974,4215.897333,4233.33323,4195.897333,4195.897333,4167.179385,4192.82041,4180.512718
36,0,4178.461436,4186.153744,4206.153743,4138.461437,4202.051179,4204.102461,4193.846051,4212.307589,4232.307589,4213.846051,4202.051179,4166.666565,4224.102461,4176.410154
37,0,4179.999898,4172.820411,4208.205025,4122.051181,4209.743487,4208.205025,4198.974256,4215.897333,4235.384512,4239.487076,4206.153743,4172.30759,4239.999896,4192.30759
38,0,4174.358872,4169.743488,4224.102461,4127.179386,4207.692205,4209.230666,4198.461436,4221.025538,4243.58964,4217.948615,4217.435794,4183.589641,4254.871691,4207.692205
39,0,4181.538359,4176.922975,4229.230666,4146.666565,4203.07682,4210.769128,4195.897333,4225.128102,4247.179383,4194.358872,4237.948614,4185.640923,4277.948613,4226.153743
40,0,4208.717846,4178.974257,4221.025538,4160.512719,4208.205025,4221.538358,4206.666564,4235.384512,4251.281947,4226.153743,4250.769127,4181.025539,4287.179382,4244.615281
41,0,4215.897333,4176.922975,4216.922974,4167.179385,4217.435794,4223.58964,4214.358871,4243.076819,4253.84605,4253.333229,4245.128101,4182.05118,4283.589639,4229.743486
42,0,4207.179384,4180.512718,4225.640922,4174.871693,4220.512717,4214.358871,4205.640923,4237.435794,4249.230665,4248.717845,4233.84605,4186.153744,4279.487075,4221.025538
43,0,4199.487077,4178.974257,4227.179384,4171.281949,4210.769128,4212.307589,4201.025538,4232.307589,4248.717845,4258.974255,4234.358871,4184.102462,4274.35887,4240.512717
44,0,4178.974257,4163.076821,4215.384512,4154.871693,4196.922974,4216.410153,4207.179384,4235.897332,4246.666563,4256.410152,4241.025537,4177.948616,4264.61528,4227.692204
45,0,4171.281949,4153.846052,4211.794769,4150.256309,4199.999897,4217.435794,4209.230666,4234.871691,4237.435794,4226.153743,4233.33323,4177.948616,4256.410152,4198.461436
46,0,4196.410154,4173.333231,4224.615281,4175.384513,4219.487076,4221.025538,4203.07682,4230.256307,4240.512717,4224.102461,4229.230666,4189.230667,4266.153742,4212.307589
47,0,4204.615282,4190.256308,4231.281948,4193.846051,4225.128102,4217.435794,4198.974256,4233.33323,4246.153742,4236.922973,4236.922973,4194.358872,4272.820408,4224.102461
48,0,4197.435795,4187.179385,4224.102461,4192.82041,4217.435794,4211.281948,4203.589641,4240.512717,4246.666563,4250.256306,4244.10246,4190.256308,4269.230665,4213.33323
49,0,4200.512718,4187.179385,4225.128102,4197.435795,4219.487076,4219.999897,4208.205025,4239.999896,4249.230665,4276.410152,4242.051178,4188.717846,4274.87169,4224.102461
50,0,4198.461436,4190.256308,4229.230666,4198.461436,4223.58964,4230.256307,4209.743487,4235.384512,4249.743486,4281.538357,4234.871691,4180.512718,4271.794767,4241.025537
51,0,4196.922974,4185.640923,4225.640922,4192.30759,4213.33323,4227.692204,4210.769128,4236.410153,4244.615281,4248.205024,4230.256307,4172.30759,4254.871691,4224.102461
52,0,4203.07682,4184.615282,4225.128102,4200.512718,4206.666564,4226.153743,4212.307589,4245.640922,4252.307588,4234.358871,4233.84605,4182.564,4264.10246,4211.281948
53,0,4198.974256,4184.615282,4229.230666,4211.281948,4214.358871,4224.615281,4208.205025,4250.769127,4256.410152,4241.025537,4234.871691,4191.794769,4281.538357,4223.07682
54,0,4199.999897,4185.640923,4229.230666,4211.281948,4218.974256,4221.538358,4204.102461,4248.205024,4245.128101,4250.769127,4237.435794,4186.153744,4272.820408,4233.84605
55,0,4217.435794,4191.794769,4235.897332,4217.948615,4216.410153,4223.07682,4206.153743,4247.179383,4243.076819,4238.461435,4247.692204,4189.743487,4263.076819,4230.256307
56,0,4229.743486,4203.07682,4244.10246,4233.84605,4227.179384,4230.769127,4213.33323,4251.281947,4250.256306,4202.564,4253.84605,4204.102461,4276.410152,4232.307589
57,0,4219.487076,4209.743487,4248.205024,4239.487076,4234.358871,4236.922973,4214.358871,4253.333229,4251.281947,4229.230666,4250.769127,4209.230666,4289.230664,4246.153742
58,0,4219.487076,4212.307589,4249.743486,4245.128101,4229.743486,4242.563999,4215.384512,4256.922973,4256.410152,4302.051177,4251.794768,4209.230666,4287.179382,4253.84605
59,0,4231.794768,4213.33323,4251.281947,4252.307588,4233.33323,4239.487076,4217.435794,4260.512716,4262.051178,4299.487074,4252.307588,4209.743487,4283.076818,4249.743486
60,0,4234.358871,4213.33323,4253.333229,4250.256306,4234.871691,4237.948614,4214.871692,4260.512716,4262.051178,4257.435793,4257.948614,4209.743487,4286.666562,4250.769127
61,0,4230.256307,4209.230666,4254.871691,4251.794768,4226.666563,4239.999896,4210.769128,4260.512716,4260.512716,4267.692203,4265.128101,4215.897333,4286.153741,4249.230665
62,0,4221.538358,4203.589641,4247.179383,4256.922973,4226.666563,4229.230666,4207.692205,4259.999896,4254.871691,4274.35887,4254.35887,4210.769128,4277.435793,4241.025537
63,0,4221.538358,4202.564,4240.512717,4254.35887,4233.84605,4228.205025,4207.692205,4260.512716,4249.743486,4256.922973,4245.128101,4191.794769,4284.61528,4256.922973
64,0,4220.512717,4203.07682,4243.58964,4250.769127,4230.256307,4241.025537,4211.794769,4259.487075,4251.281947,4272.307588,4248.717845,4189.230667,4293.333228,4266.666562
65,0,4200.512718,4200.512718,4243.076819,4251.794768,4229.230666,4235.897332,4206.666564,4254.871691,4252.307588,4278.974254,4244.10246,4203.589641,4276.410152,4222.051179
66,0,4194.358872,4196.922974,4232.820409,4249.230665,4228.717845,4224.615281,4196.410154,4250.769127,4247.179383,4242.051178,4235.384512,4197.435795,4256.922973,4195.384513
67,0,4230.256307,4205.128102,4233.84605,4257.435793,4220.512717,4234.871691,4202.564,4254.871691,4246.666563,4229.743486,4246.153742,4186.153744,4266.666562,4236.410153
68,0,4239.999896,4209.230666,4243.58964,4272.820408,4217.435794,4237.435794,4204.102461,4252.307588,4243.58964,4256.922973,4253.333229,4194.358872,4272.307588,4258.461434
69,0,4205.640923,4202.051179,4240.512717,4270.256306,4233.84605,4227.179384,4191.281949,4244.615281,4239.999896,4260.512716,4246.666563,4194.358872,4259.487075,4241.538358
70,0,4203.589641,4206.153743,4237.435794,4271.281947,4246.153742,4236.410153,4195.897333,4249.743486,4241.025537,4221.538358,4243.58964,4189.743487,4261.538357,4226.666563
71,0,4235.384512,4223.07682,4246.153742,4283.589639,4236.922973,4247.692204,4211.281948,4261.025537,4245.640922,4211.281948,4253.333229,4198.974256,4283.589639,4234.358871
72,0,4234.871691,4223.58964,4246.666563,4275.384511,4225.640922,4239.487076,4208.205025,4258.974255,4250.256306,4260.512716,4250.256306,4194.358872,4284.61528,4241.538358
73,0,4219.487076,4215.897333,4232.820409,4258.461434,4231.794768,4234.871691,4199.999897,4255.384511,4254.871691,4298.461433,4238.974255,4179.999898,4272.307588,4232.307589
74,0,4223.07682,4213.33323,4232.307589,4261.538357,4232.820409,4238.974255,4205.128102,4256.922973,4255.897332,4277.948613,4241.025537,4183.076821,4261.538357,4225.640922
75,0,4227.179384,4210.256307,4237.435794,4269.230665,4226.666563,4236.922973,4205.128102,4255.384511,4251.281947,4251.281947,4245.128101,4188.205026,4252.307588,4238.974255
76,0,4222.563999,4208.205025,4237.435794,4264.10246,4232.307589,4231.281948,4195.897333,4253.333229,4247.179383,4245.640922,4240.512717,4187.179385,4254.35887,4229.743486
77,0,4210.769128,4209.743487,4239.487076,4259.999896,4244.10246,4236.410153,4196.410154,4259.999896,4249.230665,4246.666563,4235.897332,4194.358872,4263.589639,4197.435795
78,0,4196.922974,4205.128102,4242.051178,4261.538357,4239.999896,4242.051178,4201.025538,4261.538357,4247.692204,4260.512716,4230.769127,4196.922974,4261.025537,4210.769128
79,0,4208.205025,4203.589641,4242.051178,4263.589639,4230.769127,4237.948614,4199.487077,4251.794768,4243.076819,4268.205024,4238.974255,4191.794769,4258.974255,4249.230665
80,0,4231.281948,4207.179384,4239.999896,4257.435793,4233.33323,4232.307589,4193.846051,4248.717845,4242.051178,4242.051178,4256.410152,4192.30759,4265.128101,4243.58964
81,0,4213.33323,4204.102461,4230.769127,4246.666563,4231.281948,4232.307589,4190.769128,4248.205024,4241.025537,4222.051179,4247.692204,4187.179385,4258.461434,4211.794769
82,0,4188.205026,4197.948615,4225.640922,4245.128101,4215.897333,4233.33323,4193.846051,4246.666563,4241.538358,4236.410153,4228.717845,4176.922975,4247.692204,4204.102461
83,0,4203.07682,4192.82041,4225.128102,4246.153742,4206.153743,4228.717845,4193.846051,4246.666563,4243.076819,4242.051178,4229.743486,4175.384513,4248.717845,4211.794769
84,0,4223.58964,4192.30759,4224.102461,4249.743486,4218.461435,4225.640922,4190.256308,4249.743486,4242.051178,4237.948614,4236.922973,4187.692205,4258.974255,4222.563999
85,0,4215.384512,4193.846051,4229.743486,4251.281947,4230.256307,4229.230666,4190.769128,4251.281947,4241.025537,4249.743486,4238.461435,4196.922974,4264.10246,4231.281948
86,0,4202.564,4197.435795,4232.820409,4250.769127,4229.743486,4231.281948,4192.30759,4252.820409,4243.58964,4263.589639,4243.076819,4193.333231,4259.999896,4233.33323
87,0,4204.615282,4205.640923,4230.769127,4257.948614,4224.102461,4226.666563,4187.692205,4252.820409,4238.974255,4261.538357,4242.563999,4192.30759,4257.435793,4230.769127
88,0,4221.025538,4215.384512,4236.410153,4266.666562,4222.563999,4230.256307,4192.82041,4254.871691,4242.051178,4260.512716,4248.717845,4199.999897,4266.666562,4232.820409
89,0,4235.897332,4216.922974,4248.205024,4266.666562,4226.153743,4243.076819,4202.051179,4259.487075,4251.794768,4265.128101,4256.410152,4206.153743,4272.307588,4236.922973
90,0,4234.358871,4217.435794,4250.769127,4263.076819,4235.384512,4246.153742,4199.487077,4264.10246,4250.769127,4270.769126,4252.820409,4210.769128,4269.230665,4239.999896
91,0,4226.153743,4216.410153,4249.230665,4265.640921,4235.384512,4234.871691,4195.384513,4265.128101,4245.128101,4276.922972,4248.717845,4207.179384,4268.717844,4242.051178
92,0,4218.461435,4211.794769,4245.128101,4257.948614,4227.179384,4228.717845,4194.871692,4259.487075,4244.615281,4267.692203,4248.717845,4194.871692,4275.384511,4244.10246
93,0,4211.281948,4207.692205,4241.025537,4243.076819,4225.128102,4231.281948,4190.256308,4249.743486,4241.025537,4232.307589,4243.58964,4190.769128,4271.794767,4238.461435
94,0,4217.435794,4209.230666,4239.999896,4244.615281,4235.897332,4234.358871,4190.256308,4249.230665,4236.922973,4226.153743,4246.666563,4192.82041,4262.051178,4227.179384
95,0,4229.743486,4209.230666,4239.487076,4250.769127,4237.948614,4234.358871,4194.871692,4250.769127,4233.84605,4244.10246,4253.84605,4192.82041,4251.281947,4224.102461
96,0,4225.640922,4207.692205,4239.487076,4247.179383,4228.717845,4236.410153,4195.897333,4248.717845,4227.692204,4228.205025,4245.640922,4193.846051,4251.794768,4235.897332
97,0,4219.999897,4207.692205,4239.999896,4247.179383,4224.102461,4233.84605,4195.384513,4251.794768,4225.128102,4210.769128,4233.84605,4194.871692,4257.948614,4244.10246
98,0,4226.153743,4210.769128,4237.435794,4254.35887,4225.128102,4228.717845,4189.230667,4249.743486,4221.538358,4245.128101,4236.922973,4191.794769,4256.922973,4248.205024
99,0,4225.128102,4216.922974,4238.974255,4250.256306,4226.666563,4230.256307,4183.589641,4242.051178,4214.358871,4278.974254,4244.615281,4190.256308,4253.84605,4239.999896
100,0,4215.384512,4217.435794,4242.051178,4239.999896,4224.102461,4232.820409,4188.717846,4244.615281,4217.948615,4269.230665,4243.58964,4194.871692,4249.230665,4216.410153
101,0,4214.358871,4214.871692,4242.051178,4239.487076,4227.179384,4228.717845,4190.769128,4250.256306,4226.666563,4255.897332,4234.358871,4193.846051,4244.10246,4220.512717
102,0,4216.410153,4210.256307,4241.025537,4236.410153,4229.743486,4222.563999,4182.05118,4242.563999,4223.58964,4249.743486,4227.692204,4182.564,4241.025537,4247.692204
103,0,4215.897333,4210.256307,4237.948614,4232.307589,4227.692204,4227.692204,4185.128103,4238.461435,4217.435794,4244.615281,4230.769127,4181.538359,4245.640922,4252.820409
104,0,4216.410153,4213.846051,4236.410153,4238.974255,4225.128102,4235.384512,4194.871692,4244.10246,4218.974256,4245.640922,4234.358871,4191.794769,4239.487076,4229.743486
105,0,4225.128102,4213.846051,4232.307589,4249.743486,4225.128102,4232.307589,4196.410154,4247.692204,4225.128102,4245.128101,4234.358871,4192.30759,4229.230666,4208.717846
106,0,4232.307589,4210.256307,4233.33323,4247.692204,4217.948615,4222.563999,4194.358872,4245.128101,4222.563999,4215.897333,4231.281948,4187.692205,4224.615281,4215.384512
107,0,4219.999897,4215.897333,4243.076819,4242.563999,4213.846051,4222.563999,4194.358872,4243.58964,4220.512717,4203.589641,4233.33323,4193.846051,4218.974256,4249.743486
108,0,4202.564,4219.487076,4253.84605,4248.717845,4221.538358,4230.256307,4194.358872,4243.076819,4222.051179,4241.538358,4236.922973,4198.974256,4213.33323,4262.051178
109,0,4213.846051,4214.871692,4251.794768,4241.025537,4223.07682,4232.820409,4196.410154,4244.615281,4221.538358,4257.435793,4237.435794,4195.897333,4210.256307,4249.743486
110,0,4232.820409,4208.205025,4245.128101,4222.563999,4219.999897,4227.692204,4194.871692,4242.563999,4219.999897,4226.153743,4229.743486,4194.871692,4199.487077,4230.769127
111,0,4227.692204,4210.256307,4241.025537,4223.58964,4226.666563,4218.974256,4191.281949,4235.897332,4216.922974,4215.384512,4223.07682,4197.435795,4187.692205,4206.153743
112,0,4216.922974,4212.82041,4237.948614,4233.84605,4227.692204,4220.512717,4192.30759,4235.897332,4215.897333,4233.84605,4225.128102,4193.846051,4188.205026,4209.230666
113,0,4210.256307,4207.692205,4231.794768,4219.999897,4219.999897,4227.179384,4196.922974,4242.563999,4218.974256,4246.153742,4229.743486,4178.974257,4192.30759,4239.999896
114,0,4192.30759,4200.512718,4229.230666,4199.999897,4214.358871,4223.07682,4194.358872,4241.538358,4215.384512,4242.563999,4225.640922,4171.281949,4187.179385,4232.307589
115,0,4199.487077,4206.666564,4236.922973,4214.871692,4217.435794,4224.102461,4191.794769,4242.051178,4210.256307,4227.692204,4229.230666,4190.769128,4188.205026,4206.666564
116,0,4239.999896,4221.538358,4248.205024,4243.076819,4222.051179,4231.281948,4196.922974,4248.717845,4219.999897,4230.769127,4239.487076,4209.743487,4194.358872,4226.153743
117,0,4247.179383,4223.58964,4241.025537,4231.281948,4224.102461,4224.102461,4195.897333,4243.076819,4221.025538,4233.33323,4229.230666,4196.410154,4189.230667,4251.794768
118,0,4218.974256,4215.897333,4232.307589,4205.128102,4222.563999,4216.922974,4189.743487,4235.897332,4208.205025,4216.922974,4222.051179,4179.999898,4188.717846,4246.666563
119,0,4206.666564,4221.025538,4241.025537,4219.487076,4223.07682,4227.692204,4195.384513,4246.153742,4209.230666,4233.84605,4240.512717,4191.794769,4204.102461,4238.974255
120,0,4227.179384,4236.410153,4252.307588,4248.205024,4234.358871,4230.769127,4205.640923,4259.999896,4221.538358,4266.153742,4252.820409,4209.743487,4210.769128,4230.769127
121,0,4246.666563,4236.410153,4251.281947,4254.35887,4244.615281,4224.615281,4205.640923,4258.974255,4223.07682,4265.640921,4239.487076,4206.153743,4203.07682,4223.58964
122,0,4233.33323,4229.743486,4248.205024,4247.692204,4238.974255,4229.230666,4204.102461,4250.769127,4213.846051,4248.717845,4232.307589,4193.846051,4199.487077,4244.10246
123,0,4219.999897,4234.871691,4254.35887,4250.769127,4228.205025,4234.358871,4207.179384,4250.256306,4207.179384,4233.84605,4239.999896,4192.30759,4206.666564,4272.307588
124,0,4255.897332,4247.179383,4263.589639,4271.794767,4238.974255,4243.58964,4215.384512,4264.10246,4216.410153,4238.461435,4247.179383,4206.666564,4219.999897,4273.333229
125,0,4268.717844,4236.410153,4261.538357,4236.922973,4239.999896,4238.461435,4214.358871,4260.512716,4212.82041,4242.051178,4239.487076,4211.794769,4201.538359,4236.410153
126,0,4206.153743,4191.281949,4236.410153,4101.025541,4209.230666,4196.410154,4191.794769,4223.58964,4179.999898,4205.128102,4203.07682,4178.461436,4152.307591,4185.640923
127,0,4148.717847,4143.076822,4205.640923,3979.999903,4179.487077,4160.512719,4172.30759,4186.666564,4152.307591,4142.564001,4155.897334,4135.384514,4117.948617,4152.820411
128,0,4157.435796,4144.615283,4197.948615,3975.384518,4174.871693,4172.820411,4180.512718,4181.538359,4154.358873,4134.358873,4152.820411,4128.205027,4122.564002,4165.640924
0,0,4174.871693,4153.846052,4207.692205,4001.025543,4178.974257,4192.30759,4191.281949,4186.666564,4165.640924,4172.820411,4174.358872,4139.487078,4125.640925,4167.179385
1,0,4158.461437,4135.897335,4208.717846,3991.281954,4177.948616,4190.256308,4189.743487,4183.076821,4169.230667,4187.179385,4165.640924,4144.102463,4117.948617,4131.794771
2,0,4139.999899,4137.948617,4202.051179,3991.281954,4175.897334,4186.153744,4188.205026,4181.538359,4165.128103,4165.640924,4149.230668,4143.076822,4112.307592,4126.666566
3,0,4148.205027,4163.589642,4197.435795,4007.179389,4181.538359,4191.794769,4189.743487,4185.128103,4161.025539,4156.410155,4156.922975,4133.333232,4105.128105,4153.846052
4,0,4169.743488,4176.410154,4197.435795,4019.999902,4192.30759,4198.974256,4193.333231,4186.153744,4158.974257,4159.487078,4156.410155,4125.128104,4097.435797,4159.487078
5,0,4184.102462,4187.692205,4201.538359,4033.846055,4199.487077,4197.435795,4195.384513,4184.615282,4157.948616,4142.564001,4139.999899,4134.871694,4087.692208,4142.564001
6,0,4192.30759,4201.025538,4205.128102,4043.076824,4201.025538,4188.205026,4191.281949,4182.05118,4163.589642,4144.615283,4138.461437,4142.051181,4071.281952,4130.76913
7,0,4181.025539,4199.487077,4202.564,4044.615286,4197.948615,4187.179385,4188.717846,4176.410154,4167.692206,4159.999898,4149.743488,4132.820412,4062.564003,4132.820412
8,0,4162.05118,4200.512718,4205.640923,4056.410157,4185.640923,4196.410154,4194.871692,4181.538359,4167.179385,4151.28195,4151.28195,4132.820412,4073.333234,4143.589642
9,0,4175.897334,4211.281948,4215.897333,4074.358875,4187.692205,4204.102461,4203.07682,4197.435795,4170.256308,4156.922975,4152.307591,4150.256309,4089.230669,4152.307591
10,0,4216.410153,4215.384512,4218.974256,4073.846054,4215.384512,4205.128102,4206.666564,4204.615282,4177.948616,4189.230667,4166.153744,4159.487078,4095.897336,4164.102462
11,0,4221.538358,4213.33323,4217.435794,4066.153747,4226.153743,4200.512718,4203.07682,4198.461436,4182.564,4198.461436,4168.717847,4150.769129,4093.333233,4167.179385
12,0,4199.999897,4217.435794,4224.102461,4078.974259,4216.410153,4202.051179,4204.102461,4199.487077,4182.564,4170.769129,4164.615283,4151.79477,4093.846054,4158.974257
13,0,4210.256307,4224.102461,4231.281948,4102.051182,4214.871692,4208.717846,4211.794769,4206.666564,4179.487077,4155.384514,4170.256308,4165.640924,4107.179387,4174.358872
14,0,4221.538358,4225.640922,4226.666563,4110.25631,4221.538358,4204.102461,4212.307589,4207.692205,4174.871693,4164.615283,4169.230667,4163.589642,4118.461438,4192.30759
15,0,4213.846051,4219.999897,4224.102461,4109.743489,4218.974256,4194.871692,4206.666564,4201.538359,4170.256308,4170.256308,4166.153744,4157.948616,4109.230669,4176.410154
16,0,4225.640922,4224.102461,4232.820409,4119.487079,4213.33323,4201.025538,4207.692205,4205.128102,4175.384513,4177.948616,4181.025539,4164.615283,4110.25631,4176.410154
17,0,4227.692204,4228.717845,4235.897332,4124.615284,4211.794769,4214.871692,4210.769128,4212.82041,4187.179385,4186.153744,4179.999898,4160.512719,4119.487079,4186.666564
18,0,4212.82041,4227.692204,4229.230666,4123.076822,4219.487076,4216.922974,4216.410153,4216.410153,4191.281949,4194.358872,4167.179385,4148.205027,4118.461438,4180.512718
19,0,4217.948615,4227.179384,4228.205025,4125.128104,4219.999897,4208.205025,4220.512717,4216.922974,4188.205026,4212.307589,4169.230667,4151.28195,4111.281951,4180.512718
20,0,4212.307589,4224.102461,4229.230666,4130.76913,4215.897333,4205.640923,4222.563999,4218.974256,4186.666564,4198.974256,4169.230667,4160.512719,4110.25631,4171.79477
21,0,4189.743487,4219.999897,4236.922973,4140.512719,4225.640922,4214.871692,4227.179384,4230.769127,4186.666564,4146.153745,4172.30759,4170.256308,4114.871694,4159.999898
22,0,4202.051179,4227.179384,4248.717845,4152.820411,4242.563999,4224.102461,4231.281948,4244.615281,4195.384513,4153.846052,4193.333231,4179.999898,4130.256309,4193.333231
23,0,4228.205025,4235.897332,4251.281947,4156.922975,4231.794768,4215.897333,4225.128102,4239.999896,4201.025538,4211.794769,4198.461436,4176.410154,4143.589642,4219.999897
24,0,4235.384512,4235.384512,4247.179383,4156.410155,4211.281948,4207.692205,4221.025538,4227.692204,4193.333231,4225.640922,4188.717846,4170.256308,4142.051181,4199.999897
25,0,4238.974255,4234.871691,4251.794768,4158.461437,4219.487076,4218.461435,4228.717845,4233.84605,4195.897333,4224.615281,4195.384513,4179.999898,4141.53836,4192.82041
26,0,4240.512717,4239.999896,4259.999896,4159.999898,4242.563999,4226.666563,4228.205025,4242.051178,4206.666564,4230.769127,4205.128102,4188.717846,4150.256309,4203.589641
27,0,4239.487076,4244.615281,4255.897332,4164.102462,4249.743486,4222.051179,4224.615281,4239.999896,4204.102461,4221.025538,4203.07682,4183.589641,4155.897334,4212.307589
28,0,4228.717845,4241.538358,4246.666563,4164.615283,4236.410153,4215.897333,4226.666563,4235.897332,4195.897333,4215.897333,4190.769128,4174.358872,4148.205027,4218.461435
29,0,4224.102461,4239.999896,4245.128101,4164.615283,4225.640922,4213.33323,4226.153743,4234.871691,4200.512718,4215.384512,4191.281949,4172.820411,4149.230668,4210.256307
30,0,4238.461435,4238.461435,4242.051178,4167.179385,4222.563999,4211.794769,4219.999897,4232.820409,4201.538359,4193.333231,4204.615282,4176.922975,4157.435796,4195.897333
31,0,4235.384512,4231.281948,4234.871691,4166.666565,4223.07682,4209.743487,4215.384512,4227.692204,4193.333231,4189.743487,4208.205025,4176.410154,4149.743488,4207.692205
32,0,4212.307589,4221.538358,4235.897332,4159.999898,4226.666563,4206.666564,4215.897333,4224.102461,4192.30759,4213.846051,4194.358872,4170.256308,4139.487078,4206.153743
33,0,4219.487076,4222.051179,4240.512717,4153.846052,4229.743486,4216.410153,4223.07682,4231.794768,4202.564,4217.948615,4183.589641,4170.256308,4147.179386,4174.871693
34,0,4232.307589,4226.666563,4240.512717,4155.897334,4227.179384,4227.692204,4227.179384,4237.948614,4206.666564,4205.640923,4187.179385,4170.256308,4151.79477,4179.999898
35,0,4226.153743,4232.307589,4241.025537,4168.717847,4230.769127,4224.615281,4223.07682,4234.358871,4195.897333,4218.974256,4201.025538,4168.717847,4150.256309,4217.948615
36,0,4227.692204,4234.871691,4248.205024,4181.025539,4230.769127,4215.897333,4220.512717,4229.230666,4189.230667,4233.84605,4204.102461,4174.871693,4153.846052,4209.743487
37,0,4245.128101,4236.410153,4248.205024,4182.05118,4226.666563,4221.538358,4224.102461,4229.743486,4197.948615,4224.615281,4197.435795,4178.461436,4158.461437,4195.897333
38,0,4249.230665,4242.563999,4248.205024,4185.128103,4236.410153,4230.256307,4225.640922,4232.820409,4209.230666,4197.948615,4205.128102,4175.897334,4164.615283,4220.512717
39,0,4237.948614,4249.230665,4254.35887,4187.692205,4250.769127,4226.666563,4224.102461,4233.84605,4209.230666,4196.410154,4216.410153,4178.974257,4173.333231,4222.051179
40,0,4232.820409,4237.948614,4245.128101,4179.999898,4241.538358,4213.846051,4222.563999,4230.256307,4203.589641,4227.692204,4202.564,4180.512718,4163.589642,4189.230667
41,0,4243.076819,4228.717845,4228.205025,4178.974257,4231.281948,4215.897333,4224.615281,4227.179384,4206.666564,4251.794768,4192.82041,4172.820411,4155.384514,4194.871692
42,0,4251.794768,4233.84605,4232.820409,4186.666564,4238.974255,4227.692204,4224.615281,4228.717845,4210.256307,4246.666563,4204.615282,4171.79477,4167.179385,4225.128102
43,0,4241.025537,4238.974255,4245.128101,4191.281949,4232.820409,4218.974256,4219.487076,4229.743486,4205.640923,4219.999897,4201.538359,4177.948616,4170.769129,4214.871692
44,0,4226.153743,4232.820409,4241.538358,4187.692205,4218.974256,4208.205025,4217.435794,4232.307589,4198.974256,4195.897333,4183.076821,4178.461436,4155.897334,4187.179385
45,0,4217.435794,4222.051179,4233.84605,4183.589641,4223.58964,4216.922974,4221.025538,4231.794768,4194.871692,4192.30759,4187.692205,4178.974257,4148.717847,4186.153744
46,0,4215.384512,4225.128102,4236.410153,4186.153744,4231.281948,4220.512717,4221.025538,4226.666563,4198.974256,4203.589641,4205.640923,4184.102462,4154.871693,4199.487077
47,0,4242.051178,4239.999896,4246.666563,4193.333231,4226.153743,4214.871692,4222.051179,4226.153743,4205.128102,4193.333231,4207.692205,4188.205026,4159.487078,4210.256307
48,0,4266.153742,4246.153742,4253.333229,4201.025538,4229.230666,4221.538358,4227.692204,4232.820409,4206.666564,4193.846051,4208.717846,4189.743487,4164.102462,4233.33323
49,0,4238.461435,4239.487076,4250.256306,4203.589641,4234.871691,4221.538358,4225.640922,4232.307589,4202.051179,4231.794768,4203.07682,4185.128103,4167.692206,4233.84605
50,0,4234.871691,4246.666563,4247.179383,4206.153743,4233.33323,4214.358871,4219.999897,4231.794768,4206.153743,4245.128101,4197.948615,4186.666564,4170.769129,4203.589641
51,0,4279.999895,4260.512716,4248.717845,4214.871692,4237.435794,4223.58964,4226.666563,4239.487076,4214.358871,4230.256307,4213.33323,4193.333231,4174.871693,4207.179384
52,0,4281.025536,4259.487075,4243.076819,4214.358871,4247.179383,4235.384512,4235.897332,4246.153742,4216.410153,4228.717845,4229.743486,4195.897333,4185.128103,4238.974255
53,0,4239.487076,4248.205024,4241.025537,4198.974256,4247.179383,4226.153743,4231.281948,4239.487076,4210.769128,4234.358871,4222.051179,4194.358872,4188.205026,4238.461435
54,0,4235.384512,4241.538358,4242.563999,4190.769128,4235.897332,4213.33323,4225.128102,4229.743486,4204.615282,4229.230666,4210.769128,4185.640923,4181.025539,4223.58964
55,0,4247.692204,4234.871691,4236.922973,4198.974256,4225.128102,4211.794769,4222.563999,4224.615281,4202.051179,4215.897333,4198.974256,4176.922975,4173.846052,4203.07682
56,0,4242.051178,4234.871691,4229.743486,4211.281948,4232.307589,4217.435794,4222.563999,4229.230666,4200.512718,4206.666564,4195.897333,4184.102462,4171.79477,4194.358872
57,0,4249.230665,4245.128101,4238.461435,4216.922974,4241.538358,4219.999897,4225.640922,4235.897332,4201.538359,4204.102461,4219.999897,4198.974256,4178.974257,4229.743486
58,0,4259.487075,4258.974255,4252.307588,4219.999897,4240.512717,4225.128102,4232.307589,4238.974255,4208.205025,4233.33323,4242.563999,4200.512718,4196.922974,4263.076819
59,0,4257.948614,4262.051178,4257.948614,4224.102461,4239.487076,4233.84605,4237.435794,4247.179383,4216.410153,4274.87169,4234.358871,4198.974256,4210.769128,4244.615281
60,0,4263.076819,4258.461434,4254.35887,4227.179384,4241.538358,4235.384512,4237.948614,4250.256306,4221.025538,4270.769126,4227.179384,4205.128102,4209.230666,4228.205025
61,0,4285.1281,4265.128101,4252.820409,4231.281948,4242.051178,4230.769127,4238.461435,4245.640922,4222.563999,4244.10246,4235.384512,4204.615282,4209.230666,4245.128101
62,0,4296.410151,4274.87169,4252.307588,4239.487076,4250.769127,4231.281948,4239.999896,4251.794768,4223.07682,4255.384511,4238.974255,4201.538359,4219.999897,4256.922973
63,0,4270.256306,4265.640921,4248.717845,4237.948614,4259.999896,4234.358871,4239.999896,4260.512716,4222.563999,4282.051177,4237.948614,4200.512718,4221.538358,4249.230665
64,0,4237.435794,4248.717845,4245.128101,4226.153743,4249.743486,4233.33323,4239.999896,4250.769127,4216.410153,4256.922973,4229.230666,4197.948615,4204.615282,4228.717845
65,0,4241.025537,4249.743486,4248.717845,4227.692204,4239.487076,4228.205025,4236.410153,4242.051178,4211.281948,4218.461435,4219.487076,4201.538359,4193.846051,4218.461435
66,0,4261.538357,4256.922973,4252.307588,4235.384512,4246.153742,4220.512717,4231.281948,4239.999896,4210.769128,4223.58964,4222.051179,4201.538359,4202.564,4225.640922
67,0,4267.692203,4256.410152,4243.58964,4233.33323,4247.179383,4219.487076,4231.281948,4233.33323,4211.281948,4254.871691,4223.07682,4192.82041,4208.205025,4239.487076
68,0,4258.974255,4252.307588,4237.948614,4229.230666,4229.230666,4224.615281,4234.871691,4232.307589,4210.256307,4246.666563,4214.358871,4186.666564,4196.410154,4241.025537
69,0,4238.461435,4253.84605,4246.666563,4231.794768,4226.666563,4230.256307,4237.435794,4242.563999,4210.256307,4211.794769,4213.846051,4188.205026,4188.205026,4231.794768
70,0,4227.179384,4256.410152,4254.35887,4239.487076,4248.205024,4232.307589,4240.512717,4243.076819,4206.153743,4224.102461,4214.871692,4190.769128,4189.743487,4223.58964
71,0,4268.205024,4261.025537,4244.615281,4243.076819,4253.84605,4233.33323,4240.512717,4235.897332,4209.743487,4260.512716,4213.846051,4191.794769,4198.461436,4220.512717
72,0,4296.922972,4261.025537,4238.461435,4241.538358,4242.051178,4233.84605,4234.358871,4233.84605,4217.435794,4243.076819,4220.512717,4194.871692,4203.589641,4221.538358
73,0,4253.84605,4263.076819,4248.717845,4243.076819,4249.230665,4234.358871,4234.871691,4236.922973,4214.358871,4225.128102,4222.563999,4197.435795,4209.230666,4237.435794
74,0,4227.179384,4258.461434,4253.84605,4237.948614,4254.871691,4228.717845,4237.435794,4234.358871,4203.589641,4234.358871,4212.82041,4201.538359,4203.07682,4249.743486
75,0,4254.871691,4246.666563,4242.563999,4226.666563,4242.051178,4222.563999,4232.307589,4226.153743,4197.435795,4222.051179,4213.846051,4199.487077,4184.102462,4219.487076
76,0,4258.974255,4248.205024,4236.922973,4233.33323,4236.922973,4222.051179,4232.307589,4225.128102,4197.948615,4209.743487,4217.948615,4191.794769,4182.05118,4193.333231
77,0,4250.256306,4265.128101,4250.256306,4255.897332,4248.717845,4232.307589,4241.025537,4233.84605,4206.666564,4235.897332,4216.922974,4194.358872,4202.051179,4237.948614
78,0,4273.333229,4272.820408,4263.076819,4267.692203,4251.281947,4242.563999,4244.615281,4245.128101,4219.487076,4260.512716,4224.615281,4208.717846,4212.307589,4274.87169
79,0,4275.384511,4264.61528,4261.025537,4261.538357,4243.58964,4238.461435,4245.128101,4254.35887,4220.512717,4258.461434,4229.743486,4215.384512,4212.307589,4242.563999
80,0,4250.769127,4256.410152,4254.35887,4252.820409,4242.051178,4231.794768,4248.205024,4260.512716,4214.358871,4247.179383,4222.563999,4205.640923,4210.769128,4209.230666
81,0,4255.384511,4254.871691,4248.717845,4252.820409,4251.281947,4236.410153,4246.153742,4264.61528,4212.307589,4238.461435,4221.025538,4194.358872,4204.615282,4226.153743
82,0,4262.563998,4261.538357,4248.205024,4259.487075,4261.538357,4238.461435,4243.076819,4270.256306,4215.384512,4229.230666,4234.358871,4199.999897,4207.692205,4259.487075
83,0,4258.974255,4271.281947,4254.35887,4268.205024,4263.076819,4236.410153,4243.076819,4269.743485,4217.948615,4224.615281,4240.512717,4213.33323,4218.974256,4272.307588
84,0,4282.051177,4279.999895,4262.563998,4272.820408,4264.61528,4240.512717,4247.179383,4266.153742,4221.025538,4242.051178,4237.435794,4218.974256,4219.999897,4258.461434
85,0,4299.487074,4279.999895,4263.076819,4264.61528,4261.538357,4243.076819,4251.281947,4271.794767,4224.102461,4257.435793,4239.487076,4212.82041,4220.512717,4229.230666
86,0,4281.538357,4273.846049,4258.974255,4260.512716,4252.307588,4240.512717,4253.333229,4278.974254,4227.692204,4256.410152,4241.538358,4204.615282,4231.281948,4236.410153
87,0,4259.487075,4274.87169,4260.512716,4271.794767,4244.615281,4241.538358,4254.35887,4275.897331,4225.128102,4270.769126,4234.358871,4211.794769,4230.256307,4261.025537
88,0,4270.256306,4285.640921,4265.640921,4279.487075,4253.333229,4244.615281,4256.922973,4274.87169,4222.051179,4279.487075,4236.922973,4223.07682,4224.615281,4259.487075
89,0,4295.897331,4287.692203,4265.640921,4278.461434,4270.769126,4244.10246,4254.35887,4274.87169,4221.025538,4256.410152,4247.179383,4217.948615,4227.692204,4256.922973
90,0,4295.38451,4283.076818,4257.948614,4283.076818,4275.384511,4243.58964,4248.717845,4267.692203,4219.999897,4254.871691,4246.666563,4209.230666,4229.230666,4265.128101
91,0,4262.051178,4275.384511,4255.384511,4281.538357,4265.640921,4238.461435,4246.666563,4265.128101,4217.948615,4254.871691,4231.794768,4206.153743,4217.948615,4257.948614
92,0,4255.897332,4273.333229,4254.35887,4275.897331,4258.974255,4237.948614,4249.230665,4270.256306,4218.461435,4232.820409,4228.205025,4202.051179,4217.948615,4250.256306
93,0,4278.461434,4280.512716,4258.461434,4282.051177,4264.10246,4245.640922,4254.871691,4270.769126,4223.07682,4239.487076,4233.84605,4204.102461,4239.487076,4265.128101
94,0,4272.820408,4284.102459,4264.61528,4284.61528,4268.205024,4247.179383,4252.307588,4265.128101,4221.538358,4265.128101,4234.358871,4215.897333,4246.666563,4264.61528
95,0,4270.256306,4275.897331,4264.61528,4281.025536,4253.84605,4237.948614,4242.051178,4259.487075,4216.410153,4255.897332,4236.922973,4216.410153,4228.717845,4246.153742
96,0,4285.640921,4277.435793,4262.563998,4290.256305,4244.10246,4237.948614,4244.615281,4262.051178,4216.922974,4232.307589,4244.615281,4213.33323,4226.666563,4266.153742
97,0,4284.102459,4283.076818,4264.10246,4294.87169,4253.84605,4244.615281,4253.333229,4270.256306,4223.58964,4241.538358,4244.615281,4217.435794,4238.974255,4291.794767
98,0,4274.87169,4275.384511,4258.461434,4283.076818,4265.128101,4245.128101,4251.281947,4266.153742,4223.07682,4264.10246,4235.897332,4211.794769,4235.384512,4261.025537
99,0,4281.025536,4275.384511,4254.35887,4277.435793,4263.589639,4243.58964,4245.128101,4255.897332,4217.948615,4253.84605,4229.743486,4203.589641,4227.179384,4219.999897
100,0,4290.256305,4290.256305,4265.640921,4277.948613,4268.717844,4247.179383,4249.230665,4256.922973,4221.538358,4234.358871,4228.717845,4208.717846,4233.33323,4253.333229
101,0,4290.256305,4295.38451,4273.846049,4279.487075,4281.025536,4251.794768,4256.410152,4266.666562,4227.179384,4256.922973,4245.640922,4218.974256,4244.10246,4299.999895
102,0,4291.794767,4292.307587,4270.256306,4292.307587,4279.487075,4255.384511,4255.384511,4274.35887,4233.33323,4287.179382,4268.205024,4227.179384,4252.820409,4286.666562
103,0,4315.38451,4303.589638,4271.281947,4306.153741,4279.487075,4257.435793,4255.897332,4281.538357,4242.051178,4279.999895,4268.717844,4233.33323,4265.640921,4274.35887
104,0,4333.846048,4307.179382,4278.461434,4310.769125,4275.384511,4256.410152,4257.435793,4283.076818,4238.461435,4267.692203,4258.461434,4231.281948,4270.769126,4292.820408
105,0,4311.794766,4303.076818,4282.563998,4314.871689,4273.333229,4260.512716,4259.999896,4285.640921,4237.435794,4283.076818,4268.717844,4234.358871,4270.769126,4296.410151
106,0,4283.589639,4302.051177,4283.076818,4310.256305,4282.051177,4261.025537,4262.051178,4288.717844,4245.640922,4303.589638,4274.87169,4243.076819,4267.692203,4271.794767
107,0,4295.897331,4303.589638,4277.948613,4303.589638,4287.692203,4255.897332,4262.051178,4286.666562,4247.179383,4299.999895,4261.025537,4235.384512,4265.128101,4280.512716
108,0,4318.974253,4311.281946,4278.461434,4316.922971,4285.1281,4262.563998,4262.051178,4287.692203,4246.153742,4273.333229,4265.128101,4226.153743,4272.307588,4313.846048
109,0,4328.717843,4319.999894,4282.563998,4329.743484,4292.820408,4273.846049,4268.717844,4295.38451,4251.794768,4255.897332,4285.1281,4234.358871,4284.102459,4312.307587
110,0,4320.512715,4309.230664,4283.076818,4319.999894,4290.769126,4259.999896,4265.640921,4291.281946,4246.153742,4263.589639,4272.820408,4237.948614,4277.948613,4281.538357
111,0,4302.563997,4306.153741,4280.512716,4312.820407,4278.461434,4245.640922,4251.794768,4282.563998,4236.922973,4298.461433,4256.922973,4225.640922,4267.692203,4279.487075
112,0,4295.897331,4318.461433,4281.538357,4321.538356,4285.1281,4256.922973,4254.871691,4284.61528,4242.563999,4311.794766,4269.230665,4221.025538,4273.333229,4298.974254
113,0,4311.794766,4314.871689,4281.538357,4324.102458,4296.922972,4270.256306,4270.769126,4292.307587,4250.769127,4289.743485,4276.922972,4229.743486,4280.512716,4297.948613
114,0,4314.358869,4299.487074,4278.461434,4312.820407,4286.153741,4265.128101,4269.743485,4291.281946,4244.615281,4282.563998,4261.538357,4231.281948,4270.256306,4272.820408
115,0,4290.256305,4300.512715,4277.435793,4305.64092,4276.410152,4259.487075,4261.538357,4287.692203,4235.897332,4290.769126,4255.384511,4226.153743,4260.512716,4265.128101
116,0,4292.820408,4307.692202,4288.205023,4314.358869,4288.205023,4262.563998,4262.051178,4290.769126,4243.58964,4271.281947,4268.717844,4234.358871,4267.692203,4297.948613
117,0,4316.410151,4309.743484,4294.87169,4322.051176,4296.922972,4267.179383,4267.692203,4294.87169,4254.35887,4256.922973,4278.974254,4244.615281,4282.051177,4314.358869
118,0,4316.922971,4306.153741,4284.102459,4319.999894,4284.102459,4262.051178,4267.692203,4289.230664,4247.179383,4279.999895,4268.717844,4235.897332,4281.025536,4281.025536
119,0,4313.846048,4306.666561,4277.435793,4322.051176,4280.512716,4256.922973,4257.948614,4280.512716,4237.948614,4302.563997,4257.435793,4232.307589,4267.179383,4263.589639
120,0,4318.461433,4313.846048,4290.256305,4331.794766,4292.820408,4263.589639,4258.974255,4280.512716,4242.563999,4304.615279,4271.281947,4238.974255,4269.743485,4295.38451
121,0,4301.025536,4305.64092,4292.307587,4328.205022,4288.717844,4259.487075,4265.640921,4281.025536,4244.615281,4283.589639,4273.333229,4234.358871,4276.922972,4312.307587
122,0,4294.358869,4290.769126,4277.435793,4315.89733,4277.948613,4253.333229,4268.205024,4282.563998,4241.538358,4266.666562,4253.333229,4228.717845,4268.717844,4286.666562
123,0,4315.38451,4294.358869,4275.384511,4315.89733,4287.692203,4265.640921,4269.743485,4289.743485,4239.487076,4276.410152,4261.025537,4238.461435,4261.538357,4272.820408
124,0,4319.487074,4307.179382,4286.666562,4325.64092,4296.922972,4277.435793,4275.384511,4299.999895,4248.205024,4303.589638,4288.717844,4248.205024,4278.974254,4297.948613
125,0,4298.974254,4305.64092,4291.281946,4332.820407,4286.153741,4269.743485,4274.35887,4307.179382,4259.999896,4301.538356,4290.256305,4245.128101,4290.769126,4312.307587
126,0,4287.692203,4294.87169,4283.589639,4324.615279,4274.87169,4259.487075,4268.205024,4302.563997,4255.897332,4256.922973,4271.281947,4235.384512,4278.461434,4294.87169
127,0,4290.256305,4287.179382,4278.974254,4306.153741,4278.974254,4261.538357,4268.717844,4290.256305,4244.10246,4239.487076,4264.10246,4231.794768,4265.640921,4276.410152
128,0,4306.153741,4294.358869,4277.435793,4308.205023,4292.820408,4268.717844,4273.846049,4289.230664,4249.743486,4282.563998,4269.743485,4231.794768,4272.820408,4281.025536
0,0,4306.153741,4296.410151,4268.717844,4314.871689,4288.717844,4270.769126,4276.922972,4292.820408,4255.384511,4304.102459,4256.922973,4219.487076,4273.333229,4292.307587
1,0,4290.769126,4281.538357,4258.974255,4300.512715,4277.435793,4266.666562,4273.333229,4288.205023,4249.230665,4287.179382,4239.999896,4209.743487,4260.512716,4282.563998
2,0,4285.1281,4275.897331,4266.666562,4298.974254,4279.487075,4261.025537,4269.743485,4288.205023,4250.256306,4295.38451,4251.281947,4221.538358,4262.563998,4259.487075
3,0,4284.61528,4289.230664,4276.922972,4322.563997,4276.922972,4262.563998,4277.435793,4299.999895,4260.512716,4311.794766,4272.820408,4231.794768,4279.487075,4274.87169
4,0,4291.794767,4296.922972,4275.384511,4330.769125,4266.153742,4267.179383,4282.563998,4306.153741,4262.563998,4289.230664,4273.846049,4232.307589,4280.512716,4301.538356
5,0,4309.230664,4297.435792,4274.87169,4327.692202,4274.35887,4268.205024,4275.384511,4301.538356,4250.769127,4240.512717,4274.87169,4236.922973,4277.948613,4295.897331
6,0,4321.025535,4299.999895,4285.1281,4332.820407,4292.820408,4264.61528,4268.205024,4301.025536,4245.128101,4232.820409,4285.1281,4241.538358,4286.666562,4293.846049
7,0,4317.948612,4302.563997,4290.769126,4328.717843,4295.38451,4268.205024,4271.794767,4304.102459,4255.384511,4298.461433,4279.999895,4242.563999,4294.358869,4307.692202
8,0,4298.974254,4297.948613,4285.640921,4321.538356,4290.256305,4267.179383,4274.87169,4299.999895,4261.538357,4345.128099,4266.666562,4238.461435,4288.717844,4311.281946
9,0,4277.948613,4284.102459,4280.512716,4324.615279,4275.384511,4257.948614,4269.230665,4290.769126,4250.769127,4314.871689,4262.051178,4228.717845,4271.794767,4289.743485
10,0,4287.692203,4277.435793,4282.051177,4328.205022,4261.538357,4259.487075,4264.10246,4288.205023,4243.58964,4284.102459,4265.640921,4229.743486,4265.640921,4270.256306
11,0,4311.794766,4283.589639,4285.1281,4327.692202,4271.281947,4262.051178,4265.128101,4288.717844,4246.153742,4282.051177,4267.179383,4239.999896,4274.87169,4287.692203
12,0,4297.435792,4288.205023,4283.589639,4327.179381,4286.153741,4261.025537,4268.717844,4287.179382,4249.230665,4277.435793,4265.128101,4239.999896,4273.333229,4311.281946
13,0,4275.384511,4283.076818,4284.61528,4324.102458,4281.025536,4264.61528,4269.743485,4284.102459,4248.205024,4272.820408,4265.128101,4229.743486,4262.563998,4294.358869
14,0,4300.512715,4285.1281,4284.61528,4322.563997,4276.922972,4268.205024,4267.692203,4282.563998,4250.769127,4273.333229,4275.384511,4228.717845,4278.461434,4291.794767
15,0,4326.666561,4289.230664,4279.999895,4326.15374,4278.974254,4261.538357,4266.666562,4282.563998,4252.820409,4275.384511,4281.538357,4234.871691,4296.410151,4307.692202
16,0,4308.205023,4293.333228,4277.435793,4328.717843,4275.384511,4259.999896,4266.666562,4282.563998,4247.692204,4286.153741,4277.948613,4240.512717,4289.743485,4293.333228
17,0,4293.846049,4299.999895,4283.076818,4330.256304,4273.846049,4259.487075,4263.076819,4279.999895,4243.076819,4276.410152,4278.461434,4242.563999,4288.205023,4290.769126
18,0,4309.230664,4297.435792,4284.102459,4329.743484,4278.974254,4256.410152,4260.512716,4279.999895,4248.205024,4266.153742,4285.640921,4241.025537,4295.38451,4321.538356
19,0,4306.666561,4281.025536,4274.87169,4324.102458,4277.948613,4258.461434,4261.538357,4284.102459,4251.794768,4292.307587,4278.461434,4232.820409,4283.076818,4323.589638
20,0,4289.743485,4274.87169,4268.717844,4316.410151,4273.846049,4262.563998,4265.640921,4286.666562,4252.307588,4324.615279,4271.281947,4227.692204,4281.025536,4305.1281
21,0,4291.794767,4283.076818,4273.846049,4313.333228,4275.897331,4264.61528,4268.205024,4286.153741,4256.410152,4325.128099,4281.538357,4237.435794,4304.102459,4298.461433
22,0,4292.820408,4287.179382,4279.999895,4316.922971,4279.487075,4266.666562,4268.205024,4285.640921,4257.948614,4305.1281,4290.769126,4244.615281,4317.435792,4296.922972
23,0,4278.974254,4279.999895,4275.897331,4315.89733,4276.410152,4259.999896,4261.025537,4281.538357,4250.256306,4285.640921,4285.1281,4235.897332,4304.102459,4288.717844
24,0,4266.666562,4273.846049,4269.743485,4302.051177,4276.410152,4252.307588,4253.84605,4273.333229,4247.692204,4287.692203,4275.384511,4227.179384,4290.256305,4278.461434
25,0,4271.281947,4274.35887,4274.87169,4299.999895,4281.025536,4256.922973,4256.922973,4275.897331,4254.871691,4301.025536,4276.922972,4232.820409,4296.410151,4281.538357
26,0,4291.794767,4277.948613,4275.897331,4314.358869,4273.846049,4268.717844,4262.563998,4283.589639,4261.025537,4292.820408,4285.1281,4240.512717,4308.717843,4288.717844
27,0,4299.487074,4278.461434,4268.205024,4318.461433,4265.640921,4269.230665,4259.999896,4279.487075,4262.051178,4288.205023,4281.025536,4237.435794,4303.589638,4284.102459
28,0,4280.512716,4277.948613,4270.256306,4313.333228,4271.794767,4263.076819,4254.35887,4270.769126,4255.384511,4304.615279,4270.256306,4228.205025,4291.281946,4287.692203
29,0,4275.897331,4278.461434,4275.384511,4319.487074,4275.897331,4256.922973,4255.384511,4268.205024,4246.666563,4302.051177,4277.948613,4224.615281,4294.358869,4304.102459
30,0,4273.333229,4265.640921,4265.128101,4312.820407,4265.640921,4249.230665,4257.948614,4266.666562,4245.128101,4282.563998,4275.897331,4224.615281,4286.153741,4287.692203
31,0,4255.897332,4251.281947,4251.794768,4292.307587,4263.076819,4253.333229,4263.076819,4269.743485,4248.205024,4271.281947,4258.974255,4222.563999,4268.205024,4253.333229
32,0,4246.666563,4244.615281,4252.820409,4287.692203,4267.179383,4262.051178,4264.61528,4269.743485,4239.999896,4254.871691,4255.384511,4218.974256,4264.61528,4250.769127
33,0,4247.179383,4244.10246,4254.871691,4294.358869,4262.051178,4258.461434,4261.025537,4267.692203,4235.384512,4253.84605,4257.948614,4210.769128,4265.640921,4267.179383
34,0,4250.769127,4250.256306,4257.948614,4297.435792,4253.84605,4252.307588,4262.563998,4274.87169,4245.640922,4270.769126,4251.281947,4214.358871,4260.512716,4259.487075
35,0,4268.717844,4264.61528,4266.666562,4305.1281,4263.076819,4261.025537,4272.307588,4290.769126,4258.461434,4285.640921,4258.461434,4231.281948,4273.333229,4246.666563
36,0,4270.769126,4266.666562,4271.281947,4313.333228,4270.769126,4267.179383,4278.461434,4298.974254,4258.461434,4280.512716,4266.666562,4229.230666,4286.666562,4265.128101
37,0,4251.794768,4257.948614,4265.640921,4310.769125,4266.153742,4263.589639,4277.435793,4297.948613,4253.333229,4266.153742,4259.487075,4212.307589,4276.922972,4291.794767
38,0,4260.512716,4259.999896,4268.205024,4311.281946,4267.692203,4261.538357,4272.820408,4290.256305,4250.256306,4276.922972,4263.589639,4217.948615,4271.281947,4289.230664
39,0,4283.589639,4271.794767,4278.461434,4320.512715,4275.897331,4265.640921,4267.692203,4286.153741,4254.871691,4302.051177,4278.461434,4232.820409,4285.640921,4283.589639
40,0,4275.384511,4270.256306,4273.846049,4318.974253,4269.743485,4268.205024,4265.640921,4287.179382,4258.974255,4287.179382,4273.846049,4230.256307,4289.230664,4276.410152
41,0,4258.461434,4253.84605,4257.948614,4305.1281,4262.563998,4264.61528,4266.666562,4284.61528,4254.35887,4271.794767,4254.871691,4224.615281,4266.666562,4247.179383
42,0,4239.487076,4240.512717,4252.307588,4298.974254,4259.487075,4258.461434,4268.717844,4278.461434,4251.281947,4286.153741,4244.615281,4221.025538,4249.230665,4229.743486
43,0,4220.512717,4240.512717,4252.820409,4303.076818,4247.179383,4252.307588,4267.692203,4274.87169,4251.794768,4262.563998,4247.692204,4211.281948,4256.410152,4252.307588
44,0,4229.230666,4235.897332,4250.256306,4299.487074,4239.999896,4245.128101,4261.538357,4274.35887,4245.640922,4219.487076,4247.179383,4202.564,4258.974255,4267.179383
45,0,4258.461434,4228.205025,4254.871691,4297.948613,4252.307588,4248.205024,4257.435793,4275.897331,4240.512717,4243.076819,4242.051178,4207.692205,4245.640922,4248.205024
46,0,4269.743485,4247.692204,4263.589639,4312.307587,4266.153742,4260.512716,4260.512716,4275.897331,4251.794768,4290.769126,4251.281947,4218.974256,4253.333229,4250.256306
47,0,4270.769126,4275.897331,4264.10246,4324.102458,4266.153742,4268.205024,4265.128101,4274.35887,4262.051178,4287.692203,4264.61528,4219.487076,4269.230665,4279.487075
48,0,4277.948613,4285.1281,4265.128101,4324.615279,4263.589639,4265.128101,4267.692203,4276.410152,4260.512716,4279.487075,4256.922973,4217.948615,4258.461434,4281.025536
