title:V                                                                               , recorded:07.07.20 10.37.18, sampling:128, subject:B                                                                               , labels:COUNTER INTERPOLATED AF3 F7 F3 FC5 T7 P7 O1 O2 P8 T8 FC6 F4 F8 AF4,, units:emotiv,,,,,,,,,
0,0,4153.846052,4218.974256,4231.281948,4212.307589,4213.846051,4210.769128,4218.461435,4221.025538,4216.410153,4213.846051,4228.717845,4246.153742,4214.871692,4211.281948
1,0,4149.743488,4216.922974,4231.794768,4221.538358,4216.922974,4216.922974,4220.512717,4223.07682,4221.538358,4214.358871,4231.794768,4248.205024,4218.974256,4223.07682
2,0,4154.871693,4214.358871,4231.794768,4230.769127,4228.205025,4224.615281,4220.512717,4227.692204,4228.205025,4221.025538,4241.538358,4253.84605,4228.205025,4232.307589
3,0,4166.153744,4223.58964,4242.563999,4229.230666,4241.025537,4233.33323,4227.692204,4235.384512,4234.358871,4235.384512,4248.717845,4262.051178,4235.897332,4233.33323
4,0,4163.076821,4228.717845,4246.153742,4230.256307,4240.512717,4237.948614,4233.84605,4236.410153,4234.358871,4231.281948,4249.230665,4262.051178,4233.84605,4229.230666
5,0,4149.743488,4216.922974,4234.358871,4228.205025,4232.307589,4233.84605,4230.769127,4231.281948,4231.794768,4218.461435,4245.640922,4255.897332,4229.743486,4224.102461
6,0,4152.307591,4211.794769,4229.743486,4223.58964,4228.205025,4230.256307,4230.769127,4233.84605,4237.435794,4227.179384,4247.179383,4255.384511,4233.84605,4229.230666
7,0,4156.922975,4217.435794,4234.871691,4225.640922,4223.58964,4228.717845,4230.256307,4234.871691,4238.461435,4236.410153,4250.769127,4256.922973,4236.410153,4234.871691
8,0,4152.820411,4217.948615,4234.871691,4227.179384,4225.640922,4229.743486,4228.717845,4231.281948,4231.794768,4228.205025,4247.179383,4253.333229,4232.307589,4228.717845
9,0,4153.333232,4214.358871,4233.33323,4224.102461,4232.307589,4230.256307,4229.230666,4230.769127,4233.84605,4222.563999,4239.999896,4251.281947,4230.256307,4218.974256
10,0,4156.922975,4214.358871,4232.820409,4227.179384,4228.717845,4224.102461,4225.128102,4230.256307,4232.820409,4219.999897,4236.410153,4251.281947,4227.692204,4215.897333
11,0,4153.333232,4217.435794,4229.230666,4232.820409,4220.512717,4218.974256,4219.999897,4221.538358,4224.102461,4213.33323,4235.384512,4248.717845,4219.999897,4216.922974
12,0,4152.307591,4218.461435,4228.717845,4230.256307,4217.948615,4219.487076,4218.461435,4215.384512,4220.512717,4210.769128,4230.769127,4246.153742,4214.871692,4218.461435
13,0,4157.435796,4216.922974,4232.307589,4228.717845,4221.025538,4219.999897,4218.461435,4218.461435,4222.051179,4212.82041,4231.794768,4247.179383,4217.435794,4218.974256
14,0,4157.435796,4217.948615,4234.358871,4231.281948,4222.051179,4218.461435,4218.974256,4221.025538,4223.07682,4212.82041,4238.461435,4250.256306,4224.615281,4219.999897
15,0,4154.358873,4218.974256,4233.84605,4228.205025,4221.025538,4217.435794,4220.512717,4221.538358,4229.230666,4218.461435,4239.487076,4251.794768,4229.743486,4220.512717
16,0,4154.871693,4215.897333,4231.794768,4221.538358,4219.999897,4215.897333,4218.461435,4218.974256,4228.205025,4221.025538,4235.384512,4249.230665,4223.58964,4215.384512
17,0,4152.820411,4217.948615,4230.256307,4221.538358,4220.512717,4216.410153,4214.871692,4214.871692,4218.974256,4214.358871,4231.794768,4247.179383,4214.871692,4214.358871
18,0,4144.102463,4215.384512,4230.769127,4224.102461,4218.974256,4217.435794,4215.384512,4214.358871,4215.384512,4204.102461,4230.256307,4243.58964,4215.897333,4211.281948
19,0,4136.922976,4204.615282,4227.179384,4217.435794,4214.358871,4211.794769,4215.897333,4211.794769,4215.897333,4198.461436,4228.205025,4234.871691,4214.358871,4202.564
20,0,4143.589642,4210.256307,4226.153743,4216.922974,4218.974256,4215.897333,4219.999897,4215.897333,4219.999897,4206.153743,4227.692204,4235.897332,4210.256307,4203.07682
21,0,4153.333232,4225.640922,4229.743486,4229.743486,4230.769127,4229.743486,4229.230666,4227.692204,4229.743486,4216.922974,4231.281948,4247.179383,4215.384512,4213.846051
22,0,4154.871693,4228.205025,4233.33323,4232.307589,4237.435794,4233.84605,4232.307589,4232.307589,4232.820409,4221.025538,4238.974255,4249.230665,4226.153743,4219.487076
23,0,4159.999898,4230.769127,4241.538358,4233.84605,4244.615281,4232.307589,4233.33323,4235.897332,4237.435794,4225.640922,4248.205024,4249.230665,4233.84605,4228.205025
24,0,4170.256308,4239.487076,4249.743486,4245.640922,4251.794768,4236.410153,4239.487076,4247.179383,4247.692204,4235.897332,4254.35887,4262.051178,4238.461435,4237.948614
25,0,4169.230667,4233.84605,4248.717845,4242.051178,4245.640922,4236.410153,4239.999896,4245.640922,4245.640922,4241.025537,4251.281947,4264.10246,4236.410153,4227.692204
26,0,4169.230667,4226.153743,4246.666563,4229.743486,4236.410153,4232.307589,4234.358871,4238.974255,4240.512717,4237.435794,4245.128101,4251.794768,4231.281948,4215.897333
27,0,4184.615282,4229.743486,4247.179383,4234.358871,4239.999896,4234.871691,4235.384512,4244.10246,4244.615281,4235.384512,4248.205024,4249.230665,4232.820409,4222.051179
28,0,4189.230667,4222.051179,4237.948614,4235.897332,4238.974255,4233.84605,4234.871691,4240.512717,4238.974255,4233.84605,4246.666563,4249.743486,4226.153743,4216.922974
29,0,4186.666564,4210.769128,4226.666563,4227.179384,4231.281948,4228.717845,4229.230666,4229.743486,4228.205025,4229.743486,4241.538358,4247.179383,4215.384512,4200.512718
30,0,4205.640923,4221.538358,4231.794768,4228.205025,4231.281948,4231.281948,4229.743486,4233.33323,4233.84605,4229.230666,4245.128101,4249.743486,4222.563999,4205.640923
31,0,4229.743486,4230.769127,4241.025537,4233.33323,4233.84605,4233.84605,4231.281948,4235.897332,4240.512717,4234.358871,4247.692204,4251.794768,4230.256307,4221.538358
32,0,4236.922973,4223.07682,4239.999896,4231.281948,4232.307589,4232.307589,4228.205025,4231.281948,4233.84605,4233.84605,4245.128101,4248.717845,4220.512717,4219.487076
33,0,4243.076819,4219.487076,4235.384512,4231.281948,4228.205025,4232.307589,4228.205025,4228.717845,4228.717845,4227.692204,4245.128101,4246.666563,4214.871692,4213.846051
34,0,4258.461434,4219.999897,4232.820409,4233.33323,4223.07682,4232.820409,4229.230666,4226.153743,4227.692204,4228.717845,4240.512717,4247.692204,4218.461435,4214.358871
35,0,4266.666562,4214.358871,4231.281948,4231.281948,4219.999897,4230.256307,4227.179384,4222.051179,4220.512717,4231.281948,4232.307589,4246.153742,4217.435794,4209.230666
36,0,4266.666562,4215.897333,4232.307589,4230.769127,4221.538358,4231.281948,4226.666563,4221.538358,4216.922974,4230.256307,4234.358871,4243.58964,4215.897333,4202.051179
37,0,4269.230665,4218.974256,4230.256307,4229.230666,4217.948615,4229.743486,4228.205025,4222.051179,4222.563999,4228.717845,4233.33323,4242.563999,4214.871692,4198.461436
38,0,4277.948613,4215.384512,4227.692204,4226.666563,4215.384512,4227.692204,4228.717845,4226.153743,4228.205025,4226.666563,4229.743486,4244.10246,4213.846051,4201.025538
39,0,4294.87169,4223.07682,4237.435794,4229.230666,4223.07682,4231.794768,4231.281948,4232.820409,4231.281948,4230.769127,4238.974255,4249.230665,4224.615281,4208.717846
40,0,4306.666561,4233.84605,4249.743486,4236.922973,4230.256307,4233.84605,4233.33323,4234.358871,4235.384512,4233.84605,4244.10246,4250.769127,4230.769127,4214.871692
41,0,4302.563997,4223.58964,4246.666563,4237.435794,4227.179384,4231.281948,4231.794768,4231.794768,4229.230666,4223.07682,4233.84605,4247.692204,4219.999897,4216.410153
42,0,4292.307587,4215.384512,4237.948614,4226.153743,4224.615281,4229.743486,4229.743486,4229.230666,4216.922974,4210.256307,4227.179384,4247.692204,4212.82041,4211.794769
43,0,4290.256305,4226.153743,4233.84605,4221.538358,4227.179384,4227.692204,4228.205025,4228.717845,4219.999897,4214.358871,4236.922973,4250.769127,4222.051179,4210.256307
44,0,4294.87169,4234.358871,4233.84605,4230.256307,4225.128102,4227.692204,4225.128102,4229.230666,4231.281948,4225.640922,4245.128101,4251.794768,4231.281948,4216.922974
45,0,4294.358869,4232.820409,4230.769127,4234.358871,4219.487076,4230.769127,4220.512717,4228.717845,4231.794768,4230.769127,4244.615281,4250.256306,4233.84605,4223.58964
46,0,4295.38451,4230.769127,4227.179384,4229.230666,4217.948615,4227.692204,4217.948615,4228.717845,4228.717845,4234.871691,4243.076819,4251.794768,4234.871691,4217.948615
47,0,4294.87169,4224.615281,4230.769127,4226.666563,4217.948615,4227.692204,4223.58964,4224.615281,4233.33323,4234.358871,4239.999896,4247.692204,4228.717845,4207.692205
48,0,4285.640921,4215.897333,4228.717845,4221.025538,4214.871692,4228.717845,4227.692204,4218.461435,4229.230666,4222.051179,4226.153743,4234.871691,4212.307589,4200.512718
49,0,4275.384511,4212.82041,4221.538358,4212.82041,4212.82041,4224.102461,4224.615281,4216.922974,4218.461435,4211.794769,4214.871692,4230.769127,4206.666564,4196.410154
50,0,4272.307588,4211.281948,4221.538358,4213.846051,4213.846051,4221.538358,4223.07682,4216.922974,4216.410153,4205.128102,4213.846051,4232.820409,4208.717846,4186.153744
51,0,4274.35887,4215.384512,4222.051179,4216.922974,4216.410153,4220.512717,4222.563999,4214.871692,4216.410153,4200.512718,4219.487076,4231.794768,4204.102461,4182.564
52,0,4277.948613,4225.128102,4221.538358,4220.512717,4218.974256,4218.974256,4219.487076,4215.384512,4216.410153,4205.640923,4226.666563,4232.820409,4206.153743,4195.384513
53,0,4276.410152,4225.128102,4219.487076,4223.58964,4216.410153,4216.922974,4215.897333,4216.410153,4214.871692,4212.307589,4223.58964,4233.33323,4215.897333,4194.358872
54,0,4269.230665,4220.512717,4216.922974,4220.512717,4211.281948,4215.384512,4214.871692,4213.33323,4214.871692,4210.769128,4219.999897,4230.256307,4215.384512,4186.153744
55,0,4275.897331,4221.025538,4223.58964,4217.435794,4212.307589,4216.922974,4216.410153,4216.922974,4222.563999,4216.922974,4231.281948,4236.410153,4215.897333,4197.435795
56,0,4282.051177,4220.512717,4233.84605,4218.461435,4215.384512,4218.974256,4223.58964,4227.179384,4231.281948,4224.615281,4236.922973,4247.179383,4220.512717,4199.487077
57,0,4270.256306,4214.871692,4233.33323,4218.461435,4212.307589,4217.948615,4226.666563,4232.820409,4228.717845,4215.897333,4230.769127,4249.230665,4217.435794,4185.128103
58,0,4268.717844,4211.281948,4230.256307,4213.33323,4205.640923,4215.897333,4225.640922,4228.717845,4219.487076,4208.205025,4229.230666,4248.205024,4211.281948,4188.717846
59,0,4282.051177,4212.82041,4235.897332,4216.922974,4204.102461,4216.922974,4226.666563,4229.743486,4218.461435,4210.769128,4233.33323,4252.307588,4217.948615,4207.692205
60,0,4282.563998,4217.435794,4237.948614,4226.666563,4209.230666,4215.897333,4224.102461,4233.84605,4221.538358,4210.769128,4235.897332,4255.897332,4226.153743,4215.897333
61,0,4268.205024,4220.512717,4229.230666,4223.07682,4213.846051,4214.871692,4216.922974,4225.128102,4217.948615,4199.487077,4229.230666,4248.717845,4221.538358,4205.640923
62,0,4262.563998,4216.922974,4218.461435,4212.82041,4215.384512,4215.384512,4213.846051,4213.846051,4211.794769,4189.743487,4215.897333,4234.871691,4213.33323,4188.717846
63,0,4266.153742,4215.384512,4214.358871,4215.384512,4217.948615,4218.461435,4217.435794,4215.384512,4215.384512,4194.358872,4217.948615,4229.743486,4215.384512,4188.205026
64,0,4262.051178,4214.871692,4214.871692,4221.025538,4220.512717,4219.999897,4218.974256,4218.461435,4219.999897,4202.051179,4223.58964,4231.794768,4216.922974,4196.922974
65,0,4261.025537,4211.281948,4211.794769,4217.435794,4216.410153,4217.435794,4214.871692,4213.846051,4217.948615,4201.538359,4214.358871,4228.717845,4211.794769,4194.871692
66,0,4274.35887,4213.846051,4213.33323,4215.897333,4211.281948,4216.410153,4213.33323,4214.358871,4217.948615,4207.179384,4214.358871,4228.717845,4215.384512,4195.384513
67,0,4284.61528,4213.33323,4220.512717,4217.435794,4214.358871,4216.410153,4215.897333,4219.487076,4218.974256,4215.384512,4229.230666,4238.461435,4221.025538,4207.692205
68,0,4284.61528,4203.07682,4221.025538,4216.922974,4215.897333,4211.794769,4212.307589,4215.384512,4215.897333,4208.717846,4228.205025,4243.076819,4216.410153,4215.384512
69,0,4287.692203,4206.666564,4216.922974,4218.461435,4214.358871,4210.769128,4210.769128,4213.33323,4217.435794,4206.666564,4222.563999,4243.076819,4219.487076,4222.563999
70,0,4296.410151,4218.974256,4218.974256,4216.922974,4215.897333,4217.948615,4217.435794,4219.999897,4221.538358,4219.999897,4232.307589,4246.666563,4232.820409,4232.307589
71,0,4308.205023,4215.897333,4221.025538,4214.871692,4215.384512,4214.871692,4218.974256,4221.025538,4216.922974,4214.871692,4233.84605,4246.666563,4231.281948,4233.33323
72,0,4324.102458,4213.33323,4219.999897,4219.999897,4213.846051,4205.640923,4215.897333,4216.922974,4214.358871,4200.512718,4223.58964,4243.58964,4216.922974,4230.769127
73,0,4326.666561,4213.33323,4222.051179,4219.487076,4213.33323,4205.128102,4214.871692,4216.922974,4215.384512,4201.025538,4221.025538,4244.10246,4213.33323,4232.307589
74,0,4321.025535,4203.589641,4223.07682,4213.33323,4209.230666,4209.230666,4214.871692,4216.922974,4211.794769,4202.564,4224.102461,4245.640922,4218.461435,4231.281948
75,0,4329.743484,4203.07682,4223.07682,4218.974256,4205.128102,4207.179384,4213.846051,4213.846051,4210.256307,4198.461436,4224.615281,4246.153742,4216.410153,4231.281948
76,0,4343.076817,4217.435794,4230.256307,4232.307589,4209.743487,4204.102461,4215.897333,4214.871692,4211.794769,4198.461436,4229.230666,4249.230665,4214.871692,4250.769127
77,0,4349.230663,4223.58964,4236.922973,4233.84605,4215.897333,4208.717846,4218.461435,4218.461435,4210.769128,4198.974256,4232.307589,4251.794768,4225.128102,4263.589639
78,0,4351.794765,4221.538358,4235.897332,4225.128102,4216.410153,4210.256307,4217.435794,4218.974256,4209.230666,4199.487077,4231.794768,4250.769127,4229.743486,4249.743486
79,0,4352.820406,4220.512717,4233.33323,4224.102461,4214.358871,4204.615282,4213.846051,4217.948615,4212.307589,4205.128102,4230.769127,4249.230665,4222.563999,4242.563999
80,0,4348.717842,4218.461435,4232.307589,4230.256307,4212.307589,4202.051179,4212.82041,4216.922974,4213.33323,4205.128102,4229.743486,4247.692204,4218.461435,4252.307588
81,0,4345.640919,4215.897333,4228.717845,4228.717845,4214.871692,4205.128102,4214.871692,4216.922974,4214.358871,4201.538359,4233.33323,4248.205024,4222.051179,4249.230665
82,0,4341.025535,4213.846051,4224.102461,4219.487076,4213.33323,4202.564,4214.358871,4215.897333,4214.358871,4201.538359,4231.794768,4243.076819,4219.487076,4232.820409
83,0,4331.281945,4212.82041,4218.461435,4216.410153,4208.717846,4198.461436,4211.281948,4214.358871,4213.33323,4199.999897,4223.07682,4236.410153,4215.384512,4218.974256
84,0,4322.051176,4212.82041,4217.948615,4218.461435,4213.33323,4206.153743,4213.33323,4218.461435,4215.897333,4200.512718,4226.153743,4239.487076,4221.538358,4214.871692
85,0,4315.89733,4213.33323,4219.487076,4216.410153,4210.769128,4207.179384,4215.384512,4218.974256,4210.769128,4199.999897,4227.179384,4240.512717,4223.58964,4213.33323
86,0,4306.153741,4212.307589,4216.410153,4212.307589,4198.461436,4199.487077,4211.794769,4212.307589,4199.487077,4190.256308,4216.922974,4231.794768,4214.871692,4204.615282
87,0,4297.948613,4207.179384,4216.410153,4213.846051,4201.538359,4201.025538,4212.307589,4211.281948,4200.512718,4188.717846,4216.410153,4229.230666,4214.871692,4199.487077
88,0,4297.948613,4204.615282,4219.487076,4215.897333,4211.794769,4204.102461,4215.384512,4214.358871,4212.307589,4199.999897,4223.07682,4234.358871,4221.025538,4199.487077
89,0,4288.205023,4201.538359,4215.384512,4208.205025,4205.128102,4198.974256,4213.33323,4211.281948,4213.33323,4197.435795,4216.410153,4229.743486,4209.743487,4182.564
90,0,4280.512716,4202.051179,4212.307589,4204.615282,4203.589641,4203.589641,4211.281948,4213.33323,4212.307589,4189.230667,4210.256307,4224.615281,4198.974256,4165.128103
91,0,4289.743485,4214.358871,4217.435794,4215.384512,4217.435794,4217.948615,4215.384512,4223.58964,4223.07682,4196.922974,4219.487076,4231.281948,4211.281948,4170.769129
92,0,4286.666562,4217.948615,4215.384512,4219.487076,4219.487076,4216.410153,4216.410153,4225.640922,4226.666563,4202.051179,4226.153743,4232.820409,4218.461435,4173.333231
93,0,4273.846049,4206.153743,4204.102461,4210.256307,4213.846051,4208.717846,4214.871692,4218.461435,4216.922974,4199.999897,4221.025538,4222.051179,4213.33323,4162.564001
94,0,4271.794767,4202.564,4199.999897,4208.717846,4214.358871,4209.230666,4214.871692,4213.33323,4212.82041,4200.512718,4214.358871,4215.384512,4211.794769,4159.999898
95,0,4271.794767,4205.128102,4204.102461,4216.410153,4216.410153,4210.769128,4215.897333,4214.358871,4214.358871,4195.897333,4213.33323,4216.922974,4209.230666,4153.846052
96,0,4269.230665,4205.128102,4206.153743,4217.948615,4217.435794,4213.846051,4218.461435,4218.461435,4215.897333,4193.846051,4210.769128,4217.435794,4202.564,4140.512719
97,0,4267.692203,4207.179384,4202.051179,4209.743487,4218.461435,4213.33323,4216.410153,4212.82041,4213.846051,4193.333231,4201.025538,4213.846051,4198.974256,4133.846053
98,0,4263.589639,4208.205025,4198.974256,4206.153743,4216.922974,4209.230666,4212.307589,4207.179384,4213.846051,4190.769128,4204.615282,4212.307589,4201.538359,4135.384514
99,0,4269.743485,4213.33323,4203.589641,4212.82041,4223.58964,4214.358871,4215.897333,4220.512717,4227.179384,4202.051179,4222.051179,4219.999897,4213.846051,4147.692206
100,0,4283.076818,4221.025538,4212.307589,4216.410153,4233.33323,4221.025538,4218.974256,4229.743486,4238.461435,4217.948615,4228.205025,4229.743486,4221.025538,4157.948616
101,0,4273.846049,4220.512717,4212.82041,4214.358871,4226.153743,4216.410153,4215.897333,4218.461435,4231.794768,4216.410153,4223.07682,4229.743486,4217.435794,4157.435796
102,0,4265.128101,4216.922974,4212.82041,4216.410153,4215.897333,4215.897333,4216.410153,4215.897333,4228.205025,4210.769128,4229.743486,4230.769127,4222.563999,4164.615283
103,0,4273.846049,4217.435794,4217.435794,4218.461435,4217.435794,4217.948615,4218.461435,4225.128102,4228.717845,4206.153743,4235.384512,4232.820409,4226.153743,4169.230667
104,0,4270.769126,4216.410153,4217.435794,4216.410153,4216.410153,4207.692205,4215.897333,4222.563999,4218.461435,4198.974256,4222.051179,4226.666563,4213.846051,4153.846052
105,0,4259.999896,4215.384512,4214.871692,4216.410153,4212.82041,4206.153743,4215.384512,4217.435794,4212.307589,4195.384513,4212.307589,4222.051179,4205.640923,4145.128104
106,0,4261.538357,4215.897333,4215.384512,4216.410153,4213.846051,4216.410153,4215.384512,4217.948615,4217.435794,4192.30759,4213.33323,4224.102461,4202.564,4153.333232
107,0,4266.153742,4215.384512,4217.435794,4216.922974,4215.897333,4216.410153,4214.358871,4217.435794,4216.922974,4190.256308,4214.358871,4227.179384,4204.615282,4154.871693
108,0,4257.948614,4218.461435,4214.871692,4217.948615,4216.410153,4212.82041,4213.846051,4216.922974,4220.512717,4197.435795,4215.897333,4225.128102,4214.358871,4152.307591
109,0,4247.179383,4214.871692,4204.102461,4213.33323,4213.33323,4210.769128,4212.307589,4217.435794,4227.692204,4199.999897,4215.897333,4219.999897,4211.281948,4150.769129
110,0,4244.10246,4205.128102,4199.999897,4209.230666,4210.769128,4206.153743,4211.281948,4218.461435,4224.102461,4196.410154,4214.358871,4217.948615,4203.589641,4149.230668
111,0,4244.10246,4205.640923,4206.666564,4212.307589,4215.897333,4209.230666,4213.33323,4215.384512,4220.512717,4195.384513,4213.33323,4218.974256,4210.769128,4152.820411
112,0,4244.615281,4213.846051,4209.230666,4212.307589,4221.538358,4218.461435,4214.871692,4215.384512,4229.743486,4199.999897,4215.897333,4218.461435,4218.974256,4154.358873
113,0,4246.666563,4216.922974,4208.717846,4210.256307,4221.025538,4219.487076,4214.871692,4224.615281,4235.897332,4210.769128,4225.128102,4223.58964,4218.974256,4155.897334
114,0,4244.615281,4214.871692,4211.794769,4215.384512,4220.512717,4218.461435,4214.871692,4229.230666,4232.307589,4212.82041,4231.281948,4233.33323,4220.512717,4159.487078
115,0,4233.84605,4209.230666,4209.743487,4213.846051,4218.461435,4219.999897,4216.410153,4224.102461,4228.205025,4202.564,4224.102461,4224.102461,4217.948615,4155.384514
116,0,4228.717845,4201.538359,4207.179384,4207.692205,4214.358871,4219.487076,4216.922974,4221.538358,4222.563999,4195.384513,4214.871692,4213.33323,4212.82041,4149.230668
117,0,4235.897332,4202.564,4214.358871,4213.33323,4212.82041,4217.948615,4215.384512,4222.563999,4225.128102,4202.564,4218.461435,4225.128102,4217.435794,4152.820411
118,0,4243.076819,4209.743487,4215.897333,4219.487076,4214.358871,4217.435794,4214.871692,4220.512717,4228.717845,4209.230666,4224.615281,4234.358871,4221.538358,4166.666565
119,0,4239.487076,4208.717846,4211.281948,4214.871692,4214.358871,4213.33323,4214.358871,4215.897333,4222.051179,4205.640923,4223.07682,4222.563999,4217.435794,4171.79477
120,0,4229.230666,4203.589641,4208.717846,4213.846051,4214.358871,4209.743487,4212.307589,4215.897333,4218.974256,4199.999897,4217.948615,4213.846051,4215.384512,4159.999898
121,0,4225.128102,4208.205025,4207.179384,4216.410153,4216.410153,4214.871692,4214.358871,4218.974256,4229.230666,4199.487077,4218.461435,4220.512717,4217.435794,4155.384514
122,0,4228.205025,4214.871692,4206.153743,4214.358871,4218.461435,4214.871692,4215.897333,4218.974256,4229.230666,4202.564,4218.974256,4219.999897,4217.948615,4161.025539
123,0,4232.307589,4207.692205,4204.615282,4212.82041,4216.410153,4205.640923,4211.794769,4214.871692,4218.974256,4201.025538,4218.974256,4213.33323,4216.410153,4164.102462
124,0,4230.256307,4198.974256,4206.153743,4212.82041,4214.358871,4206.666564,4208.205025,4214.871692,4218.461435,4198.461436,4222.563999,4221.025538,4216.410153,4166.666565
125,0,4223.58964,4207.692205,4213.846051,4215.897333,4215.384512,4217.435794,4212.82041,4218.461435,4223.07682,4198.974256,4225.128102,4229.230666,4216.922974,4169.230667
126,0,4218.974256,4216.922974,4216.410153,4217.435794,4214.871692,4216.922974,4214.358871,4217.948615,4223.58964,4199.999897,4223.58964,4221.538358,4216.922974,4158.974257
127,0,4215.897333,4211.794769,4211.281948,4214.358871,4213.33323,4212.307589,4208.205025,4217.435794,4222.051179,4201.025538,4225.128102,4214.871692,4216.922974,4154.358873
128,0,4213.846051,4208.717846,4209.743487,4214.871692,4213.33323,4214.358871,4203.589641,4216.410153,4223.58964,4199.999897,4223.58964,4217.948615,4215.897333,4164.615283
0,0,4214.358871,4215.897333,4214.358871,4219.999897,4215.897333,4216.410153,4205.128102,4217.948615,4231.281948,4204.615282,4220.512717,4220.512717,4216.410153,4170.769129
1,0,4219.487076,4217.948615,4218.974256,4219.487076,4224.615281,4217.435794,4211.794769,4222.051179,4234.358871,4206.666564,4224.615281,4220.512717,4218.461435,4173.333231
2,0,4218.461435,4209.743487,4219.999897,4213.33323,4226.153743,4218.461435,4214.358871,4219.487076,4226.666563,4196.410154,4224.102461,4219.999897,4214.358871,4168.717847
3,0,4204.102461,4206.153743,4214.871692,4213.846051,4216.410153,4213.846051,4210.769128,4213.846051,4223.07682,4188.717846,4216.410153,4216.922974,4207.692205,4155.384514
4,0,4198.461436,4213.33323,4213.33323,4219.487076,4218.461435,4215.897333,4211.281948,4219.999897,4232.307589,4199.999897,4216.410153,4218.461435,4212.307589,4157.435796
5,0,4206.153743,4217.948615,4216.922974,4217.948615,4230.256307,4226.666563,4216.410153,4229.743486,4236.922973,4212.307589,4220.512717,4219.999897,4219.487076,4171.79477
6,0,4211.281948,4215.897333,4217.435794,4214.358871,4229.743486,4226.153743,4217.948615,4230.256307,4233.33323,4209.743487,4225.128102,4218.974256,4218.974256,4172.820411
7,0,4210.769128,4213.846051,4218.461435,4216.410153,4225.640922,4217.948615,4214.871692,4228.205025,4231.281948,4207.692205,4229.743486,4222.051179,4220.512717,4168.205026
8,0,4212.307589,4213.33323,4221.538358,4221.025538,4226.666563,4222.563999,4215.897333,4229.230666,4231.794768,4212.82041,4228.717845,4226.153743,4226.666563,4173.846052
9,0,4215.384512,4213.846051,4221.025538,4219.999897,4226.666563,4234.358871,4218.974256,4232.820409,4233.84605,4216.410153,4228.205025,4229.743486,4232.307589,4174.358872
10,0,4217.948615,4214.358871,4218.461435,4217.435794,4227.692204,4229.230666,4218.974256,4231.281948,4240.512717,4215.384512,4228.717845,4228.205025,4227.692204,4167.692206
11,0,4230.256307,4215.897333,4222.563999,4222.563999,4229.743486,4221.538358,4214.871692,4222.051179,4241.538358,4218.974256,4220.512717,4225.128102,4218.974256,4171.79477
12,0,4247.692204,4219.999897,4230.256307,4230.256307,4232.307589,4233.84605,4216.922974,4223.07682,4240.512717,4232.307589,4222.051179,4228.205025,4224.615281,4183.589641
13,0,4259.999896,4223.07682,4231.794768,4231.794768,4234.871691,4241.025537,4221.538358,4232.307589,4245.640922,4233.33323,4236.410153,4233.84605,4229.743486,4189.230667
14,0,4268.205024,4221.538358,4229.230666,4228.717845,4232.307589,4232.307589,4219.999897,4230.769127,4244.615281,4224.102461,4232.307589,4233.33323,4219.999897,4186.153744
15,0,4279.487075,4221.025538,4232.307589,4230.256307,4233.84605,4231.281948,4218.974256,4228.717845,4236.922973,4227.179384,4217.948615,4228.205025,4214.358871,4182.564
16,0,4281.538357,4222.051179,4232.307589,4229.743486,4235.897332,4234.358871,4220.512717,4230.769127,4235.384512,4234.871691,4217.948615,4222.563999,4220.512717,4173.333231
17,0,4266.666562,4215.897333,4218.974256,4219.999897,4225.640922,4224.615281,4216.922974,4223.07682,4234.358871,4226.153743,4218.974256,4215.384512,4216.410153,4163.076821
18,0,4263.076819,4208.205025,4212.307589,4213.846051,4218.974256,4221.538358,4213.846051,4217.948615,4230.256307,4213.33323,4214.358871,4213.33323,4206.153743,4167.179385
19,0,4279.999895,4208.717846,4218.461435,4215.897333,4227.692204,4234.358871,4216.410153,4223.58964,4232.820409,4217.435794,4214.871692,4214.871692,4208.717846,4169.230667
20,0,4288.205023,4213.846051,4217.435794,4214.871692,4230.769127,4236.410153,4216.410153,4227.179384,4235.897332,4227.692204,4214.358871,4215.897333,4213.33323,4161.025539
21,0,4285.640921,4212.307589,4212.82041,4213.33323,4221.025538,4229.743486,4213.33323,4226.153743,4234.871691,4224.615281,4214.358871,4215.897333,4208.717846,4162.564001
22,0,4288.205023,4208.205025,4214.358871,4214.358871,4220.512717,4229.230666,4213.846051,4227.179384,4234.871691,4216.922974,4215.897333,4215.384512,4204.102461,4165.640924
23,0,4290.769126,4213.846051,4218.461435,4219.487076,4229.230666,4232.820409,4217.948615,4230.256307,4236.410153,4219.999897,4218.461435,4221.025538,4212.307589,4167.692206
24,0,4290.256305,4218.461435,4223.58964,4224.615281,4229.230666,4231.281948,4216.410153,4230.769127,4233.33323,4221.025538,4223.58964,4229.743486,4218.974256,4179.487077
25,0,4289.743485,4217.435794,4223.58964,4223.58964,4221.025538,4226.666563,4211.794769,4226.666563,4230.256307,4217.948615,4225.128102,4229.743486,4213.846051,4182.05118
26,0,4296.922972,4221.538358,4227.179384,4222.051179,4223.07682,4228.205025,4214.358871,4226.153743,4232.307589,4226.153743,4225.640922,4228.717845,4219.487076,4175.897334
27,0,4306.153741,4228.205025,4232.307589,4228.717845,4231.794768,4233.84605,4218.974256,4230.769127,4233.84605,4233.84605,4232.307589,4233.33323,4230.256307,4183.589641
28,0,4300.512715,4224.102461,4225.128102,4233.33323,4229.743486,4232.820409,4218.461435,4230.256307,4231.281948,4230.256307,4233.33323,4231.281948,4226.666563,4190.769128
29,0,4290.769126,4214.871692,4217.948615,4225.128102,4227.179384,4230.256307,4215.384512,4230.256307,4234.871691,4228.205025,4227.179384,4224.615281,4223.07682,4180.512718
30,0,4295.897331,4217.948615,4224.615281,4219.487076,4230.769127,4233.33323,4217.435794,4234.871691,4246.666563,4232.820409,4231.281948,4228.205025,4230.256307,4180.512718
31,0,4293.846049,4222.563999,4224.102461,4225.640922,4232.820409,4232.820409,4216.922974,4233.84605,4247.692204,4234.358871,4234.871691,4233.84605,4232.307589,4190.769128
32,0,4281.538357,4219.487076,4213.846051,4230.769127,4227.692204,4226.153743,4210.769128,4227.692204,4238.461435,4230.256307,4227.179384,4227.179384,4225.128102,4185.128103
33,0,4294.358869,4224.615281,4220.512717,4229.230666,4228.717845,4230.769127,4212.307589,4228.205025,4238.974255,4231.281948,4231.794768,4227.692204,4227.692204,4184.615282
34,0,4314.871689,4237.435794,4238.974255,4233.33323,4243.58964,4242.563999,4221.025538,4236.922973,4251.794768,4242.051178,4247.179383,4241.538358,4242.563999,4199.487077
35,0,4308.717843,4237.435794,4242.051178,4242.051178,4245.640922,4239.487076,4219.487076,4236.410153,4251.281947,4241.538358,4249.743486,4247.692204,4248.205024,4204.102461
36,0,4303.589638,4228.717845,4235.897332,4238.974255,4233.33323,4230.256307,4214.358871,4230.256307,4237.435794,4230.256307,4244.615281,4246.666563,4240.512717,4200.512718
37,0,4307.179382,4231.794768,4234.871691,4231.281948,4230.769127,4230.256307,4218.461435,4231.281948,4233.33323,4232.307589,4243.58964,4246.153742,4236.410153,4206.153743
38,0,4291.794767,4230.256307,4229.230666,4231.794768,4230.256307,4231.281948,4220.512717,4231.794768,4232.820409,4230.769127,4238.461435,4238.461435,4230.769127,4199.999897
39,0,4278.461434,4217.948615,4217.948615,4230.256307,4225.640922,4229.230666,4216.922974,4227.692204,4230.769127,4216.410153,4228.717845,4229.743486,4216.410153,4181.538359
40,0,4282.563998,4214.358871,4217.435794,4217.948615,4227.179384,4232.307589,4215.897333,4230.769127,4239.999896,4214.358871,4227.179384,4230.256307,4212.307589,4177.435795
41,0,4277.435793,4215.897333,4218.461435,4214.358871,4224.102461,4231.281948,4216.922974,4235.384512,4249.743486,4221.025538,4229.743486,4233.33323,4216.922974,4181.025539
42,0,4278.461434,4213.846051,4217.435794,4228.717845,4217.435794,4229.230666,4216.922974,4233.33323,4247.692204,4223.58964,4228.717845,4233.33323,4218.974256,4180.512718
43,0,4295.38451,4214.358871,4223.07682,4236.410153,4226.666563,4233.33323,4216.922974,4234.358871,4248.717845,4231.794768,4231.794768,4234.358871,4226.666563,4184.615282
44,0,4296.410151,4218.461435,4224.615281,4230.769127,4231.281948,4229.743486,4215.897333,4233.84605,4250.769127,4233.84605,4233.84605,4234.358871,4232.820409,4192.82041
45,0,4287.179382,4216.922974,4215.897333,4229.743486,4223.07682,4223.58964,4211.281948,4223.58964,4241.538358,4221.025538,4227.692204,4231.281948,4228.717845,4191.281949
46,0,4291.794767,4213.846051,4213.846051,4231.794768,4221.538358,4226.153743,4205.128102,4215.384512,4232.820409,4214.871692,4222.563999,4228.717845,4227.179384,4181.025539
47,0,4294.87169,4215.897333,4217.435794,4224.102461,4221.538358,4232.820409,4207.179384,4214.871692,4231.281948,4216.922974,4227.692204,4229.743486,4230.769127,4181.538359
48,0,4288.205023,4215.384512,4215.897333,4217.435794,4219.999897,4229.743486,4215.897333,4218.974256,4231.281948,4216.922974,4230.769127,4230.769127,4232.820409,4188.205026
49,0,4281.538357,4204.615282,4206.153743,4216.922974,4211.794769,4217.948615,4210.256307,4216.410153,4228.717845,4212.307589,4221.025538,4224.102461,4227.179384,4178.974257
50,0,4276.410152,4194.871692,4197.948615,4216.410153,4200.512718,4212.82041,4199.487077,4213.33323,4228.205025,4211.794769,4214.871692,4222.563999,4219.487076,4172.820411
51,0,4283.589639,4207.692205,4205.640923,4217.435794,4207.692205,4219.487076,4207.179384,4225.640922,4241.538358,4227.692204,4228.205025,4231.794768,4231.281948,4185.640923
52,0,4295.38451,4220.512717,4217.435794,4218.974256,4221.538358,4222.051179,4212.82041,4234.871691,4250.769127,4236.410153,4240.512717,4235.384512,4246.666563,4188.717846
53,0,4291.281946,4209.230666,4212.82041,4217.948615,4215.384512,4214.871692,4201.025538,4222.051179,4238.461435,4221.025538,4230.256307,4232.820409,4235.897332,4181.025539
54,0,4280.512716,4201.025538,4203.07682,4215.384512,4208.717846,4213.33323,4194.871692,4208.717846,4225.128102,4210.256307,4214.871692,4227.692204,4220.512717,4179.999898
55,0,4278.461434,4210.769128,4203.589641,4219.487076,4215.384512,4215.384512,4199.487077,4211.794769,4229.230666,4215.384512,4216.922974,4221.538358,4226.153743,4185.128103
56,0,4281.025536,4219.999897,4210.256307,4224.102461,4217.948615,4215.384512,4200.512718,4214.871692,4233.84605,4216.410153,4225.640922,4224.102461,4233.84605,4186.666564
57,0,4281.025536,4213.33323,4208.205025,4219.487076,4215.384512,4216.410153,4199.999897,4212.82041,4231.281948,4213.33323,4221.025538,4226.666563,4230.769127,4179.999898
58,0,4280.512716,4204.102461,4201.025538,4214.358871,4213.846051,4215.897333,4202.051179,4214.871692,4230.769127,4215.384512,4216.922974,4221.025538,4228.205025,4171.281949
59,0,4277.435793,4204.615282,4202.051179,4214.358871,4213.33323,4217.435794,4204.102461,4217.948615,4232.307589,4213.846051,4223.07682,4217.435794,4225.640922,4169.743488
60,0,4264.61528,4205.640923,4202.564,4214.358871,4211.794769,4218.974256,4202.564,4218.974256,4231.794768,4210.769128,4224.615281,4217.435794,4219.487076,4170.256308
61,0,4262.563998,4203.07682,4201.538359,4215.384512,4205.640923,4211.281948,4199.487077,4215.897333,4230.769127,4208.717846,4219.999897,4223.58964,4218.461435,4170.769129
62,0,4277.948613,4207.692205,4205.128102,4218.461435,4202.564,4208.717846,4197.948615,4213.33323,4230.256307,4208.205025,4218.974256,4231.281948,4219.487076,4173.333231
63,0,4278.461434,4212.307589,4208.717846,4215.897333,4204.615282,4212.82041,4200.512718,4215.384512,4229.743486,4209.230666,4221.025538,4226.153743,4217.435794,4174.358872
64,0,4266.153742,4204.615282,4205.128102,4214.358871,4206.153743,4211.281948,4199.487077,4215.897333,4232.307589,4205.128102,4219.487076,4216.922974,4217.948615,4172.30759
65,0,4262.563998,4194.871692,4197.435795,4210.769128,4201.025538,4202.564,4188.717846,4206.153743,4227.179384,4197.948615,4216.922974,4216.410153,4216.410153,4164.102462
66,0,4264.10246,4197.948615,4193.846051,4202.051179,4197.435795,4202.564,4183.589641,4197.435795,4215.897333,4195.384513,4213.33323,4215.384512,4210.769128,4158.974257
67,0,4267.179383,4211.281948,4198.974256,4206.666564,4206.153743,4211.281948,4192.82041,4199.999897,4217.435794,4199.999897,4214.358871,4216.410153,4217.948615,4169.230667
68,0,4271.281947,4219.999897,4205.128102,4218.974256,4215.384512,4216.410153,4199.487077,4204.615282,4228.717845,4203.07682,4218.461435,4221.025538,4231.281948,4177.435795
69,0,4266.153742,4217.435794,4201.025538,4220.512717,4214.871692,4216.410153,4195.897333,4205.640923,4230.769127,4206.153743,4221.025538,4214.871692,4230.769127,4177.948616
70,0,4263.589639,4215.897333,4202.051179,4223.07682,4215.897333,4216.922974,4196.922974,4211.281948,4231.794768,4213.846051,4227.179384,4216.410153,4231.794768,4181.538359
71,0,4270.256306,4224.615281,4212.307589,4230.256307,4218.974256,4219.487076,4200.512718,4216.410153,4239.487076,4219.999897,4234.871691,4227.179384,4241.538358,4188.717846
72,0,4269.743485,4225.128102,4210.769128,4226.153743,4217.948615,4219.999897,4201.538359,4214.871692,4240.512717,4215.384512,4231.794768,4224.615281,4239.999896,4185.128103
73,0,4259.487075,4213.33323,4201.538359,4216.410153,4211.281948,4216.922974,4199.487077,4208.205025,4230.769127,4205.128102,4222.563999,4216.922974,4231.281948,4174.358872
74,0,4254.35887,4212.307589,4201.025538,4217.435794,4206.153743,4214.871692,4195.897333,4204.615282,4224.615281,4201.025538,4219.999897,4218.974256,4227.692204,4170.769129
75,0,4254.35887,4222.051179,4203.589641,4221.025538,4205.640923,4213.33323,4194.871692,4207.179384,4229.743486,4203.07682,4221.025538,4219.487076,4222.563999,4173.846052
76,0,4251.794768,4214.358871,4198.461436,4215.897333,4204.615282,4210.769128,4195.897333,4205.640923,4230.769127,4198.461436,4214.871692,4215.897333,4215.384512,4167.692206
77,0,4248.205024,4201.025538,4193.846051,4213.33323,4202.564,4207.179384,4193.846051,4201.538359,4222.563999,4191.794769,4206.153743,4214.871692,4210.769128,4153.333232
78,0,4237.948614,4196.410154,4188.717846,4210.769128,4196.410154,4203.589641,4188.717846,4200.512718,4215.897333,4181.538359,4199.999897,4207.179384,4201.538359,4145.640924
79,0,4219.999897,4188.205026,4181.538359,4201.538359,4190.256308,4198.461436,4183.589641,4196.410154,4213.846051,4169.743488,4195.384513,4197.948615,4192.30759,4144.615283
80,0,4221.025538,4189.743487,4188.205026,4203.589641,4194.871692,4204.615282,4186.666564,4196.922974,4221.538358,4183.076821,4204.102461,4207.692205,4203.589641,4152.307591
81,0,4233.84605,4202.564,4199.487077,4216.410153,4204.102461,4215.384512,4197.435795,4209.230666,4234.358871,4204.615282,4218.461435,4218.974256,4217.435794,4165.640924
82,0,4228.205025,4198.461436,4194.871692,4214.358871,4199.487077,4209.230666,4196.922974,4211.794769,4234.358871,4200.512718,4214.871692,4215.897333,4211.281948,4163.076821
83,0,4223.58964,4194.871692,4190.769128,4208.717846,4195.897333,4198.974256,4188.717846,4204.102461,4232.820409,4196.410154,4212.307589,4212.82041,4211.794769,4163.589642
84,0,4234.358871,4206.153743,4199.999897,4214.871692,4208.717846,4208.205025,4193.333231,4204.102461,4238.974255,4207.179384,4226.666563,4216.922974,4232.307589,4179.487077
85,0,4234.871691,4207.692205,4201.025538,4214.871692,4214.358871,4218.974256,4200.512718,4206.153743,4240.512717,4207.692205,4234.358871,4217.948615,4246.153742,4188.205026
86,0,4229.230666,4208.717846,4196.922974,4211.281948,4214.358871,4216.922974,4197.948615,4204.615282,4238.974255,4208.205025,4230.256307,4216.922974,4246.666563,4187.692205
87,0,4227.179384,4214.358871,4202.051179,4215.384512,4215.384512,4214.871692,4197.435795,4207.692205,4239.487076,4215.897333,4231.794768,4218.461435,4250.256306,4189.230667
88,0,4210.769128,4206.153743,4198.461436,4214.358871,4206.153743,4216.410153,4197.948615,4208.205025,4236.922973,4212.307589,4233.33323,4219.487076,4252.307588,4187.692205
89,0,4197.435795,4199.487077,4190.256308,4212.307589,4201.025538,4217.948615,4191.794769,4207.179384,4241.538358,4213.33323,4232.307589,4219.487076,4251.794768,4186.153744
90,0,4206.666564,4203.07682,4195.384513,4212.82041,4209.743487,4213.33323,4188.717846,4209.230666,4246.666563,4221.025538,4235.384512,4218.461435,4254.35887,4192.30759
91,0,4209.230666,4202.564,4198.461436,4207.179384,4208.205025,4204.102461,4188.717846,4206.153743,4236.410153,4210.256307,4230.769127,4217.948615,4248.205024,4184.102462
92,0,4195.384513,4198.974256,4186.153744,4198.974256,4196.410154,4198.974256,4184.615282,4198.461436,4225.128102,4194.358872,4216.922974,4216.922974,4231.794768,4168.717847
93,0,4199.487077,4197.435795,4182.05118,4201.538359,4198.461436,4201.025538,4183.076821,4196.922974,4228.717845,4195.384513,4213.33323,4215.384512,4225.128102,4175.384513
94,0,4214.871692,4195.897333,4192.30759,4211.794769,4203.07682,4210.256307,4191.281949,4203.07682,4231.281948,4199.487077,4223.58964,4215.897333,4231.794768,4186.666564
95,0,4208.205025,4197.948615,4195.897333,4209.743487,4202.564,4217.948615,4198.974256,4212.82041,4232.307589,4204.615282,4230.769127,4221.025538,4234.871691,4183.076821
96,0,4201.538359,4199.487077,4196.922974,4204.615282,4209.743487,4218.974256,4202.564,4221.538358,4244.10246,4218.461435,4232.820409,4226.666563,4237.948614,4187.692205
97,0,4213.33323,4198.974256,4202.564,4211.794769,4216.922974,4224.615281,4211.794769,4230.769127,4258.461434,4233.84605,4234.358871,4229.230666,4248.717845,4200.512718
98,0,4218.461435,4203.589641,4205.128102,4221.025538,4219.999897,4234.358871,4218.461435,4234.871691,4256.410152,4235.897332,4235.897332,4230.256307,4253.333229,4198.461436
99,0,4218.461435,4215.384512,4204.615282,4221.025538,4225.640922,4235.897332,4218.974256,4233.84605,4250.256306,4232.307589,4238.974255,4229.743486,4249.743486,4197.948615
100,0,4215.897333,4214.871692,4202.564,4215.897333,4224.615281,4232.307589,4215.384512,4229.230666,4250.769127,4232.307589,4239.487076,4223.58964,4248.205024,4198.974256
101,0,4203.589641,4200.512718,4194.358872,4213.846051,4216.410153,4230.256307,4205.640923,4219.999897,4247.179383,4226.153743,4231.794768,4215.384512,4245.128101,4187.692205
102,0,4201.538359,4201.025538,4193.333231,4214.871692,4219.487076,4230.769127,4202.051179,4216.922974,4246.153742,4221.538358,4230.769127,4219.487076,4245.640922,4187.179385
103,0,4215.384512,4212.82041,4200.512718,4214.871692,4231.281948,4233.33323,4211.281948,4221.538358,4252.820409,4227.179384,4241.025537,4230.256307,4253.333229,4202.051179
104,0,4226.153743,4216.922974,4203.07682,4214.871692,4234.358871,4236.922973,4214.871692,4223.58964,4252.820409,4233.33323,4247.692204,4232.307589,4259.999896,4213.33323
105,0,4233.33323,4226.153743,4207.692205,4224.615281,4232.820409,4239.999896,4211.794769,4225.640922,4248.717845,4233.33323,4249.743486,4232.820409,4265.640921,4222.563999
106,0,4227.692204,4231.794768,4216.410153,4233.33323,4231.794768,4236.922973,4214.871692,4224.615281,4248.717845,4224.615281,4244.615281,4233.84605,4261.025537,4215.384512
107,0,4211.281948,4219.487076,4215.897333,4230.256307,4229.743486,4230.256307,4216.410153,4221.025538,4246.153742,4217.435794,4238.974255,4231.281948,4249.230665,4194.871692
108,0,4216.922974,4217.435794,4214.871692,4231.281948,4230.256307,4232.820409,4215.897333,4227.179384,4249.230665,4225.640922,4246.666563,4231.794768,4253.84605,4205.128102
109,0,4225.128102,4225.640922,4216.410153,4231.794768,4231.794768,4235.897332,4217.435794,4233.84605,4251.794768,4234.871691,4251.794768,4235.384512,4265.640921,4222.051179
110,0,4211.794769,4219.487076,4211.281948,4225.640922,4232.820409,4234.871691,4216.922974,4229.743486,4248.717845,4229.743486,4245.640922,4234.358871,4264.61528,4208.205025
111,0,4198.461436,4211.794769,4206.666564,4223.58964,4232.820409,4236.922973,4216.922974,4228.205025,4251.281947,4228.205025,4243.58964,4231.281948,4260.512716,4196.410154
112,0,4188.205026,4210.769128,4204.102461,4221.538358,4227.692204,4235.384512,4216.922974,4232.307589,4255.897332,4232.820409,4244.615281,4229.743486,4262.563998,4196.410154
113,0,4171.281949,4201.025538,4199.999897,4214.358871,4225.128102,4231.281948,4215.897333,4230.256307,4250.769127,4230.256307,4239.487076,4229.743486,4260.512716,4191.794769
114,0,4165.640924,4196.922974,4200.512718,4214.871692,4229.743486,4234.358871,4215.897333,4230.256307,4246.666563,4230.256307,4239.487076,4230.256307,4259.999896,4193.846051
115,0,4173.333231,4206.153743,4202.564,4215.897333,4228.205025,4234.871691,4216.922974,4231.794768,4253.84605,4234.358871,4244.615281,4230.256307,4261.538357,4201.538359
116,0,4178.461436,4207.179384,4201.538359,4211.794769,4222.563999,4232.307589,4217.435794,4232.307589,4262.051178,4236.922973,4247.179383,4231.281948,4262.051178,4198.974256
117,0,4174.871693,4201.025538,4198.461436,4211.281948,4225.640922,4234.358871,4216.922974,4232.307589,4263.076819,4243.076819,4246.153742,4231.281948,4260.512716,4191.794769
118,0,4166.666565,4198.461436,4195.897333,4214.358871,4226.666563,4232.820409,4215.384512,4230.769127,4255.384511,4243.58964,4238.974255,4225.640922,4249.230665,4186.666564
119,0,4177.435795,4207.179384,4198.974256,4216.922974,4226.666563,4232.820409,4214.871692,4230.256307,4250.769127,4238.461435,4239.487076,4224.615281,4250.769127,4188.717846
120,0,4206.153743,4214.871692,4204.615282,4220.512717,4228.717845,4240.512717,4217.435794,4234.871691,4254.35887,4242.563999,4247.179383,4233.33323,4259.999896,4196.922974
121,0,4217.948615,4209.230666,4204.102461,4219.487076,4228.717845,4244.10246,4219.487076,4236.410153,4252.820409,4248.205024,4242.563999,4233.33323,4254.871691,4202.051179
122,0,4218.461435,4204.615282,4199.999897,4215.384512,4228.205025,4241.025537,4219.487076,4232.307589,4246.666563,4237.948614,4231.794768,4217.435794,4246.666563,4195.384513
123,0,4229.230666,4208.717846,4199.999897,4214.358871,4225.128102,4235.384512,4218.461435,4227.692204,4245.128101,4226.666563,4231.794768,4214.358871,4247.692204,4186.153744
124,0,4244.615281,4211.794769,4201.538359,4214.871692,4221.538358,4233.33323,4219.487076,4231.281948,4250.769127,4237.948614,4242.051178,4228.205025,4255.384511,4193.333231
125,0,4251.281947,4208.205025,4199.999897,4213.846051,4223.07682,4235.897332,4221.025538,4233.84605,4251.281947,4249.743486,4246.666563,4230.256307,4254.871691,4205.640923
126,0,4259.999896,4209.743487,4199.999897,4213.846051,4225.640922,4237.948614,4217.948615,4227.179384,4246.153742,4244.10246,4242.051178,4223.58964,4250.256306,4204.102461
127,0,4264.10246,4206.666564,4201.025538,4215.384512,4224.102461,4235.897332,4215.384512,4223.58964,4245.128101,4239.999896,4242.563999,4227.179384,4254.871691,4197.948615
128,0,4255.897332,4197.435795,4201.025538,4216.410153,4221.538358,4232.820409,4217.435794,4229.230666,4247.179383,4248.717845,4244.10246,4232.820409,4258.461434,4197.435795
0,0,4261.025537,4203.589641,4205.128102,4214.871692,4221.025538,4231.794768,4218.974256,4231.794768,4244.615281,4249.230665,4239.999896,4229.230666,4245.128101,4195.897333
1,0,4286.153741,4218.974256,4213.846051,4217.435794,4221.538358,4232.307589,4217.435794,4228.717845,4240.512717,4236.922973,4236.922973,4228.717845,4236.410153,4199.487077
2,0,4302.563997,4221.025538,4215.897333,4226.153743,4221.538358,4232.820409,4216.922974,4227.179384,4241.538358,4233.33323,4236.410153,4230.769127,4238.974255,4207.179384
3,0,4308.717843,4214.358871,4211.794769,4226.666563,4215.897333,4224.102461,4214.871692,4223.07682,4236.922973,4230.769127,4229.743486,4226.666563,4231.281948,4203.07682
4,0,4322.051176,4221.025538,4213.33323,4219.487076,4210.256307,4214.871692,4212.82041,4216.922974,4228.717845,4219.999897,4222.051179,4225.128102,4225.640922,4201.025538
5,0,4335.384509,4233.84605,4217.435794,4223.07682,4216.410153,4221.025538,4213.846051,4216.922974,4230.256307,4216.922974,4219.999897,4226.666563,4230.769127,4209.230666
6,0,4338.461432,4236.410153,4216.410153,4228.717845,4223.58964,4231.281948,4214.358871,4217.435794,4234.358871,4219.999897,4217.948615,4222.051179,4225.128102,4207.692205
7,0,4339.999894,4231.794768,4214.358871,4223.07682,4219.487076,4231.281948,4213.33323,4216.922974,4232.307589,4215.897333,4216.922974,4216.922974,4215.897333,4196.410154
8,0,4341.025535,4228.717845,4214.358871,4216.922974,4218.461435,4230.256307,4216.410153,4219.487076,4232.820409,4218.974256,4216.922974,4222.051179,4216.922974,4194.871692
9,0,4333.846048,4227.179384,4217.435794,4217.948615,4219.487076,4231.281948,4216.922974,4219.999897,4234.871691,4230.256307,4219.487076,4227.179384,4220.512717,4202.564
10,0,4322.563997,4228.205025,4217.948615,4222.563999,4215.897333,4229.743486,4213.846051,4217.435794,4232.820409,4226.666563,4222.563999,4227.179384,4222.563999,4203.07682
11,0,4326.15374,4230.256307,4217.948615,4228.205025,4224.615281,4232.820409,4222.563999,4226.153743,4236.410153,4225.640922,4225.128102,4230.769127,4229.230666,4202.051179
12,0,4340.512714,4229.743486,4225.640922,4231.281948,4234.358871,4236.410153,4228.205025,4231.794768,4236.922973,4231.794768,4225.640922,4233.84605,4232.820409,4204.102461
13,0,4341.025535,4230.256307,4232.307589,4229.230666,4224.615281,4229.743486,4218.461435,4222.051179,4223.07682,4223.07682,4223.07682,4230.769127,4226.153743,4204.615282
14,0,4333.333227,4234.871691,4233.84605,4232.307589,4221.538358,4228.205025,4222.051179,4221.538358,4222.051179,4213.33323,4224.102461,4231.794768,4226.153743,4203.589641
15,0,4329.230663,4234.871691,4231.794768,4236.410153,4226.666563,4234.358871,4231.794768,4233.33323,4234.358871,4219.999897,4224.615281,4232.307589,4228.717845,4199.999897
16,0,4322.051176,4232.307589,4223.58964,4230.769127,4218.974256,4229.743486,4224.102461,4230.769127,4226.153743,4216.922974,4216.410153,4224.102461,4219.999897,4196.922974
17,0,4313.333228,4233.84605,4214.871692,4221.538358,4217.435794,4219.999897,4215.897333,4218.461435,4213.33323,4202.564,4213.33323,4218.461435,4215.384512,4201.538359
18,0,4306.153741,4230.769127,4210.769128,4217.435794,4219.487076,4216.922974,4217.435794,4216.410153,4217.435794,4199.999897,4214.871692,4219.487076,4218.461435,4201.538359
19,0,4303.589638,4227.179384,4212.82041,4218.461435,4212.82041,4218.974256,4215.384512,4219.487076,4222.051179,4204.102461,4211.281948,4218.974256,4217.948615,4192.30759
20,0,4304.615279,4230.769127,4212.307589,4218.974256,4213.33323,4225.640922,4215.384512,4216.410153,4216.922974,4202.051179,4209.743487,4215.384512,4215.897333,4188.205026
21,0,4300.512715,4229.230666,4204.615282,4215.384512,4219.487076,4226.153743,4215.897333,4212.82041,4216.922974,4197.435795,4209.743487,4214.358871,4214.358871,4187.179385
22,0,4294.87169,4226.153743,4202.051179,4217.435794,4217.948615,4226.153743,4214.358871,4218.461435,4225.640922,4204.615282,4208.205025,4216.410153,4215.897333,4191.794769
23,0,4296.410151,4228.717845,4210.769128,4223.58964,4217.948615,4229.230666,4219.999897,4225.128102,4233.33323,4216.410153,4215.384512,4219.487076,4226.153743,4203.07682
24,0,4296.410151,4223.58964,4210.769128,4222.051179,4217.435794,4225.640922,4220.512717,4220.512717,4230.769127,4217.435794,4219.999897,4219.487076,4227.179384,4202.051179
25,0,4292.307587,4217.435794,4204.615282,4213.846051,4214.358871,4220.512717,4213.846051,4214.871692,4224.102461,4210.256307,4211.794769,4214.871692,4217.435794,4187.692205
26,0,4290.769126,4225.128102,4212.307589,4214.358871,4215.384512,4227.179384,4215.384512,4216.410153,4221.025538,4208.717846,4207.179384,4212.307589,4216.922974,4184.615282
27,0,4292.307587,4228.205025,4213.33323,4223.58964,4217.435794,4228.717845,4218.974256,4216.410153,4217.435794,4207.692205,4212.82041,4214.358871,4218.461435,4187.179385
28,0,4291.794767,4217.435794,4207.692205,4222.563999,4214.871692,4219.999897,4217.948615,4216.410153,4215.897333,4205.640923,4214.358871,4216.410153,4215.897333,4188.717846
29,0,4287.179382,4212.82041,4211.794769,4215.384512,4210.769128,4217.948615,4215.897333,4217.948615,4220.512717,4209.230666,4211.794769,4216.922974,4220.512717,4195.384513
30,0,4287.179382,4222.563999,4217.435794,4223.58964,4214.358871,4225.128102,4221.025538,4218.461435,4228.205025,4212.307589,4214.871692,4217.948615,4230.769127,4202.564
31,0,4291.794767,4230.256307,4216.922974,4229.230666,4223.07682,4230.769127,4226.153743,4219.487076,4231.794768,4215.897333,4219.999897,4219.487076,4233.33323,4205.128102
32,0,4293.846049,4229.743486,4214.871692,4220.512717,4220.512717,4229.743486,4222.051179,4217.948615,4225.640922,4219.487076,4218.461435,4219.487076,4231.794768,4207.692205
33,0,4293.846049,4228.205025,4217.435794,4221.538358,4214.871692,4224.615281,4217.948615,4215.897333,4222.563999,4219.487076,4218.461435,4219.487076,4233.84605,4212.307589
34,0,4288.205023,4223.58964,4217.948615,4229.743486,4219.487076,4222.051179,4219.487076,4217.948615,4226.666563,4216.922974,4221.538358,4220.512717,4234.871691,4212.307589
35,0,4272.307588,4217.435794,4213.846051,4220.512717,4219.487076,4219.487076,4218.461435,4218.974256,4221.025538,4215.384512,4216.922974,4218.461435,4229.743486,4204.102461
36,0,4264.10246,4217.948615,4210.769128,4214.358871,4212.82041,4215.897333,4214.871692,4217.435794,4215.384512,4213.33323,4213.846051,4217.435794,4226.153743,4199.487077
37,0,4263.076819,4224.615281,4212.307589,4224.102461,4214.358871,4215.384512,4216.922974,4216.922974,4223.58964,4211.794769,4217.948615,4222.563999,4228.205025,4209.230666
38,0,4262.563998,4229.743486,4215.384512,4230.256307,4219.487076,4219.487076,4216.922974,4218.974256,4232.820409,4214.871692,4217.948615,4226.666563,4230.769127,4215.384512
39,0,4270.769126,4231.281948,4214.871692,4230.769127,4218.461435,4217.948615,4214.871692,4217.948615,4231.794768,4216.410153,4212.82041,4223.07682,4231.794768,4207.692205
40,0,4269.743485,4231.281948,4212.307589,4229.743486,4217.948615,4215.384512,4216.410153,4215.384512,4228.205025,4215.897333,4213.33323,4217.948615,4232.307589,4204.615282
41,0,4251.794768,4231.794768,4210.256307,4224.102461,4218.974256,4219.999897,4214.358871,4215.897333,4229.230666,4216.922974,4217.435794,4218.974256,4232.307589,4204.615282
42,0,4244.10246,4227.692204,4208.717846,4219.999897,4218.461435,4225.128102,4214.871692,4218.461435,4229.743486,4213.846051,4216.922974,4221.538358,4228.717845,4203.589641
43,0,4249.743486,4218.974256,4205.640923,4218.461435,4216.922974,4219.487076,4217.948615,4218.974256,4222.563999,4204.102461,4214.358871,4219.487076,4222.563999,4205.128102
44,0,4245.128101,4216.410153,4203.589641,4217.948615,4215.897333,4215.897333,4217.435794,4216.922974,4217.435794,4198.461436,4211.794769,4216.410153,4216.410153,4202.564
45,0,4236.922973,4218.461435,4207.692205,4217.435794,4215.897333,4219.999897,4215.384512,4216.410153,4218.974256,4202.051179,4211.281948,4214.871692,4216.410153,4191.794769
46,0,4241.538358,4222.051179,4213.33323,4216.922974,4214.871692,4216.922974,4215.384512,4216.410153,4218.974256,4207.179384,4212.307589,4216.922974,4223.07682,4195.384513
47,0,4248.205024,4228.717845,4214.358871,4221.538358,4218.974256,4215.384512,4216.410153,4217.435794,4221.025538,4209.230666,4221.538358,4224.615281,4229.230666,4212.82041
48,0,4248.205024,4233.84605,4215.897333,4232.307589,4225.640922,4224.615281,4217.435794,4221.538358,4229.743486,4214.871692,4230.256307,4231.794768,4232.820409,4217.435794
49,0,4246.666563,4231.794768,4218.461435,4235.897332,4225.128102,4227.179384,4217.435794,4228.717845,4233.84605,4223.07682,4226.666563,4230.769127,4234.871691,4222.051179
50,0,4244.615281,4229.743486,4216.410153,4224.102461,4218.461435,4217.948615,4215.897333,4227.692204,4226.666563,4217.948615,4219.487076,4228.205025,4233.84605,4232.820409
51,0,4233.84605,4228.205025,4210.769128,4216.922974,4216.410153,4214.871692,4215.384512,4219.487076,4219.487076,4206.153743,4214.358871,4226.666563,4230.769127,4224.102461
52,0,4225.128102,4221.538358,4210.769128,4223.58964,4220.512717,4220.512717,4217.435794,4223.07682,4223.58964,4208.205025,4214.358871,4225.128102,4229.743486,4208.205025
53,0,4233.84605,4221.025538,4215.384512,4226.153743,4228.717845,4222.563999,4221.538358,4234.871691,4232.820409,4218.461435,4218.974256,4228.717845,4236.410153,4223.07682
54,0,4239.999896,4230.769127,4215.384512,4223.07682,4230.769127,4218.461435,4220.512717,4232.820409,4232.820409,4217.435794,4219.487076,4232.820409,4242.051178,4237.435794
55,0,4234.358871,4234.871691,4213.33323,4228.205025,4225.128102,4218.461435,4216.410153,4223.07682,4228.205025,4213.846051,4217.435794,4226.153743,4240.512717,4220.512717
56,0,4228.205025,4230.256307,4214.871692,4230.256307,4225.640922,4223.58964,4222.051179,4226.666563,4230.769127,4218.974256,4225.640922,4226.666563,4238.974255,4216.410153
57,0,4217.435794,4229.230666,4213.846051,4222.563999,4228.717845,4223.58964,4224.615281,4232.307589,4233.33323,4222.051179,4230.256307,4231.281948,4238.461435,4227.179384
58,0,4206.666564,4230.256307,4210.769128,4221.025538,4226.666563,4222.051179,4218.461435,4230.256307,4232.307589,4219.487076,4219.487076,4224.102461,4234.871691,4217.435794
59,0,4211.794769,4229.743486,4211.281948,4226.153743,4222.563999,4228.205025,4222.051179,4230.256307,4232.820409,4219.999897,4215.384512,4220.512717,4233.33323,4215.384512
60,0,4222.051179,4231.281948,4214.358871,4230.769127,4222.563999,4230.256307,4227.692204,4232.307589,4234.358871,4218.974256,4219.999897,4227.692204,4235.897332,4229.743486
61,0,4217.948615,4230.256307,4213.846051,4228.717845,4225.640922,4225.640922,4221.025538,4230.769127,4233.33323,4216.410153,4217.435794,4228.717845,4234.871691,4224.102461
62,0,4210.256307,4229.743486,4212.82041,4219.999897,4229.230666,4226.153743,4217.435794,4229.743486,4232.307589,4217.435794,4215.897333,4225.640922,4232.820409,4216.922974
63,0,4214.871692,4230.256307,4214.871692,4216.922974,4230.256307,4226.666563,4222.051179,4228.205025,4231.794768,4217.948615,4222.563999,4230.769127,4235.384512,4228.205025
64,0,4218.461435,4230.769127,4218.461435,4221.025538,4228.205025,4223.07682,4222.051179,4219.999897,4225.640922,4214.358871,4220.512717,4229.230666,4233.84605,4227.179384
65,0,4209.743487,4229.230666,4215.897333,4219.999897,4225.640922,4219.487076,4219.999897,4217.435794,4222.051179,4212.307589,4212.307589,4220.512717,4228.717845,4217.435794
66,0,4201.538359,4221.538358,4205.640923,4214.871692,4218.974256,4221.538358,4221.025538,4226.666563,4227.692204,4215.384512,4210.769128,4217.948615,4225.128102,4216.922974
67,0,4197.435795,4214.871692,4205.640923,4211.794769,4214.871692,4223.58964,4220.512717,4230.769127,4233.33323,4217.435794,4214.358871,4218.461435,4227.692204,4215.897333
68,0,4192.82041,4217.435794,4212.82041,4213.846051,4219.487076,4219.487076,4219.487076,4224.102461,4232.820409,4216.410153,4214.871692,4218.461435,4230.769127,4215.384512
69,0,4193.846051,4216.922974,4213.846051,4221.025538,4221.538358,4215.897333,4217.948615,4216.410153,4232.307589,4213.846051,4214.871692,4217.948615,4230.769127,4218.461435
70,0,4197.948615,4215.897333,4211.281948,4223.58964,4218.461435,4219.999897,4215.384512,4218.974256,4231.281948,4211.281948,4213.846051,4217.948615,4228.205025,4212.82041
71,0,4200.512718,4225.128102,4218.461435,4223.07682,4222.051179,4224.615281,4219.999897,4227.692204,4230.256307,4215.384512,4215.897333,4223.07682,4229.743486,4212.82041
72,0,4213.33323,4237.435794,4231.281948,4230.256307,4232.307589,4226.666563,4231.281948,4234.358871,4234.871691,4226.666563,4228.205025,4235.897332,4243.58964,4227.179384
73,0,4219.999897,4236.922973,4231.794768,4236.410153,4235.897332,4231.281948,4231.794768,4234.871691,4237.435794,4234.871691,4230.256307,4236.922973,4250.256306,4234.358871
74,0,4203.589641,4223.07682,4218.974256,4228.717845,4227.692204,4226.666563,4220.512717,4230.769127,4231.281948,4228.717845,4217.948615,4222.563999,4236.410153,4228.717845
75,0,4194.871692,4214.871692,4213.846051,4216.922974,4223.58964,4220.512717,4218.461435,4229.230666,4229.230666,4217.948615,4217.435794,4222.563999,4232.307589,4229.230666
76,0,4204.615282,4218.974256,4217.948615,4219.487076,4228.205025,4229.230666,4223.58964,4230.256307,4235.384512,4218.461435,4225.640922,4229.230666,4241.025537,4229.743486
77,0,4201.538359,4217.948615,4216.410153,4230.256307,4228.717845,4228.205025,4222.563999,4229.230666,4234.871691,4217.435794,4217.948615,4219.999897,4234.871691,4219.999897
78,0,4191.281949,4215.897333,4216.410153,4233.33323,4228.205025,4219.999897,4225.640922,4228.205025,4232.307589,4212.82041,4212.307589,4215.384512,4230.256307,4219.487076
79,0,4193.846051,4217.948615,4220.512717,4223.07682,4233.33323,4223.07682,4231.794768,4231.794768,4239.487076,4219.487076,4220.512717,4222.563999,4237.435794,4230.256307
80,0,4197.948615,4213.846051,4213.33323,4215.897333,4230.256307,4222.563999,4225.128102,4232.820409,4243.076819,4230.256307,4218.461435,4220.512717,4234.871691,4229.743486
81,0,4197.435795,4216.922974,4213.33323,4224.615281,4226.153743,4218.461435,4221.538358,4230.769127,4241.538358,4230.256307,4216.922974,4221.025538,4237.435794,4230.769127
82,0,4206.153743,4229.743486,4228.205025,4233.84605,4240.512717,4230.769127,4231.281948,4232.820409,4244.10246,4228.717845,4233.33323,4235.897332,4250.769127,4242.563999
83,0,4210.256307,4226.153743,4229.230666,4231.794768,4248.717845,4239.487076,4233.33323,4232.307589,4245.128101,4229.743486,4232.820409,4233.33323,4245.128101,4236.922973
84,0,4192.30759,4211.281948,4213.846051,4226.666563,4236.922973,4233.33323,4227.179384,4229.230666,4243.58964,4227.692204,4214.358871,4216.922974,4226.666563,4215.384512
85,0,4184.102462,4208.205025,4213.33323,4224.615281,4231.794768,4234.871691,4230.256307,4232.307589,4246.666563,4230.769127,4221.025538,4219.487076,4233.84605,4215.384512
86,0,4192.30759,4209.230666,4217.435794,4217.948615,4234.358871,4233.84605,4234.358871,4236.922973,4247.692204,4234.871691,4233.84605,4231.794768,4244.10246,4223.58964
87,0,4190.256308,4208.205025,4214.358871,4215.384512,4231.281948,4221.538358,4230.256307,4234.358871,4244.10246,4231.281948,4221.538358,4229.230666,4234.358871,4217.948615
88,0,4190.769128,4214.358871,4220.512717,4221.538358,4230.256307,4222.051179,4228.717845,4230.256307,4245.640922,4230.256307,4216.922974,4225.128102,4233.33323,4217.435794
89,0,4201.025538,4217.435794,4226.153743,4228.205025,4233.33323,4231.794768,4231.794768,4233.84605,4247.692204,4233.84605,4229.743486,4231.281948,4240.512717,4225.640922
90,0,4201.538359,4211.794769,4218.974256,4227.692204,4231.794768,4232.307589,4232.307589,4235.897332,4244.10246,4231.281948,4230.256307,4232.820409,4236.410153,4223.58964
91,0,4195.384513,4211.281948,4215.897333,4221.538358,4230.769127,4229.230666,4230.769127,4232.307589,4242.051178,4228.205025,4225.128102,4228.717845,4235.384512,4224.102461
92,0,4199.999897,4218.461435,4226.153743,4221.538358,4232.307589,4230.256307,4229.743486,4233.84605,4245.128101,4232.820409,4231.281948,4233.84605,4247.692204,4235.897332
93,0,4206.153743,4219.487076,4228.205025,4230.256307,4230.769127,4227.179384,4229.230666,4238.461435,4247.692204,4235.384512,4236.410153,4237.435794,4252.820409,4238.974255
94,0,4201.025538,4214.358871,4218.974256,4231.281948,4228.717845,4225.128102,4229.743486,4240.512717,4247.692204,4232.307589,4234.358871,4232.820409,4247.692204,4232.820409
95,0,4194.871692,4212.307589,4216.410153,4223.58964,4231.794768,4231.794768,4231.794768,4241.538358,4248.205024,4231.794768,4228.205025,4231.794768,4242.563999,4229.743486
96,0,4195.897333,4214.871692,4217.435794,4223.58964,4232.307589,4235.384512,4232.307589,4238.461435,4244.615281,4229.230666,4220.512717,4229.230666,4234.871691,4222.563999
97,0,4196.410154,4212.307589,4216.410153,4231.794768,4229.230666,4229.230666,4226.153743,4230.769127,4236.922973,4221.025538,4215.897333,4222.051179,4230.256307,4211.281948
98,0,4190.256308,4202.051179,4212.82041,4227.692204,4228.205025,4218.974256,4217.435794,4220.512717,4228.717845,4213.33323,4212.82041,4216.410153,4228.205025,4205.128102
99,0,4189.230667,4202.564,4211.281948,4217.435794,4227.692204,4216.410153,4219.999897,4216.410153,4227.179384,4208.717846,4210.256307,4215.384512,4226.153743,4207.692205
100,0,4194.871692,4215.384512,4214.358871,4221.538358,4229.230666,4225.640922,4229.230666,4226.153743,4236.922973,4215.384512,4213.33323,4222.051179,4232.307589,4217.948615
101,0,4198.461436,4218.461435,4216.922974,4232.820409,4232.307589,4232.820409,4231.281948,4235.897332,4247.179383,4226.666563,4219.999897,4231.281948,4238.461435,4218.461435
102,0,4199.487077,4210.769128,4219.487076,4231.794768,4232.307589,4227.692204,4228.717845,4231.794768,4246.153742,4227.692204,4225.128102,4231.794768,4235.897332,4212.307589
103,0,4200.512718,4214.358871,4225.640922,4230.769127,4235.897332,4227.179384,4229.743486,4232.820409,4247.692204,4226.153743,4231.281948,4230.769127,4240.512717,4223.58964
104,0,4202.564,4219.999897,4227.692204,4232.820409,4246.666563,4236.410153,4232.820409,4241.025537,4254.35887,4234.871691,4233.33323,4235.897332,4248.717845,4239.487076
105,0,4205.640923,4209.743487,4217.435794,4225.128102,4243.58964,4232.820409,4231.794768,4233.84605,4249.230665,4231.281948,4221.025538,4234.358871,4237.948614,4227.179384
106,0,4215.384512,4204.615282,4215.384512,4222.563999,4233.84605,4228.717845,4230.256307,4227.692204,4242.563999,4224.615281,4214.358871,4229.230666,4226.666563,4214.358871
107,0,4227.179384,4214.871692,4224.102461,4231.281948,4234.871691,4235.384512,4230.256307,4232.307589,4248.717845,4236.410153,4223.07682,4231.281948,4231.281948,4223.07682
108,0,4232.307589,4219.487076,4222.051179,4234.871691,4241.025537,4238.974255,4231.281948,4235.384512,4250.769127,4247.692204,4229.743486,4230.256307,4235.897332,4228.205025
109,0,4246.153742,4215.897333,4223.07682,4230.769127,4241.025537,4238.461435,4232.307589,4238.974255,4248.717845,4247.692204,4230.769127,4230.256307,4236.922973,4231.281948
110,0,4269.230665,4213.846051,4229.743486,4231.794768,4237.435794,4236.410153,4235.384512,4243.58964,4249.230665,4243.58964,4229.743486,4236.922973,4242.051178,4236.410153
111,0,4268.205024,4205.128102,4222.051179,4228.205025,4229.743486,4229.230666,4230.256307,4233.33323,4241.025537,4232.307589,4222.051179,4232.820409,4231.281948,4224.615281
112,0,4257.435793,4196.922974,4210.769128,4217.948615,4220.512717,4225.640922,4219.999897,4222.051179,4229.743486,4222.051179,4212.82041,4218.974256,4215.897333,4208.205025
113,0,4279.487075,4202.051179,4216.410153,4223.58964,4224.615281,4230.769127,4219.999897,4224.615281,4231.794768,4228.717845,4214.871692,4215.897333,4222.051179,4211.281948
114,0,4303.589638,4204.102461,4221.025538,4229.743486,4227.692204,4232.307589,4223.58964,4226.153743,4233.84605,4230.256307,4217.948615,4220.512717,4227.692204,4217.435794
115,0,4298.974254,4204.615282,4212.82041,4222.563999,4217.948615,4229.230666,4217.435794,4216.922974,4227.179384,4219.999897,4213.33323,4217.948615,4216.410153,4212.307589
116,0,4304.615279,4212.82041,4211.794769,4224.615281,4219.487076,4230.256307,4215.897333,4215.384512,4228.205025,4224.615281,4213.33323,4216.922974,4216.410153,4212.307589
117,0,4328.205022,4218.461435,4216.922974,4232.820409,4231.281948,4231.794768,4223.58964,4225.640922,4233.33323,4236.410153,4218.974256,4224.102461,4229.743486,4215.897333
118,0,4330.769125,4216.410153,4218.461435,4226.153743,4227.179384,4228.205025,4222.051179,4227.692204,4233.33323,4233.33323,4221.025538,4228.205025,4229.743486,4214.871692
119,0,4319.487074,4207.692205,4214.358871,4215.384512,4215.384512,4224.102461,4216.410153,4218.974256,4230.769127,4223.07682,4220.512717,4227.692204,4223.58964,4216.922974
120,0,4319.487074,4194.871692,4205.128102,4214.871692,4212.307589,4221.025538,4215.897333,4214.358871,4229.230666,4219.487076,4217.948615,4222.563999,4220.512717,4215.384512
121,0,4323.589638,4192.30759,4199.487077,4212.307589,4207.179384,4216.410153,4215.897333,4216.410153,4228.717845,4215.384512,4215.384512,4214.871692,4215.384512,4200.512718
122,0,4323.589638,4199.999897,4199.999897,4203.07682,4205.128102,4215.897333,4215.384512,4217.435794,4229.230666,4212.307589,4218.461435,4213.846051,4216.410153,4194.871692
123,0,4325.128099,4202.564,4205.640923,4202.564,4214.871692,4221.025538,4217.435794,4220.512717,4231.281948,4221.538358,4224.102461,4225.640922,4223.58964,4210.769128
124,0,4327.692202,4198.461436,4210.256307,4214.871692,4215.897333,4219.487076,4217.948615,4224.615281,4231.794768,4229.230666,4222.563999,4232.307589,4225.640922,4219.487076
125,0,4329.743484,4197.435795,4208.205025,4218.974256,4209.230666,4213.33323,4215.384512,4221.538358,4232.307589,4222.563999,4217.435794,4223.07682,4219.487076,4216.922974
126,0,4329.230663,4199.999897,4205.128102,4210.256307,4210.256307,4213.33323,4215.897333,4215.897333,4228.717845,4215.384512,4215.897333,4216.922974,4215.384512,4209.743487
127,0,4329.743484,4197.435795,4210.256307,4209.230666,4214.358871,4217.948615,4217.435794,4216.410153,4222.051179,4214.871692,4218.974256,4226.153743,4217.435794,4201.538359
128,0,4332.820407,4197.948615,4213.33323,4215.897333,4214.358871,4220.512717,4216.410153,4218.974256,4223.07682,4215.384512,4222.563999,4232.307589,4220.512717,4203.589641
0,0,4331.281945,4203.07682,4203.07682,4215.897333,4213.846051,4216.922974,4216.410153,4218.974256,4228.717845,4216.922974,4217.948615,4223.07682,4217.948615,4206.666564
1,0,4331.281945,4201.025538,4199.999897,4212.82041,4213.846051,4214.358871,4216.410153,4222.563999,4230.769127,4217.435794,4218.461435,4219.999897,4219.999897,4205.640923
2,0,4342.051176,4201.025538,4206.666564,4212.82041,4216.922974,4218.974256,4221.025538,4230.256307,4232.820409,4218.974256,4230.769127,4227.179384,4226.666563,4211.794769
3,0,4349.230663,4209.230666,4208.717846,4217.435794,4216.410153,4226.153743,4223.07682,4232.307589,4235.897332,4221.538358,4233.33323,4228.205025,4229.230666,4218.461435
4,0,4343.076817,4214.358871,4209.743487,4219.999897,4216.922974,4229.743486,4221.025538,4229.230666,4233.84605,4217.948615,4229.230666,4226.153743,4230.769127,4214.871692
5,0,4343.076817,4210.769128,4212.307589,4218.974256,4223.58964,4230.769127,4224.102461,4228.205025,4232.307589,4213.846051,4230.769127,4229.743486,4232.307589,4214.871692
6,0,4355.897329,4210.769128,4214.358871,4217.948615,4226.153743,4229.743486,4227.179384,4229.743486,4234.358871,4221.538358,4233.33323,4232.820409,4231.794768,4215.897333
7,0,4357.435791,4214.871692,4214.871692,4218.461435,4225.128102,4231.794768,4225.640922,4231.281948,4238.974255,4230.256307,4233.84605,4231.281948,4233.84605,4214.871692
8,0,4346.66656,4209.743487,4212.82041,4216.922974,4224.102461,4228.717845,4224.102461,4230.769127,4241.538358,4225.128102,4233.84605,4229.743486,4234.871691,4221.025538
9,0,4350.256304,4203.589641,4210.769128,4216.922974,4219.487076,4223.58964,4223.07682,4230.256307,4237.948614,4218.974256,4231.794768,4229.230666,4233.84605,4220.512717
10,0,4362.563996,4205.128102,4211.794769,4218.461435,4215.897333,4223.58964,4217.435794,4226.153743,4233.33323,4219.999897,4231.281948,4231.794768,4233.84605,4216.410153
11,0,4353.333227,4206.153743,4207.692205,4217.435794,4217.948615,4220.512717,4215.384512,4218.974256,4231.281948,4218.974256,4232.307589,4229.230666,4232.307589,4215.897333
12,0,4344.102458,4199.487077,4203.589641,4212.307589,4218.461435,4219.487076,4217.948615,4218.974256,4230.256307,4213.846051,4229.230666,4226.666563,4230.769127,4217.435794
13,0,4359.999893,4199.999897,4209.743487,4212.307589,4221.538358,4227.692204,4217.948615,4228.205025,4231.794768,4214.871692,4231.281948,4230.769127,4236.922973,4224.102461
14,0,4371.281944,4213.33323,4216.410153,4222.563999,4227.692204,4234.871691,4225.640922,4232.820409,4241.025537,4226.153743,4235.897332,4235.384512,4245.128101,4234.358871
15,0,4360.512714,4218.461435,4215.897333,4224.615281,4223.07682,4232.820409,4229.230666,4231.794768,4247.179383,4231.281948,4235.384512,4235.897332,4241.538358,4233.84605
16,0,4349.230663,4212.82041,4212.82041,4216.410153,4216.922974,4228.205025,4222.563999,4228.717845,4240.512717,4223.07682,4233.84605,4234.871691,4236.410153,4221.538358
17,0,4344.102458,4211.794769,4211.794769,4214.871692,4216.922974,4222.051179,4216.410153,4219.999897,4229.230666,4215.897333,4230.769127,4230.769127,4233.84605,4203.589641
18,0,4342.563996,4212.82041,4213.846051,4214.871692,4213.846051,4215.897333,4216.410153,4216.410153,4227.179384,4216.922974,4233.33323,4228.717845,4233.33323,4192.82041
19,0,4349.230663,4214.871692,4217.435794,4216.922974,4215.384512,4219.999897,4218.461435,4221.538358,4233.33323,4219.487076,4242.563999,4233.84605,4238.974255,4204.102461
20,0,4355.897329,4224.615281,4217.948615,4226.153743,4225.128102,4226.153743,4218.974256,4226.153743,4232.307589,4223.58964,4243.58964,4236.410153,4246.666563,4219.999897
21,0,4358.461432,4231.281948,4221.025538,4226.153743,4229.230666,4229.743486,4222.563999,4228.717845,4230.769127,4230.769127,4239.487076,4234.358871,4247.692204,4218.974256
22,0,4350.769124,4221.538358,4217.435794,4215.384512,4221.025538,4230.769127,4222.051179,4225.640922,4233.84605,4226.153743,4237.948614,4231.281948,4238.974255,4209.743487
23,0,4337.948612,4210.256307,4210.256307,4215.384512,4214.358871,4224.615281,4218.461435,4217.435794,4233.33323,4212.82041,4232.307589,4229.743486,4230.256307,4203.589641
24,0,4336.922971,4215.384512,4213.33323,4219.487076,4216.922974,4219.487076,4217.435794,4215.897333,4231.281948,4209.230666,4232.307589,4232.307589,4231.281948,4200.512718
25,0,4337.948612,4219.487076,4216.922974,4217.948615,4218.974256,4222.051179,4217.948615,4217.435794,4231.281948,4215.384512,4241.538358,4233.33323,4234.358871,4201.025538
26,0,4332.307586,4214.358871,4212.307589,4216.410153,4217.435794,4224.615281,4218.974256,4217.948615,4232.307589,4218.461435,4243.076819,4230.769127,4233.84605,4202.051179
27,0,4328.717843,4210.769128,4210.256307,4212.82041,4215.384512,4217.948615,4216.922974,4220.512717,4228.717845,4216.410153,4232.307589,4227.179384,4229.743486,4197.948615
28,0,4330.256304,4216.922974,4214.871692,4210.256307,4213.33323,4214.358871,4215.897333,4224.102461,4229.743486,4213.33323,4229.743486,4227.179384,4227.692204,4196.922974
29,0,4336.41015,4224.615281,4217.435794,4216.922974,4216.922974,4225.128102,4225.128102,4229.743486,4237.435794,4215.384512,4242.563999,4230.256307,4230.256307,4200.512718
30,0,4342.563996,4220.512717,4214.871692,4217.948615,4220.512717,4230.256307,4230.256307,4233.84605,4238.461435,4220.512717,4248.205024,4232.307589,4234.358871,4201.538359
31,0,4338.974253,4215.384512,4214.358871,4212.307589,4215.384512,4223.58964,4224.615281,4228.717845,4232.820409,4219.487076,4238.461435,4230.256307,4232.307589,4202.051179
32,0,4331.794766,4217.948615,4218.461435,4214.871692,4217.948615,4224.102461,4226.153743,4228.205025,4231.794768,4214.871692,4233.33323,4228.717845,4227.692204,4202.051179
33,0,4325.128099,4222.051179,4218.461435,4217.948615,4223.07682,4224.615281,4227.179384,4228.717845,4233.33323,4216.410153,4234.871691,4230.256307,4227.179384,4197.435795
34,0,4317.948612,4227.179384,4217.435794,4217.435794,4220.512717,4219.999897,4218.974256,4221.025538,4231.281948,4216.410153,4233.33323,4231.794768,4228.717845,4193.846051
35,0,4317.435792,4230.256307,4224.102461,4220.512717,4222.051179,4224.615281,4220.512717,4221.538358,4239.487076,4214.871692,4237.948614,4232.307589,4231.281948,4201.538359
36,0,4318.461433,4227.179384,4226.666563,4222.563999,4227.179384,4229.230666,4229.230666,4230.256307,4248.205024,4222.563999,4244.10246,4232.820409,4233.33323,4208.205025
37,0,4313.846048,4223.58964,4217.948615,4217.948615,4219.999897,4223.58964,4227.179384,4228.205025,4238.461435,4225.640922,4236.922973,4232.307589,4231.794768,4198.974256
38,0,4312.820407,4227.179384,4216.410153,4216.922974,4216.922974,4226.666563,4225.128102,4227.179384,4233.33323,4218.974256,4236.410153,4231.281948,4231.794768,4196.410154
39,0,4313.846048,4230.769127,4223.07682,4218.974256,4228.717845,4232.820409,4229.230666,4233.33323,4245.640922,4221.025538,4245.640922,4229.743486,4234.871691,4205.640923
40,0,4311.281946,4230.769127,4223.07682,4217.948615,4228.717845,4231.281948,4232.307589,4231.794768,4248.205024,4225.640922,4245.640922,4229.230666,4234.358871,4199.487077
41,0,4310.769125,4231.794768,4218.461435,4219.999897,4218.461435,4227.692204,4227.692204,4226.666563,4234.358871,4215.897333,4242.563999,4229.230666,4230.769127,4191.794769
42,0,4310.256305,4228.717845,4217.948615,4215.897333,4217.435794,4224.615281,4219.999897,4223.58964,4231.281948,4210.256307,4243.58964,4225.128102,4230.769127,4195.384513
43,0,4300.512715,4220.512717,4218.461435,4203.589641,4219.999897,4221.025538,4221.538358,4220.512717,4238.974255,4219.487076,4242.563999,4221.538358,4234.871691,4192.30759
44,0,4290.769126,4211.281948,4212.307589,4204.615282,4214.358871,4214.871692,4221.025538,4217.435794,4229.743486,4212.82041,4232.820409,4218.461435,4228.717845,4182.564
45,0,4289.743485,4210.769128,4210.769128,4214.358871,4209.743487,4209.230666,4214.871692,4215.384512,4220.512717,4198.974256,4230.769127,4214.871692,4217.948615,4184.102462
46,0,4292.820408,4225.128102,4220.512717,4217.435794,4220.512717,4218.974256,4222.563999,4223.58964,4233.33323,4209.743487,4239.999896,4217.435794,4223.58964,4195.384513
47,0,4295.38451,4236.922973,4225.128102,4217.435794,4232.820409,4234.871691,4236.410153,4236.922973,4242.051178,4223.58964,4247.179383,4227.692204,4232.820409,4201.025538
48,0,4295.897331,4232.307589,4220.512717,4218.974256,4227.692204,4231.794768,4231.794768,4230.256307,4235.384512,4218.974256,4245.640922,4230.769127,4232.307589,4196.410154
49,0,4288.205023,4221.025538,4217.435794,4216.922974,4217.435794,4221.025538,4219.487076,4216.410153,4232.820409,4213.846051,4239.999896,4222.051179,4229.743486,4193.846051
50,0,4278.461434,4216.922974,4213.846051,4211.794769,4218.974256,4219.999897,4218.461435,4217.435794,4232.307589,4211.281948,4234.358871,4215.384512,4226.666563,4193.846051
51,0,4286.153741,4228.717845,4222.051179,4216.410153,4231.794768,4232.307589,4230.769127,4230.769127,4235.384512,4216.410153,4244.615281,4223.58964,4231.281948,4197.435795
52,0,4305.64092,4245.128101,4242.051178,4228.717845,4248.717845,4249.230665,4245.128101,4245.128101,4250.769127,4234.871691,4263.589639,4238.461435,4248.717845,4214.358871
53,0,4307.179382,4239.999896,4242.563999,4229.743486,4249.230665,4247.179383,4241.025537,4242.563999,4249.743486,4235.384512,4256.410152,4235.384512,4247.179383,4221.538358
54,0,4289.743485,4223.58964,4225.128102,4215.897333,4231.281948,4229.743486,4228.205025,4225.640922,4229.230666,4212.82041,4237.948614,4220.512717,4227.692204,4203.07682
55,0,4288.717844,4225.128102,4224.615281,4213.33323,4224.102461,4224.615281,4227.692204,4221.538358,4226.666563,4209.230666,4243.076819,4224.102461,4227.692204,4205.128102
56,0,4310.256305,4233.84605,4234.871691,4228.717845,4233.33323,4230.769127,4231.794768,4228.717845,4235.384512,4219.999897,4252.307588,4234.358871,4238.461435,4235.384512
57,0,4316.922971,4233.33323,4233.33323,4231.794768,4232.307589,4227.692204,4229.743486,4223.58964,4232.820409,4216.410153,4247.179383,4232.820409,4235.384512,4249.743486
58,0,4307.179382,4229.743486,4227.179384,4218.461435,4221.025538,4221.538358,4226.666563,4214.358871,4227.179384,4208.717846,4242.051178,4229.230666,4230.769127,4247.692204
59,0,4315.38451,4228.717845,4227.179384,4213.846051,4222.563999,4224.102461,4227.179384,4219.487076,4227.179384,4210.769128,4246.153742,4232.820409,4238.974255,4254.871691
60,0,4333.333227,4233.84605,4236.922973,4226.153743,4233.33323,4230.256307,4229.743486,4229.230666,4232.307589,4215.897333,4254.871691,4242.051178,4249.230665,4274.87169
61,0,4330.256304,4240.512717,4245.128101,4232.820409,4230.256307,4231.281948,4231.794768,4232.307589,4235.897332,4222.051179,4261.538357,4248.717845,4250.769127,4292.820408
62,0,4316.922971,4236.922973,4234.871691,4217.435794,4217.948615,4221.025538,4227.692204,4226.153743,4230.256307,4219.487076,4258.461434,4247.179383,4246.666563,4288.205023
63,0,4318.461433,4231.281948,4230.256307,4212.82041,4221.538358,4219.487076,4227.692204,4227.179384,4228.205025,4214.871692,4258.461434,4246.153742,4248.205024,4276.922972
64,0,4321.025535,4234.358871,4241.025537,4228.717845,4230.769127,4229.230666,4233.33323,4233.33323,4237.948614,4225.128102,4264.10246,4247.179383,4250.769127,4283.589639
65,0,4309.743484,4235.384512,4242.051178,4231.281948,4228.205025,4231.794768,4233.33323,4233.84605,4241.538358,4231.794768,4259.487075,4244.615281,4248.717845,4286.666562
66,0,4299.999895,4233.33323,4234.358871,4223.58964,4229.743486,4228.205025,4229.743486,4230.256307,4234.358871,4219.999897,4253.84605,4242.563999,4248.205024,4272.307588
67,0,4292.820408,4226.666563,4232.820409,4224.102461,4228.205025,4227.692204,4229.743486,4227.692204,4229.230666,4210.769128,4252.820409,4237.948614,4243.076819,4249.743486
68,0,4283.589639,4219.487076,4233.33323,4225.128102,4218.461435,4225.640922,4230.769127,4229.230666,4230.769127,4214.871692,4249.743486,4231.281948,4234.871691,4239.487076
69,0,4274.87169,4226.153743,4230.256307,4220.512717,4218.461435,4218.461435,4230.256307,4230.769127,4233.33323,4217.435794,4246.153742,4231.281948,4231.281948,4243.076819
70,0,4270.769126,4232.820409,4230.769127,4219.487076,4223.58964,4216.410153,4229.743486,4231.794768,4233.33323,4215.897333,4246.666563,4234.358871,4233.84605,4239.487076
71,0,4269.230665,4228.717845,4231.281948,4222.563999,4224.102461,4224.102461,4230.769127,4232.820409,4236.922973,4219.487076,4249.230665,4234.358871,4239.999896,4233.33323
72,0,4270.256306,4232.307589,4234.871691,4229.743486,4233.33323,4235.897332,4234.358871,4236.922973,4247.692204,4229.230666,4251.794768,4236.410153,4244.615281,4238.461435
73,0,4263.589639,4236.922973,4235.897332,4233.84605,4239.999896,4237.948614,4234.871691,4239.487076,4247.179383,4228.717845,4248.717845,4236.410153,4236.410153,4231.281948
74,0,4245.128101,4222.051179,4224.102461,4222.051179,4231.281948,4231.794768,4232.820409,4233.33323,4231.794768,4214.358871,4235.384512,4224.102461,4220.512717,4206.153743
75,0,4230.769127,4210.256307,4214.871692,4214.358871,4224.615281,4230.769127,4232.820409,4230.256307,4228.717845,4211.794769,4229.230666,4216.410153,4220.512717,4202.564
76,0,4229.230666,4218.974256,4218.461435,4217.948615,4225.640922,4234.358871,4233.84605,4235.897332,4237.435794,4222.051179,4236.922973,4221.538358,4231.281948,4215.897333
77,0,4229.230666,4221.025538,4218.461435,4217.948615,4219.999897,4230.769127,4231.794768,4229.743486,4234.871691,4221.538358,4235.384512,4219.999897,4230.256307,4211.794769
78,0,4228.717845,4214.871692,4215.384512,4218.461435,4215.897333,4218.461435,4226.153743,4215.897333,4229.230666,4216.922974,4230.256307,4214.358871,4225.128102,4201.025538
79,0,4230.256307,4225.128102,4225.128102,4220.512717,4224.102461,4214.358871,4224.615281,4221.538358,4232.820409,4217.948615,4241.538358,4224.615281,4230.256307,4199.487077
80,0,4235.897332,4236.410153,4231.281948,4217.948615,4232.820409,4223.58964,4226.153743,4231.794768,4234.358871,4218.461435,4248.717845,4232.307589,4234.358871,4204.102461
81,0,4232.820409,4228.717845,4219.487076,4215.897333,4227.692204,4225.128102,4223.07682,4226.666563,4229.743486,4216.922974,4235.897332,4221.025538,4225.128102,4203.07682
82,0,4217.948615,4216.922974,4210.769128,4214.358871,4217.435794,4216.410153,4216.922974,4218.461435,4227.179384,4209.743487,4224.615281,4211.794769,4213.846051,4198.461436
83,0,4208.717846,4216.410153,4212.82041,4211.794769,4217.948615,4215.897333,4217.435794,4221.538358,4228.205025,4209.230666,4229.743486,4215.897333,4216.410153,4197.948615
84,0,4213.846051,4223.07682,4216.922974,4215.384512,4223.07682,4225.640922,4226.153743,4228.717845,4232.820409,4221.025538,4241.025537,4224.102461,4229.230666,4199.999897
85,0,4217.435794,4229.743486,4218.461435,4221.538358,4220.512717,4232.307589,4231.281948,4233.33323,4235.897332,4224.102461,4246.153742,4229.230666,4235.384512,4207.179384
86,0,4214.358871,4228.205025,4215.384512,4216.922974,4217.948615,4230.256307,4229.743486,4227.179384,4228.717845,4216.922974,4243.076819,4229.230666,4231.794768,4216.922974
87,0,4215.897333,4226.153743,4215.384512,4216.922974,4224.102461,4226.666563,4227.692204,4217.948615,4222.563999,4216.410153,4239.999896,4226.666563,4228.717845,4216.922974
88,0,4217.435794,4231.281948,4223.07682,4223.58964,4232.307589,4230.769127,4228.717845,4223.07682,4228.717845,4218.461435,4244.615281,4229.743486,4231.794768,4217.435794
89,0,4213.33323,4233.33323,4224.615281,4218.461435,4233.84605,4233.84605,4227.692204,4229.743486,4234.871691,4215.384512,4247.692204,4231.794768,4233.33323,4222.563999
90,0,4213.846051,4230.769127,4219.487076,4218.461435,4233.33323,4231.281948,4226.666563,4229.230666,4236.922973,4220.512717,4247.179383,4229.743486,4232.307589,4216.410153
91,0,4212.82041,4235.384512,4225.640922,4231.281948,4234.358871,4232.820409,4229.230666,4231.281948,4241.025537,4230.769127,4245.640922,4230.256307,4232.307589,4211.794769
92,0,4202.051179,4237.948614,4235.384512,4234.358871,4233.33323,4234.871691,4232.820409,4235.384512,4243.076819,4235.384512,4247.179383,4235.897332,4236.410153,4226.153743
93,0,4196.410154,4231.281948,4229.743486,4225.640922,4231.281948,4232.307589,4235.384512,4235.384512,4237.435794,4229.230666,4249.743486,4232.820409,4234.871691,4229.743486
94,0,4198.974256,4226.153743,4219.999897,4223.07682,4229.230666,4228.717845,4232.820409,4229.230666,4228.717845,4213.846051,4237.435794,4221.025538,4221.025538,4208.205025
95,0,4196.922974,4230.256307,4223.07682,4226.153743,4231.281948,4231.281948,4230.256307,4228.205025,4228.205025,4211.794769,4229.230666,4221.538358,4217.435794,4196.410154
96,0,4197.948615,4233.33323,4231.281948,4229.743486,4236.922973,4234.871691,4232.820409,4233.33323,4232.820409,4224.102461,4242.563999,4228.205025,4229.743486,4208.205025
97,0,4205.640923,4228.205025,4230.256307,4229.743486,4235.897332,4234.871691,4232.307589,4232.820409,4233.84605,4227.179384,4249.230665,4222.051179,4230.769127,4215.384512
98,0,4214.358871,4227.692204,4227.179384,4227.692204,4231.281948,4231.281948,4228.717845,4226.153743,4233.84605,4223.07682,4240.512717,4216.410153,4224.102461,4212.82041
99,0,4227.179384,4241.538358,4232.820409,4233.33323,4237.948614,4230.256307,4230.769127,4229.230666,4234.871691,4226.666563,4242.563999,4226.666563,4229.743486,4215.897333
100,0,4241.538358,4251.794768,4238.974255,4245.640922,4249.230665,4235.897332,4236.410153,4235.384512,4235.384512,4235.897332,4254.35887,4233.84605,4236.922973,4224.102461
101,0,4245.640922,4245.640922,4236.922973,4245.128101,4244.10246,4243.58964,4236.410153,4234.358871,4237.435794,4241.025537,4256.410152,4230.769127,4232.820409,4218.974256
102,0,4243.076819,4236.410153,4232.307589,4231.281948,4234.871691,4247.179383,4234.358871,4234.871691,4238.974255,4239.487076,4252.307588,4228.205025,4232.307589,4206.153743
103,0,4237.948614,4233.84605,4231.794768,4225.640922,4235.897332,4242.051178,4233.84605,4230.769127,4229.230666,4231.794768,4248.717845,4222.563999,4229.230666,4203.589641
104,0,4236.922973,4231.281948,4231.281948,4230.769127,4233.84605,4232.307589,4230.256307,4221.025538,4217.948615,4227.179384,4245.640922,4216.922974,4217.948615,4202.564
105,0,4247.692204,4228.717845,4228.717845,4231.794768,4227.692204,4229.230666,4227.692204,4223.58964,4221.538358,4229.230666,4244.615281,4214.871692,4217.435794,4199.487077
106,0,4262.051178,4233.84605,4233.84605,4234.871691,4232.820409,4237.435794,4231.794768,4234.358871,4231.281948,4231.281948,4245.640922,4218.974256,4228.205025,4207.179384
107,0,4262.051178,4245.128101,4239.487076,4241.538358,4236.410153,4241.025537,4234.871691,4233.33323,4233.84605,4232.307589,4246.666563,4226.153743,4231.281948,4218.974256
108,0,4256.922973,4250.769127,4236.410153,4243.58964,4232.820409,4235.897332,4233.33323,4230.769127,4231.281948,4230.769127,4251.794768,4229.743486,4229.743486,4216.922974
109,0,4258.974255,4247.179383,4234.358871,4242.051178,4238.974255,4241.538358,4233.84605,4238.461435,4232.307589,4233.33323,4257.435793,4226.666563,4230.769127,4206.666564
110,0,4254.871691,4237.948614,4235.384512,4239.487076,4244.615281,4249.230665,4234.358871,4239.999896,4232.307589,4233.84605,4253.333229,4221.538358,4226.666563,4200.512718
111,0,4244.10246,4232.820409,4232.307589,4233.33323,4235.897332,4240.512717,4231.281948,4230.769127,4228.205025,4225.128102,4246.666563,4216.922974,4222.563999,4201.538359
112,0,4242.563999,4235.897332,4230.256307,4230.256307,4230.769127,4231.281948,4230.769127,4232.307589,4230.769127,4226.666563,4252.820409,4218.461435,4225.640922,4210.256307
113,0,4249.743486,4236.922973,4233.33323,4229.743486,4231.794768,4235.384512,4234.358871,4240.512717,4234.871691,4235.897332,4259.999896,4226.153743,4230.769127,4216.410153
114,0,4247.179383,4233.84605,4229.230666,4228.717845,4229.230666,4232.307589,4234.358871,4237.435794,4228.717845,4226.666563,4255.384511,4225.640922,4229.743486,4211.281948
115,0,4235.897332,4231.281948,4223.58964,4230.256307,4229.743486,4230.769127,4232.307589,4229.230666,4223.58964,4217.435794,4246.153742,4216.922974,4221.538358,4203.07682
116,0,4229.230666,4234.358871,4227.692204,4233.33323,4235.384512,4241.025537,4232.820409,4231.794768,4230.256307,4227.179384,4245.128101,4215.897333,4217.435794,4200.512718
117,0,4225.640922,4238.461435,4229.743486,4233.33323,4237.435794,4242.563999,4235.897332,4237.435794,4232.307589,4228.205025,4247.692204,4218.461435,4217.948615,4203.589641
118,0,4212.82041,4229.230666,4217.948615,4227.692204,4227.179384,4233.33323,4228.205025,4228.717845,4217.948615,4214.358871,4244.10246,4209.230666,4210.769128,4197.948615
119,0,4199.999897,4217.948615,4209.743487,4217.435794,4216.410153,4228.205025,4221.025538,4215.897333,4212.82041,4208.717846,4237.435794,4203.589641,4202.051179,4185.128103
120,0,4204.102461,4225.640922,4215.384512,4219.487076,4224.615281,4230.256307,4225.128102,4217.435794,4221.025538,4214.871692,4242.051178,4211.794769,4210.769128,4188.205026
121,0,4214.358871,4237.948614,4219.999897,4230.769127,4235.384512,4232.307589,4224.102461,4223.07682,4223.58964,4219.999897,4249.230665,4216.922974,4222.563999,4201.538359
122,0,4213.33323,4233.33323,4217.435794,4232.820409,4227.692204,4229.230666,4217.435794,4223.07682,4222.563999,4215.897333,4246.666563,4213.33323,4217.948615,4201.025538
123,0,4208.717846,4232.307589,4224.102461,4228.717845,4223.58964,4228.717845,4224.615281,4229.230666,4228.717845,4213.33323,4248.205024,4216.922974,4217.948615,4200.512718
124,0,4211.794769,4240.512717,4232.820409,4230.769127,4233.84605,4236.410153,4234.871691,4237.435794,4236.922973,4223.58964,4258.974255,4227.692204,4229.230666,4213.33323
125,0,4205.640923,4238.974255,4226.153743,4232.307589,4233.33323,4233.84605,4225.128102,4228.717845,4230.769127,4225.640922,4255.384511,4226.153743,4226.666563,4213.33323
126,0,4190.256308,4230.256307,4214.358871,4229.743486,4227.179384,4222.051179,4216.922974,4220.512717,4223.58964,4214.358871,4244.10246,4215.897333,4214.358871,4198.974256
127,0,4194.358872,4232.820409,4217.948615,4231.281948,4231.281948,4228.205025,4227.692204,4228.717845,4229.230666,4220.512717,4250.769127,4216.922974,4221.025538,4202.564
128,0,4202.564,4239.999896,4226.153743,4235.897332,4235.384512,4239.999896,4233.84605,4234.871691,4234.871691,4234.358871,4266.153742,4228.205025,4233.84605,4214.358871
0,0,4193.846051,4236.922973,4223.07682,4230.769127,4232.307589,4236.410153,4229.230666,4232.307589,4232.307589,4230.256307,4263.589639,4231.281948,4233.33323,4214.871692
1,0,4184.102462,4231.794768,4217.948615,4221.025538,4231.794768,4231.794768,4225.640922,4234.871691,4233.33323,4226.666563,4250.256306,4229.743486,4227.692204,4215.384512
2,0,4181.538359,4230.256307,4218.461435,4225.128102,4228.717845,4230.256307,4224.102461,4233.84605,4231.281948,4230.256307,4246.666563,4230.769127,4224.102461,4216.922974
3,0,4174.358872,4229.743486,4215.384512,4228.717845,4217.435794,4223.58964,4218.974256,4219.487076,4219.487076,4219.487076,4245.128101,4222.051179,4215.384512,4204.102461
4,0,4171.281949,4228.717845,4210.256307,4217.435794,4214.358871,4223.07682,4216.922974,4218.974256,4221.538358,4211.281948,4245.128101,4215.384512,4217.435794,4194.871692
5,0,4172.30759,4228.205025,4215.384512,4215.384512,4220.512717,4231.281948,4219.487076,4231.281948,4232.820409,4228.205025,4249.230665,4225.128102,4227.179384,4200.512718
6,0,4170.256308,4228.205025,4219.999897,4224.615281,4218.974256,4228.205025,4224.615281,4232.307589,4231.794768,4232.307589,4249.743486,4228.717845,4224.102461,4202.051179
7,0,4170.769129,4231.281948,4216.410153,4224.102461,4216.410153,4223.07682,4227.692204,4228.205025,4228.205025,4216.922974,4246.666563,4218.974256,4215.897333,4202.564
8,0,4172.30759,4234.871691,4216.410153,4222.051179,4218.461435,4222.563999,4222.051179,4226.153743,4228.717845,4216.410153,4245.640922,4216.410153,4213.846051,4202.051179
9,0,4167.179385,4231.794768,4217.948615,4227.179384,4217.948615,4219.487076,4217.435794,4223.58964,4223.58964,4222.563999,4245.128101,4219.999897,4213.33323,4195.384513
10,0,4168.205026,4236.410153,4221.538358,4231.281948,4224.102461,4224.615281,4226.666563,4227.179384,4224.615281,4222.051179,4251.281947,4225.640922,4220.512717,4199.999897
11,0,4174.871693,4247.692204,4231.794768,4233.84605,4236.410153,4235.384512,4233.33323,4238.461435,4236.410153,4232.820409,4266.666562,4234.871691,4234.358871,4220.512717
12,0,4171.79477,4243.58964,4232.820409,4235.384512,4235.384512,4233.33323,4230.769127,4241.025537,4237.435794,4241.538358,4264.61528,4234.358871,4235.897332,4220.512717
13,0,4164.102462,4232.820409,4221.538358,4232.820409,4230.256307,4230.256307,4230.769127,4234.871691,4231.794768,4234.358871,4251.281947,4228.205025,4226.153743,4203.07682
14,0,4168.205026,4233.33323,4214.871692,4231.794768,4229.743486,4231.794768,4228.205025,4233.33323,4232.307589,4229.743486,4253.84605,4229.230666,4226.666563,4206.666564
15,0,4170.769129,4234.871691,4216.410153,4233.33323,4223.58964,4222.051179,4216.922974,4228.205025,4230.256307,4227.692204,4253.84605,4224.615281,4227.692204,4218.974256
16,0,4164.102462,4235.384512,4214.871692,4231.281948,4219.999897,4215.897333,4214.358871,4221.025538,4224.615281,4218.974256,4246.666563,4219.487076,4224.102461,4215.897333
17,0,4168.717847,4242.563999,4217.435794,4232.307589,4226.153743,4227.692204,4221.538358,4226.153743,4228.717845,4215.897333,4254.871691,4227.692204,4227.179384,4213.33323
18,0,4175.384513,4241.025537,4223.58964,4233.33323,4228.205025,4228.205025,4221.538358,4231.281948,4233.33323,4222.051179,4261.025537,4233.33323,4233.33323,4215.897333
19,0,4166.153744,4231.794768,4221.025538,4231.281948,4220.512717,4217.948615,4217.435794,4225.128102,4228.205025,4224.102461,4250.256306,4230.769127,4228.717845,4213.33323
20,0,4156.410155,4232.307589,4217.435794,4232.820409,4217.948615,4221.025538,4217.948615,4223.07682,4225.640922,4218.974256,4244.615281,4229.230666,4217.435794,4213.33323
21,0,4155.384514,4234.358871,4215.384512,4231.794768,4217.435794,4222.051179,4216.410153,4224.615281,4225.640922,4216.410153,4247.179383,4225.128102,4214.358871,4218.974256
22,0,4152.307591,4229.743486,4215.897333,4227.179384,4216.922974,4217.435794,4215.384512,4219.487076,4220.512717,4214.358871,4245.128101,4221.538358,4216.410153,4214.871692
23,0,4148.205027,4231.281948,4219.487076,4228.717845,4223.58964,4223.58964,4222.051179,4225.640922,4221.025538,4214.871692,4245.128101,4227.692204,4216.410153,4213.33323
24,0,4152.307591,4233.33323,4221.025538,4231.281948,4226.666563,4227.179384,4223.07682,4235.897332,4223.07682,4216.922974,4248.205024,4231.794768,4219.487076,4224.102461
25,0,4151.28195,4231.794768,4220.512717,4229.743486,4221.025538,4218.974256,4217.435794,4229.743486,4218.974256,4212.307589,4247.692204,4230.769127,4223.58964,4231.281948
26,0,4139.999899,4232.820409,4220.512717,4231.794768,4217.435794,4221.538358,4218.974256,4226.153743,4218.461435,4207.692205,4248.205024,4231.794768,4221.538358,4231.281948
27,0,4132.820412,4232.307589,4218.461435,4231.281948,4218.461435,4224.102461,4218.974256,4228.717845,4218.974256,4212.82041,4245.640922,4229.743486,4214.871692,4230.769127
28,0,4135.897335,4227.692204,4215.897333,4228.717845,4216.922974,4217.948615,4216.922974,4222.563999,4216.922974,4216.922974,4245.128101,4227.692204,4216.410153,4234.358871
29,0,4137.948617,4229.230666,4219.999897,4231.281948,4215.897333,4221.025538,4220.512717,4223.58964,4220.512717,4212.307589,4250.769127,4230.769127,4226.666563,4235.897332
30,0,4137.435796,4235.384512,4223.07682,4233.33323,4220.512717,4228.717845,4224.615281,4233.84605,4230.769127,4215.897333,4255.384511,4233.33323,4233.84605,4237.948614
31,0,4135.897335,4232.820409,4216.922974,4230.256307,4225.128102,4222.563999,4221.025538,4233.84605,4230.256307,4224.102461,4256.922973,4231.794768,4231.794768,4243.58964
32,0,4133.846053,4230.769127,4214.871692,4230.256307,4229.230666,4217.948615,4221.025538,4229.743486,4222.563999,4222.563999,4255.897332,4229.743486,4229.743486,4251.281947
33,0,4136.922976,4232.307589,4223.58964,4232.307589,4230.256307,4227.692204,4224.102461,4230.256307,4220.512717,4217.435794,4252.820409,4230.256307,4232.307589,4258.461434
34,0,4137.435796,4231.794768,4227.179384,4232.820409,4223.58964,4230.256307,4221.538358,4224.102461,4221.025538,4214.871692,4248.205024,4231.281948,4229.743486,4256.410152
35,0,4126.666566,4231.281948,4219.999897,4233.33323,4218.461435,4218.974256,4216.922974,4214.871692,4215.897333,4212.307589,4246.666563,4230.769127,4223.07682,4251.794768
36,0,4121.02554,4225.640922,4215.897333,4232.307589,4218.461435,4216.410153,4217.435794,4215.897333,4214.358871,4206.666564,4245.640922,4229.230666,4222.051179,4247.692204
37,0,4122.051181,4220.512717,4218.461435,4229.230666,4216.410153,4219.999897,4216.922974,4216.922974,4216.922974,4201.538359,4242.563999,4222.563999,4218.461435,4247.692204
38,0,4117.435797,4225.640922,4215.384512,4227.179384,4214.358871,4216.410153,4213.846051,4215.384512,4214.871692,4200.512718,4241.538358,4214.871692,4213.33323,4254.35887
39,0,4115.384515,4233.33323,4218.461435,4230.769127,4221.025538,4217.948615,4219.999897,4225.640922,4221.025538,4205.640923,4244.10246,4221.025538,4219.999897,4261.538357
40,0,4121.02554,4233.33323,4228.717845,4234.358871,4228.205025,4227.179384,4230.256307,4234.358871,4230.769127,4214.871692,4248.205024,4230.769127,4228.717845,4265.128101
41,0,4113.846053,4228.717845,4224.102461,4232.820409,4224.102461,4224.615281,4224.615281,4226.666563,4224.615281,4215.897333,4247.179383,4227.692204,4223.58964,4260.512716
42,0,4105.640925,4229.743486,4215.897333,4233.33323,4221.538358,4218.974256,4217.948615,4215.897333,4216.922974,4212.82041,4244.615281,4225.128102,4221.538358,4263.589639
43,0,4112.820412,4234.358871,4222.051179,4236.922973,4227.179384,4226.666563,4224.615281,4216.410153,4219.487076,4213.33323,4243.58964,4228.717845,4228.205025,4275.897331
44,0,4114.358874,4234.358871,4230.256307,4235.384512,4230.256307,4230.769127,4229.230666,4223.07682,4224.615281,4216.410153,4247.179383,4229.743486,4229.743486,4282.563998
45,0,4108.717848,4233.84605,4231.794768,4232.307589,4230.256307,4224.102461,4226.666563,4229.743486,4230.256307,4221.538358,4253.333229,4233.33323,4232.307589,4282.563998
46,0,4104.615284,4231.281948,4227.692204,4233.33323,4229.743486,4221.025538,4224.615281,4227.179384,4229.743486,4221.025538,4248.205024,4230.769127,4231.794768,4274.35887
47,0,4094.358874,4225.128102,4218.974256,4232.307589,4219.999897,4219.999897,4220.512717,4216.410153,4218.461435,4211.794769,4237.435794,4219.487076,4221.025538,4265.128101
48,0,4091.281951,4225.128102,4217.435794,4229.230666,4211.794769,4215.897333,4221.025538,4217.435794,4216.922974,4208.717846,4239.999896,4220.512717,4217.435794,4269.230665
49,0,4106.153746,4232.820409,4230.769127,4233.33323,4223.07682,4219.999897,4229.230666,4231.281948,4230.769127,4215.897333,4249.230665,4234.358871,4227.692204,4283.076818
50,0,4106.666566,4233.33323,4232.820409,4237.435794,4230.769127,4226.153743,4229.743486,4231.794768,4231.794768,4217.948615,4249.743486,4233.33323,4230.769127,4284.102459
51,0,4091.281951,4231.281948,4221.025538,4232.820409,4224.102461,4221.538358,4219.487076,4217.435794,4221.025538,4212.307589,4243.58964,4221.025538,4223.07682,4274.35887
52,0,4095.384515,4231.794768,4218.974256,4226.666563,4219.999897,4214.871692,4213.846051,4210.256307,4217.435794,4207.179384,4240.512717,4222.051179,4217.435794,4276.410152
53,0,4106.153746,4232.820409,4226.153743,4233.84605,4223.58964,4215.384512,4214.358871,4213.846051,4216.922974,4204.615282,4242.051178,4231.281948,4218.974256,4282.051177
54,0,4096.410156,4235.384512,4227.179384,4239.999896,4227.179384,4217.435794,4216.922974,4214.871692,4213.846051,4208.717846,4245.640922,4229.743486,4222.051179,4278.974254
55,0,4082.051182,4229.743486,4220.512717,4233.84605,4224.102461,4218.461435,4221.538358,4217.435794,4217.948615,4214.358871,4241.025537,4221.025538,4217.948615,4278.974254
56,0,4078.461439,4216.410153,4214.871692,4231.794768,4215.897333,4216.410153,4219.999897,4219.487076,4220.512717,4211.794769,4231.794768,4215.897333,4210.256307,4276.410152
57,0,4076.922977,4214.358871,4214.871692,4232.820409,4213.846051,4215.897333,4218.461435,4219.487076,4219.487076,4210.769128,4230.769127,4217.435794,4214.358871,4266.153742
58,0,4074.871695,4216.410153,4213.846051,4225.640922,4215.384512,4214.871692,4222.051179,4223.07682,4223.07682,4215.897333,4235.897332,4217.948615,4218.974256,4265.128101
59,0,4085.640926,4219.999897,4216.410153,4225.128102,4217.435794,4215.897333,4228.205025,4228.717845,4228.205025,4217.948615,4243.076819,4219.487076,4216.922974,4278.461434
60,0,4094.358874,4230.256307,4224.615281,4238.974255,4227.179384,4224.615281,4233.84605,4231.281948,4229.230666,4216.922974,4246.666563,4224.615281,4221.025538,4283.589639
61,0,4091.281951,4236.410153,4230.769127,4244.615281,4235.384512,4228.717845,4228.717845,4227.179384,4225.640922,4218.461435,4247.179383,4228.717845,4226.153743,4283.076818
62,0,4090.769131,4232.307589,4231.281948,4244.10246,4233.33323,4224.615281,4220.512717,4221.025538,4221.538358,4217.435794,4247.692204,4231.281948,4228.717845,4290.769126
63,0,4092.307592,4231.281948,4230.769127,4246.666563,4234.358871,4229.230666,4227.179384,4222.051179,4221.538358,4218.974256,4248.205024,4229.230666,4230.256307,4294.358869
64,0,4082.564003,4230.769127,4223.07682,4239.487076,4233.33323,4231.281948,4234.358871,4223.07682,4223.07682,4220.512717,4243.58964,4220.512717,4224.615281,4285.640921
65,0,4076.922977,4227.692204,4219.487076,4233.84605,4228.717845,4220.512717,4225.128102,4222.051179,4222.051179,4216.410153,4242.051178,4221.025538,4221.025538,4278.974254
66,0,4080.512721,4231.794768,4227.692204,4235.897332,4229.743486,4218.974256,4219.999897,4227.692204,4222.051179,4215.384512,4247.179383,4228.717845,4227.692204,4284.61528
67,0,4073.846054,4230.769127,4229.230666,4235.384512,4225.128102,4222.563999,4222.051179,4227.692204,4219.999897,4215.384512,4245.128101,4224.102461,4224.615281,4288.205023
68,0,4068.205029,4221.538358,4218.461435,4230.769127,4216.922974,4216.922974,4216.410153,4215.897333,4213.846051,4207.692205,4236.410153,4216.410153,4214.871692,4281.025536
69,0,4071.794772,4219.487076,4214.871692,4228.717845,4218.461435,4215.897333,4215.384512,4213.33323,4214.358871,4201.025538,4230.769127,4218.974256,4217.948615,4275.384511
70,0,4067.692208,4221.025538,4216.922974,4231.794768,4221.538358,4217.948615,4219.487076,4218.974256,4216.410153,4203.589641,4233.84605,4217.948615,4218.974256,4279.487075
71,0,4055.897337,4218.461435,4214.358871,4229.743486,4221.025538,4216.410153,4218.461435,4216.410153,4212.82041,4207.179384,4239.999896,4216.410153,4214.358871,4286.153741
72,0,4059.999901,4216.410153,4212.307589,4225.128102,4224.102461,4215.384512,4215.384512,4214.358871,4213.846051,4207.179384,4237.435794,4218.974256,4217.948615,4286.666562
73,0,4073.846054,4218.974256,4215.384512,4226.666563,4225.640922,4215.384512,4215.897333,4215.897333,4215.384512,4203.589641,4230.256307,4217.435794,4215.897333,4280.512716
74,0,4069.74349,4218.974256,4212.82041,4223.07682,4218.974256,4210.769128,4214.871692,4213.33323,4206.153743,4195.384513,4228.205025,4215.897333,4205.128102,4269.743485
75,0,4063.589644,4216.922974,4208.205025,4216.410153,4215.897333,4209.230666,4213.33323,4211.794769,4199.999897,4193.846051,4228.717845,4214.871692,4199.487077,4265.128101
76,0,4069.23067,4216.922974,4210.256307,4225.640922,4218.461435,4214.358871,4215.384512,4214.871692,4209.743487,4199.487077,4227.692204,4212.82041,4201.025538,4269.743485
77,0,4071.281952,4218.461435,4213.846051,4233.33323,4218.461435,4218.461435,4217.435794,4217.435794,4215.897333,4201.538359,4227.692204,4213.33323,4204.102461,4274.87169
78,0,4071.281952,4218.974256,4214.358871,4226.153743,4218.461435,4218.974256,4218.461435,4218.461435,4213.846051,4206.666564,4229.743486,4216.410153,4209.743487,4274.87169
79,0,4084.615285,4215.384512,4216.922974,4227.179384,4219.487076,4217.948615,4219.487076,4220.512717,4216.922974,4216.922974,4234.358871,4215.897333,4214.871692,4277.435793
80,0,4093.846054,4212.307589,4216.922974,4228.717845,4217.435794,4216.410153,4218.461435,4217.435794,4213.846051,4214.871692,4234.871691,4215.384512,4213.846051,4278.461434
81,0,4093.333233,4215.384512,4214.871692,4221.538358,4217.435794,4216.922974,4217.435794,4215.384512,4208.717846,4209.230666,4232.820409,4218.461435,4212.307589,4276.922972
82,0,4109.230669,4219.999897,4222.051179,4226.666563,4222.563999,4220.512717,4218.461435,4224.102461,4211.794769,4217.948615,4237.948614,4219.487076,4215.897333,4283.076818
83,0,4130.76913,4222.563999,4229.743486,4234.871691,4224.102461,4224.102461,4221.025538,4231.281948,4211.794769,4224.102461,4238.974255,4218.461435,4216.922974,4283.589639
84,0,4133.846053,4222.051179,4229.230666,4232.307589,4223.07682,4228.205025,4223.07682,4229.230666,4208.205025,4219.999897,4234.871691,4218.461435,4215.384512,4278.461434
85,0,4136.410155,4219.999897,4229.743486,4233.84605,4221.538358,4226.153743,4221.538358,4219.487076,4205.128102,4216.410153,4233.33323,4217.435794,4209.743487,4276.922972
86,0,4146.666565,4215.897333,4228.717845,4235.384512,4215.384512,4216.922974,4215.897333,4210.256307,4199.999897,4214.358871,4226.153743,4213.33323,4199.487077,4271.281947
87,0,4155.384514,4218.974256,4228.717845,4231.281948,4216.410153,4216.922974,4216.410153,4211.794769,4201.025538,4216.410153,4228.717845,4214.871692,4202.564,4276.410152
88,0,4163.076821,4225.128102,4229.743486,4228.717845,4225.640922,4225.640922,4221.025538,4216.922974,4205.640923,4214.358871,4241.025537,4219.999897,4216.410153,4289.743485
89,0,4169.743488,4219.487076,4225.128102,4228.717845,4223.58964,4225.128102,4218.461435,4214.358871,4201.538359,4212.82041,4236.410153,4217.948615,4213.33323,4285.640921
90,0,4176.922975,4213.846051,4219.999897,4226.153743,4218.461435,4218.974256,4217.948615,4211.794769,4202.564,4221.025538,4227.692204,4214.358871,4206.153743,4275.897331
91,0,4192.82041,4224.615281,4228.205025,4232.820409,4227.179384,4224.615281,4227.179384,4222.563999,4215.897333,4230.769127,4243.076819,4222.563999,4222.563999,4290.769126
92,0,4204.102461,4232.820409,4242.563999,4241.538358,4236.410153,4234.358871,4233.84605,4233.84605,4221.025538,4235.897332,4259.487075,4235.897332,4239.487076,4313.846048
93,0,4202.564,4232.307589,4245.128101,4239.487076,4232.820409,4233.33323,4227.692204,4230.769127,4217.948615,4239.487076,4253.84605,4237.435794,4233.84605,4311.794766
94,0,4208.205025,4241.538358,4241.025537,4236.922973,4229.230666,4230.256307,4224.102461,4223.58964,4215.384512,4238.974255,4247.179383,4230.769127,4229.743486,4295.897331
95,0,4215.384512,4250.256306,4242.563999,4242.563999,4235.384512,4233.33323,4229.743486,4228.717845,4211.281948,4229.743486,4250.256306,4229.230666,4234.358871,4298.461433
96,0,4206.666564,4242.051178,4247.692204,4247.692204,4236.410153,4228.717845,4232.307589,4234.358871,4209.230666,4225.128102,4250.256306,4232.307589,4233.84605,4311.794766
97,0,4201.025538,4230.769127,4245.128101,4242.563999,4230.769127,4224.102461,4228.205025,4229.743486,4214.358871,4227.692204,4247.179383,4233.33323,4230.769127,4306.153741
98,0,4204.615282,4234.358871,4235.384512,4236.410153,4230.769127,4231.281948,4228.717845,4230.256307,4217.435794,4233.33323,4246.666563,4232.307589,4231.281948,4292.820408
99,0,4202.051179,4240.512717,4234.871691,4238.461435,4233.84605,4232.307589,4231.281948,4230.769127,4213.846051,4235.897332,4248.717845,4231.794768,4231.281948,4293.846049
100,0,4204.615282,4237.948614,4237.948614,4236.410153,4234.358871,4228.717845,4229.230666,4222.563999,4214.358871,4225.128102,4246.666563,4233.33323,4230.256307,4297.948613
101,0,4211.794769,4233.84605,4235.897332,4230.256307,4232.307589,4228.717845,4230.256307,4219.487076,4214.358871,4218.461435,4247.179383,4234.358871,4230.769127,4296.410151
102,0,4204.102461,4231.794768,4232.820409,4231.281948,4225.640922,4224.615281,4229.230666,4220.512717,4208.205025,4228.717845,4246.666563,4232.820409,4231.281948,4292.307587
103,0,4196.410154,4231.281948,4234.358871,4235.897332,4215.897333,4219.999897,4226.666563,4222.051179,4204.615282,4232.307589,4243.076819,4232.307589,4229.743486,4293.333228
104,0,4202.051179,4230.769127,4234.358871,4236.410153,4217.435794,4222.051179,4231.281948,4228.717845,4207.179384,4221.538358,4246.153742,4232.820409,4229.743486,4294.87169
105,0,4204.615282,4232.307589,4233.33323,4238.974255,4226.153743,4221.538358,4232.820409,4229.743486,4209.230666,4216.410153,4245.128101,4231.281948,4230.769127,4292.820408
106,0,4199.487077,4231.794768,4234.871691,4239.999896,4225.128102,4216.922974,4222.563999,4216.922974,4203.07682,4212.307589,4235.897332,4228.717845,4226.153743,4294.358869
107,0,4198.974256,4229.743486,4232.820409,4236.922973,4215.897333,4214.358871,4216.922974,4211.281948,4198.974256,4204.615282,4232.307589,4226.666563,4221.025538,4293.333228
108,0,4199.999897,4232.307589,4233.33323,4242.051178,4215.897333,4214.358871,4226.153743,4223.58964,4208.205025,4210.256307,4236.922973,4228.717845,4224.102461,4290.256305
109,0,4199.999897,4234.871691,4241.538358,4248.205024,4221.025538,4218.461435,4232.820409,4233.84605,4218.974256,4217.948615,4243.58964,4236.922973,4231.281948,4301.025536
110,0,4203.07682,4236.922973,4249.743486,4245.128101,4219.487076,4221.538358,4231.281948,4233.84605,4219.487076,4218.974256,4248.717845,4243.58964,4236.410153,4319.487074
111,0,4204.102461,4236.410153,4245.128101,4233.84605,4214.871692,4215.384512,4229.230666,4230.769127,4211.281948,4215.384512,4247.692204,4241.025537,4234.358871,4325.128099
112,0,4210.256307,4232.307589,4239.487076,4233.33323,4216.922974,4216.922974,4230.769127,4228.205025,4204.102461,4206.153743,4245.128101,4241.025537,4232.820409,4328.205022
113,0,4230.256307,4231.281948,4246.666563,4243.076819,4224.615281,4225.128102,4233.33323,4228.205025,4208.205025,4204.615282,4248.717845,4248.205024,4242.051178,4341.538355
114,0,4244.615281,4236.410153,4250.769127,4243.076819,4226.153743,4225.128102,4234.358871,4229.230666,4210.769128,4211.794769,4250.769127,4249.743486,4244.615281,4348.205022
115,0,4235.384512,4236.922973,4242.563999,4237.435794,4218.974256,4218.974256,4232.307589,4227.179384,4205.128102,4212.307589,4247.179383,4243.58964,4234.871691,4345.640919
116,0,4224.615281,4229.743486,4238.461435,4236.922973,4213.33323,4213.33323,4230.769127,4222.051179,4206.666564,4210.256307,4243.076819,4242.563999,4235.384512,4347.692201
117,0,4238.461435,4233.33323,4249.230665,4241.025537,4217.435794,4212.82041,4231.794768,4225.128102,4216.410153,4214.871692,4248.717845,4249.743486,4249.743486,4358.461432
118,0,4252.307588,4242.563999,4257.948614,4243.076819,4219.999897,4216.922974,4233.33323,4231.794768,4218.461435,4226.153743,4261.538357,4254.35887,4253.84605,4364.615278
119,0,4242.563999,4237.435794,4251.794768,4238.974255,4216.410153,4219.487076,4233.84605,4235.384512,4218.974256,4235.897332,4260.512716,4252.307588,4251.281947,4365.640919
120,0,4232.307589,4225.128102,4245.128101,4233.33323,4217.435794,4216.922974,4233.84605,4232.820409,4220.512717,4229.743486,4248.205024,4248.717845,4245.640922,4361.025534
121,0,4227.692204,4227.179384,4246.153742,4234.358871,4219.487076,4213.846051,4233.33323,4224.102461,4212.307589,4214.358871,4245.128101,4243.58964,4233.84605,4339.487073
122,0,4219.487076,4234.871691,4245.128101,4235.384512,4215.897333,4213.33323,4230.769127,4220.512717,4204.102461,4213.33323,4248.205024,4238.461435,4234.358871,4324.102458
123,0,4211.281948,4233.84605,4237.948614,4232.307589,4213.846051,4212.82041,4229.230666,4219.999897,4200.512718,4209.743487,4248.717845,4236.410153,4240.512717,4331.281945
124,0,4208.717846,4232.307589,4233.33323,4236.410153,4216.410153,4211.794769,4230.769127,4218.974256,4202.051179,4199.999897,4244.615281,4233.84605,4235.897332,4333.846048
125,0,4210.769128,4233.33323,4232.307589,4234.871691,4215.897333,4206.153743,4227.692204,4212.82041,4199.487077,4199.487077,4237.435794,4231.281948,4230.769127,4318.461433
126,0,4212.82041,4229.743486,4231.794768,4229.230666,4210.256307,4204.615282,4224.102461,4207.179384,4196.410154,4199.999897,4237.435794,4232.820409,4230.256307,4307.179382
127,0,4207.692205,4230.256307,4237.435794,4238.461435,4214.871692,4211.794769,4229.743486,4216.922974,4207.179384,4208.717846,4247.179383,4239.999896,4232.820409,4310.256305
128,0,4200.512718,4237.435794,4245.640922,4246.666563,4227.692204,4217.435794,4236.410153,4231.281948,4219.487076,4224.615281,4250.769127,4246.666563,4237.948614,4311.794766
0,0,4198.461436,4233.84605,4246.153742,4240.512717,4232.820409,4216.410153,4235.897332,4232.820409,4218.461435,4226.153743,4249.230665,4246.153742,4240.512717,4305.64092
1,0,4190.256308,4223.58964,4237.435794,4232.820409,4227.692204,4216.410153,4232.307589,4227.179384,4213.846051,4214.358871,4245.640922,4236.410153,4232.307589,4292.820408
2,0,4182.05118,4225.640922,4229.743486,4229.743486,4228.205025,4223.58964,4233.33323,4229.743486,4214.358871,4213.846051,4242.563999,4229.230666,4224.615281,4284.61528
3,0,4188.205026,4235.384512,4237.435794,4236.410153,4234.871691,4232.820409,4244.10246,4234.871691,4218.974256,4226.153743,4247.692204,4236.922973,4235.897332,4294.87169
4,0,4187.692205,4234.358871,4247.692204,4247.179383,4232.307589,4229.743486,4245.640922,4233.84605,4221.025538,4227.692204,4252.820409,4245.128101,4246.153742,4301.538356
5,0,4175.897334,4228.205025,4240.512717,4242.051178,4226.153743,4220.512717,4235.897332,4230.769127,4219.999897,4222.563999,4249.230665,4244.615281,4237.948614,4286.153741
6,0,4167.692206,4229.230666,4230.769127,4231.794768,4227.179384,4225.640922,4237.435794,4233.84605,4224.102461,4227.692204,4250.256306,4243.076819,4232.307589,4277.435793
7,0,4159.487078,4228.717845,4233.84605,4233.33323,4230.256307,4230.256307,4242.563999,4234.871691,4226.153743,4229.230666,4249.230665,4239.487076,4232.820409,4286.666562
8,0,4150.769129,4227.179384,4232.307589,4231.794768,4230.256307,4219.999897,4233.33323,4223.07682,4216.922974,4217.435794,4236.410153,4228.205025,4224.102461,4277.948613
9,0,4157.948616,4229.743486,4227.692204,4227.692204,4232.820409,4214.358871,4226.666563,4217.435794,4211.281948,4214.358871,4230.769127,4225.128102,4223.07682,4261.538357
10,0,4168.717847,4230.769127,4231.281948,4232.820409,4230.256307,4219.999897,4231.794768,4216.410153,4206.666564,4214.871692,4236.410153,4232.307589,4229.743486,4265.640921
11,0,4162.05118,4230.769127,4232.820409,4233.84605,4219.999897,4218.974256,4231.281948,4206.153743,4191.281949,4197.435795,4232.820409,4233.84605,4221.025538,4267.179383
12,0,4151.79477,4228.717845,4230.256307,4231.281948,4215.897333,4209.230666,4226.666563,4200.512718,4184.102462,4186.153744,4227.179384,4231.281948,4211.794769,4264.10246
13,0,4152.820411,4223.58964,4232.307589,4233.33323,4218.461435,4211.794769,4229.230666,4212.82041,4195.384513,4195.384513,4230.256307,4232.307589,4218.461435,4275.384511
14,0,4152.820411,4218.974256,4227.179384,4230.256307,4219.487076,4223.58964,4237.435794,4227.179384,4209.230666,4208.717846,4231.281948,4233.33323,4223.58964,4278.974254
15,0,4148.717847,4222.051179,4219.487076,4222.563999,4218.461435,4224.615281,4239.999896,4230.256307,4219.999897,4218.461435,4230.256307,4231.281948,4224.102461,4267.692203
16,0,4137.435796,4217.435794,4212.82041,4219.487076,4215.897333,4215.384512,4231.281948,4223.07682,4219.999897,4219.487076,4229.230666,4222.051179,4221.025538,4261.025537
17,0,4126.153745,4204.102461,4204.102461,4217.948615,4215.384512,4212.82041,4228.205025,4216.410153,4213.846051,4209.230666,4222.563999,4209.230666,4209.230666,4253.333229
18,0,4129.743489,4206.666564,4203.07682,4217.435794,4216.922974,4216.922974,4232.820409,4215.897333,4212.307589,4202.564,4213.846051,4206.666564,4204.102461,4241.025537
19,0,4138.461437,4217.948615,4213.33323,4217.435794,4218.974256,4218.974256,4227.692204,4211.794769,4209.743487,4203.07682,4215.384512,4211.794769,4212.82041,4250.769127
20,0,4138.974258,4216.922974,4219.999897,4214.871692,4222.051179,4218.974256,4223.58964,4205.128102,4204.615282,4202.564,4226.153743,4217.435794,4219.999897,4270.769126
21,0,4138.461437,4212.307589,4220.512717,4215.897333,4221.025538,4217.948615,4229.743486,4208.205025,4206.153743,4206.153743,4232.307589,4226.666563,4218.974256,4273.333229
22,0,4137.435796,4217.435794,4218.974256,4220.512717,4215.897333,4215.897333,4232.820409,4214.358871,4210.256307,4213.33323,4229.743486,4231.281948,4221.025538,4268.205024
23,0,4128.205027,4219.999897,4215.897333,4219.999897,4215.897333,4216.410153,4229.743486,4217.948615,4213.846051,4217.435794,4228.717845,4224.102461,4228.205025,4268.717844
24,0,4116.922976,4214.871692,4214.871692,4217.435794,4218.461435,4215.897333,4231.281948,4221.538358,4218.974256,4218.461435,4234.358871,4218.461435,4227.179384,4266.153742
25,0,4109.743489,4211.794769,4212.307589,4219.487076,4217.948615,4216.922974,4232.820409,4221.025538,4218.461435,4215.897333,4230.769127,4217.948615,4216.922974,4257.435793
26,0,4096.410156,4208.717846,4200.512718,4212.307589,4215.897333,4216.922974,4224.615281,4209.743487,4208.205025,4205.640923,4217.435794,4206.666564,4203.07682,4249.230665
27,0,4079.48708,4201.025538,4193.333231,4207.179384,4212.82041,4213.33323,4215.384512,4199.487077,4200.512718,4196.410154,4210.769128,4196.410154,4200.512718,4240.512717
28,0,4072.820413,4201.025538,4203.589641,4216.922974,4215.897333,4213.33323,4216.922974,4203.07682,4203.589641,4200.512718,4217.435794,4207.692205,4212.82041,4242.563999
29,0,4076.410157,4211.794769,4216.410153,4217.948615,4223.58964,4216.922974,4220.512717,4204.615282,4206.666564,4203.589641,4224.615281,4218.461435,4219.999897,4255.384511
30,0,4079.48708,4218.974256,4220.512717,4215.897333,4226.153743,4218.974256,4221.025538,4203.589641,4206.666564,4203.589641,4227.179384,4218.974256,4218.461435,4265.128101
31,0,4074.358875,4216.410153,4224.615281,4223.58964,4221.538358,4213.846051,4221.538358,4205.128102,4203.07682,4205.128102,4225.128102,4221.025538,4215.897333,4265.640921
32,0,4067.692208,4214.358871,4230.769127,4224.615281,4219.999897,4206.666564,4222.563999,4205.640923,4201.025538,4203.07682,4218.974256,4221.025538,4215.384512,4261.025537
33,0,4068.717849,4217.435794,4231.281948,4222.563999,4224.615281,4210.769128,4228.205025,4210.769128,4206.153743,4204.615282,4224.615281,4223.58964,4223.07682,4266.153742
34,0,4064.615285,4217.948615,4224.615281,4230.256307,4224.102461,4217.948615,4236.922973,4215.897333,4208.717846,4213.846051,4233.84605,4227.692204,4228.717845,4272.820408
35,0,4048.71785,4213.846051,4215.384512,4231.794768,4216.410153,4215.384512,4234.358871,4210.256307,4203.07682,4216.410153,4230.256307,4221.025538,4222.563999,4267.179383
36,0,4048.71785,4215.897333,4212.307589,4227.692204,4219.487076,4213.33323,4230.769127,4209.743487,4205.640923,4211.794769,4224.102461,4214.358871,4223.07682,4265.128101
37,0,4066.666567,4227.179384,4223.07682,4233.84605,4238.974255,4225.640922,4240.512717,4217.435794,4217.948615,4223.07682,4232.307589,4227.179384,4234.358871,4275.384511
38,0,4069.23067,4235.384512,4231.281948,4236.410153,4248.717845,4237.948614,4249.743486,4220.512717,4224.102461,4234.871691,4242.051178,4234.871691,4238.974255,4279.487075
39,0,4058.97426,4231.281948,4228.205025,4231.281948,4241.025537,4235.384512,4247.179383,4221.025538,4219.999897,4223.58964,4236.922973,4227.179384,4235.384512,4281.538357
40,0,4059.999901,4231.281948,4231.794768,4232.307589,4242.563999,4234.358871,4247.179383,4226.666563,4218.461435,4214.871692,4233.84605,4230.769127,4236.410153,4290.256305
41,0,4058.97426,4234.358871,4236.410153,4232.307589,4247.179383,4234.871691,4248.717845,4227.179384,4218.461435,4216.922974,4234.358871,4231.794768,4229.743486,4278.974254
42,0,4041.025542,4225.128102,4233.33323,4229.230666,4238.974255,4231.794768,4245.640922,4226.153743,4221.538358,4218.974256,4231.794768,4219.999897,4215.897333,4259.487075
43,0,4032.307594,4215.897333,4232.307589,4230.256307,4235.897332,4230.769127,4249.743486,4232.820409,4229.743486,4226.153743,4231.281948,4221.538358,4215.897333,4263.076819
44,0,4032.820414,4216.410153,4233.33323,4225.128102,4242.051178,4234.871691,4255.384511,4238.974255,4236.410153,4233.33323,4234.358871,4227.692204,4221.025538,4266.153742
45,0,4025.128107,4216.410153,4231.794768,4214.871692,4236.922973,4234.871691,4253.333229,4238.974255,4233.84605,4229.743486,4234.871691,4221.025538,4218.461435,4255.897332
46,0,4022.051184,4216.410153,4228.717845,4218.974256,4229.230666,4233.84605,4253.84605,4237.948614,4230.256307,4227.692204,4233.33323,4222.563999,4218.461435,4259.487075
47,0,4025.640927,4217.948615,4221.025538,4229.743486,4231.794768,4233.33323,4253.333229,4236.922973,4233.84605,4231.794768,4232.820409,4231.794768,4222.051179,4269.230665
48,0,4022.564004,4216.410153,4216.922974,4229.230666,4231.794768,4231.281948,4246.153742,4232.307589,4232.307589,4228.717845,4229.230666,4229.743486,4218.974256,4266.666562
49,0,4024.615286,4218.461435,4229.230666,4229.743486,4233.33323,4230.256307,4244.10246,4231.281948,4225.128102,4222.051179,4230.256307,4225.128102,4217.948615,4267.692203
50,0,4029.230671,4225.640922,4233.84605,4234.358871,4237.948614,4231.794768,4247.179383,4227.692204,4219.999897,4219.487076,4230.769127,4221.538358,4218.461435,4263.076819
51,0,4024.102466,4224.102461,4222.051179,4231.794768,4234.871691,4229.743486,4244.10246,4217.948615,4215.897333,4212.307589,4220.512717,4214.871692,4213.33323,4249.230665
