title:V                                                                               , recorded:07.07.20 10.33.14, sampling:128, subject:B                                                                               , labels:COUNTER INTERPOLATED AF3 F7 F3 FC5 T7 P7 O1 O2 P8 T8 FC6 F4 F8 AF4,, units:emotiv,,,,,,,,,
121,0,4191.281949,4263.076819,4229.743486,4228.205025,4231.794768,4219.487076,4241.538358,4235.384512,4228.717845,4234.358871,4198.974256,4226.153743,4218.974256,4204.102461
122,0,4197.948615,4262.051178,4230.256307,4227.692204,4231.281948,4216.922974,4245.640922,4242.051178,4228.205025,4230.256307,4197.435795,4233.33323,4212.82041,4204.615282
123,0,4196.922974,4262.051178,4232.820409,4231.794768,4229.743486,4215.897333,4245.640922,4247.179383,4231.281948,4236.410153,4202.564,4227.179384,4221.025538,4195.384513
124,0,4194.358872,4261.538357,4230.256307,4224.615281,4230.769127,4219.487076,4244.615281,4241.538358,4227.179384,4247.692204,4203.589641,4215.384512,4229.743486,4189.230667
125,0,4199.487077,4259.999896,4222.563999,4215.384512,4232.307589,4221.538358,4243.58964,4234.358871,4217.948615,4242.051178,4199.999897,4214.358871,4223.07682,4188.205026
126,0,4200.512718,4258.974255,4220.512717,4214.871692,4227.692204,4215.897333,4236.922973,4231.794768,4214.358871,4227.692204,4191.281949,4217.435794,4207.179384,4182.05118
127,0,4197.948615,4258.974255,4227.179384,4218.974256,4224.102461,4211.794769,4235.384512,4230.256307,4215.897333,4228.205025,4191.794769,4214.871692,4205.128102,4184.102462
128,0,4207.179384,4264.10246,4234.358871,4225.128102,4227.692204,4214.871692,4246.153742,4232.820409,4218.461435,4236.410153,4206.666564,4215.897333,4215.897333,4197.435795
0,0,4214.871692,4267.179383,4235.384512,4224.615281,4229.230666,4217.948615,4247.692204,4234.871691,4215.897333,4234.871691,4212.307589,4218.974256,4220.512717,4201.025538
1,0,4207.179384,4254.871691,4231.794768,4217.948615,4222.563999,4211.281948,4235.897332,4228.717845,4209.230666,4228.205025,4204.615282,4217.948615,4213.33323,4187.692205
2,0,4202.564,4249.743486,4229.743486,4217.948615,4215.897333,4208.205025,4236.410153,4227.692204,4212.307589,4228.717845,4197.435795,4217.948615,4208.205025,4184.102462
3,0,4207.179384,4262.563998,4232.820409,4221.025538,4215.384512,4213.33323,4244.615281,4233.33323,4218.461435,4234.358871,4199.487077,4221.538358,4216.922974,4194.358872
4,0,4202.564,4266.153742,4231.794768,4217.948615,4214.871692,4204.615282,4236.922973,4227.692204,4206.153743,4223.07682,4202.564,4219.999897,4217.435794,4192.82041
5,0,4197.435795,4258.461434,4227.692204,4216.922974,4213.846051,4193.846051,4227.692204,4221.538358,4201.025538,4212.307589,4196.922974,4215.897333,4213.846051,4189.230667
6,0,4206.666564,4264.10246,4230.769127,4221.538358,4218.461435,4205.640923,4233.84605,4227.692204,4212.82041,4227.179384,4193.846051,4224.615281,4221.538358,4198.974256
7,0,4203.589641,4265.640921,4230.256307,4219.999897,4218.974256,4215.897333,4239.487076,4229.230666,4214.871692,4239.487076,4198.974256,4229.743486,4225.128102,4201.538359
8,0,4186.666564,4251.281947,4225.128102,4216.410153,4212.82041,4205.128102,4234.871691,4221.025538,4207.692205,4232.820409,4201.538359,4215.384512,4219.999897,4187.179385
9,0,4190.256308,4252.307588,4226.666563,4223.58964,4215.384512,4198.461436,4230.256307,4215.897333,4207.692205,4229.743486,4199.487077,4208.205025,4223.58964,4183.589641
10,0,4206.153743,4267.179383,4230.769127,4228.717845,4221.025538,4204.102461,4234.358871,4216.922974,4212.307589,4233.84605,4198.461436,4222.051179,4232.307589,4197.948615
11,0,4206.153743,4262.563998,4231.281948,4219.999897,4217.948615,4210.769128,4241.025537,4222.563999,4215.384512,4234.358871,4202.564,4228.717845,4232.307589,4200.512718
12,0,4196.922974,4248.205024,4231.794768,4219.487076,4216.410153,4214.358871,4236.410153,4226.666563,4216.922974,4233.84605,4204.102461,4219.487076,4231.794768,4190.256308
13,0,4191.281949,4253.84605,4226.666563,4232.307589,4221.025538,4214.871692,4231.794768,4224.102461,4215.384512,4230.769127,4200.512718,4216.922974,4229.743486,4184.615282
14,0,4181.538359,4262.051178,4216.922974,4230.769127,4222.563999,4215.897333,4239.999896,4225.128102,4215.897333,4226.666563,4198.461436,4214.871692,4226.153743,4184.102462
15,0,4182.05118,4257.435793,4218.974256,4224.615281,4224.615281,4218.461435,4249.230665,4233.33323,4218.461435,4230.256307,4202.051179,4214.871692,4230.256307,4187.692205
16,0,4195.897333,4265.128101,4234.358871,4235.897332,4233.84605,4220.512717,4246.153742,4235.897332,4221.025538,4235.897332,4205.640923,4229.743486,4234.871691,4198.461436
17,0,4193.846051,4275.897331,4234.871691,4238.461435,4235.384512,4216.410153,4236.922973,4232.307589,4221.025538,4233.84605,4203.589641,4236.410153,4231.794768,4202.564
18,0,4180.512718,4266.666562,4221.025538,4223.58964,4222.563999,4210.769128,4231.794768,4229.230666,4214.871692,4226.666563,4196.410154,4221.538358,4231.281948,4192.30759
19,0,4179.487077,4259.999896,4220.512717,4221.025538,4219.487076,4213.33323,4238.974255,4231.281948,4215.384512,4229.743486,4198.461436,4213.33323,4241.538358,4184.615282
20,0,4186.666564,4269.230665,4228.205025,4230.256307,4228.717845,4221.538358,4246.153742,4235.384512,4221.025538,4237.435794,4212.307589,4218.461435,4247.692204,4189.230667
21,0,4181.025539,4263.589639,4226.153743,4231.794768,4229.743486,4218.974256,4241.025537,4231.794768,4217.948615,4232.820409,4213.33323,4216.410153,4243.58964,4195.897333
22,0,4173.333231,4254.35887,4226.153743,4229.230666,4227.179384,4215.384512,4239.487076,4230.256307,4214.871692,4227.179384,4199.999897,4215.897333,4244.10246,4191.794769
23,0,4177.435795,4266.666562,4232.820409,4232.307589,4232.820409,4225.128102,4246.666563,4236.410153,4218.461435,4236.922973,4205.128102,4219.487076,4247.179383,4182.564
24,0,4183.589641,4281.538357,4233.84605,4233.84605,4235.897332,4231.281948,4249.230665,4238.974255,4221.025538,4247.692204,4219.487076,4215.384512,4249.743486,4191.281949
25,0,4185.640923,4281.025536,4231.281948,4231.281948,4232.820409,4221.538358,4241.538358,4234.871691,4217.435794,4237.948614,4212.307589,4219.999897,4255.897332,4203.589641
26,0,4180.512718,4273.333229,4231.281948,4231.281948,4232.820409,4214.871692,4234.871691,4233.84605,4214.871692,4227.179384,4196.922974,4231.794768,4254.871691,4196.410154
27,0,4173.333231,4271.794767,4231.794768,4232.820409,4230.769127,4224.102461,4239.487076,4236.410153,4218.974256,4238.974255,4200.512718,4227.179384,4252.307588,4189.743487
28,0,4169.230667,4272.307588,4230.256307,4229.743486,4228.205025,4229.743486,4243.58964,4235.897332,4219.999897,4244.615281,4206.153743,4211.281948,4259.999896,4196.922974
29,0,4170.256308,4274.35887,4226.153743,4225.128102,4231.281948,4221.538358,4239.487076,4231.794768,4217.435794,4237.435794,4203.589641,4211.281948,4267.179383,4198.974256
30,0,4172.30759,4279.487075,4230.769127,4229.743486,4234.358871,4217.435794,4237.948614,4232.820409,4218.974256,4236.922973,4205.640923,4225.128102,4265.128101,4196.922974
31,0,4172.30759,4273.333229,4232.307589,4236.410153,4231.281948,4221.538358,4238.974255,4235.384512,4221.538358,4238.974255,4212.82041,4224.102461,4262.563998,4199.999897
32,0,4163.076821,4262.563998,4221.025538,4228.717845,4228.205025,4220.512717,4236.410153,4231.794768,4216.922974,4233.33323,4213.33323,4213.33323,4263.076819,4201.538359
33,0,4155.384514,4268.717844,4220.512717,4222.051179,4233.33323,4218.461435,4234.358871,4229.230666,4213.846051,4233.33323,4215.384512,4213.846051,4265.128101,4197.435795
34,0,4164.615283,4282.563998,4232.820409,4228.717845,4231.281948,4221.538358,4235.384512,4231.794768,4218.461435,4234.871691,4218.461435,4219.999897,4265.128101,4197.435795
35,0,4169.230667,4277.435793,4233.84605,4232.820409,4220.512717,4222.051179,4233.84605,4231.281948,4217.948615,4229.230666,4206.153743,4217.435794,4263.589639,4200.512718
36,0,4158.461437,4266.666562,4226.153743,4229.230666,4222.051179,4218.974256,4233.84605,4228.205025,4215.384512,4228.205025,4199.487077,4216.922974,4259.487075,4200.512718
37,0,4153.846052,4265.640921,4225.128102,4227.179384,4229.743486,4217.948615,4233.84605,4229.743486,4223.07682,4232.307589,4210.769128,4218.974256,4263.589639,4201.025538
38,0,4155.897334,4262.563998,4227.179384,4228.717845,4228.205025,4219.487076,4233.84605,4230.769127,4227.692204,4232.307589,4208.717846,4216.410153,4274.35887,4202.051179
39,0,4154.358873,4266.666562,4228.717845,4230.769127,4230.256307,4222.051179,4235.384512,4231.794768,4220.512717,4233.33323,4199.487077,4218.974256,4270.769126,4201.025538
40,0,4153.846052,4277.948613,4230.769127,4235.384512,4234.871691,4219.487076,4233.84605,4230.256307,4215.897333,4233.84605,4199.999897,4218.461435,4265.128101,4202.051179
41,0,4151.28195,4272.820408,4228.205025,4236.922973,4231.281948,4214.358871,4230.256307,4222.563999,4212.82041,4224.102461,4203.07682,4212.82041,4273.846049,4202.051179
42,0,4147.692206,4259.487075,4225.640922,4232.307589,4225.640922,4214.358871,4229.230666,4217.435794,4206.666564,4213.846051,4199.999897,4215.384512,4269.743485,4197.435795
43,0,4149.743488,4263.589639,4227.692204,4233.84605,4224.615281,4216.410153,4231.794768,4221.025538,4212.307589,4220.512717,4198.461436,4218.974256,4259.487075,4195.384513
44,0,4152.820411,4277.435793,4230.256307,4240.512717,4227.692204,4215.897333,4233.84605,4228.205025,4221.025538,4232.307589,4206.666564,4215.384512,4271.281947,4196.922974
45,0,4153.333232,4278.974254,4230.769127,4237.435794,4232.820409,4217.948615,4234.358871,4232.307589,4219.999897,4234.871691,4216.922974,4217.435794,4282.563998,4201.538359
46,0,4148.717847,4272.820408,4230.256307,4230.256307,4233.84605,4222.051179,4235.897332,4231.794768,4222.051179,4231.281948,4218.974256,4219.487076,4277.948613,4211.281948
47,0,4142.051181,4274.35887,4228.717845,4231.281948,4238.974255,4225.640922,4236.922973,4231.794768,4225.640922,4229.743486,4214.871692,4219.999897,4276.410152,4214.871692
48,0,4146.666565,4281.538357,4231.281948,4241.538358,4245.640922,4229.230666,4236.922973,4234.358871,4227.692204,4239.999896,4219.487076,4229.230666,4286.153741,4214.358871
49,0,4159.487078,4279.999895,4235.384512,4246.666563,4240.512717,4230.256307,4235.897332,4233.84605,4228.717845,4249.743486,4220.512717,4229.230666,4297.948613,4218.461435
50,0,4152.820411,4273.333229,4233.84605,4241.025537,4231.794768,4221.538358,4232.307589,4230.256307,4222.051179,4237.948614,4214.358871,4221.025538,4286.153741,4218.974256
51,0,4138.974258,4278.461434,4230.256307,4237.435794,4231.794768,4211.281948,4228.205025,4227.692204,4215.897333,4226.666563,4216.410153,4224.102461,4274.87169,4214.871692
52,0,4146.666565,4289.230664,4232.820409,4243.076819,4234.871691,4222.051179,4232.307589,4229.743486,4222.051179,4233.84605,4218.974256,4233.84605,4289.743485,4218.461435
53,0,4155.384514,4292.820408,4236.922973,4248.717845,4240.512717,4234.358871,4236.922973,4232.820409,4224.102461,4237.435794,4217.948615,4236.410153,4294.358869,4223.58964
54,0,4144.102463,4290.256305,4234.358871,4247.179383,4245.128101,4223.58964,4233.33323,4227.179384,4216.922974,4232.820409,4217.435794,4228.205025,4279.487075,4215.897333
55,0,4135.897335,4287.692203,4231.281948,4245.128101,4243.076819,4217.948615,4229.743486,4222.051179,4215.384512,4229.743486,4212.82041,4218.461435,4274.87169,4202.564
56,0,4139.487078,4286.666562,4230.256307,4242.563999,4241.538358,4228.205025,4232.820409,4227.179384,4219.487076,4227.179384,4207.692205,4212.82041,4279.487075,4194.871692
57,0,4137.435796,4292.820408,4232.820409,4245.128101,4244.615281,4228.717845,4235.384512,4230.769127,4225.128102,4231.794768,4214.871692,4218.974256,4282.051177,4203.589641
58,0,4142.051181,4295.897331,4237.948614,4251.794768,4247.692204,4225.128102,4236.410153,4232.307589,4231.281948,4245.640922,4222.563999,4228.717845,4285.1281,4218.461435
59,0,4147.179386,4283.589639,4236.410153,4248.717845,4246.666563,4228.717845,4234.358871,4233.84605,4232.307589,4247.692204,4215.384512,4226.153743,4283.076818,4213.33323
60,0,4132.820412,4279.487075,4230.256307,4245.128101,4244.10246,4228.205025,4232.820409,4232.820409,4230.769127,4240.512717,4214.358871,4214.358871,4286.153741,4206.153743
61,0,4126.153745,4291.281946,4229.230666,4248.205024,4246.153742,4227.692204,4240.512717,4235.384512,4232.820409,4244.10246,4219.999897,4218.461435,4292.820408,4213.33323
62,0,4132.820412,4291.794767,4233.84605,4249.230665,4246.153742,4234.358871,4245.640922,4240.512717,4236.410153,4245.128101,4215.384512,4234.871691,4283.076818,4214.358871
63,0,4130.256309,4277.435793,4229.743486,4245.128101,4238.974255,4229.743486,4234.358871,4233.84605,4231.794768,4234.358871,4212.82041,4221.538358,4276.922972,4200.512718
64,0,4119.999899,4276.410152,4219.999897,4244.615281,4239.487076,4217.948615,4226.666563,4225.128102,4218.974256,4225.128102,4210.256307,4197.948615,4280.512716,4193.333231
65,0,4115.384515,4286.153741,4220.512717,4245.640922,4247.179383,4222.051179,4231.281948,4226.153743,4214.358871,4224.102461,4201.538359,4203.589641,4273.846049,4192.82041
66,0,4115.897335,4277.435793,4227.179384,4243.58964,4247.692204,4231.794768,4234.358871,4231.281948,4223.58964,4225.640922,4205.128102,4218.974256,4268.717844,4196.410154
67,0,4121.538361,4266.666562,4230.769127,4246.153742,4242.563999,4231.794768,4236.922973,4233.33323,4230.769127,4231.281948,4218.461435,4220.512717,4281.538357,4211.794769
68,0,4125.640925,4275.897331,4229.743486,4247.692204,4243.076819,4230.256307,4242.563999,4232.820409,4229.743486,4241.538358,4221.025538,4214.871692,4295.897331,4217.435794
69,0,4121.02554,4286.666562,4230.769127,4244.10246,4246.666563,4233.84605,4245.128101,4238.461435,4231.794768,4251.281947,4221.025538,4217.948615,4294.87169,4211.794769
70,0,4119.487079,4282.051177,4231.281948,4243.076819,4244.615281,4235.384512,4244.615281,4242.563999,4233.33323,4248.205024,4221.025538,4223.58964,4285.640921,4213.846051
71,0,4122.051181,4278.461434,4233.84605,4246.153742,4243.076819,4232.307589,4242.563999,4236.922973,4227.692204,4234.358871,4216.410153,4224.102461,4278.974254,4217.435794
72,0,4120.51272,4282.051177,4230.769127,4247.692204,4246.666563,4232.820409,4236.410153,4232.820409,4221.025538,4229.230666,4221.538358,4216.410153,4282.563998,4209.230666
73,0,4112.307592,4278.974254,4220.512717,4245.128101,4243.58964,4231.794768,4231.794768,4234.871691,4217.435794,4229.743486,4220.512717,4211.281948,4276.922972,4198.461436
74,0,4107.692207,4276.922972,4219.999897,4242.563999,4237.435794,4228.205025,4231.281948,4232.307589,4223.07682,4227.692204,4212.307589,4218.461435,4268.205024,4209.230666
75,0,4115.384515,4282.051177,4228.717845,4246.153742,4242.563999,4229.230666,4233.33323,4233.84605,4231.794768,4231.281948,4223.07682,4223.58964,4281.538357,4231.281948
76,0,4123.589643,4281.538357,4233.33323,4249.743486,4248.717845,4232.820409,4235.897332,4241.025537,4226.153743,4234.358871,4232.307589,4222.563999,4291.281946,4231.794768
77,0,4118.461438,4278.974254,4228.717845,4246.666563,4248.717845,4231.794768,4236.410153,4238.461435,4219.487076,4231.794768,4221.025538,4218.974256,4276.410152,4216.410153
78,0,4110.25631,4279.999895,4222.563999,4244.615281,4243.58964,4228.717845,4235.384512,4232.307589,4225.640922,4232.307589,4212.82041,4214.358871,4271.281947,4210.256307
79,0,4109.743489,4282.051177,4219.487076,4245.640922,4236.410153,4230.769127,4233.84605,4232.307589,4228.717845,4234.358871,4219.487076,4213.33323,4281.025536,4215.897333
80,0,4110.25631,4281.025536,4219.487076,4244.615281,4232.307589,4229.230666,4232.820409,4234.358871,4221.538358,4232.307589,4220.512717,4217.435794,4281.025536,4216.410153
81,0,4105.128105,4277.435793,4217.948615,4244.615281,4232.820409,4222.051179,4229.743486,4230.769127,4218.974256,4227.692204,4213.33323,4217.435794,4273.333229,4213.33323
82,0,4097.948618,4276.410152,4214.358871,4244.10246,4230.256307,4215.897333,4226.666563,4220.512717,4217.948615,4219.999897,4214.871692,4205.128102,4270.769126,4210.769128
83,0,4096.922977,4277.435793,4215.897333,4244.10246,4230.256307,4216.922974,4228.205025,4215.897333,4216.410153,4216.410153,4217.435794,4203.07682,4274.35887,4214.358871
84,0,4100.51272,4274.87169,4218.461435,4250.256306,4233.84605,4225.128102,4231.794768,4224.102461,4217.948615,4218.461435,4210.769128,4218.461435,4273.846049,4218.974256
85,0,4096.410156,4272.820408,4215.897333,4246.153742,4233.33323,4226.666563,4229.743486,4230.769127,4217.435794,4218.461435,4209.230666,4219.999897,4265.128101,4211.281948
86,0,4091.794772,4273.846049,4213.33323,4235.384512,4232.820409,4226.153743,4228.717845,4225.128102,4218.974256,4217.948615,4219.999897,4209.230666,4265.128101,4206.666564
87,0,4094.871695,4267.179383,4216.922974,4237.948614,4234.358871,4228.717845,4231.794768,4222.051179,4218.461435,4217.435794,4215.384512,4207.179384,4270.256306,4213.33323
88,0,4093.333233,4261.025537,4217.948615,4238.461435,4230.769127,4219.999897,4229.230666,4218.461435,4209.743487,4210.769128,4196.922974,4209.743487,4268.205024,4215.384512
89,0,4091.281951,4270.769126,4213.33323,4232.307589,4228.205025,4213.846051,4225.128102,4214.871692,4206.666564,4215.384512,4204.615282,4210.769128,4273.333229,4212.82041
90,0,4104.102464,4282.051177,4214.358871,4239.999896,4230.256307,4223.58964,4228.717845,4223.07682,4217.948615,4234.871691,4218.974256,4216.922974,4279.999895,4217.435794
91,0,4111.281951,4273.846049,4216.922974,4243.076819,4229.230666,4225.128102,4230.769127,4232.307589,4222.051179,4238.974255,4205.640923,4214.871692,4269.230665,4217.435794
92,0,4108.717848,4265.128101,4216.410153,4231.794768,4229.743486,4219.999897,4228.717845,4230.769127,4218.461435,4233.84605,4193.846051,4208.717846,4261.025537,4206.153743
93,0,4114.871694,4268.717844,4217.948615,4234.358871,4234.358871,4232.820409,4231.281948,4231.794768,4222.051179,4238.974255,4210.256307,4213.33323,4263.076819,4204.102461
94,0,4117.948617,4267.179383,4215.897333,4239.487076,4228.205025,4236.922973,4234.358871,4232.820409,4222.051179,4239.999896,4219.487076,4211.281948,4258.974255,4211.281948
95,0,4115.384515,4263.076819,4210.769128,4230.256307,4215.897333,4221.538358,4229.230666,4220.512717,4212.307589,4229.230666,4204.615282,4195.384513,4256.410152,4212.82041
96,0,4125.128104,4267.179383,4215.384512,4231.281948,4217.435794,4215.384512,4229.743486,4213.33323,4210.769128,4232.307589,4199.487077,4194.358872,4266.153742,4215.384512
97,0,4133.846053,4266.666562,4221.025538,4237.435794,4223.07682,4217.948615,4231.281948,4222.051179,4215.384512,4244.10246,4212.307589,4210.256307,4268.717844,4218.461435
98,0,4134.871694,4261.025537,4217.435794,4232.820409,4218.974256,4217.435794,4224.102461,4228.205025,4216.410153,4239.999896,4222.563999,4215.384512,4262.563998,4214.871692
99,0,4138.974258,4266.153742,4216.922974,4230.256307,4216.410153,4216.922974,4223.07682,4226.666563,4216.410153,4239.999896,4218.461435,4210.256307,4263.589639,4223.07682
100,0,4141.53836,4267.692203,4217.435794,4230.769127,4216.922974,4218.461435,4228.205025,4225.128102,4216.410153,4243.58964,4209.743487,4206.666564,4266.153742,4230.769127
101,0,4138.974258,4262.051178,4212.307589,4229.230666,4214.358871,4225.128102,4228.205025,4228.205025,4216.410153,4239.487076,4215.384512,4201.538359,4264.10246,4218.461435
102,0,4137.948617,4261.025537,4212.82041,4228.205025,4213.846051,4227.692204,4228.717845,4232.307589,4219.487076,4237.948614,4220.512717,4199.487077,4264.61528,4211.794769
103,0,4138.461437,4255.897332,4215.897333,4228.717845,4215.897333,4224.615281,4234.358871,4231.794768,4218.974256,4239.487076,4205.128102,4210.256307,4264.61528,4217.948615
104,0,4145.128104,4254.35887,4213.33323,4230.769127,4220.512717,4228.205025,4233.84605,4230.769127,4219.487076,4240.512717,4203.07682,4212.307589,4261.538357,4216.410153
105,0,4154.871693,4264.10246,4213.33323,4232.820409,4229.743486,4233.84605,4231.281948,4233.84605,4227.692204,4246.153742,4228.205025,4203.589641,4267.692203,4218.461435
106,0,4155.897334,4267.179383,4215.384512,4231.281948,4230.256307,4231.794768,4233.33323,4234.871691,4234.871691,4254.35887,4236.410153,4205.640923,4275.897331,4228.717845
107,0,4150.769129,4261.538357,4211.794769,4229.230666,4220.512717,4229.230666,4232.820409,4231.794768,4231.794768,4246.666563,4217.948615,4209.743487,4269.230665,4223.58964
108,0,4145.128104,4259.999896,4205.128102,4229.743486,4215.897333,4228.717845,4230.769127,4230.256307,4222.563999,4234.358871,4213.33323,4203.07682,4251.281947,4213.33323
109,0,4137.435796,4261.025537,4200.512718,4228.205025,4218.974256,4227.179384,4230.769127,4230.769127,4216.922974,4230.769127,4219.487076,4197.435795,4247.179383,4213.33323
110,0,4136.922976,4260.512716,4203.589641,4227.179384,4216.410153,4228.717845,4231.794768,4231.281948,4215.897333,4231.794768,4216.410153,4201.025538,4257.948614,4216.922974
111,0,4149.230668,4265.128101,4211.281948,4230.256307,4215.384512,4228.717845,4231.281948,4231.794768,4220.512717,4234.358871,4214.358871,4204.102461,4258.461434,4216.922974
112,0,4157.435796,4261.538357,4214.358871,4230.769127,4222.563999,4227.179384,4231.281948,4232.820409,4224.615281,4232.820409,4215.384512,4203.589641,4248.717845,4216.410153
113,0,4151.79477,4249.743486,4214.871692,4229.230666,4224.102461,4232.307589,4231.794768,4232.820409,4222.563999,4232.307589,4216.922974,4202.051179,4245.128101,4214.871692
114,0,4142.051181,4251.794768,4211.794769,4230.769127,4216.410153,4231.794768,4231.281948,4230.769127,4222.051179,4229.230666,4213.846051,4198.974256,4244.10246,4209.230666
115,0,4141.02554,4263.589639,4207.692205,4231.794768,4219.487076,4225.640922,4229.230666,4228.717845,4227.179384,4229.743486,4207.692205,4201.538359,4246.666563,4210.769128
116,0,4146.666565,4261.538357,4207.179384,4229.743486,4228.205025,4228.205025,4230.256307,4230.769127,4232.820409,4233.84605,4208.717846,4207.692205,4254.35887,4218.461435
117,0,4146.666565,4254.35887,4206.666564,4228.717845,4223.07682,4232.820409,4232.820409,4232.307589,4228.205025,4226.153743,4210.769128,4209.743487,4251.794768,4216.410153
118,0,4147.692206,4259.999896,4210.769128,4232.820409,4216.410153,4229.230666,4231.281948,4230.769127,4222.051179,4215.384512,4212.82041,4203.589641,4245.128101,4220.512717
119,0,4150.256309,4263.076819,4214.871692,4233.33323,4219.999897,4228.205025,4228.717845,4228.717845,4223.07682,4217.435794,4221.538358,4198.974256,4251.281947,4231.794768
120,0,4143.076822,4259.999896,4207.692205,4229.230666,4219.487076,4228.205025,4229.230666,4223.07682,4222.563999,4220.512717,4217.435794,4209.743487,4245.128101,4226.153743
121,0,4135.384514,4259.999896,4204.102461,4230.256307,4215.897333,4226.666563,4229.743486,4221.538358,4217.435794,4214.871692,4204.102461,4215.384512,4233.84605,4214.358871
122,0,4141.53836,4252.820409,4213.33323,4234.358871,4216.410153,4229.230666,4229.743486,4228.205025,4221.538358,4214.871692,4208.717846,4205.640923,4241.538358,4215.897333
123,0,4148.205027,4248.717845,4215.897333,4233.33323,4217.435794,4229.230666,4229.230666,4233.33323,4231.794768,4222.051179,4222.563999,4206.666564,4251.794768,4225.640922
124,0,4140.512719,4253.84605,4204.615282,4228.205025,4214.358871,4225.640922,4227.179384,4231.281948,4227.692204,4223.07682,4219.999897,4211.281948,4247.179383,4225.128102
125,0,4137.435796,4252.820409,4199.999897,4227.179384,4212.307589,4226.666563,4227.692204,4230.256307,4222.563999,4218.461435,4210.769128,4201.538359,4242.563999,4217.435794
126,0,4148.205027,4251.794768,4208.205025,4230.769127,4214.358871,4230.256307,4230.256307,4234.358871,4232.307589,4219.487076,4213.846051,4199.999897,4247.179383,4221.538358
127,0,4158.974257,4258.461434,4216.922974,4234.358871,4218.974256,4230.256307,4231.794768,4234.871691,4232.820409,4224.615281,4223.07682,4210.256307,4252.307588,4230.256307
128,0,4156.410155,4255.384511,4212.307589,4233.84605,4218.461435,4225.128102,4228.717845,4227.692204,4220.512717,4215.897333,4213.33323,4204.102461,4250.256306,4221.025538
0,0,4146.153745,4247.692204,4205.128102,4228.205025,4212.307589,4215.897333,4223.07682,4222.563999,4213.33323,4205.640923,4204.102461,4197.435795,4241.538358,4211.794769
1,0,4146.666565,4252.820409,4209.743487,4228.205025,4212.307589,4216.922974,4223.58964,4228.205025,4218.974256,4213.846051,4217.435794,4207.179384,4241.538358,4224.615281
2,0,4150.256309,4248.717845,4214.871692,4230.769127,4213.846051,4226.666563,4228.205025,4232.820409,4227.179384,4223.07682,4217.948615,4212.82041,4242.051178,4230.769127
3,0,4151.79477,4243.58964,4216.410153,4230.256307,4209.230666,4229.230666,4231.794768,4233.33323,4231.794768,4219.487076,4203.589641,4214.871692,4236.410153,4227.179384
4,0,4153.846052,4252.820409,4214.871692,4227.179384,4206.666564,4225.640922,4230.256307,4233.33323,4233.33323,4217.435794,4211.281948,4214.871692,4238.974255,4231.281948
5,0,4148.717847,4254.35887,4206.153743,4222.563999,4206.666564,4220.512717,4223.07682,4231.794768,4228.717845,4217.435794,4219.487076,4210.769128,4239.487076,4235.384512
6,0,4138.974258,4248.205024,4199.999897,4216.922974,4204.102461,4213.846051,4216.410153,4227.692204,4219.487076,4210.256307,4212.82041,4208.717846,4231.281948,4228.717845
7,0,4138.974258,4249.230665,4203.07682,4215.897333,4204.615282,4216.410153,4221.025538,4226.153743,4217.948615,4202.564,4216.922974,4206.666564,4229.743486,4219.487076
8,0,4141.02554,4253.333229,4205.128102,4219.487076,4205.640923,4223.58964,4229.230666,4229.743486,4228.717845,4202.564,4213.846051,4206.153743,4231.794768,4220.512717
9,0,4134.358873,4248.205024,4203.07682,4219.487076,4202.051179,4222.051179,4228.205025,4230.769127,4233.33323,4203.07682,4196.922974,4205.128102,4226.666563,4220.512717
10,0,4135.897335,4246.153742,4202.564,4217.435794,4201.538359,4216.922974,4223.07682,4231.281948,4228.717845,4200.512718,4206.153743,4199.487077,4228.205025,4213.846051
11,0,4138.974258,4253.333229,4203.07682,4217.435794,4203.07682,4217.948615,4219.487076,4229.743486,4228.717845,4198.974256,4215.384512,4197.435795,4231.281948,4212.307589
12,0,4127.692207,4248.205024,4203.07682,4218.974256,4200.512718,4220.512717,4219.999897,4223.58964,4228.205025,4204.102461,4199.999897,4201.025538,4219.999897,4217.948615
13,0,4119.999899,4232.820409,4202.564,4215.897333,4199.487077,4214.358871,4217.948615,4215.897333,4219.487076,4203.589641,4197.435795,4198.974256,4215.384512,4219.999897
14,0,4121.02554,4232.820409,4198.461436,4213.846051,4199.487077,4206.666564,4212.82041,4213.33323,4213.33323,4191.281949,4209.743487,4196.922974,4215.384512,4215.384512
15,0,4119.999899,4244.10246,4196.922974,4222.051179,4199.487077,4211.794769,4213.846051,4213.33323,4219.999897,4186.666564,4201.025538,4203.07682,4211.794769,4211.794769
16,0,4122.564002,4244.10246,4203.07682,4229.230666,4202.051179,4219.487076,4219.999897,4217.435794,4230.256307,4198.974256,4196.410154,4201.538359,4219.999897,4216.410153
17,0,4125.640925,4245.128101,4205.128102,4225.128102,4204.615282,4216.922974,4218.974256,4224.102461,4231.794768,4211.794769,4213.846051,4199.487077,4231.281948,4223.07682
18,0,4121.02554,4246.153742,4199.487077,4217.435794,4202.051179,4214.871692,4219.999897,4222.051179,4232.307589,4207.692205,4218.974256,4205.128102,4223.58964,4223.07682
19,0,4117.948617,4234.358871,4197.948615,4214.871692,4197.948615,4219.999897,4224.615281,4216.922974,4234.871691,4199.487077,4218.461435,4204.102461,4215.384512,4223.07682
20,0,4121.02554,4232.307589,4203.07682,4217.435794,4199.999897,4221.538358,4223.07682,4218.974256,4235.384512,4206.666564,4229.230666,4201.025538,4224.102461,4234.358871
21,0,4123.589643,4246.666563,4203.589641,4218.974256,4204.102461,4218.461435,4221.538358,4219.999897,4234.358871,4218.974256,4232.820409,4212.82041,4231.794768,4243.076819
22,0,4121.02554,4251.794768,4201.538359,4217.435794,4204.102461,4216.922974,4222.051179,4218.974256,4238.461435,4218.974256,4229.230666,4221.025538,4229.230666,4234.358871
23,0,4119.487079,4243.58964,4207.179384,4222.563999,4205.128102,4223.58964,4223.58964,4223.07682,4245.128101,4215.897333,4232.307589,4213.846051,4230.769127,4235.384512
24,0,4128.205027,4243.58964,4212.82041,4233.33323,4209.230666,4229.743486,4228.717845,4227.179384,4248.717845,4222.051179,4233.84605,4214.358871,4233.84605,4248.717845
25,0,4128.717848,4251.281947,4207.692205,4230.769127,4208.205025,4223.07682,4229.230666,4224.615281,4242.051178,4219.999897,4231.794768,4217.948615,4231.794768,4240.512717
26,0,4110.76913,4247.179383,4194.358872,4215.897333,4199.487077,4215.897333,4219.487076,4214.871692,4233.33323,4207.179384,4231.281948,4208.205025,4228.717845,4224.615281
27,0,4100.51272,4234.871691,4185.128103,4212.307589,4191.794769,4213.33323,4211.281948,4204.615282,4229.743486,4200.512718,4224.102461,4199.487077,4222.563999,4226.666563
28,0,4104.615284,4229.743486,4185.128103,4215.897333,4186.666564,4207.179384,4208.717846,4198.974256,4222.563999,4194.358872,4213.33323,4193.333231,4214.871692,4222.563999
29,0,4106.153746,4231.281948,4185.640923,4216.410153,4184.102462,4204.615282,4208.205025,4200.512718,4218.974256,4181.025539,4211.281948,4189.230667,4212.307589,4206.666564
30,0,4105.128105,4239.999896,4186.153744,4217.435794,4192.82041,4213.33323,4212.307589,4208.717846,4228.717845,4184.102462,4215.897333,4197.948615,4215.897333,4210.256307
31,0,4108.205028,4245.128101,4189.743487,4218.974256,4201.538359,4219.487076,4216.410153,4214.871692,4236.922973,4207.179384,4219.487076,4207.692205,4223.07682,4225.640922
32,0,4105.640925,4238.461435,4188.717846,4216.922974,4191.794769,4212.307589,4212.82041,4209.743487,4233.84605,4215.897333,4224.615281,4199.999897,4231.794768,4227.179384
33,0,4104.102464,4234.871691,4185.128103,4213.846051,4184.615282,4203.07682,4202.564,4201.538359,4231.281948,4210.256307,4230.256307,4193.333231,4232.820409,4224.102461
34,0,4115.384515,4243.076819,4190.769128,4214.871692,4196.410154,4208.717846,4203.07682,4201.538359,4233.84605,4210.769128,4230.769127,4207.179384,4228.205025,4231.794768
35,0,4126.153745,4249.230665,4198.974256,4217.948615,4203.589641,4220.512717,4214.358871,4204.615282,4235.897332,4213.846051,4229.743486,4221.538358,4230.256307,4238.461435
36,0,4121.538361,4248.205024,4196.410154,4219.999897,4196.922974,4213.846051,4210.769128,4204.102461,4236.410153,4214.358871,4229.230666,4213.33323,4232.307589,4231.281948
37,0,4114.871694,4242.563999,4188.717846,4217.948615,4191.794769,4203.589641,4203.07682,4202.051179,4233.84605,4211.794769,4227.179384,4196.922974,4232.307589,4228.717845
38,0,4117.948617,4233.84605,4185.640923,4215.384512,4188.205026,4206.666564,4210.256307,4200.512718,4232.307589,4203.589641,4222.051179,4195.384513,4226.666563,4238.974255
39,0,4122.564002,4232.307589,4185.640923,4214.871692,4185.128103,4209.230666,4212.307589,4202.564,4230.769127,4195.384513,4213.33323,4197.948615,4218.461435,4241.025537
40,0,4133.846053,4235.384512,4188.717846,4213.33323,4187.692205,4210.256307,4207.692205,4203.07682,4231.281948,4194.871692,4215.384512,4202.051179,4219.999897,4244.10246
41,0,4152.307591,4234.871691,4195.384513,4213.846051,4191.281949,4216.410153,4208.717846,4201.538359,4234.358871,4202.051179,4231.281948,4215.384512,4229.230666,4272.307588
42,0,4161.025539,4236.922973,4203.07682,4217.948615,4189.230667,4214.871692,4206.666564,4201.025538,4233.33323,4207.179384,4234.358871,4216.922974,4236.922973,4300.512715
43,0,4158.461437,4232.820409,4197.435795,4217.948615,4186.666564,4203.589641,4199.487077,4195.897333,4224.615281,4197.948615,4218.974256,4208.205025,4232.307589,4298.974254
44,0,4157.435796,4217.435794,4189.230667,4213.846051,4182.564,4198.974256,4196.410154,4186.153744,4222.051179,4187.692205,4213.846051,4211.281948,4218.974256,4298.461433
45,0,4158.974257,4212.82041,4191.794769,4212.307589,4172.820411,4198.974256,4195.384513,4186.153744,4229.230666,4193.846051,4215.897333,4216.410153,4222.051179,4313.333228
46,0,4164.615283,4226.666563,4194.358872,4213.33323,4166.666565,4196.410154,4197.435795,4196.922974,4233.33323,4203.589641,4214.871692,4218.974256,4232.307589,4317.948612
47,0,4167.692206,4236.922973,4191.281949,4214.871692,4171.79477,4199.487077,4202.564,4200.512718,4234.358871,4198.974256,4226.153743,4215.384512,4231.281948,4310.256305
48,0,4159.487078,4226.666563,4187.692205,4214.358871,4175.897334,4202.051179,4199.487077,4192.30759,4233.84605,4185.128103,4229.230666,4207.692205,4224.102461,4298.974254
49,0,4152.820411,4216.922974,4186.153744,4212.307589,4171.79477,4197.948615,4195.897333,4185.640923,4226.153743,4179.487077,4216.410153,4209.230666,4219.999897,4286.153741
50,0,4151.79477,4222.563999,4185.128103,4215.384512,4171.79477,4197.435795,4193.846051,4185.640923,4223.58964,4184.615282,4215.897333,4207.179384,4217.948615,4273.333229
51,0,4141.53836,4224.102461,4182.05118,4214.871692,4175.384513,4202.051179,4190.769128,4184.102462,4227.692204,4183.589641,4218.974256,4198.974256,4217.948615,4265.128101
52,0,4127.179386,4213.846051,4175.897334,4205.640923,4174.358872,4200.512718,4191.281949,4181.538359,4223.07682,4176.922975,4215.384512,4195.384513,4212.307589,4250.769127
53,0,4123.076822,4210.769128,4171.79477,4199.999897,4174.871693,4199.487077,4190.256308,4183.076821,4216.922974,4175.897334,4214.358871,4190.769128,4203.589641,4235.384512
54,0,4119.999899,4218.974256,4172.30759,4201.538359,4176.922975,4202.051179,4188.205026,4185.128103,4219.999897,4178.974257,4207.692205,4185.128103,4205.128102,4230.256307
55,0,4113.333233,4217.948615,4171.79477,4202.564,4173.846052,4200.512718,4191.794769,4185.128103,4226.153743,4183.589641,4204.615282,4187.179385,4203.589641,4228.205025
56,0,4107.692207,4212.307589,4172.30759,4201.025538,4172.30759,4201.025538,4197.948615,4187.179385,4230.769127,4182.564,4212.307589,4186.153744,4198.974256,4222.051179
57,0,4105.128105,4211.281948,4172.820411,4202.051179,4172.30759,4204.615282,4198.974256,4195.384513,4233.33323,4171.79477,4208.205025,4181.538359,4198.461436,4210.769128
58,0,4105.128105,4215.384512,4172.30759,4203.589641,4170.769129,4205.640923,4199.999897,4199.487077,4232.820409,4170.256308,4196.922974,4187.692205,4190.256308,4205.128102
59,0,4099.487079,4213.33323,4171.281949,4201.538359,4174.871693,4205.128102,4199.999897,4191.281949,4232.820409,4172.820411,4199.999897,4183.076821,4184.102462,4199.487077
60,0,4090.25631,4201.538359,4170.256308,4199.999897,4174.358872,4202.564,4195.384513,4182.564,4223.58964,4157.948616,4203.589641,4174.358872,4186.153744,4194.871692
61,0,4095.897336,4202.051179,4170.769129,4202.564,4171.79477,4197.948615,4190.256308,4183.076821,4213.33323,4149.743488,4193.846051,4181.025539,4187.179385,4197.435795
62,0,4102.564002,4214.871692,4171.79477,4202.051179,4178.974257,4199.487077,4188.717846,4184.102462,4221.538358,4166.153744,4188.717846,4187.692205,4185.640923,4199.999897
63,0,4091.794772,4218.461435,4169.743488,4198.461436,4185.640923,4203.07682,4192.82041,4185.128103,4235.384512,4182.05118,4203.07682,4185.128103,4188.717846,4202.564
64,0,4088.717849,4213.846051,4171.79477,4200.512718,4185.128103,4204.102461,4201.025538,4190.769128,4236.922973,4183.076821,4216.410153,4184.615282,4189.743487,4199.999897
65,0,4093.846054,4211.281948,4172.30759,4201.025538,4180.512718,4209.230666,4198.461436,4192.82041,4233.33323,4177.435795,4205.128102,4177.948616,4186.153744,4191.281949
66,0,4089.230669,4205.640923,4168.205026,4197.948615,4175.897334,4212.307589,4187.692205,4189.230667,4233.33323,4173.333231,4191.281949,4166.153744,4185.128103,4178.974257
67,0,4091.794772,4202.564,4168.717847,4198.461436,4173.846052,4205.128102,4190.769128,4187.692205,4229.743486,4172.820411,4198.461436,4174.358872,4182.05118,4183.589641
68,0,4107.692207,4207.692205,4173.333231,4199.487077,4174.358872,4199.999897,4199.487077,4187.692205,4221.538358,4169.230667,4201.538359,4185.640923,4173.333231,4197.435795
69,0,4112.307592,4209.230666,4172.30759,4198.461436,4170.256308,4199.999897,4193.333231,4185.128103,4215.384512,4170.256308,4190.769128,4175.384513,4169.230667,4191.281949
70,0,4104.615284,4204.615282,4169.230667,4196.410154,4166.153744,4195.897333,4182.564,4174.871693,4209.743487,4178.974257,4182.564,4166.666565,4166.666565,4172.30759
71,0,4110.25631,4198.461436,4171.281949,4197.435795,4170.256308,4194.358872,4182.05118,4167.179385,4207.692205,4180.512718,4188.205026,4172.30759,4159.487078,4170.769129
72,0,4124.102463,4202.564,4174.871693,4197.435795,4169.230667,4196.410154,4184.102462,4173.846052,4212.307589,4181.538359,4204.102461,4173.333231,4162.564001,4183.076821
73,0,4122.564002,4204.615282,4173.333231,4190.769128,4158.461437,4193.333231,4184.102462,4183.076821,4217.435794,4189.230667,4200.512718,4169.230667,4173.846052,4178.974257
74,0,4113.333233,4187.179385,4171.281949,4183.589641,4149.743488,4187.179385,4185.128103,4179.487077,4212.82041,4186.153744,4185.128103,4173.846052,4173.333231,4167.179385
75,0,4116.922976,4180.512718,4171.79477,4183.589641,4152.307591,4185.128103,4181.025539,4170.769129,4206.666564,4173.846052,4195.897333,4174.358872,4166.666565,4168.717847
76,0,4125.128104,4196.410154,4171.79477,4186.666564,4155.384514,4186.666564,4172.30759,4169.230667,4204.102461,4170.769129,4208.205025,4167.692206,4166.666565,4174.871693
77,0,4125.128104,4198.974256,4168.717847,4183.589641,4153.846052,4185.640923,4172.30759,4171.79477,4201.538359,4169.743488,4189.230667,4166.153744,4166.666565,4168.717847
78,0,4124.102463,4189.743487,4170.256308,4182.05118,4154.871693,4185.640923,4181.025539,4174.358872,4206.153743,4170.769129,4184.615282,4170.256308,4167.692206,4157.948616
79,0,4124.102463,4193.846051,4172.30759,4185.128103,4154.871693,4188.717846,4186.666564,4174.358872,4214.358871,4181.025539,4207.692205,4170.256308,4172.30759,4165.128103
80,0,4128.717848,4196.410154,4169.230667,4184.102462,4152.820411,4187.179385,4182.05118,4170.769129,4214.358871,4181.538359,4206.666564,4166.153744,4166.666565,4170.256308
81,0,4135.384514,4190.256308,4168.205026,4183.076821,4155.384514,4181.025539,4175.384513,4169.743488,4210.256307,4171.281949,4193.846051,4165.640924,4157.435796,4158.461437
82,0,4131.28195,4185.640923,4166.666565,4186.153744,4151.79477,4183.589641,4171.79477,4166.666565,4207.692205,4170.256308,4199.999897,4166.153744,4155.897334,4158.461437
83,0,4123.589643,4183.076821,4162.05118,4180.512718,4142.051181,4185.128103,4170.769129,4159.487078,4206.153743,4173.333231,4201.538359,4165.128103,4157.948616,4169.743488
84,0,4121.538361,4184.102462,4159.487078,4169.743488,4142.564001,4175.384513,4169.743488,4156.410155,4202.564,4169.743488,4189.230667,4163.076821,4153.333232,4162.05118
85,0,4119.487079,4184.102462,4156.410155,4169.743488,4144.615283,4169.743488,4168.205026,4155.897334,4197.435795,4166.666565,4182.564,4155.384514,4148.205027,4142.051181
86,0,4119.999899,4179.487077,4156.922975,4173.333231,4141.53836,4177.948616,4169.230667,4158.461437,4196.922974,4168.717847,4183.589641,4149.743488,4152.820411,4135.384514
87,0,4121.538361,4181.538359,4165.640924,4173.846052,4144.615283,4183.076821,4170.769129,4166.153744,4201.538359,4172.30759,4183.589641,4161.53836,4149.230668,4146.666565
88,0,4116.922976,4186.666564,4165.640924,4174.358872,4146.666565,4175.384513,4171.281949,4168.205026,4202.051179,4170.256308,4184.102462,4166.153744,4137.948617,4148.717847
89,0,4118.461438,4182.564,4156.922975,4172.30759,4139.999899,4170.256308,4169.743488,4161.025539,4200.512718,4168.205026,4186.666564,4151.28195,4143.589642,4140.512719
90,0,4121.02554,4172.820411,4154.871693,4170.256308,4138.461437,4171.79477,4165.640924,4158.461437,4202.051179,4170.769129,4185.640923,4150.256309,4155.897334,4141.02554
91,0,4110.25631,4164.102462,4155.897334,4170.256308,4138.461437,4168.717847,4164.615283,4159.487078,4200.512718,4169.230667,4180.512718,4157.948616,4154.871693,4146.153745
92,0,4102.564002,4166.153744,4154.871693,4169.230667,4136.922976,4168.205026,4167.692206,4161.53836,4200.512718,4165.640924,4182.05118,4153.846052,4145.640924,4140.512719
93,0,4106.153746,4173.846052,4157.435796,4168.717847,4145.640924,4176.410154,4170.769129,4167.692206,4203.07682,4168.717847,4186.153744,4162.05118,4142.051181,4140.512719
94,0,4106.666566,4171.281949,4158.461437,4166.153744,4150.256309,4177.948616,4171.79477,4168.205026,4202.051179,4169.743488,4179.487077,4170.256308,4145.640924,4146.666565
95,0,4105.128105,4172.30759,4160.512719,4164.615283,4146.153745,4173.846052,4171.281949,4165.128103,4201.538359,4166.153744,4185.640923,4156.922975,4154.358873,4150.256309
96,0,4111.281951,4181.025539,4170.256308,4168.717847,4152.307591,4182.05118,4172.30759,4170.769129,4212.307589,4171.79477,4207.692205,4157.948616,4156.922975,4166.153744
97,0,4111.794771,4175.897334,4168.205026,4169.743488,4153.846052,4186.153744,4172.30759,4174.871693,4221.538358,4175.384513,4204.615282,4172.30759,4151.28195,4172.30759
98,0,4103.076823,4167.179385,4155.384514,4165.128103,4139.487078,4176.922975,4171.281949,4169.743488,4219.487076,4169.743488,4184.615282,4171.281949,4151.28195,4150.769129
99,0,4100.51272,4168.717847,4155.384514,4164.102462,4138.974258,4173.846052,4169.743488,4168.205026,4216.410153,4167.179385,4189.743487,4163.589642,4152.307591,4141.53836
100,0,4103.589643,4168.717847,4161.025539,4168.717847,4149.743488,4179.487077,4169.743488,4171.281949,4218.461435,4169.230667,4204.102461,4157.948616,4153.333232,4153.846052
101,0,4103.589643,4167.692206,4157.948616,4170.256308,4149.743488,4184.102462,4171.79477,4171.281949,4218.974256,4170.256308,4202.564,4152.307591,4159.487078,4161.025539
102,0,4096.410156,4171.281949,4155.384514,4166.666565,4147.692206,4183.589641,4171.281949,4170.256308,4216.410153,4165.640924,4195.897333,4156.410155,4158.974257,4152.820411
103,0,4090.25631,4169.230667,4155.897334,4165.128103,4144.615283,4174.358872,4168.205026,4167.692206,4213.33323,4159.487078,4188.717846,4157.948616,4146.153745,4137.948617
104,0,4091.281951,4166.666565,4155.897334,4167.179385,4141.02554,4169.743488,4167.179385,4163.589642,4211.281948,4158.974257,4183.589641,4151.79477,4138.974258,4136.922976
105,0,4093.846054,4167.692206,4157.948616,4168.205026,4148.717847,4176.922975,4167.692206,4165.128103,4211.281948,4163.076821,4187.179385,4153.333232,4139.999899,4154.358873
106,0,4091.794772,4165.640924,4158.974257,4167.179385,4150.256309,4177.948616,4166.666565,4169.230667,4211.281948,4164.102462,4190.256308,4154.871693,4139.999899,4154.871693
107,0,4089.74349,4166.666565,4157.435796,4168.717847,4141.53836,4171.79477,4165.128103,4171.79477,4210.256307,4165.640924,4193.333231,4152.820411,4147.179386,4138.974258
108,0,4087.692208,4166.153744,4154.358873,4170.769129,4145.640924,4171.79477,4159.999898,4174.358872,4212.82041,4168.205026,4197.948615,4153.846052,4149.743488,4137.948617
109,0,4086.666567,4156.410155,4153.333232,4169.743488,4149.743488,4172.30759,4159.999898,4174.871693,4214.871692,4169.230667,4196.922974,4153.846052,4143.589642,4141.53836
110,0,4089.230669,4154.358873,4157.435796,4170.769129,4141.02554,4174.358872,4168.205026,4176.922975,4214.871692,4169.743488,4188.717846,4155.897334,4142.051181,4138.974258
111,0,4092.307592,4166.153744,4160.512719,4170.769129,4143.076822,4180.512718,4170.769129,4181.538359,4214.358871,4167.692206,4183.589641,4161.53836,4141.53836,4144.102463
112,0,4094.871695,4170.256308,4161.53836,4170.256308,4152.307591,4183.589641,4168.205026,4184.102462,4214.871692,4165.640924,4191.281949,4158.461437,4142.051181,4153.333232
113,0,4097.948618,4169.743488,4166.153744,4170.769129,4155.384514,4183.589641,4170.256308,4186.153744,4215.897333,4169.230667,4203.589641,4149.743488,4152.820411,4157.435796
114,0,4099.487079,4174.358872,4170.256308,4170.769129,4157.948616,4184.102462,4172.820411,4188.717846,4217.948615,4173.333231,4204.102461,4152.307591,4158.461437,4156.410155
115,0,4102.051182,4172.30759,4167.179385,4167.692206,4161.025539,4184.102462,4170.256308,4189.230667,4218.461435,4171.281949,4195.384513,4158.461437,4153.333232,4153.846052
116,0,4107.179387,4168.717847,4164.615283,4166.666565,4159.487078,4185.128103,4172.820411,4194.871692,4217.435794,4169.743488,4197.948615,4157.435796,4158.461437,4158.461437
117,0,4106.153746,4171.281949,4169.230667,4166.666565,4156.410155,4188.205026,4177.435795,4201.538359,4219.487076,4174.358872,4200.512718,4163.589642,4161.025539,4161.53836
118,0,4096.410156,4169.230667,4166.666565,4165.640924,4155.384514,4186.666564,4174.871693,4194.358872,4217.948615,4172.30759,4189.743487,4167.179385,4152.307591,4153.333232
119,0,4090.769131,4167.692206,4155.897334,4167.179385,4156.922975,4185.128103,4170.256308,4184.615282,4208.717846,4163.589642,4183.589641,4155.384514,4154.358873,4151.79477
120,0,4092.307592,4168.717847,4156.410155,4167.692206,4154.358873,4184.102462,4169.743488,4183.589641,4203.589641,4163.076821,4186.153744,4148.205027,4159.999898,4158.974257
121,0,4096.410156,4162.564001,4166.153744,4168.717847,4152.820411,4185.128103,4172.30759,4185.640923,4208.717846,4167.179385,4186.153744,4159.999898,4154.358873,4156.922975
122,0,4096.922977,4162.05118,4169.230667,4168.717847,4162.564001,4188.205026,4175.897334,4185.640923,4213.846051,4168.205026,4184.615282,4168.717847,4151.79477,4154.358873
123,0,4093.333233,4171.281949,4166.153744,4170.256308,4166.153744,4185.640923,4180.512718,4189.743487,4213.846051,4167.179385,4186.666564,4165.128103,4159.999898,4164.102462
124,0,4094.358874,4172.820411,4167.692206,4177.948616,4159.487078,4186.153744,4183.589641,4198.974256,4215.384512,4170.256308,4188.205026,4166.666565,4163.076821,4168.717847
125,0,4104.615284,4167.692206,4172.820411,4179.487077,4165.128103,4191.794769,4183.589641,4202.051179,4218.974256,4171.79477,4186.153744,4171.281949,4164.615283,4167.692206
126,0,4112.820412,4173.333231,4174.871693,4170.256308,4174.358872,4193.333231,4183.076821,4196.922974,4218.974256,4173.846052,4189.230667,4170.769129,4170.769129,4180.512718
127,0,4110.25631,4182.05118,4173.846052,4168.717847,4171.281949,4188.205026,4182.564,4194.358872,4214.871692,4179.999898,4197.948615,4169.230667,4169.230667,4187.179385
128,0,4107.692207,4183.076821,4174.871693,4173.846052,4169.743488,4186.666564,4182.564,4197.435795,4214.358871,4185.640923,4205.128102,4170.256308,4167.179385,4176.922975
0,0,4110.25631,4185.128103,4177.435795,4175.384513,4173.846052,4191.281949,4183.076821,4198.461436,4215.897333,4187.179385,4199.487077,4170.769129,4171.281949,4177.948616
1,0,4112.820412,4181.538359,4174.871693,4174.871693,4176.922975,4197.948615,4187.692205,4199.487077,4217.435794,4181.025539,4188.205026,4170.256308,4165.128103,4184.615282
2,0,4110.25631,4172.30759,4169.743488,4173.333231,4177.948616,4198.461436,4188.205026,4196.410154,4215.897333,4170.769129,4184.615282,4169.743488,4154.871693,4174.358872
3,0,4103.589643,4171.281949,4167.179385,4172.820411,4174.871693,4188.717846,4182.564,4188.717846,4209.230666,4166.153744,4184.615282,4169.230667,4151.28195,4166.666565
4,0,4103.076823,4170.769129,4167.692206,4174.871693,4170.769129,4188.205026,4182.564,4184.615282,4208.205025,4168.717847,4184.615282,4168.205026,4152.307591,4168.205026
5,0,4109.230669,4170.256308,4172.30759,4173.846052,4173.846052,4197.948615,4187.692205,4186.666564,4214.871692,4172.820411,4194.358872,4166.153744,4158.974257,4171.79477
6,0,4104.102464,4176.922975,4174.358872,4172.30759,4181.025539,4193.846051,4186.153744,4192.30759,4216.922974,4172.820411,4200.512718,4173.846052,4159.999898,4180.512718
7,0,4092.307592,4176.410154,4172.30759,4172.30759,4181.025539,4184.615282,4182.05118,4196.922974,4210.769128,4171.79477,4186.666564,4181.025539,4150.769129,4175.384513
8,0,4096.922977,4172.30759,4176.410154,4176.922975,4174.871693,4188.717846,4183.589641,4198.974256,4212.82041,4170.256308,4185.128103,4177.435795,4149.743488,4170.256308
9,0,4110.76913,4182.05118,4185.640923,4183.589641,4173.333231,4197.435795,4187.179385,4198.974256,4217.948615,4171.281949,4195.897333,4178.974257,4158.461437,4184.615282
10,0,4109.743489,4187.179385,4186.666564,4185.128103,4177.435795,4196.410154,4188.205026,4199.487077,4210.256307,4171.281949,4188.205026,4186.666564,4154.871693,4186.153744
11,0,4104.102464,4179.487077,4181.538359,4180.512718,4176.410154,4187.179385,4186.153744,4198.974256,4199.999897,4167.692206,4193.846051,4185.640923,4148.205027,4175.897334
12,0,4111.794771,4185.128103,4186.666564,4184.102462,4173.333231,4185.640923,4184.615282,4200.512718,4206.666564,4173.333231,4217.948615,4183.076821,4163.076821,4186.153744
13,0,4123.076822,4187.692205,4192.82041,4189.743487,4176.410154,4193.846051,4188.717846,4203.07682,4213.846051,4184.102462,4210.769128,4186.153744,4172.30759,4196.410154
14,0,4117.435797,4176.922975,4189.230667,4183.076821,4176.410154,4193.333231,4191.281949,4202.051179,4205.128102,4185.128103,4195.897333,4185.128103,4156.922975,4182.564
15,0,4106.153746,4179.487077,4190.769128,4184.615282,4175.384513,4188.205026,4188.717846,4198.461436,4199.487077,4181.025539,4206.153743,4190.769128,4152.307591,4184.102462
16,0,4113.846053,4189.230667,4197.948615,4195.897333,4185.128103,4197.948615,4193.846051,4201.538359,4213.846051,4186.153744,4216.922974,4199.487077,4171.281949,4203.07682
17,0,4118.974258,4187.692205,4192.30759,4194.358872,4186.153744,4202.051179,4197.948615,4207.692205,4219.487076,4189.743487,4216.922974,4191.794769,4178.461436,4198.974256
18,0,4102.564002,4178.974257,4180.512718,4183.589641,4173.333231,4186.153744,4189.743487,4203.589641,4205.128102,4176.410154,4209.230666,4185.128103,4162.05118,4180.512718
19,0,4093.333233,4181.025539,4182.05118,4184.615282,4174.358872,4184.615282,4186.153744,4198.974256,4203.589641,4167.692206,4199.999897,4189.743487,4151.28195,4175.384513
20,0,4094.871695,4186.153744,4184.102462,4191.794769,4184.615282,4197.948615,4189.743487,4201.538359,4216.410153,4176.922975,4199.487077,4179.487077,4153.846052,4175.897334
21,0,4087.692208,4180.512718,4176.410154,4188.717846,4184.615282,4202.564,4192.30759,4201.538359,4215.897333,4184.615282,4205.640923,4167.692206,4157.435796,4172.820411
22,0,4087.692208,4179.487077,4179.487077,4188.205026,4183.076821,4201.025538,4197.948615,4206.153743,4215.384512,4189.743487,4219.999897,4186.666564,4164.615283,4184.102462
23,0,4102.564002,4186.153744,4191.794769,4198.461436,4184.102462,4199.999897,4201.538359,4215.384512,4226.666563,4199.999897,4233.84605,4201.538359,4182.05118,4202.051179
24,0,4106.153746,4189.743487,4192.30759,4203.589641,4185.128103,4199.487077,4197.435795,4213.33323,4226.153743,4206.666564,4223.58964,4190.769128,4187.692205,4204.615282
25,0,4102.051182,4184.102462,4185.128103,4195.384513,4186.666564,4197.435795,4197.948615,4203.07682,4213.846051,4198.974256,4210.256307,4184.102462,4174.358872,4199.487077
26,0,4104.102464,4178.974257,4185.640923,4191.794769,4186.153744,4196.410154,4197.435795,4199.999897,4214.358871,4189.230667,4219.999897,4185.128103,4170.769129,4198.461436
27,0,4106.153746,4182.564,4187.179385,4199.487077,4184.615282,4197.435795,4193.333231,4199.487077,4214.358871,4187.692205,4221.538358,4183.589641,4172.30759,4197.948615
28,0,4104.615284,4187.692205,4184.102462,4202.051179,4184.102462,4198.461436,4194.871692,4197.435795,4203.07682,4185.128103,4210.769128,4184.615282,4166.153744,4197.435795
29,0,4106.666566,4189.743487,4185.640923,4198.974256,4184.615282,4198.974256,4197.948615,4198.974256,4205.128102,4184.615282,4217.435794,4188.717846,4171.79477,4202.051179
30,0,4109.230669,4188.205026,4187.692205,4203.07682,4189.743487,4201.538359,4199.999897,4207.179384,4216.922974,4191.281949,4230.256307,4189.743487,4183.076821,4205.640923
31,0,4102.051182,4187.179385,4186.153744,4205.128102,4192.82041,4202.564,4201.538359,4214.358871,4216.922974,4195.384513,4228.205025,4183.589641,4179.999898,4202.051179
32,0,4095.384515,4183.076821,4182.564,4191.794769,4184.102462,4198.461436,4199.999897,4211.281948,4212.307589,4183.076821,4214.358871,4184.615282,4168.717847,4197.948615
33,0,4098.974259,4184.615282,4185.128103,4181.538359,4183.589641,4198.974256,4198.974256,4209.230666,4214.871692,4179.999898,4213.846051,4202.051179,4165.640924,4204.102461
34,0,4107.692207,4194.871692,4192.82041,4187.179385,4195.897333,4204.102461,4203.589641,4215.897333,4217.948615,4194.358872,4232.307589,4206.666564,4177.435795,4215.897333
35,0,4103.589643,4194.871692,4192.82041,4194.358872,4195.897333,4205.128102,4206.153743,4217.435794,4215.897333,4194.871692,4236.922973,4187.692205,4187.692205,4214.871692
36,0,4090.769131,4183.589641,4185.640923,4189.230667,4185.128103,4201.025538,4202.051179,4212.82041,4213.33323,4183.076821,4216.922974,4181.025539,4176.922975,4201.538359
37,0,4095.384515,4177.948616,4185.640923,4185.640923,4186.153744,4196.922974,4200.512718,4212.82041,4212.82041,4184.102462,4209.743487,4190.769128,4165.128103,4195.897333
38,0,4110.25631,4188.717846,4188.205026,4190.769128,4197.435795,4201.538359,4203.07682,4214.871692,4214.871692,4189.230667,4226.666563,4188.205026,4170.256308,4198.461436
39,0,4105.640925,4196.922974,4184.615282,4192.82041,4202.051179,4203.589641,4202.051179,4213.33323,4214.871692,4185.640923,4230.769127,4179.487077,4173.333231,4198.974256
40,0,4094.871695,4189.230667,4182.05118,4191.281949,4198.461436,4198.974256,4197.435795,4211.794769,4212.82041,4187.179385,4220.512717,4179.999898,4169.230667,4199.999897
41,0,4101.025541,4186.153744,4184.615282,4196.410154,4199.999897,4206.153743,4200.512718,4213.846051,4213.846051,4196.922974,4225.640922,4183.589641,4169.743488,4199.999897
42,0,4106.666566,4194.358872,4187.692205,4202.051179,4204.102461,4215.384512,4205.640923,4218.461435,4216.922974,4200.512718,4231.794768,4186.666564,4178.461436,4198.974256
43,0,4105.640925,4203.07682,4186.666564,4197.948615,4203.07682,4208.717846,4206.153743,4220.512717,4217.435794,4200.512718,4218.974256,4185.640923,4182.05118,4202.051179
44,0,4106.153746,4198.974256,4184.615282,4193.846051,4197.435795,4203.589641,4206.666564,4221.025538,4214.871692,4199.999897,4218.461435,4184.102462,4174.871693,4202.051179
45,0,4111.794771,4192.82041,4194.871692,4196.922974,4204.615282,4216.410153,4214.871692,4231.281948,4221.538358,4212.307589,4242.051178,4194.358872,4175.384513,4205.640923
46,0,4127.692207,4203.07682,4207.692205,4199.999897,4217.435794,4227.692204,4224.615281,4244.10246,4235.384512,4231.281948,4249.230665,4202.564,4186.153744,4215.384512
47,0,4140.512719,4214.871692,4205.640923,4200.512718,4220.512717,4224.102461,4222.563999,4241.538358,4234.358871,4228.205025,4241.538358,4196.922974,4186.666564,4216.410153
48,0,4137.948617,4206.666564,4197.948615,4197.948615,4214.871692,4218.461435,4215.897333,4230.256307,4221.025538,4214.358871,4247.692204,4193.846051,4182.05118,4213.33323
49,0,4136.922976,4195.897333,4198.974256,4198.974256,4211.794769,4218.974256,4215.384512,4221.538358,4215.897333,4217.948615,4247.179383,4191.794769,4181.538359,4207.179384
50,0,4141.53836,4200.512718,4203.07682,4204.615282,4212.82041,4221.538358,4217.435794,4217.948615,4216.922974,4228.717845,4232.307589,4184.615282,4177.435795,4201.025538
51,0,4137.948617,4205.128102,4201.538359,4204.615282,4211.794769,4220.512717,4215.897333,4223.58964,4215.384512,4230.769127,4236.922973,4189.743487,4172.30759,4209.230666
52,0,4138.974258,4202.564,4202.564,4202.564,4211.794769,4218.461435,4216.410153,4231.281948,4216.410153,4230.769127,4249.230665,4203.07682,4172.820411,4217.948615
53,0,4150.769129,4199.487077,4205.128102,4206.666564,4211.794769,4217.948615,4218.461435,4229.743486,4217.948615,4230.256307,4244.615281,4200.512718,4178.461436,4212.307589
54,0,4154.871693,4200.512718,4205.128102,4207.692205,4207.692205,4217.435794,4219.487076,4230.769127,4216.410153,4228.717845,4239.487076,4195.897333,4181.538359,4210.769128
55,0,4151.28195,4205.640923,4205.128102,4202.564,4200.512718,4218.461435,4217.435794,4230.769127,4214.871692,4228.205025,4245.640922,4197.948615,4177.948616,4218.974256
56,0,4157.948616,4210.256307,4208.717846,4205.640923,4201.025538,4216.922974,4213.33323,4222.051179,4214.358871,4221.025538,4248.717845,4201.025538,4179.999898,4225.640922
57,0,4174.358872,4214.358871,4212.82041,4213.846051,4209.743487,4215.897333,4217.435794,4222.051179,4215.897333,4216.922974,4244.615281,4205.128102,4184.102462,4239.999896
58,0,4182.564,4216.922974,4215.384512,4216.410153,4214.871692,4216.922974,4221.025538,4229.230666,4217.435794,4224.102461,4246.666563,4203.589641,4183.589641,4257.435793
59,0,4184.102462,4213.33323,4218.461435,4214.871692,4213.33323,4217.948615,4217.948615,4228.717845,4215.897333,4230.256307,4256.922973,4203.07682,4191.281949,4269.230665
60,0,4195.897333,4214.871692,4221.025538,4216.410153,4214.871692,4219.999897,4224.615281,4230.769127,4217.435794,4228.205025,4256.410152,4215.384512,4200.512718,4286.666562
61,0,4209.230666,4218.974256,4220.512717,4225.640922,4215.897333,4219.999897,4231.281948,4232.307589,4217.435794,4229.743486,4247.179383,4223.58964,4193.333231,4299.487074
62,0,4205.640923,4216.410153,4218.974256,4229.230666,4208.717846,4216.410153,4220.512717,4222.563999,4209.230666,4229.743486,4248.717845,4216.410153,4189.743487,4296.410151
63,0,4199.487077,4212.82041,4216.410153,4219.487076,4198.461436,4211.794769,4213.33323,4216.410153,4201.025538,4219.999897,4253.333229,4210.256307,4199.999897,4296.922972
64,0,4209.743487,4217.435794,4217.435794,4215.897333,4199.999897,4211.281948,4217.948615,4219.999897,4203.07682,4221.025538,4250.256306,4216.410153,4197.435795,4309.743484
65,0,4219.487076,4222.051179,4224.615281,4225.128102,4209.743487,4212.82041,4217.435794,4220.512717,4204.615282,4230.256307,4246.153742,4223.07682,4187.692205,4311.794766
66,0,4215.384512,4216.922974,4226.153743,4229.743486,4215.384512,4213.33323,4214.358871,4217.948615,4201.538359,4224.102461,4241.538358,4218.461435,4191.281949,4293.846049
67,0,4210.256307,4213.33323,4221.025538,4226.153743,4214.358871,4214.871692,4217.948615,4216.922974,4204.102461,4217.435794,4241.025537,4213.33323,4194.871692,4285.640921
68,0,4204.102461,4218.974256,4217.948615,4222.051179,4213.33323,4213.33323,4217.435794,4217.435794,4211.281948,4225.128102,4243.076819,4214.358871,4188.717846,4283.589639
69,0,4191.281949,4219.487076,4216.922974,4217.948615,4215.384512,4213.846051,4218.461435,4222.563999,4213.846051,4230.769127,4241.538358,4214.871692,4186.666564,4268.717844
70,0,4183.076821,4218.461435,4218.461435,4221.025538,4217.435794,4221.025538,4228.205025,4231.281948,4214.358871,4229.743486,4246.153742,4214.358871,4188.717846,4260.512716
71,0,4189.743487,4230.256307,4228.205025,4230.256307,4218.974256,4232.820409,4235.897332,4237.435794,4217.435794,4233.84605,4255.897332,4216.410153,4195.897333,4265.128101
72,0,4190.256308,4231.794768,4228.205025,4231.281948,4217.948615,4229.743486,4233.33323,4235.384512,4216.922974,4234.358871,4251.281947,4216.410153,4204.615282,4255.897332
73,0,4175.384513,4217.435794,4216.922974,4227.179384,4215.897333,4219.999897,4229.230666,4230.769127,4212.82041,4231.281948,4242.563999,4216.410153,4194.871692,4240.512717
74,0,4166.153744,4217.435794,4217.948615,4229.743486,4222.051179,4218.974256,4230.256307,4230.256307,4214.358871,4232.820409,4249.743486,4217.948615,4185.640923,4239.999896
75,0,4170.769129,4224.615281,4225.640922,4230.256307,4229.743486,4222.051179,4229.230666,4230.256307,4215.897333,4235.897332,4250.769127,4218.461435,4196.922974,4242.051178
76,0,4172.30759,4214.358871,4226.153743,4222.051179,4227.692204,4224.102461,4228.205025,4229.743486,4213.33323,4230.769127,4242.051178,4216.922974,4196.922974,4231.281948
77,0,4164.102462,4210.769128,4226.666563,4213.33323,4230.256307,4231.794768,4232.307589,4238.974255,4214.358871,4227.692204,4244.10246,4213.33323,4188.717846,4224.102461
78,0,4168.717847,4228.205025,4231.794768,4215.384512,4243.58964,4243.076819,4242.563999,4253.84605,4226.153743,4239.487076,4250.256306,4223.58964,4201.538359,4230.769127
79,0,4181.538359,4238.461435,4237.435794,4223.07682,4250.769127,4250.769127,4256.410152,4265.128101,4239.487076,4252.307588,4256.922973,4234.871691,4220.512717,4244.10246
80,0,4178.461436,4233.33323,4236.410153,4221.538358,4248.717845,4252.820409,4259.999896,4266.666562,4239.999896,4251.281947,4269.230665,4223.58964,4218.974256,4243.58964
81,0,4169.230667,4232.820409,4231.281948,4212.307589,4245.128101,4248.717845,4250.256306,4256.410152,4229.743486,4246.666563,4274.35887,4211.794769,4209.743487,4230.256307
82,0,4171.79477,4235.384512,4228.717845,4213.33323,4239.487076,4245.128101,4244.615281,4246.153742,4227.692204,4246.666563,4266.153742,4218.461435,4208.205025,4228.205025
83,0,4174.871693,4230.769127,4230.256307,4212.82041,4232.820409,4244.615281,4247.692204,4244.10246,4229.230666,4249.743486,4257.435793,4221.025538,4213.846051,4231.794768
84,0,4163.076821,4226.666563,4228.717845,4204.615282,4232.820409,4237.435794,4246.666563,4239.999896,4218.974256,4247.692204,4253.84605,4213.33323,4209.230666,4227.179384
85,0,4158.974257,4229.230666,4229.230666,4205.128102,4238.461435,4231.281948,4243.58964,4237.435794,4211.281948,4243.076819,4252.307588,4216.410153,4196.922974,4227.179384
86,0,4168.717847,4231.794768,4233.33323,4209.230666,4242.563999,4235.897332,4246.666563,4245.640922,4218.461435,4245.128101,4261.025537,4221.538358,4200.512718,4231.281948
87,0,4167.692206,4231.794768,4233.33323,4208.717846,4244.10246,4244.615281,4246.666563,4248.717845,4224.615281,4241.538358,4264.10246,4215.897333,4199.487077,4218.461435
88,0,4164.102462,4228.717845,4231.281948,4212.82041,4244.615281,4246.666563,4247.692204,4246.666563,4225.128102,4234.358871,4252.820409,4212.82041,4189.230667,4209.230666
89,0,4174.358872,4229.743486,4233.33323,4217.435794,4246.666563,4249.230665,4256.922973,4256.410152,4236.922973,4244.10246,4255.384511,4216.410153,4197.435795,4226.666563
90,0,4177.435795,4234.871691,4234.871691,4215.897333,4249.743486,4251.794768,4263.589639,4265.640921,4246.153742,4255.897332,4268.205024,4218.461435,4212.82041,4236.922973
91,0,4168.205026,4235.897332,4231.794768,4213.846051,4250.256306,4250.256306,4261.025537,4259.999896,4237.435794,4249.230665,4266.153742,4213.33323,4208.205025,4221.538358
92,0,4167.179385,4232.307589,4230.769127,4215.384512,4245.640922,4248.205024,4255.384511,4251.281947,4229.743486,4244.10246,4261.538357,4209.230666,4204.615282,4215.384512
93,0,4168.717847,4232.307589,4232.820409,4216.922974,4239.487076,4243.076819,4250.769127,4250.256306,4231.281948,4245.640922,4262.051178,4213.846051,4207.692205,4223.07682
94,0,4168.205026,4234.358871,4233.84605,4217.435794,4240.512717,4237.435794,4246.153742,4249.230665,4226.666563,4236.410153,4255.897332,4221.025538,4196.410154,4216.410153
95,0,4170.769129,4231.281948,4232.307589,4215.384512,4244.10246,4240.512717,4247.692204,4246.666563,4219.487076,4233.84605,4253.333229,4217.435794,4192.82041,4209.230666
96,0,4163.076821,4231.281948,4230.769127,4215.384512,4247.179383,4246.153742,4251.281947,4254.871691,4227.692204,4246.153742,4262.051178,4212.307589,4199.487077,4217.435794
97,0,4157.435796,4233.33323,4230.256307,4217.435794,4248.205024,4244.10246,4250.256306,4261.538357,4230.769127,4246.666563,4261.025537,4217.435794,4192.82041,4221.538358
98,0,4162.05118,4229.743486,4229.743486,4214.871692,4242.563999,4239.999896,4247.179383,4251.794768,4217.948615,4232.307589,4254.871691,4217.948615,4185.128103,4214.358871
99,0,4166.666565,4233.33323,4236.410153,4217.435794,4242.051178,4243.58964,4252.820409,4248.205024,4217.948615,4234.358871,4267.692203,4213.846051,4198.461436,4222.563999
100,0,4176.410154,4248.205024,4249.743486,4229.230666,4257.948614,4253.333229,4264.61528,4262.563998,4232.820409,4257.435793,4285.640921,4222.563999,4221.538358,4239.487076
101,0,4189.230667,4253.84605,4256.410152,4235.384512,4269.230665,4262.563998,4267.179383,4270.769126,4238.461435,4267.179383,4283.076818,4231.794768,4224.102461,4244.615281
102,0,4186.666564,4244.615281,4249.230665,4230.256307,4262.051178,4263.076819,4264.61528,4270.769126,4241.538358,4262.563998,4277.435793,4230.769127,4215.897333,4243.58964
103,0,4179.487077,4245.640922,4246.153742,4229.230666,4259.999896,4263.589639,4267.179383,4275.384511,4248.717845,4268.717844,4288.717844,4231.281948,4215.897333,4244.615281
104,0,4184.615282,4262.051178,4256.922973,4234.358871,4276.922972,4266.666562,4273.333229,4277.435793,4251.794768,4278.461434,4294.358869,4235.897332,4219.999897,4247.179383
105,0,4184.102462,4265.640921,4257.948614,4235.897332,4281.538357,4266.153742,4272.307588,4272.820408,4246.153742,4268.717844,4283.589639,4233.33323,4216.410153,4245.640922
106,0,4180.512718,4252.307588,4246.666563,4232.307589,4266.153742,4261.538357,4263.589639,4272.820408,4238.461435,4255.384511,4276.922972,4229.230666,4213.846051,4243.076819
107,0,4185.128103,4250.256306,4250.769127,4230.256307,4265.128101,4261.025537,4266.666562,4276.410152,4237.948614,4258.461434,4277.435793,4235.384512,4215.384512,4243.076819
108,0,4182.564,4261.025537,4264.10246,4231.794768,4277.948613,4269.230665,4276.922972,4278.461434,4246.666563,4266.153742,4282.051177,4233.84605,4214.871692,4244.10246
109,0,4179.999898,4262.051178,4263.589639,4234.871691,4273.333229,4272.307588,4273.846049,4278.461434,4250.256306,4264.61528,4285.1281,4229.743486,4217.435794,4243.076819
110,0,4186.153744,4255.897332,4258.974255,4233.84605,4259.487075,4264.10246,4268.205024,4279.487075,4246.666563,4262.051178,4287.692203,4242.051178,4216.922974,4249.230665
111,0,4186.666564,4256.922973,4262.051178,4234.358871,4263.589639,4262.563998,4273.333229,4281.025536,4249.230665,4264.10246,4293.846049,4244.10246,4216.922974,4254.871691
112,0,4183.076821,4260.512716,4263.076819,4239.487076,4275.384511,4270.769126,4278.461434,4282.563998,4250.256306,4266.153742,4296.410151,4230.769127,4223.07682,4250.256306
113,0,4192.82041,4262.051178,4263.589639,4244.10246,4280.512716,4274.87169,4277.948613,4287.692203,4250.256306,4268.205024,4297.948613,4230.256307,4230.256307,4254.35887
114,0,4199.487077,4261.025537,4264.61528,4244.615281,4280.512716,4275.897331,4277.948613,4293.333228,4256.410152,4273.846049,4302.051177,4238.461435,4230.769127,4266.153742
115,0,4192.82041,4258.974255,4263.589639,4238.461435,4279.487075,4274.35887,4281.025536,4291.794767,4255.384511,4277.948613,4298.974254,4237.948614,4230.256307,4266.153742
116,0,4194.871692,4262.563998,4262.563998,4233.84605,4279.487075,4267.179383,4277.948613,4284.61528,4247.692204,4274.87169,4283.076818,4243.076819,4233.84605,4255.384511
117,0,4198.461436,4264.61528,4262.563998,4237.948614,4274.87169,4262.051178,4268.205024,4278.974254,4246.666563,4267.179383,4277.948613,4244.615281,4227.179384,4247.692204
118,0,4193.333231,4262.051178,4260.512716,4244.10246,4265.640921,4258.974255,4261.025537,4277.948613,4246.153742,4262.563998,4290.256305,4233.84605,4218.461435,4250.256306
119,0,4191.281949,4261.538357,4260.512716,4244.10246,4263.076819,4255.384511,4263.076819,4277.948613,4238.974255,4259.999896,4291.794767,4234.358871,4218.974256,4257.948614
120,0,4192.82041,4261.025537,4261.538357,4238.461435,4266.666562,4256.922973,4264.61528,4275.897331,4234.358871,4253.84605,4282.051177,4234.358871,4221.025538,4252.820409
121,0,4188.205026,4252.820409,4256.410152,4233.84605,4266.666562,4263.076819,4263.076819,4274.87169,4232.820409,4246.153742,4279.999895,4222.563999,4217.435794,4238.461435
122,0,4183.076821,4245.640922,4247.179383,4231.794768,4265.640921,4264.10246,4263.589639,4275.897331,4233.33323,4246.153742,4276.410152,4220.512717,4212.307589,4230.769127
123,0,4184.102462,4251.281947,4249.743486,4233.33323,4267.692203,4262.051178,4263.589639,4276.410152,4238.461435,4253.333229,4266.666562,4229.230666,4214.358871,4233.84605
124,0,4189.230667,4258.461434,4260.512716,4235.897332,4268.205024,4259.487075,4264.61528,4279.487075,4245.640922,4263.076819,4281.025536,4232.307589,4227.692204,4247.179383
125,0,4188.205026,4251.794768,4258.461434,4234.358871,4258.974255,4253.333229,4265.128101,4278.974254,4243.58964,4264.61528,4295.897331,4230.769127,4235.384512,4254.35887
126,0,4184.615282,4244.10246,4251.794768,4232.307589,4251.794768,4247.179383,4261.538357,4268.205024,4231.794768,4250.769127,4272.307588,4226.153743,4216.410153,4241.025537
127,0,4191.794769,4250.769127,4257.435793,4238.461435,4256.410152,4246.153742,4258.974255,4259.999896,4226.666563,4242.563999,4255.384511,4229.743486,4199.999897,4234.358871
128,0,4204.102461,4263.076819,4267.179383,4245.640922,4265.640921,4253.84605,4261.538357,4268.717844,4234.358871,4255.897332,4272.307588,4245.640922,4217.435794,4256.922973
0,0,4203.589641,4266.666562,4267.692203,4245.640922,4271.794767,4262.563998,4265.640921,4278.974254,4238.461435,4266.666562,4285.1281,4247.179383,4230.256307,4272.820408
1,0,4193.333231,4257.435793,4262.563998,4242.051178,4275.897331,4263.589639,4264.10246,4270.769126,4232.307589,4258.461434,4279.487075,4232.307589,4222.051179,4255.384511
2,0,4186.666564,4252.307588,4260.512716,4242.563999,4275.384511,4261.025537,4263.076819,4264.10246,4228.717845,4253.333229,4276.410152,4230.256307,4223.07682,4243.58964
3,0,4191.281949,4261.538357,4261.538357,4244.615281,4269.743485,4259.999896,4266.666562,4273.333229,4232.820409,4261.025537,4281.025536,4236.410153,4229.743486,4256.410152
4,0,4199.487077,4267.692203,4262.051178,4246.153742,4269.230665,4260.512716,4265.640921,4278.974254,4238.974255,4259.999896,4281.538357,4235.384512,4225.128102,4263.076819
5,0,4198.974256,4264.61528,4261.538357,4246.666563,4275.384511,4262.051178,4263.589639,4275.384511,4243.58964,4255.897332,4280.512716,4233.33323,4225.640922,4258.974255
6,0,4198.461436,4265.128101,4261.025537,4247.692204,4278.461434,4265.128101,4268.717844,4276.410152,4245.128101,4260.512716,4281.538357,4230.769127,4235.384512,4259.999896
7,0,4207.692205,4268.717844,4267.179383,4249.743486,4278.974254,4264.61528,4273.846049,4280.512716,4245.640922,4265.640921,4281.025536,4237.435794,4232.307589,4261.538357
8,0,4215.384512,4271.281947,4276.410152,4249.230665,4279.487075,4264.10246,4274.35887,4279.999895,4248.717845,4270.769126,4281.538357,4250.256306,4230.769127,4267.179383
9,0,4212.307589,4277.435793,4276.922972,4251.281947,4279.487075,4267.179383,4278.461434,4278.974254,4250.769127,4273.333229,4283.076818,4247.692204,4239.487076,4273.846049
10,0,4206.666564,4277.948613,4268.717844,4256.410152,4279.487075,4268.717844,4279.999895,4278.461434,4249.743486,4266.666562,4279.999895,4242.563999,4237.948614,4267.692203
11,0,4203.589641,4270.769126,4262.563998,4253.84605,4281.538357,4264.61528,4271.281947,4278.461434,4245.640922,4261.025537,4276.922972,4245.640922,4231.281948,4262.051178
12,0,4201.538359,4264.61528,4268.205024,4248.205024,4279.487075,4260.512716,4264.10246,4275.384511,4236.922973,4264.10246,4280.512716,4246.153742,4231.281948,4267.179383
13,0,4199.999897,4266.666562,4273.333229,4248.205024,4276.922972,4261.538357,4267.179383,4271.281947,4230.769127,4257.435793,4276.922972,4244.10246,4228.717845,4264.61528
14,0,4199.487077,4266.666562,4268.205024,4253.333229,4279.487075,4264.10246,4274.87169,4275.897331,4232.820409,4250.769127,4275.384511,4244.615281,4225.640922,4262.563998
15,0,4197.948615,4261.538357,4263.076819,4254.871691,4282.051177,4265.640921,4279.487075,4281.025536,4233.84605,4254.871691,4277.948613,4238.461435,4225.128102,4266.153742
16,0,4194.871692,4261.538357,4265.640921,4250.769127,4281.025536,4265.640921,4276.922972,4276.922972,4229.230666,4251.794768,4268.717844,4229.743486,4223.58964,4259.999896
17,0,4196.922974,4266.153742,4266.666562,4249.743486,4274.35887,4263.589639,4273.846049,4273.333229,4228.717845,4252.307588,4266.153742,4238.461435,4227.692204,4257.435793
18,0,4199.999897,4263.589639,4263.076819,4250.769127,4268.717844,4263.076819,4276.410152,4276.922972,4232.820409,4262.051178,4276.922972,4246.153742,4229.230666,4261.025537
19,0,4200.512718,4258.461434,4262.051178,4250.769127,4266.666562,4262.563998,4277.435793,4275.897331,4232.820409,4264.10246,4269.743485,4237.435794,4218.974256,4254.35887
20,0,4206.666564,4260.512716,4266.153742,4255.897332,4268.717844,4261.538357,4275.897331,4273.846049,4231.794768,4261.538357,4259.487075,4232.820409,4213.846051,4253.333229
21,0,4215.897333,4263.076819,4272.820408,4263.589639,4269.743485,4261.025537,4273.846049,4276.922972,4233.84605,4267.692203,4274.35887,4245.640922,4219.487076,4272.820408
22,0,4218.974256,4262.051178,4275.384511,4258.974255,4266.153742,4260.512716,4268.717844,4272.820408,4230.256307,4268.205024,4279.487075,4249.230665,4220.512717,4276.922972
23,0,4216.410153,4261.538357,4271.794767,4252.307588,4265.128101,4258.974255,4263.589639,4263.076819,4224.102461,4261.538357,4265.128101,4237.435794,4215.897333,4257.948614
24,0,4216.410153,4257.948614,4274.35887,4259.487075,4266.666562,4258.974255,4264.10246,4262.051178,4224.102461,4261.538357,4263.589639,4237.435794,4213.846051,4256.922973
25,0,4217.948615,4259.999896,4276.410152,4261.538357,4265.640921,4262.051178,4266.153742,4265.640921,4227.179384,4262.051178,4267.179383,4242.563999,4214.871692,4263.076819
26,0,4217.435794,4261.538357,4269.230665,4252.307588,4264.10246,4257.435793,4265.128101,4262.563998,4221.538358,4260.512716,4263.589639,4233.33323,4214.871692,4252.820409
27,0,4217.948615,4250.769127,4265.128101,4249.743486,4266.153742,4250.256306,4266.153742,4263.589639,4216.410153,4264.10246,4264.61528,4227.692204,4214.358871,4250.256306
28,0,4217.435794,4248.717845,4270.256306,4251.794768,4265.128101,4254.871691,4270.769126,4273.333229,4223.07682,4266.666562,4263.076819,4243.076819,4210.769128,4263.076819
29,0,4218.974256,4264.61528,4273.846049,4249.743486,4262.051178,4262.051178,4275.897331,4275.384511,4230.769127,4264.10246,4257.948614,4251.794768,4207.179384,4260.512716
30,0,4223.07682,4269.230665,4274.35887,4252.307588,4271.281947,4259.487075,4276.922972,4270.769126,4229.743486,4262.051178,4264.10246,4239.487076,4212.82041,4250.256306
31,0,4233.33323,4265.128101,4277.948613,4262.563998,4282.051177,4260.512716,4278.461434,4276.410152,4231.281948,4273.846049,4281.025536,4241.025537,4228.205025,4264.61528
32,0,4231.794768,4269.230665,4281.025536,4259.487075,4275.897331,4265.640921,4279.999895,4282.563998,4237.948614,4284.61528,4283.076818,4251.794768,4235.384512,4276.922972
33,0,4217.948615,4267.692203,4275.897331,4246.666563,4261.538357,4259.999896,4275.897331,4274.87169,4231.794768,4272.820408,4267.692203,4248.717845,4228.717845,4268.717844
34,0,4222.563999,4261.025537,4274.35887,4252.820409,4263.589639,4255.897332,4273.846049,4270.769126,4221.538358,4265.640921,4268.205024,4242.051178,4225.128102,4268.717844
35,0,4233.84605,4265.128101,4277.948613,4261.538357,4276.922972,4263.076819,4277.948613,4279.487075,4229.230666,4281.538357,4288.205023,4247.692204,4228.205025,4279.999895
36,0,4223.58964,4266.153742,4278.461434,4253.333229,4281.025536,4266.666562,4279.999895,4283.589639,4235.897332,4288.205023,4288.717844,4250.769127,4232.820409,4281.025536
37,0,4218.461435,4259.999896,4276.410152,4250.769127,4274.35887,4257.435793,4272.307588,4273.333229,4224.102461,4275.384511,4266.666562,4246.153742,4228.717845,4269.230665
38,0,4229.743486,4261.025537,4273.333229,4263.076819,4271.281947,4247.179383,4263.589639,4264.10246,4215.897333,4267.692203,4259.487075,4244.615281,4218.461435,4263.076819
39,0,4226.666563,4266.666562,4266.666562,4261.025537,4273.846049,4252.820409,4267.692203,4269.230665,4225.640922,4275.384511,4274.35887,4246.153742,4216.922974,4263.076819
40,0,4214.871692,4265.128101,4262.051178,4250.256306,4274.35887,4263.076819,4274.87169,4272.820408,4232.820409,4279.999895,4281.025536,4247.179383,4221.025538,4264.61528
41,0,4215.897333,4262.051178,4263.076819,4253.333229,4271.794767,4258.974255,4267.692203,4266.153742,4230.256307,4272.820408,4270.769126,4244.10246,4227.179384,4262.051178
42,0,4216.410153,4262.051178,4262.563998,4259.487075,4272.820408,4249.230665,4261.025537,4263.076819,4227.179384,4267.692203,4263.589639,4242.051178,4230.256307,4260.512716
43,0,4220.512717,4267.179383,4263.076819,4261.538357,4277.948613,4253.84605,4269.743485,4272.307588,4230.256307,4275.897331,4278.461434,4245.640922,4232.307589,4271.281947
44,0,4228.717845,4275.384511,4270.256306,4263.589639,4281.025536,4264.61528,4276.922972,4277.948613,4232.820409,4278.461434,4285.1281,4246.153742,4232.820409,4275.897331
45,0,4227.179384,4274.87169,4273.333229,4264.10246,4283.076818,4264.61528,4274.87169,4274.35887,4229.230666,4267.179383,4267.692203,4243.58964,4229.230666,4265.128101
46,0,4225.128102,4269.230665,4271.281947,4263.076819,4281.025536,4259.487075,4272.307588,4273.333229,4224.615281,4262.563998,4264.10246,4245.640922,4224.615281,4258.461434
47,0,4230.256307,4273.333229,4273.333229,4262.051178,4275.897331,4261.025537,4274.87169,4279.999895,4229.743486,4272.307588,4277.948613,4245.640922,4227.692204,4266.666562
48,0,4233.84605,4274.87169,4277.948613,4264.10246,4281.025536,4266.666562,4279.999895,4284.102459,4236.922973,4281.025536,4274.87169,4247.692204,4234.871691,4272.820408
49,0,4231.281948,4263.076819,4273.846049,4263.076819,4287.179382,4266.153742,4278.461434,4278.974254,4231.794768,4273.846049,4258.974255,4248.717845,4231.281948,4265.640921
50,0,4224.102461,4263.589639,4266.666562,4261.025537,4284.102459,4263.589639,4276.922972,4275.384511,4228.205025,4263.076819,4261.025537,4235.897332,4227.692204,4262.051178
51,0,4218.974256,4274.87169,4266.153742,4261.538357,4280.512716,4263.076819,4278.461434,4279.487075,4232.307589,4261.538357,4260.512716,4234.871691,4226.666563,4265.128101
52,0,4217.435794,4271.281947,4264.61528,4262.051178,4281.025536,4262.051178,4270.769126,4276.922972,4229.230666,4262.563998,4253.84605,4251.281947,4221.538358,4262.563998
53,0,4217.435794,4264.10246,4261.538357,4260.512716,4277.948613,4259.999896,4265.128101,4270.256306,4223.07682,4263.589639,4267.692203,4243.58964,4229.743486,4261.025537
54,0,4219.487076,4266.666562,4267.179383,4258.974255,4276.410152,4259.999896,4272.307588,4274.87169,4226.153743,4265.128101,4276.410152,4228.717845,4239.487076,4272.307588
55,0,4222.563999,4268.205024,4272.820408,4259.999896,4278.974254,4262.051178,4277.948613,4283.076818,4231.794768,4264.61528,4265.640921,4243.076819,4225.640922,4274.87169
56,0,4216.922974,4266.153742,4267.179383,4258.461434,4278.974254,4262.563998,4277.948613,4279.999895,4230.769127,4266.153742,4258.461434,4247.692204,4217.435794,4261.538357
57,0,4209.743487,4262.051178,4263.076819,4254.871691,4276.922972,4260.512716,4273.333229,4273.846049,4230.256307,4267.692203,4252.820409,4237.435794,4230.769127,4253.84605
58,0,4213.846051,4262.051178,4274.35887,4257.435793,4275.897331,4258.461434,4267.179383,4273.846049,4233.33323,4262.563998,4251.281947,4246.666563,4234.358871,4263.076819
59,0,4219.487076,4267.179383,4279.999895,4263.589639,4276.922972,4257.948614,4269.230665,4275.897331,4232.307589,4261.538357,4264.61528,4246.666563,4229.230666,4267.692203
60,0,4215.384512,4268.205024,4268.205024,4261.025537,4275.897331,4257.948614,4272.820408,4278.461434,4229.743486,4273.846049,4267.692203,4233.33323,4234.358871,4262.051178
61,0,4213.33323,4267.692203,4266.153742,4256.922973,4275.384511,4258.461434,4270.256306,4277.435793,4232.307589,4277.948613,4256.922973,4241.025537,4237.948614,4268.205024
62,0,4224.615281,4269.743485,4277.435793,4261.538357,4276.410152,4259.487075,4269.230665,4270.769126,4231.794768,4267.692203,4258.974255,4252.307588,4229.230666,4278.461434
63,0,4232.307589,4268.205024,4273.846049,4264.61528,4269.743485,4252.820409,4266.666562,4263.589639,4223.07682,4259.999896,4259.487075,4246.666563,4222.051179,4269.230665
64,0,4226.666563,4265.640921,4261.538357,4258.461434,4261.025537,4245.640922,4258.974255,4262.563998,4218.461435,4258.974255,4253.333229,4240.512717,4221.025538,4255.897332
65,0,4225.128102,4265.640921,4267.179383,4255.897332,4266.666562,4253.84605,4265.640921,4271.281947,4227.179384,4264.61528,4256.410152,4244.615281,4224.615281,4268.205024
66,0,4227.692204,4260.512716,4278.974254,4262.051178,4278.974254,4262.563998,4275.897331,4277.948613,4232.820409,4270.769126,4259.999896,4255.897332,4229.230666,4283.589639
67,0,4223.07682,4261.538357,4276.410152,4265.128101,4277.435793,4254.871691,4269.743485,4271.281947,4229.743486,4267.692203,4255.897332,4256.922973,4230.256307,4274.87169
68,0,4218.974256,4274.35887,4271.794767,4260.512716,4272.307588,4247.692204,4262.051178,4264.10246,4229.743486,4264.10246,4250.256306,4240.512717,4231.794768,4258.974255
69,0,4219.487076,4276.410152,4275.897331,4258.974255,4277.435793,4249.743486,4265.128101,4266.153742,4234.358871,4266.153742,4250.769127,4236.410153,4232.820409,4264.61528
70,0,4214.871692,4267.692203,4274.87169,4262.051178,4276.410152,4248.205024,4268.205024,4267.692203,4231.794768,4267.692203,4248.717845,4250.769127,4232.820409,4275.897331
71,0,4210.769128,4264.10246,4268.717844,4259.999896,4268.205024,4244.615281,4265.640921,4265.128101,4228.717845,4266.153742,4246.153742,4253.84605,4230.769127,4269.743485
72,0,4214.871692,4264.61528,4270.769126,4257.435793,4266.666562,4246.666563,4263.589639,4262.563998,4228.717845,4262.051178,4250.769127,4242.051178,4231.794768,4263.076819
73,0,4217.948615,4262.563998,4270.769126,4259.487075,4267.179383,4246.666563,4261.538357,4260.512716,4222.563999,4261.538357,4248.717845,4242.051178,4233.84605,4271.281947
74,0,4218.974256,4263.589639,4263.076819,4255.897332,4265.640921,4246.153742,4261.025537,4256.410152,4217.435794,4262.051178,4238.461435,4248.205024,4231.794768,4279.999895
75,0,4214.358871,4265.128101,4262.051178,4247.179383,4265.128101,4247.692204,4259.999896,4250.769127,4217.435794,4252.820409,4231.794768,4239.999896,4222.563999,4273.333229
76,0,4202.564,4263.589639,4261.025537,4246.153742,4261.025537,4243.58964,4256.922973,4248.205024,4215.384512,4246.666563,4226.153743,4230.769127,4214.358871,4258.461434
77,0,4206.153743,4272.307588,4265.128101,4256.922973,4266.153742,4244.615281,4262.051178,4258.461434,4223.07682,4264.10246,4239.487076,4240.512717,4227.179384,4263.589639
78,0,4231.281948,4286.153741,4284.102459,4270.769126,4284.61528,4259.999896,4276.922972,4277.948613,4241.025537,4282.563998,4265.128101,4257.948614,4250.769127,4290.256305
79,0,4235.384512,4284.61528,4291.281946,4272.307588,4287.179382,4266.153742,4279.487075,4282.563998,4242.563999,4279.487075,4260.512716,4263.076819,4255.384511,4297.948613
80,0,4215.384512,4275.384511,4276.922972,4263.589639,4276.922972,4253.333229,4265.128101,4268.717844,4230.769127,4270.256306,4239.999896,4254.871691,4240.512717,4278.974254
81,0,4211.794769,4276.922972,4274.87169,4260.512716,4277.948613,4246.153742,4262.051178,4261.538357,4230.256307,4268.717844,4243.58964,4243.58964,4238.974255,4274.87169
82,0,4219.999897,4281.538357,4280.512716,4265.128101,4278.974254,4252.820409,4274.35887,4267.179383,4233.33323,4266.666562,4251.281947,4244.10246,4246.666563,4286.666562
83,0,4222.051179,4275.384511,4279.999895,4267.692203,4274.87169,4254.35887,4273.846049,4267.692203,4231.794768,4263.589639,4243.58964,4254.871691,4244.615281,4293.333228
84,0,4233.33323,4273.333229,4286.666562,4267.179383,4276.922972,4248.717845,4264.10246,4265.128101,4230.769127,4268.717844,4245.128101,4258.461434,4249.743486,4305.1281
85,0,4249.743486,4279.487075,4295.897331,4265.640921,4275.384511,4247.692204,4263.076819,4267.179383,4231.794768,4273.846049,4257.948614,4263.076819,4262.051178,4331.794766
86,0,4256.922973,4282.051177,4294.87169,4262.563998,4267.692203,4248.205024,4264.61528,4266.153742,4230.256307,4267.692203,4261.538357,4270.256306,4262.563998,4353.846047
87,0,4264.10246,4280.512716,4291.281946,4264.10246,4264.10246,4245.640922,4262.563998,4263.076819,4225.128102,4260.512716,4251.794768,4266.666562,4257.948614,4361.538355
88,0,4271.794767,4280.512716,4294.87169,4271.794767,4266.666562,4243.076819,4262.563998,4264.10246,4225.640922,4267.692203,4249.230665,4261.025537,4264.61528,4369.743483
89,0,4270.256306,4283.076818,4294.87169,4263.589639,4269.743485,4242.563999,4262.051178,4257.435793,4227.179384,4268.205024,4250.769127,4263.589639,4264.10246,4375.384508
90,0,4264.10246,4277.948613,4286.666562,4233.33323,4270.256306,4243.076819,4261.025537,4250.769127,4222.563999,4254.35887,4236.410153,4266.153742,4253.84605,4374.358867
91,0,4255.897332,4269.743485,4278.974254,4211.794769,4266.666562,4245.128101,4262.563998,4252.820409,4220.512717,4250.256306,4229.230666,4262.051178,4247.692204,4371.281944
92,0,4247.692204,4273.333229,4278.974254,4214.871692,4264.10246,4247.692204,4263.076819,4254.871691,4227.179384,4256.922973,4242.563999,4261.025537,4241.025537,4364.102457
93,0,4244.615281,4281.025536,4285.1281,4218.461435,4266.666562,4247.179383,4262.563998,4256.922973,4231.794768,4264.61528,4248.205024,4264.61528,4249.743486,4355.384509
94,0,4245.128101,4280.512716,4291.281946,4218.461435,4266.153742,4247.179383,4264.61528,4264.10246,4233.33323,4274.87169,4244.615281,4266.666562,4268.717844,4352.820406
95,0,4235.384512,4276.410152,4290.769126,4218.461435,4263.076819,4249.230665,4265.640921,4267.179383,4235.384512,4282.051177,4249.230665,4261.538357,4260.512716,4336.922971
96,0,4219.999897,4276.410152,4282.051177,4215.384512,4268.717844,4249.230665,4265.128101,4264.61528,4233.84605,4279.487075,4251.281947,4250.769127,4239.999896,4310.769125
97,0,4219.999897,4270.256306,4278.461434,4215.897333,4277.435793,4248.717845,4264.61528,4264.10246,4231.281948,4272.820408,4248.205024,4246.153742,4245.128101,4313.333228
98,0,4220.512717,4266.153742,4283.589639,4221.025538,4278.461434,4248.717845,4264.10246,4265.128101,4233.33323,4270.256306,4247.179383,4249.743486,4252.820409,4318.461433
99,0,4205.128102,4273.333229,4281.538357,4219.487076,4275.384511,4248.205024,4262.563998,4264.61528,4232.820409,4266.153742,4237.435794,4249.743486,4239.487076,4290.256305
100,0,4193.333231,4276.410152,4274.87169,4217.435794,4273.846049,4244.10246,4260.512716,4262.051178,4229.743486,4259.999896,4226.666563,4242.563999,4227.692204,4268.717844
101,0,4200.512718,4273.846049,4275.897331,4219.487076,4276.922972,4241.538358,4261.538357,4260.512716,4228.717845,4261.025537,4222.051179,4242.051178,4231.794768,4277.948613
102,0,4201.538359,4274.35887,4274.87169,4221.025538,4277.435793,4254.35887,4264.61528,4263.589639,4231.794768,4264.10246,4212.307589,4248.717845,4238.461435,4279.999895
103,0,4187.692205,4267.692203,4265.640921,4219.999897,4266.666562,4263.076819,4262.051178,4263.076819,4231.281948,4256.410152,4207.692205,4244.10246,4232.820409,4267.692203
104,0,4184.102462,4265.128101,4264.61528,4216.922974,4263.589639,4253.84605,4259.999896,4260.512716,4228.717845,4251.794768,4216.410153,4231.794768,4222.563999,4262.051178
105,0,4194.358872,4273.846049,4274.87169,4214.871692,4274.87169,4250.769127,4268.205024,4265.128101,4231.281948,4261.025537,4218.974256,4230.769127,4230.769127,4261.025537
106,0,4204.615282,4274.87169,4280.512716,4221.538358,4281.538357,4255.384511,4273.333229,4267.179383,4236.410153,4267.692203,4217.435794,4242.563999,4244.10246,4268.205024
107,0,4205.640923,4272.307588,4279.487075,4229.230666,4279.487075,4251.281947,4266.153742,4264.61528,4235.384512,4261.025537,4221.538358,4247.179383,4242.563999,4278.974254
108,0,4201.538359,4276.410152,4275.897331,4228.205025,4279.487075,4243.076819,4259.487075,4262.051178,4233.33323,4250.256306,4206.666564,4244.615281,4235.384512,4271.794767
109,0,4194.358872,4270.769126,4268.717844,4221.538358,4277.948613,4235.897332,4258.461434,4253.84605,4230.256307,4243.58964,4191.281949,4234.871691,4227.692204,4249.743486
110,0,4185.128103,4264.10246,4261.025537,4218.461435,4275.897331,4230.769127,4259.999896,4246.153742,4221.538358,4244.615281,4204.615282,4218.974256,4222.563999,4241.025537
111,0,4184.615282,4274.87169,4263.589639,4223.58964,4275.384511,4232.307589,4261.538357,4249.743486,4217.948615,4246.666563,4218.974256,4219.999897,4228.205025,4253.333229
112,0,4193.333231,4280.512716,4273.333229,4232.307589,4275.384511,4231.281948,4261.538357,4253.333229,4219.999897,4244.615281,4213.33323,4234.358871,4232.820409,4263.076819
113,0,4199.999897,4273.333229,4275.384511,4233.84605,4277.435793,4226.153743,4258.974255,4249.230665,4219.487076,4246.153742,4205.640923,4235.897332,4229.230666,4254.871691
114,0,4196.922974,4266.153742,4267.692203,4228.717845,4274.35887,4229.743486,4256.922973,4246.666563,4215.384512,4248.205024,4201.538359,4227.692204,4226.666563,4245.128101
115,0,4193.333231,4261.025537,4263.589639,4228.205025,4266.153742,4229.743486,4252.820409,4246.153742,4215.384512,4248.717845,4196.922974,4227.179384,4224.102461,4242.563999
116,0,4196.922974,4261.025537,4265.640921,4227.179384,4262.051178,4218.974256,4248.717845,4243.076819,4216.410153,4247.179383,4197.435795,4229.230666,4215.897333,4238.974255
117,0,4198.461436,4263.589639,4266.153742,4222.051179,4264.10246,4216.922974,4253.333229,4243.076819,4215.897333,4245.640922,4199.999897,4230.256307,4217.435794,4239.999896
118,0,4199.999897,4263.589639,4265.640921,4224.102461,4268.717844,4225.640922,4260.512716,4246.666563,4216.922974,4253.333229,4199.999897,4229.743486,4221.025538,4247.179383
119,0,4208.205025,4262.563998,4270.769126,4229.230666,4268.717844,4229.743486,4262.563998,4248.205024,4216.922974,4263.589639,4195.897333,4226.666563,4215.897333,4249.230665
120,0,4214.871692,4265.640921,4275.384511,4228.205025,4263.589639,4229.743486,4260.512716,4247.692204,4217.435794,4264.61528,4192.82041,4227.179384,4215.384512,4246.153742
121,0,4215.384512,4271.281947,4271.794767,4229.743486,4263.076819,4227.692204,4255.384511,4247.179383,4218.974256,4261.538357,4193.846051,4230.256307,4224.615281,4245.128101
122,0,4217.435794,4269.230665,4265.640921,4233.33323,4265.640921,4222.051179,4250.769127,4249.230665,4219.487076,4265.128101,4195.384513,4231.794768,4225.128102,4246.666563
123,0,4218.461435,4261.538357,4263.589639,4217.948615,4263.076819,4218.974256,4248.205024,4245.640922,4216.922974,4266.666562,4196.922974,4226.153743,4215.897333,4244.10246
124,0,4213.33323,4262.051178,4262.563998,4203.589641,4259.999896,4220.512717,4247.179383,4238.974255,4217.435794,4262.563998,4195.897333,4212.82041,4216.922974,4236.922973
125,0,4216.922974,4267.692203,4262.051178,4210.769128,4262.563998,4218.974256,4245.128101,4236.922973,4220.512717,4263.589639,4188.717846,4214.358871,4223.07682,4233.84605
126,0,4222.051179,4266.666562,4263.076819,4211.281948,4264.61528,4216.410153,4245.128101,4234.871691,4214.871692,4263.076819,4185.640923,4228.205025,4216.410153,4235.897332
127,0,4216.922974,4263.589639,4262.051178,4201.538359,4259.999896,4216.922974,4246.666563,4238.461435,4209.230666,4257.435793,4193.333231,4225.128102,4212.307589,4239.487076
128,0,4219.999897,4265.128101,4262.051178,4208.205025,4257.948614,4216.922974,4246.153742,4242.563999,4211.794769,4257.435793,4202.051179,4213.846051,4218.461435,4246.666563
0,0,4230.769127,4273.846049,4265.640921,4218.974256,4263.589639,4216.410153,4245.640922,4236.410153,4214.358871,4258.974255,4199.999897,4220.512717,4218.461435,4246.153742
1,0,4237.948614,4278.461434,4268.205024,4217.435794,4267.179383,4218.461435,4247.179383,4234.358871,4214.358871,4259.487075,4196.922974,4231.794768,4218.974256,4245.640922
2,0,4236.410153,4265.640921,4267.179383,4213.33323,4263.076819,4219.487076,4248.205024,4239.999896,4215.897333,4262.563998,4200.512718,4230.769127,4222.563999,4252.820409
3,0,4225.128102,4256.410152,4261.025537,4207.692205,4259.487075,4219.487076,4246.666563,4240.512717,4217.948615,4264.61528,4201.538359,4219.999897,4222.051179,4251.281947
4,0,4214.871692,4263.589639,4258.461434,4204.102461,4259.487075,4219.999897,4245.640922,4238.461435,4218.974256,4262.051178,4198.974256,4216.410153,4220.512717,4244.10246
5,0,4217.948615,4269.230665,4258.974255,4209.230666,4257.948614,4218.461435,4244.10246,4236.410153,4218.974256,4259.999896,4203.589641,4225.128102,4223.58964,4247.692204
6,0,4219.487076,4264.61528,4252.307588,4206.666564,4259.487075,4215.897333,4243.076819,4232.307589,4215.897333,4259.999896,4202.051179,4230.256307,4219.999897,4242.051178
7,0,4213.33323,4259.487075,4246.153742,4198.974256,4261.025537,4216.922974,4243.58964,4231.281948,4215.897333,4259.999896,4195.384513,4218.974256,4212.307589,4226.153743
8,0,4217.948615,4260.512716,4253.333229,4207.179384,4260.512716,4218.974256,4245.640922,4233.33323,4218.974256,4261.025537,4196.922974,4213.33323,4215.384512,4229.743486
9,0,4231.281948,4264.10246,4263.076819,4216.922974,4262.051178,4218.974256,4246.153742,4237.948614,4221.025538,4262.563998,4196.922974,4225.128102,4219.487076,4243.076819
10,0,4230.256307,4260.512716,4262.051178,4212.82041,4262.051178,4217.435794,4245.128101,4242.051178,4221.025538,4263.589639,4192.82041,4226.153743,4215.897333,4236.410153
11,0,4219.487076,4258.974255,4257.948614,4209.743487,4258.461434,4217.948615,4245.128101,4237.948614,4221.025538,4261.025537,4195.897333,4214.871692,4214.358871,4228.205025
12,0,4223.07682,4268.205024,4259.999896,4214.358871,4261.538357,4217.948615,4246.153742,4231.794768,4222.563999,4259.999896,4198.461436,4218.461435,4216.410153,4241.538358
13,0,4232.820409,4270.769126,4263.076819,4216.410153,4262.563998,4216.922974,4245.128101,4233.33323,4221.538358,4259.999896,4195.897333,4234.358871,4219.999897,4252.307588
14,0,4225.640922,4261.538357,4263.589639,4213.846051,4253.84605,4217.435794,4242.563999,4231.794768,4216.410153,4254.35887,4197.435795,4233.33323,4219.999897,4249.743486
15,0,4214.358871,4259.999896,4258.461434,4211.281948,4251.794768,4215.384512,4242.051178,4228.205025,4213.846051,4248.717845,4198.974256,4218.461435,4216.922974,4243.076819
16,0,4213.33323,4258.974255,4249.230665,4211.794769,4259.999896,4215.384512,4245.128101,4233.33323,4214.871692,4248.717845,4195.897333,4214.358871,4213.846051,4234.871691
17,0,4218.461435,4256.922973,4249.743486,4214.358871,4264.61528,4224.102461,4246.153742,4238.461435,4217.948615,4253.333229,4197.435795,4223.58964,4216.410153,4239.487076
18,0,4229.230666,4268.717844,4261.538357,4214.871692,4264.10246,4229.743486,4245.640922,4238.461435,4224.615281,4259.487075,4201.538359,4232.820409,4221.025538,4253.84605
19,0,4230.769127,4274.87169,4264.10246,4214.358871,4263.076819,4223.58964,4246.153742,4237.435794,4229.743486,4262.563998,4198.974256,4232.820409,4223.07682,4247.179383
20,0,4216.922974,4265.640921,4257.435793,4214.871692,4261.538357,4225.128102,4245.640922,4241.025537,4230.769127,4263.589639,4197.948615,4229.230666,4227.692204,4234.871691
21,0,4215.897333,4261.538357,4259.999896,4215.897333,4262.563998,4232.307589,4246.153742,4247.692204,4232.307589,4266.666562,4202.051179,4230.256307,4227.179384,4244.10246
22,0,4222.051179,4265.640921,4259.487075,4217.435794,4264.10246,4225.128102,4246.666563,4241.538358,4231.281948,4265.640921,4199.487077,4226.153743,4219.999897,4249.230665
23,0,4216.922974,4264.61528,4248.717845,4213.846051,4262.051178,4217.948615,4244.10246,4230.256307,4226.666563,4258.974255,4195.384513,4222.563999,4221.025538,4241.025537
24,0,4221.538358,4259.487075,4252.820409,4212.82041,4262.563998,4227.692204,4242.563999,4236.410153,4228.717845,4264.10246,4201.538359,4230.769127,4231.794768,4249.743486
25,0,4236.922973,4265.640921,4266.666562,4218.461435,4265.128101,4233.33323,4245.128101,4247.692204,4234.871691,4273.846049,4206.153743,4237.435794,4236.922973,4264.61528
26,0,4239.999896,4273.333229,4262.563998,4220.512717,4265.640921,4223.07682,4245.640922,4238.461435,4231.281948,4269.230665,4202.564,4233.84605,4233.33323,4258.461434
27,0,4231.281948,4268.717844,4253.84605,4216.922974,4264.10246,4221.025538,4244.10246,4229.743486,4225.128102,4256.922973,4199.487077,4230.769127,4229.743486,4247.692204
28,0,4232.307589,4261.025537,4261.025537,4214.871692,4263.076819,4232.820409,4246.666563,4243.076819,4229.230666,4259.999896,4198.461436,4233.84605,4228.205025,4252.820409
29,0,4244.10246,4267.692203,4267.692203,4218.974256,4266.666562,4235.384512,4249.230665,4252.820409,4235.897332,4271.281947,4197.435795,4236.922973,4229.743486,4262.563998
30,0,4246.666563,4274.35887,4261.538357,4221.538358,4268.717844,4229.743486,4249.230665,4249.230665,4234.871691,4272.307588,4198.461436,4237.435794,4233.33323,4263.076819
31,0,4241.025537,4265.640921,4261.025537,4220.512717,4267.692203,4233.33323,4247.692204,4243.076819,4234.358871,4266.666562,4201.025538,4235.897332,4234.358871,4257.435793
32,0,4243.58964,4260.512716,4263.589639,4216.410153,4266.666562,4230.256307,4239.487076,4236.922973,4234.871691,4264.61528,4197.948615,4233.84605,4234.358871,4247.692204
33,0,4250.256306,4262.563998,4260.512716,4217.435794,4262.563998,4216.922974,4232.307589,4230.769127,4232.820409,4264.61528,4189.230667,4231.794768,4232.820409,4246.666563
34,0,4246.666563,4268.205024,4257.948614,4218.974256,4258.461434,4217.435794,4234.358871,4229.230666,4228.717845,4258.974255,4180.512718,4230.256307,4231.794768,4256.410152
35,0,4245.128101,4273.846049,4262.563998,4217.948615,4263.076819,4229.230666,4237.948614,4233.84605,4222.051179,4251.794768,4181.538359,4230.256307,4228.717845,4256.922973
36,0,4250.256306,4268.717844,4262.051178,4219.487076,4261.538357,4232.307589,4234.871691,4233.84605,4216.922974,4250.256306,4181.538359,4232.820409,4220.512717,4246.666563
37,0,4245.128101,4261.025537,4252.307588,4222.051179,4251.281947,4222.563999,4230.256307,4226.666563,4216.922974,4248.717845,4172.30759,4230.769127,4212.82041,4244.615281
38,0,4234.871691,4264.61528,4246.666563,4216.922974,4249.743486,4217.435794,4228.717845,4219.999897,4215.897333,4249.743486,4168.717847,4222.051179,4211.281948,4244.10246
39,0,4230.256307,4261.025537,4246.153742,4212.82041,4253.333229,4215.897333,4226.153743,4218.461435,4214.871692,4246.153742,4170.769129,4216.410153,4211.794769,4234.871691
40,0,4237.435794,4251.281947,4248.717845,4222.051179,4255.384511,4216.410153,4228.205025,4222.563999,4222.051179,4242.051178,4169.743488,4223.58964,4210.769128,4234.358871
41,0,4246.666563,4258.974255,4255.384511,4232.820409,4262.563998,4224.102461,4237.435794,4231.281948,4231.281948,4253.84605,4176.410154,4232.307589,4217.948615,4244.10246
42,0,4248.717845,4267.692203,4261.538357,4229.230666,4266.153742,4232.307589,4245.128101,4235.384512,4233.84605,4267.692203,4187.692205,4233.84605,4227.179384,4250.769127
43,0,4244.10246,4263.589639,4259.999896,4226.666563,4262.563998,4231.794768,4241.538358,4230.256307,4227.692204,4259.999896,4182.05118,4235.384512,4222.051179,4247.692204
44,0,4239.487076,4263.589639,4251.281947,4229.743486,4263.076819,4226.666563,4234.358871,4225.640922,4217.435794,4245.128101,4165.128103,4232.307589,4212.307589,4235.897332
45,0,4242.051178,4267.179383,4247.692204,4230.769127,4264.10246,4227.692204,4232.307589,4226.666563,4215.897333,4246.666563,4166.666565,4227.179384,4214.358871,4234.871691
46,0,4249.230665,4266.666562,4253.84605,4229.743486,4262.051178,4229.743486,4235.384512,4229.230666,4223.58964,4251.281947,4178.461436,4228.205025,4220.512717,4247.692204
47,0,4245.640922,4265.640921,4255.384511,4228.205025,4261.538357,4229.230666,4235.897332,4230.769127,4227.692204,4250.769127,4176.922975,4230.769127,4217.948615,4251.281947
48,0,4232.307589,4259.487075,4248.717845,4225.640922,4259.999896,4224.615281,4231.794768,4229.743486,4226.666563,4247.179383,4173.333231,4229.230666,4215.384512,4244.615281
49,0,4234.358871,4255.897332,4253.333229,4229.230666,4259.487075,4219.999897,4229.230666,4229.230666,4228.205025,4245.640922,4179.487077,4231.281948,4218.461435,4247.692204
50,0,4245.640922,4263.076819,4261.025537,4231.794768,4258.974255,4226.666563,4233.84605,4228.717845,4227.179384,4248.717845,4182.05118,4235.384512,4223.58964,4251.281947
51,0,4239.487076,4266.666562,4251.794768,4228.717845,4257.435793,4229.230666,4234.358871,4226.153743,4221.538358,4248.717845,4174.871693,4234.358871,4220.512717,4247.179383
52,0,4227.692204,4262.563998,4245.640922,4229.230666,4263.076819,4221.025538,4229.743486,4224.615281,4217.948615,4245.640922,4169.743488,4233.33323,4216.410153,4245.640922
53,0,4230.256307,4258.974255,4253.333229,4231.794768,4263.076819,4217.948615,4230.256307,4227.692204,4218.974256,4246.666563,4176.410154,4233.84605,4224.102461,4246.153742
54,0,4235.897332,4263.076819,4254.871691,4231.281948,4252.820409,4222.051179,4234.358871,4233.33323,4221.025538,4248.205024,4185.640923,4234.871691,4227.179384,4249.230665
55,0,4230.256307,4262.563998,4248.717845,4231.794768,4249.743486,4219.999897,4232.307589,4233.33323,4221.538358,4246.153742,4183.076821,4231.794768,4216.410153,4249.743486
56,0,4226.153743,4248.717845,4246.153742,4232.820409,4252.820409,4216.922974,4227.692204,4228.205025,4221.025538,4244.10246,4171.281949,4228.717845,4213.846051,4239.487076
57,0,4229.743486,4243.076819,4248.205024,4229.743486,4249.230665,4216.922974,4227.179384,4225.128102,4219.487076,4245.128101,4169.230667,4232.307589,4219.487076,4235.897332
58,0,4234.871691,4258.461434,4254.871691,4229.743486,4247.692204,4217.948615,4228.205025,4228.205025,4218.974256,4248.205024,4179.487077,4236.410153,4217.948615,4247.179383
59,0,4236.410153,4262.563998,4261.025537,4233.84605,4248.205024,4217.948615,4228.205025,4230.769127,4222.563999,4248.717845,4186.666564,4234.358871,4216.410153,4253.84605
60,0,4233.84605,4248.717845,4254.871691,4233.33323,4247.179383,4216.410153,4230.769127,4229.743486,4227.692204,4245.128101,4177.948616,4231.794768,4218.974256,4248.717845
61,0,4229.743486,4247.179383,4247.179383,4232.307589,4255.897332,4225.128102,4232.820409,4230.256307,4228.205025,4247.692204,4171.79477,4230.256307,4217.948615,4241.538358
62,0,4230.256307,4253.84605,4251.281947,4236.922973,4262.563998,4232.307589,4233.33323,4232.820409,4223.58964,4251.281947,4179.999898,4230.769127,4216.410153,4234.871691
63,0,4228.205025,4250.256306,4252.820409,4237.435794,4256.922973,4221.025538,4232.307589,4229.230666,4217.435794,4237.435794,4177.948616,4226.666563,4214.871692,4229.230666
64,0,4218.461435,4245.640922,4244.615281,4230.256307,4253.333229,4217.948615,4231.281948,4226.153743,4218.974256,4227.692204,4166.666565,4216.410153,4213.33323,4227.179384
65,0,4221.538358,4246.153742,4246.666563,4231.794768,4258.974255,4230.256307,4232.307589,4231.281948,4230.256307,4246.666563,4171.79477,4219.487076,4214.358871,4229.230666
66,0,4233.84605,4248.717845,4261.025537,4241.025537,4262.051178,4235.897332,4233.33323,4234.871691,4235.897332,4262.563998,4185.640923,4234.358871,4217.948615,4238.974255
67,0,4232.820409,4251.794768,4261.025537,4238.974255,4256.922973,4230.256307,4235.384512,4233.84605,4234.871691,4254.35887,4186.666564,4236.410153,4224.102461,4250.769127
68,0,4226.666563,4249.230665,4250.256306,4231.281948,4248.717845,4222.051179,4231.281948,4229.230666,4230.256307,4248.205024,4183.076821,4226.666563,4226.153743,4246.666563
69,0,4229.743486,4246.153742,4249.230665,4234.358871,4246.153742,4214.871692,4222.051179,4221.538358,4223.07682,4249.743486,4183.076821,4226.153743,4218.974256,4236.410153
70,0,4228.205025,4249.230665,4250.256306,4235.897332,4247.179383,4216.410153,4221.025538,4217.435794,4216.922974,4244.10246,4183.589641,4231.281948,4212.82041,4237.948614
71,0,4225.640922,4254.35887,4246.666563,4232.820409,4245.128101,4218.974256,4229.743486,4219.999897,4218.461435,4240.512717,4183.589641,4232.307589,4216.922974,4242.563999
72,0,4228.717845,4248.205024,4247.692204,4238.461435,4247.692204,4216.410153,4230.256307,4220.512717,4221.538358,4240.512717,4184.615282,4230.769127,4221.025538,4241.538358
73,0,4222.563999,4235.897332,4248.717845,4241.025537,4247.179383,4215.897333,4219.999897,4216.922974,4220.512717,4235.384512,4180.512718,4230.769127,4217.948615,4243.58964
74,0,4212.82041,4235.897332,4245.128101,4233.84605,4237.948614,4215.384512,4218.461435,4215.897333,4216.410153,4230.256307,4174.871693,4232.307589,4214.871692,4246.153742
75,0,4216.410153,4245.128101,4244.10246,4231.794768,4238.461435,4215.897333,4227.179384,4218.461435,4215.897333,4230.256307,4177.948616,4233.84605,4215.384512,4239.487076
76,0,4220.512717,4244.10246,4246.666563,4234.871691,4247.179383,4216.922974,4230.256307,4219.487076,4222.051179,4231.281948,4186.153744,4231.281948,4217.948615,4230.256307
77,0,4211.794769,4235.384512,4245.640922,4233.84605,4247.692204,4215.897333,4227.179384,4217.435794,4223.07682,4234.358871,4187.179385,4229.230666,4217.435794,4231.794768
78,0,4209.743487,4232.307589,4245.640922,4234.871691,4244.615281,4215.897333,4223.58964,4214.871692,4216.922974,4233.84605,4183.589641,4231.281948,4216.410153,4242.051178
79,0,4217.435794,4232.307589,4246.666563,4236.922973,4247.692204,4215.384512,4221.538358,4214.358871,4215.384512,4228.205025,4182.05118,4231.794768,4216.922974,4243.58964
80,0,4216.922974,4235.897332,4243.58964,4233.33323,4243.58964,4215.897333,4219.999897,4212.82041,4217.948615,4224.102461,4182.564,4229.230666,4215.384512,4234.871691
81,0,4211.794769,4233.84605,4242.563999,4232.307589,4233.33323,4212.82041,4220.512717,4214.358871,4217.948615,4227.692204,4183.589641,4231.794768,4215.384512,4237.948614
82,0,4210.256307,4222.563999,4244.10246,4233.33323,4232.820409,4205.640923,4217.948615,4214.871692,4217.948615,4229.230666,4184.102462,4232.307589,4219.487076,4241.025537
83,0,4205.128102,4224.615281,4237.435794,4230.256307,4236.410153,4205.640923,4214.871692,4206.666564,4215.897333,4222.051179,4183.589641,4221.538358,4214.871692,4231.794768
84,0,4197.435795,4235.384512,4229.743486,4228.205025,4233.84605,4211.281948,4214.358871,4199.999897,4208.205025,4214.871692,4181.538359,4214.871692,4208.205025,4229.230666
85,0,4198.974256,4234.871691,4229.743486,4231.281948,4232.307589,4212.82041,4214.871692,4202.051179,4208.205025,4216.922974,4180.512718,4218.974256,4212.82041,4232.820409
86,0,4199.999897,4220.512717,4231.794768,4234.358871,4235.384512,4213.33323,4214.358871,4205.640923,4215.384512,4224.615281,4185.128103,4222.563999,4217.435794,4227.692204
87,0,4194.358872,4211.794769,4229.230666,4230.256307,4234.358871,4215.384512,4214.871692,4203.07682,4215.384512,4231.281948,4181.025539,4217.948615,4212.82041,4226.666563
88,0,4198.461436,4221.025538,4228.205025,4225.128102,4232.307589,4212.82041,4214.358871,4199.999897,4211.794769,4230.769127,4170.769129,4216.410153,4209.743487,4228.717845
89,0,4216.922974,4234.871691,4236.922973,4234.358871,4231.794768,4212.307589,4215.897333,4204.102461,4214.358871,4231.281948,4176.410154,4226.153743,4213.846051,4229.230666
90,0,4230.769127,4234.871691,4247.179383,4249.230665,4232.307589,4215.897333,4218.461435,4213.33323,4218.461435,4241.025537,4188.205026,4228.205025,4217.948615,4242.051178
91,0,4232.307589,4232.307589,4251.281947,4246.153742,4237.435794,4217.435794,4218.974256,4216.410153,4218.461435,4250.256306,4187.179385,4222.563999,4219.999897,4251.281947
92,0,4234.871691,4238.461435,4247.692204,4234.871691,4238.974255,4217.948615,4218.461435,4211.794769,4216.922974,4247.692204,4182.564,4221.538358,4216.922974,4240.512717
93,0,4237.435794,4233.33323,4244.10246,4234.871691,4233.84605,4217.948615,4219.487076,4210.769128,4216.410153,4247.179383,4185.640923,4220.512717,4214.871692,4230.769127
94,0,4234.358871,4226.153743,4245.640922,4237.948614,4233.33323,4217.435794,4219.999897,4214.871692,4217.435794,4247.692204,4182.05118,4221.538358,4214.871692,4235.384512
95,0,4227.692204,4229.743486,4242.051178,4232.820409,4236.410153,4216.410153,4216.410153,4212.82041,4214.358871,4236.410153,4171.281949,4224.615281,4209.230666,4235.384512
96,0,4223.58964,4228.205025,4232.307589,4229.743486,4233.33323,4216.410153,4212.307589,4207.692205,4212.307589,4233.84605,4172.30759,4217.435794,4209.743487,4228.717845
97,0,4232.307589,4221.025538,4230.769127,4232.307589,4228.717845,4216.410153,4212.307589,4203.589641,4213.846051,4244.615281,4179.487077,4208.205025,4210.769128,4229.230666
98,0,4239.999896,4215.897333,4235.897332,4231.281948,4225.640922,4213.33323,4212.82041,4202.051179,4211.281948,4241.025537,4173.846052,4212.82041,4199.999897,4231.794768
99,0,4233.84605,4218.974256,4234.871691,4230.769127,4227.179384,4210.769128,4212.307589,4207.179384,4209.743487,4234.358871,4166.666565,4216.922974,4201.538359,4230.769127
100,0,4235.384512,4230.769127,4236.410153,4238.974255,4234.358871,4215.384512,4214.871692,4215.384512,4215.384512,4238.974255,4176.410154,4218.974256,4215.897333,4228.717845
101,0,4248.205024,4235.897332,4244.10246,4242.051178,4236.922973,4220.512717,4218.461435,4215.897333,4217.948615,4239.999896,4186.153744,4222.563999,4217.435794,4230.769127
102,0,4248.717845,4233.33323,4245.640922,4233.84605,4234.358871,4218.974256,4218.974256,4214.358871,4215.384512,4232.307589,4184.102462,4219.999897,4212.307589,4232.820409
103,0,4244.10246,4234.871691,4244.10246,4232.820409,4233.84605,4214.871692,4217.948615,4215.897333,4214.358871,4233.84605,4183.589641,4217.435794,4216.922974,4231.281948
104,0,4248.717845,4232.820409,4247.692204,4237.435794,4232.307589,4214.871692,4217.435794,4214.358871,4213.846051,4240.512717,4185.128103,4218.461435,4217.948615,4238.461435
105,0,4250.256306,4226.666563,4249.743486,4233.84605,4229.743486,4217.435794,4218.461435,4213.846051,4214.358871,4243.076819,4185.128103,4222.051179,4217.435794,4246.666563
106,0,4248.717845,4230.256307,4247.179383,4230.256307,4229.743486,4217.948615,4216.410153,4215.384512,4213.846051,4238.461435,4186.153744,4227.692204,4217.948615,4238.974255
107,0,4247.179383,4234.358871,4244.10246,4230.769127,4228.717845,4213.846051,4212.307589,4207.179384,4205.640923,4230.769127,4181.025539,4223.58964,4214.871692,4227.692204
108,0,4234.358871,4224.615281,4238.461435,4230.769127,4227.692204,4214.871692,4212.307589,4198.461436,4199.999897,4229.743486,4170.769129,4215.384512,4211.794769,4226.666563
109,0,4232.307589,4216.922974,4238.461435,4230.769127,4230.256307,4219.999897,4214.871692,4200.512718,4202.564,4233.33323,4168.717847,4217.948615,4213.33323,4227.179384
110,0,4241.025537,4223.58964,4244.10246,4231.794768,4231.794768,4217.948615,4213.846051,4201.538359,4206.153743,4234.358871,4169.743488,4218.461435,4216.922974,4228.205025
111,0,4235.897332,4231.281948,4239.999896,4230.769127,4229.743486,4212.82041,4210.769128,4197.435795,4209.230666,4231.281948,4170.256308,4214.871692,4214.871692,4228.717845
112,0,4233.84605,4232.307589,4237.435794,4230.769127,4231.281948,4216.922974,4215.384512,4206.153743,4214.871692,4234.358871,4179.999898,4220.512717,4216.922974,4228.717845
113,0,4247.179383,4235.384512,4247.179383,4231.794768,4234.871691,4223.07682,4219.999897,4217.435794,4220.512717,4248.205024,4187.692205,4222.051179,4232.307589,4237.948614
114,0,4247.692204,4232.820409,4248.205024,4231.281948,4231.794768,4217.435794,4213.33323,4209.743487,4216.410153,4247.692204,4183.076821,4220.512717,4232.820409,4243.076819
115,0,4239.999896,4218.461435,4240.512717,4231.794768,4224.615281,4209.230666,4207.179384,4198.461436,4205.128102,4233.33323,4181.538359,4225.640922,4219.487076,4241.538358
116,0,4246.153742,4217.948615,4243.076819,4233.84605,4223.07682,4208.717846,4209.743487,4200.512718,4200.512718,4227.692204,4184.615282,4230.769127,4226.153743,4253.333229
117,0,4249.743486,4230.256307,4246.153742,4231.794768,4219.999897,4210.256307,4209.230666,4203.07682,4201.025538,4228.205025,4181.538359,4232.820409,4235.384512,4268.205024
118,0,4253.84605,4229.743486,4242.051178,4229.743486,4215.897333,4210.256307,4206.666564,4199.999897,4202.051179,4231.794768,4183.076821,4233.33323,4229.230666,4275.384511
119,0,4273.333229,4226.666563,4249.743486,4234.358871,4225.128102,4211.281948,4211.794769,4202.564,4208.205025,4239.487076,4187.692205,4238.974255,4229.230666,4295.897331
120,0,4285.640921,4233.84605,4261.025537,4238.461435,4234.358871,4216.922974,4218.461435,4205.128102,4209.743487,4239.487076,4186.666564,4248.717845,4235.897332,4320.512715
121,0,4282.051177,4229.743486,4257.435793,4233.33323,4224.615281,4216.410153,4214.871692,4204.102461,4202.564,4230.769127,4183.589641,4243.58964,4230.256307,4311.794766
122,0,4280.512716,4213.33323,4247.179383,4229.743486,4211.281948,4205.640923,4209.743487,4201.538359,4201.025538,4227.179384,4183.076821,4228.717845,4220.512717,4296.410151
123,0,4279.999895,4217.948615,4246.666563,4231.794768,4212.82041,4201.538359,4211.794769,4202.051179,4203.07682,4230.769127,4185.128103,4234.358871,4224.102461,4309.230664
124,0,4272.307588,4235.384512,4250.769127,4233.84605,4218.461435,4204.615282,4211.281948,4204.102461,4202.564,4232.820409,4186.666564,4245.128101,4231.281948,4317.948612
125,0,4260.512716,4233.33323,4246.153742,4231.281948,4216.922974,4203.589641,4206.153743,4201.538359,4201.538359,4230.769127,4184.615282,4241.538358,4228.717845,4301.538356
126,0,4253.84605,4216.922974,4242.563999,4229.230666,4214.358871,4201.025538,4206.153743,4199.487077,4201.538359,4228.717845,4184.615282,4234.358871,4225.640922,4283.589639
127,0,4250.769127,4213.33323,4246.153742,4231.281948,4215.384512,4206.153743,4211.794769,4199.487077,4200.512718,4231.794768,4187.179385,4236.410153,4228.205025,4272.820408
128,0,4243.58964,4221.538358,4247.179383,4234.871691,4219.487076,4210.769128,4213.846051,4201.025538,4202.564,4234.871691,4184.615282,4241.025537,4228.717845,4263.076819
0,0,4235.897332,4222.563999,4244.615281,4234.358871,4219.999897,4208.717846,4210.256307,4207.179384,4208.717846,4233.84605,4181.538359,4236.922973,4228.205025,4260.512716
1,0,4228.205025,4216.410153,4241.538358,4228.205025,4215.897333,4208.717846,4208.205025,4217.435794,4215.384512,4236.922973,4184.615282,4231.794768,4231.281948,4253.84605
2,0,4218.461435,4216.410153,4236.410153,4226.153743,4214.871692,4211.794769,4210.769128,4216.922974,4217.948615,4239.999896,4185.128103,4230.256307,4228.717845,4232.820409
3,0,4211.281948,4215.384512,4231.281948,4230.769127,4219.999897,4215.384512,4211.794769,4206.153743,4212.307589,4234.871691,4178.974257,4222.051179,4221.025538,4213.846051
4,0,4214.358871,4207.692205,4230.256307,4231.794768,4222.051179,4214.358871,4206.666564,4200.512718,4203.07682,4227.692204,4173.333231,4214.358871,4217.435794,4213.33323
5,0,4219.999897,4213.33323,4232.307589,4230.769127,4218.974256,4213.33323,4208.717846,4203.589641,4199.999897,4225.128102,4166.666565,4219.487076,4215.897333,4216.410153
6,0,4209.230666,4214.871692,4227.692204,4231.281948,4216.922974,4213.33323,4212.307589,4204.615282,4201.538359,4219.999897,4161.025539,4218.461435,4213.33323,4204.615282
7,0,4194.871692,4203.589641,4222.051179,4232.307589,4216.410153,4205.640923,4205.128102,4201.025538,4197.948615,4211.794769,4161.025539,4213.846051,4211.794769,4193.846051
8,0,4197.435795,4206.666564,4224.102461,4234.871691,4219.999897,4200.512718,4205.640923,4200.512718,4197.948615,4216.410153,4168.205026,4216.922974,4213.846051,4198.461436
9,0,4207.692205,4217.435794,4228.205025,4235.384512,4219.999897,4209.743487,4213.33323,4202.564,4209.230666,4230.769127,4177.435795,4221.538358,4223.07682,4202.564
10,0,4206.666564,4217.948615,4229.230666,4235.897332,4217.948615,4218.461435,4207.692205,4202.051179,4214.871692,4236.410153,4183.076821,4226.153743,4232.307589,4202.051179
11,0,4199.487077,4217.435794,4228.205025,4239.999896,4222.051179,4214.871692,4201.025538,4199.999897,4213.846051,4233.33323,4186.153744,4224.102461,4233.84605,4204.615282
12,0,4201.538359,4217.948615,4225.128102,4238.461435,4224.615281,4211.794769,4206.153743,4202.051179,4214.358871,4228.717845,4183.589641,4216.922974,4229.743486,4198.461436
13,0,4201.025538,4213.846051,4218.461435,4233.33323,4218.461435,4213.846051,4206.153743,4203.07682,4208.205025,4224.615281,4172.30759,4208.205025,4222.563999,4184.102462
14,0,4189.743487,4210.256307,4213.846051,4233.84605,4214.358871,4207.692205,4198.974256,4191.281949,4197.948615,4212.307589,4163.589642,4201.538359,4209.743487,4181.025539
15,0,4181.538359,4203.07682,4213.33323,4232.820409,4215.897333,4199.487077,4200.512718,4184.615282,4194.358872,4201.025538,4165.128103,4204.615282,4202.564,4184.102462
16,0,4188.717846,4198.461436,4215.384512,4230.256307,4214.358871,4200.512718,4205.128102,4194.871692,4199.999897,4206.666564,4170.769129,4216.410153,4210.256307,4188.205026
17,0,4200.512718,4210.769128,4218.974256,4234.358871,4214.871692,4207.692205,4205.640923,4204.102461,4209.230666,4219.999897,4174.358872,4221.538358,4217.435794,4195.384513
18,0,4201.538359,4219.999897,4217.948615,4237.435794,4217.948615,4211.794769,4205.128102,4201.025538,4216.410153,4222.563999,4170.769129,4215.897333,4215.897333,4190.769128
19,0,4195.897333,4217.948615,4214.358871,4234.871691,4217.435794,4211.794769,4206.153743,4197.948615,4216.410153,4218.974256,4172.30759,4213.846051,4211.281948,4183.076821
20,0,4194.358872,4216.922974,4216.922974,4235.384512,4223.58964,4214.871692,4205.640923,4199.999897,4215.384512,4221.025538,4183.076821,4215.384512,4214.358871,4193.846051
21,0,4193.846051,4213.33323,4218.461435,4235.897332,4228.717845,4214.871692,4203.07682,4200.512718,4215.897333,4220.512717,4179.999898,4215.897333,4219.999897,4199.999897
22,0,4189.230667,4204.615282,4211.794769,4231.794768,4221.538358,4210.769128,4202.564,4198.461436,4210.256307,4214.871692,4170.769129,4214.358871,4217.948615,4188.717846
23,0,4184.615282,4209.743487,4208.205025,4231.281948,4216.922974,4209.743487,4203.07682,4197.948615,4209.743487,4214.871692,4173.333231,4210.769128,4219.487076,4186.666564
24,0,4188.205026,4222.563999,4213.846051,4232.820409,4217.948615,4208.717846,4204.102461,4199.487077,4213.846051,4220.512717,4173.333231,4212.82041,4226.666563,4196.410154
25,0,4197.948615,4219.999897,4219.487076,4232.307589,4218.974256,4203.589641,4208.205025,4197.948615,4208.205025,4216.410153,4166.153744,4219.999897,4223.07682,4202.051179
26,0,4199.487077,4215.897333,4219.487076,4233.84605,4224.102461,4202.564,4212.307589,4194.358872,4202.051179,4208.205025,4168.717847,4218.974256,4214.358871,4198.974256
27,0,4189.230667,4220.512717,4215.897333,4234.871691,4226.666563,4203.07682,4208.717846,4190.769128,4203.07682,4212.307589,4170.256308,4212.307589,4214.871692,4191.281949
28,0,4184.102462,4218.461435,4213.33323,4232.307589,4217.435794,4201.538359,4203.589641,4185.640923,4203.07682,4218.461435,4164.615283,4213.33323,4214.358871,4193.846051
29,0,4195.384513,4214.358871,4213.846051,4232.307589,4216.410153,4202.564,4204.615282,4185.128103,4205.128102,4216.922974,4164.615283,4215.384512,4215.384512,4202.564
30,0,4201.538359,4217.948615,4215.897333,4234.871691,4225.128102,4203.589641,4205.640923,4190.769128,4213.33323,4216.922974,4168.205026,4214.871692,4223.07682,4199.999897
31,0,4188.205026,4218.974256,4213.846051,4231.794768,4223.58964,4201.025538,4204.102461,4190.769128,4215.384512,4220.512717,4171.79477,4217.948615,4228.717845,4195.897333
32,0,4182.05118,4216.922974,4215.384512,4230.256307,4221.538358,4203.07682,4205.128102,4185.640923,4213.33323,4221.025538,4171.79477,4218.974256,4228.717845,4200.512718
33,0,4188.717846,4218.974256,4215.384512,4234.358871,4228.205025,4205.128102,4205.640923,4184.102462,4210.256307,4217.435794,4169.743488,4214.871692,4222.051179,4201.538359
34,0,4187.179385,4216.410153,4206.666564,4232.307589,4227.179384,4201.538359,4201.025538,4186.666564,4205.128102,4213.846051,4169.230667,4215.384512,4215.384512,4196.922974
35,0,4183.589641,4211.281948,4201.025538,4230.769127,4219.999897,4205.640923,4201.025538,4186.666564,4208.205025,4214.871692,4171.281949,4216.922974,4219.999897,4196.922974
36,0,4188.717846,4215.897333,4208.205025,4237.435794,4222.563999,4214.871692,4207.692205,4188.205026,4215.384512,4216.410153,4169.743488,4215.897333,4230.256307,4199.999897
37,0,4190.769128,4219.487076,4216.922974,4240.512717,4228.205025,4214.358871,4210.256307,4195.897333,4215.897333,4214.358871,4170.256308,4225.640922,4230.769127,4203.07682
38,0,4187.179385,4217.948615,4215.897333,4233.84605,4230.256307,4211.281948,4208.717846,4201.025538,4219.487076,4221.538358,4184.102462,4233.33323,4228.205025,4209.230666
39,0,4187.692205,4218.974256,4214.871692,4231.794768,4229.230666,4213.846051,4210.769128,4202.051179,4224.102461,4233.84605,4194.871692,4223.58964,4233.33323,4211.281948
40,0,4189.230667,4216.410153,4217.435794,4232.820409,4222.051179,4212.307589,4208.717846,4199.999897,4218.974256,4228.717845,4181.025539,4215.897333,4235.384512,4205.128102
41,0,4187.179385,4211.281948,4213.846051,4230.256307,4216.922974,4205.128102,4202.051179,4193.333231,4213.33323,4215.384512,4170.769129,4219.999897,4230.256307,4198.974256
42,0,4184.615282,4217.435794,4206.666564,4230.769127,4217.435794,4199.999897,4201.025538,4185.640923,4213.846051,4216.922974,4185.128103,4217.948615,4229.230666,4197.435795
43,0,4184.615282,4223.07682,4210.256307,4234.358871,4218.461435,4198.461436,4202.051179,4180.512718,4215.384512,4221.025538,4193.333231,4214.358871,4232.820409,4199.487077
