title:V                                                                               , recorded:07.07.20 10.30.20, sampling:128, subject:B                                                                               , labels:COUNTER INTERPOLATED AF3 F7 F3 FC5 T7 P7 O1 O2 P8 T8 FC6 F4 F8 AF4,, units:emotiv,,,,,,,,,
108,0,4232.820409,4223.07682,4230.256307,4211.794769,4217.948615,4212.82041,4215.384512,4225.128102,4218.461435,4222.051179,4234.871691,4213.33323,4216.922974,4197.435795
109,0,4231.794768,4229.230666,4238.461435,4213.846051,4217.948615,4213.846051,4216.922974,4226.666563,4224.615281,4229.230666,4229.230666,4212.307589,4217.435794,4196.922974
110,0,4234.358871,4227.692204,4247.692204,4218.461435,4219.487076,4218.461435,4217.948615,4232.820409,4232.820409,4236.410153,4234.871691,4214.871692,4218.974256,4198.461436
111,0,4235.897332,4223.58964,4239.999896,4217.435794,4218.461435,4214.871692,4215.897333,4224.102461,4223.58964,4232.307589,4236.410153,4216.410153,4218.461435,4195.897333
112,0,4233.84605,4224.615281,4231.794768,4214.871692,4217.435794,4212.82041,4212.307589,4214.358871,4216.410153,4228.717845,4231.794768,4214.358871,4218.461435,4187.179385
113,0,4233.84605,4228.205025,4237.435794,4214.358871,4216.410153,4215.384512,4215.384512,4223.58964,4227.179384,4232.820409,4233.33323,4213.846051,4221.538358,4190.769128
114,0,4235.384512,4224.102461,4238.974255,4213.846051,4215.897333,4216.922974,4219.487076,4234.358871,4231.794768,4235.384512,4235.384512,4214.871692,4220.512717,4201.025538
115,0,4230.769127,4212.82041,4232.307589,4213.33323,4215.384512,4217.435794,4217.948615,4226.153743,4219.487076,4229.743486,4233.33323,4212.82041,4212.307589,4196.922974
116,0,4229.743486,4212.82041,4230.769127,4215.384512,4215.384512,4216.410153,4215.897333,4216.922974,4213.33323,4217.948615,4231.794768,4211.794769,4213.846051,4191.281949
117,0,4232.307589,4216.922974,4233.33323,4211.281948,4216.410153,4213.33323,4214.871692,4216.922974,4214.871692,4214.871692,4231.794768,4213.33323,4214.871692,4197.435795
118,0,4222.051179,4215.384512,4233.84605,4206.666564,4216.410153,4213.846051,4213.846051,4217.948615,4210.256307,4223.58964,4230.769127,4213.846051,4204.615282,4197.948615
119,0,4216.922974,4208.205025,4232.820409,4210.769128,4214.871692,4214.358871,4214.871692,4216.922974,4209.743487,4230.256307,4229.230666,4215.384512,4205.128102,4196.922974
120,0,4236.410153,4201.025538,4234.871691,4215.897333,4212.307589,4210.256307,4215.897333,4215.897333,4210.769128,4224.102461,4228.717845,4218.974256,4212.307589,4208.205025
121,0,4252.307588,4207.692205,4242.051178,4213.33323,4208.717846,4207.692205,4214.358871,4213.846051,4205.128102,4216.922974,4229.743486,4219.999897,4207.692205,4223.07682
122,0,4248.717845,4218.974256,4245.640922,4212.82041,4203.589641,4208.205025,4214.871692,4214.871692,4205.128102,4217.948615,4232.307589,4217.948615,4201.538359,4227.692204
123,0,4252.307588,4216.922974,4244.615281,4214.871692,4198.461436,4203.07682,4215.897333,4214.871692,4205.128102,4214.358871,4229.230666,4218.461435,4202.564,4229.230666
124,0,4260.512716,4211.281948,4245.640922,4212.82041,4196.922974,4197.948615,4213.33323,4214.358871,4201.025538,4206.666564,4224.615281,4219.487076,4201.538359,4233.84605
125,0,4255.384511,4214.358871,4245.640922,4213.33323,4204.615282,4205.128102,4214.358871,4217.435794,4207.692205,4210.769128,4225.128102,4218.974256,4200.512718,4234.871691
126,0,4249.230665,4219.487076,4246.666563,4215.384512,4211.281948,4214.358871,4217.948615,4219.999897,4217.948615,4218.974256,4225.640922,4217.948615,4204.615282,4231.281948
127,0,4249.230665,4216.410153,4248.205024,4213.846051,4208.717846,4213.33323,4215.897333,4215.897333,4214.871692,4217.435794,4222.563999,4217.948615,4202.564,4222.051179
128,0,4247.179383,4214.871692,4246.153742,4213.846051,4210.769128,4212.307589,4215.897333,4215.384512,4211.281948,4215.384512,4220.512717,4215.897333,4198.461436,4214.871692
0,0,4246.666563,4216.922974,4245.128101,4215.384512,4218.461435,4216.922974,4223.07682,4226.153743,4216.410153,4221.025538,4226.666563,4219.487076,4202.564,4217.948615
1,0,4250.769127,4215.384512,4250.769127,4215.384512,4216.922974,4218.974256,4228.205025,4231.794768,4215.384512,4219.999897,4231.794768,4226.666563,4203.589641,4223.58964
2,0,4251.281947,4214.358871,4251.794768,4216.410153,4210.256307,4214.871692,4226.666563,4227.179384,4209.743487,4211.794769,4230.769127,4223.07682,4199.487077,4221.538358
3,0,4249.230665,4222.051179,4247.692204,4217.948615,4212.82041,4213.846051,4227.692204,4229.743486,4214.871692,4214.358871,4231.794768,4218.461435,4205.128102,4219.999897
4,0,4249.230665,4225.128102,4248.717845,4215.384512,4219.999897,4218.461435,4233.84605,4237.948614,4216.922974,4219.487076,4230.256307,4222.051179,4210.769128,4222.051179
5,0,4240.512717,4216.410153,4243.076819,4212.307589,4213.846051,4213.846051,4228.717845,4233.33323,4204.615282,4208.205025,4219.999897,4217.948615,4199.487077,4213.846051
6,0,4230.769127,4212.82041,4232.820409,4212.82041,4202.051179,4202.564,4216.922974,4226.153743,4197.948615,4202.051179,4213.33323,4209.743487,4190.256308,4204.102461
7,0,4237.948614,4216.410153,4238.974255,4216.410153,4207.692205,4207.692205,4219.999897,4231.281948,4211.281948,4214.358871,4224.102461,4218.461435,4203.07682,4211.794769
8,0,4250.769127,4219.487076,4249.230665,4218.461435,4218.461435,4219.487076,4230.256307,4237.435794,4220.512717,4221.538358,4233.84605,4230.769127,4215.897333,4231.281948
9,0,4249.230665,4219.487076,4246.153742,4216.922974,4217.435794,4216.410153,4227.179384,4241.025537,4219.999897,4223.58964,4232.307589,4227.179384,4214.358871,4233.84605
10,0,4245.128101,4211.281948,4243.076819,4217.435794,4215.384512,4213.846051,4224.615281,4241.538358,4224.102461,4228.717845,4229.230666,4219.999897,4209.743487,4221.538358
11,0,4248.205024,4209.230666,4248.205024,4222.563999,4218.461435,4221.025538,4230.256307,4237.435794,4225.128102,4225.128102,4231.794768,4219.999897,4207.692205,4217.435794
12,0,4246.153742,4218.974256,4248.205024,4219.999897,4219.487076,4221.538358,4226.153743,4232.307589,4218.461435,4215.384512,4232.307589,4221.538358,4204.102461,4219.487076
13,0,4242.051178,4222.051179,4245.640922,4214.871692,4219.487076,4218.974256,4219.487076,4231.281948,4215.897333,4214.871692,4223.07682,4217.948615,4199.999897,4215.897333
14,0,4244.615281,4216.410153,4246.153742,4215.384512,4217.948615,4219.999897,4223.07682,4233.84605,4218.461435,4218.974256,4217.435794,4216.922974,4200.512718,4208.205025
15,0,4246.666563,4213.33323,4245.128101,4216.410153,4215.384512,4216.922974,4224.102461,4232.820409,4215.384512,4216.922974,4217.435794,4217.948615,4199.487077,4204.102461
16,0,4241.025537,4214.871692,4239.487076,4213.33323,4214.358871,4211.794769,4219.487076,4225.640922,4205.640923,4205.640923,4215.384512,4215.384512,4195.384513,4205.640923
17,0,4233.84605,4214.358871,4238.461435,4213.33323,4208.717846,4212.82041,4218.461435,4224.615281,4202.051179,4198.461436,4213.846051,4215.384512,4194.871692,4213.846051
18,0,4235.897332,4214.871692,4243.076819,4217.435794,4202.564,4212.82041,4219.999897,4228.717845,4207.179384,4207.692205,4214.358871,4224.615281,4197.948615,4218.461435
19,0,4244.10246,4214.871692,4245.640922,4218.461435,4205.128102,4205.640923,4217.948615,4222.051179,4211.794769,4215.897333,4222.563999,4230.769127,4199.999897,4217.435794
20,0,4246.153742,4212.82041,4245.128101,4216.922974,4212.307589,4206.153743,4218.461435,4219.487076,4213.846051,4214.358871,4229.743486,4228.205025,4201.025538,4224.615281
21,0,4237.948614,4215.897333,4244.10246,4218.461435,4215.384512,4216.410153,4220.512717,4228.205025,4215.897333,4216.410153,4225.128102,4225.640922,4207.179384,4230.769127
22,0,4229.230666,4221.538358,4243.58964,4219.999897,4215.897333,4217.948615,4219.999897,4229.230666,4216.922974,4222.051179,4219.999897,4228.205025,4212.307589,4228.205025
23,0,4234.358871,4222.563999,4246.666563,4221.025538,4215.897333,4213.33323,4221.025538,4226.153743,4215.384512,4221.538358,4228.205025,4230.256307,4211.281948,4227.179384
24,0,4241.538358,4218.461435,4247.179383,4223.58964,4215.897333,4215.384512,4220.512717,4226.666563,4212.82041,4216.410153,4233.33323,4229.743486,4211.794769,4231.281948
25,0,4237.948614,4219.487076,4242.563999,4223.07682,4217.435794,4216.922974,4218.974256,4222.051179,4213.33323,4217.435794,4230.256307,4228.205025,4215.384512,4230.256307
26,0,4238.461435,4225.128102,4241.025537,4217.435794,4218.974256,4215.384512,4221.538358,4222.563999,4216.410153,4227.179384,4231.281948,4230.256307,4217.435794,4229.743486
27,0,4246.666563,4225.128102,4239.999896,4216.410153,4217.948615,4216.922974,4227.692204,4233.84605,4220.512717,4233.84605,4233.84605,4234.871691,4218.461435,4238.461435
28,0,4241.025537,4224.615281,4234.871691,4217.435794,4216.922974,4216.922974,4228.717845,4235.897332,4223.58964,4233.33323,4232.820409,4233.33323,4219.999897,4242.563999
29,0,4232.820409,4225.128102,4232.307589,4215.897333,4217.435794,4214.358871,4227.692204,4232.307589,4222.051179,4227.179384,4232.820409,4232.307589,4215.384512,4244.615281
30,0,4232.820409,4218.974256,4233.33323,4214.871692,4217.948615,4214.871692,4225.640922,4231.794768,4217.435794,4217.435794,4230.769127,4230.769127,4205.128102,4244.615281
31,0,4227.179384,4211.281948,4230.769127,4215.384512,4216.922974,4215.897333,4219.487076,4225.640922,4211.281948,4211.281948,4224.102461,4221.538358,4198.461436,4233.84605
32,0,4224.102461,4216.922974,4228.717845,4214.358871,4216.922974,4213.33323,4215.384512,4216.922974,4208.717846,4214.871692,4223.07682,4215.897333,4200.512718,4226.666563
33,0,4231.794768,4226.666563,4228.717845,4213.846051,4218.974256,4213.33323,4217.948615,4218.461435,4212.82041,4217.435794,4226.666563,4223.58964,4205.640923,4232.307589
34,0,4232.820409,4229.743486,4231.281948,4215.897333,4221.025538,4216.410153,4221.025538,4226.153743,4218.974256,4218.461435,4226.666563,4231.794768,4210.256307,4237.435794
35,0,4232.307589,4231.794768,4235.384512,4216.922974,4218.974256,4218.461435,4224.102461,4231.794768,4220.512717,4226.666563,4230.256307,4231.281948,4215.384512,4243.076819
36,0,4234.871691,4225.128102,4235.897332,4215.384512,4218.461435,4216.922974,4224.102461,4231.794768,4218.974256,4226.666563,4235.897332,4231.281948,4218.461435,4249.743486
37,0,4227.692204,4215.384512,4232.820409,4215.384512,4218.461435,4214.871692,4221.025538,4226.666563,4215.897333,4216.410153,4231.281948,4230.256307,4216.922974,4243.58964
38,0,4216.410153,4215.384512,4227.692204,4211.794769,4212.82041,4214.358871,4216.922974,4224.102461,4211.794769,4212.82041,4226.666563,4226.666563,4209.743487,4233.33323
39,0,4213.846051,4217.435794,4227.692204,4207.692205,4211.794769,4216.410153,4215.897333,4229.230666,4211.794769,4216.922974,4230.256307,4227.179384,4207.179384,4235.897332
40,0,4219.999897,4219.487076,4230.769127,4212.82041,4223.07682,4218.974256,4224.102461,4233.33323,4212.82041,4217.948615,4231.281948,4231.794768,4212.82041,4237.948614
41,0,4238.461435,4223.07682,4230.256307,4218.461435,4227.692204,4217.948615,4229.743486,4231.794768,4212.307589,4218.461435,4225.128102,4227.179384,4212.82041,4230.769127
42,0,4261.538357,4219.999897,4228.205025,4213.846051,4223.07682,4216.410153,4222.563999,4229.230666,4211.281948,4218.974256,4225.128102,4217.948615,4205.128102,4227.692204
43,0,4267.692203,4211.794769,4228.205025,4211.281948,4222.051179,4216.922974,4215.384512,4229.230666,4210.769128,4215.384512,4225.640922,4219.999897,4199.999897,4230.769127
44,0,4264.61528,4214.871692,4229.230666,4213.846051,4220.512717,4217.435794,4222.051179,4230.769127,4214.358871,4213.846051,4218.974256,4227.179384,4202.051179,4230.256307
45,0,4272.307588,4225.128102,4229.743486,4215.384512,4220.512717,4217.435794,4229.743486,4233.33323,4218.974256,4217.435794,4219.487076,4228.205025,4208.205025,4229.230666
46,0,4286.666562,4229.230666,4237.435794,4216.410153,4228.717845,4218.974256,4230.769127,4235.897332,4219.999897,4223.07682,4232.307589,4230.256307,4216.410153,4242.051178
47,0,4294.358869,4228.717845,4244.615281,4216.410153,4229.743486,4219.487076,4231.794768,4235.897332,4218.461435,4220.512717,4233.33323,4233.84605,4214.358871,4248.717845
48,0,4293.846049,4228.205025,4238.974255,4214.871692,4224.102461,4216.922974,4232.820409,4232.820409,4215.897333,4215.384512,4224.615281,4230.256307,4205.640923,4232.820409
49,0,4294.358869,4230.256307,4233.33323,4216.922974,4228.205025,4216.410153,4231.794768,4231.794768,4215.897333,4223.58964,4228.717845,4227.692204,4204.102461,4231.794768
50,0,4297.435792,4233.33323,4235.897332,4218.974256,4232.307589,4217.948615,4229.743486,4234.358871,4219.487076,4232.307589,4235.897332,4230.769127,4208.205025,4251.281947
51,0,4295.897331,4229.230666,4236.410153,4216.922974,4230.256307,4218.974256,4227.179384,4234.358871,4219.999897,4223.07682,4229.230666,4228.717845,4204.615282,4246.666563
52,0,4292.820408,4221.538358,4232.820409,4216.410153,4228.717845,4219.999897,4226.666563,4230.256307,4215.384512,4210.769128,4221.538358,4226.153743,4198.461436,4228.717845
53,0,4294.87169,4216.410153,4234.358871,4216.410153,4229.743486,4220.512717,4228.205025,4230.769127,4217.948615,4215.384512,4228.205025,4231.281948,4203.589641,4239.999896
54,0,4299.999895,4214.358871,4236.410153,4213.33323,4229.743486,4218.974256,4227.179384,4233.84605,4225.128102,4225.640922,4236.922973,4235.897332,4216.410153,4254.35887
55,0,4300.512715,4217.435794,4234.358871,4211.794769,4223.07682,4216.410153,4226.153743,4232.820409,4222.563999,4222.563999,4234.358871,4233.33323,4214.871692,4248.205024
56,0,4294.87169,4224.615281,4230.256307,4212.82041,4216.922974,4214.871692,4227.179384,4230.769127,4215.897333,4215.897333,4227.692204,4229.230666,4202.051179,4243.58964
57,0,4291.794767,4229.743486,4227.692204,4213.33323,4221.538358,4215.897333,4226.153743,4230.769127,4215.897333,4215.897333,4227.692204,4229.743486,4202.051179,4246.153742
58,0,4297.948613,4230.256307,4229.743486,4215.384512,4230.769127,4217.435794,4225.128102,4231.281948,4217.948615,4216.922974,4231.794768,4231.281948,4211.281948,4244.615281
59,0,4304.102459,4230.256307,4232.307589,4217.948615,4231.281948,4216.922974,4223.07682,4230.769127,4216.410153,4215.384512,4230.769127,4231.794768,4210.256307,4242.563999
60,0,4305.1281,4231.794768,4232.307589,4217.435794,4230.256307,4215.384512,4218.974256,4228.717845,4214.871692,4216.922974,4220.512717,4229.230666,4203.589641,4244.10246
61,0,4306.153741,4230.769127,4231.794768,4216.410153,4235.897332,4215.384512,4221.025538,4227.692204,4212.82041,4215.897333,4213.846051,4227.692204,4202.051179,4239.487076
62,0,4306.153741,4232.820409,4233.84605,4217.435794,4239.487076,4217.435794,4226.666563,4229.743486,4213.846051,4212.307589,4222.051179,4229.230666,4207.692205,4236.922973
63,0,4307.179382,4236.410153,4235.897332,4218.974256,4234.358871,4219.999897,4228.717845,4232.307589,4216.410153,4215.384512,4231.281948,4232.307589,4215.897333,4246.666563
64,0,4312.307587,4227.179384,4233.84605,4217.948615,4231.794768,4217.948615,4230.256307,4232.307589,4215.897333,4218.974256,4232.307589,4233.33323,4220.512717,4256.922973
65,0,4307.692202,4219.487076,4230.769127,4213.846051,4234.358871,4214.871692,4225.128102,4230.256307,4214.358871,4215.897333,4226.666563,4231.794768,4217.435794,4251.794768
66,0,4295.38451,4230.256307,4229.743486,4216.410153,4232.820409,4214.871692,4217.435794,4227.692204,4213.33323,4214.358871,4224.615281,4230.769127,4213.846051,4243.58964
67,0,4292.820408,4237.948614,4230.769127,4219.999897,4229.743486,4216.410153,4222.051179,4227.692204,4213.846051,4215.897333,4226.153743,4230.256307,4213.846051,4246.666563
68,0,4293.333228,4231.281948,4229.743486,4214.358871,4233.33323,4215.384512,4225.128102,4229.743486,4214.358871,4213.846051,4223.58964,4229.230666,4212.82041,4247.692204
69,0,4291.281946,4230.256307,4230.256307,4212.307589,4239.487076,4215.384512,4217.948615,4228.717845,4214.358871,4211.281948,4218.461435,4229.230666,4213.33323,4241.538358
70,0,4291.281946,4234.871691,4231.794768,4217.948615,4244.10246,4216.922974,4217.435794,4227.179384,4214.871692,4214.871692,4218.974256,4231.281948,4215.897333,4242.563999
71,0,4296.922972,4233.33323,4232.820409,4216.410153,4245.640922,4218.974256,4225.128102,4229.230666,4216.922974,4223.07682,4225.640922,4233.33323,4217.435794,4250.769127
72,0,4300.512715,4233.84605,4238.461435,4215.384512,4243.076819,4218.461435,4228.717845,4231.794768,4218.461435,4230.256307,4230.769127,4233.33323,4217.948615,4248.717845
73,0,4298.461433,4232.820409,4242.051178,4225.640922,4243.58964,4216.922974,4228.205025,4235.384512,4218.974256,4229.743486,4232.307589,4234.358871,4220.512717,4244.615281
74,0,4295.38451,4227.179384,4238.461435,4225.640922,4242.563999,4216.410153,4226.153743,4232.307589,4216.922974,4219.999897,4223.58964,4234.871691,4217.435794,4247.692204
75,0,4293.846049,4226.666563,4232.307589,4215.384512,4236.922973,4217.435794,4225.640922,4221.025538,4209.743487,4212.82041,4212.82041,4231.794768,4209.230666,4246.666563
76,0,4293.333228,4233.33323,4230.769127,4222.051179,4234.871691,4217.948615,4228.717845,4219.999897,4208.717846,4221.025538,4215.384512,4227.692204,4212.307589,4242.051178
77,0,4292.307587,4234.871691,4236.410153,4232.307589,4233.84605,4218.461435,4230.769127,4228.717845,4213.846051,4231.281948,4218.974256,4228.717845,4217.435794,4247.179383
78,0,4297.435792,4232.820409,4243.58964,4232.820409,4235.384512,4222.563999,4231.281948,4230.256307,4214.358871,4231.281948,4217.948615,4231.281948,4214.871692,4250.769127
79,0,4310.256305,4237.435794,4248.717845,4236.410153,4242.051178,4230.769127,4231.281948,4228.717845,4214.358871,4230.256307,4222.051179,4232.820409,4213.846051,4245.128101
80,0,4312.307587,4241.538358,4249.230665,4239.999896,4242.051178,4233.33323,4232.820409,4230.769127,4215.897333,4234.871691,4230.769127,4232.307589,4219.487076,4247.179383
81,0,4302.563997,4233.33323,4243.58964,4234.358871,4231.281948,4226.666563,4228.205025,4223.58964,4208.717846,4228.717845,4225.128102,4223.58964,4216.922974,4247.692204
82,0,4291.794767,4216.922974,4233.84605,4232.820409,4223.58964,4219.999897,4218.974256,4211.794769,4199.487077,4217.435794,4209.743487,4213.846051,4204.102461,4234.871691
83,0,4285.640921,4212.307589,4230.256307,4236.410153,4223.58964,4217.948615,4215.384512,4213.846051,4204.102461,4217.435794,4207.179384,4215.897333,4198.974256,4229.230666
84,0,4286.666562,4224.615281,4233.84605,4236.922973,4226.666563,4216.922974,4218.974256,4220.512717,4207.179384,4222.051179,4213.846051,4219.999897,4202.051179,4232.307589
85,0,4293.846049,4233.33323,4234.358871,4242.051178,4224.615281,4218.461435,4223.07682,4219.487076,4202.564,4225.640922,4217.435794,4217.948615,4205.640923,4229.743486
86,0,4297.435792,4231.281948,4234.358871,4249.230665,4219.487076,4222.051179,4224.102461,4219.487076,4207.179384,4227.692204,4217.948615,4222.563999,4208.717846,4233.84605
87,0,4296.410151,4232.820409,4239.487076,4244.615281,4218.974256,4221.538358,4224.615281,4224.615281,4215.384512,4227.692204,4218.974256,4231.281948,4211.794769,4246.153742
88,0,4303.076818,4243.58964,4245.640922,4241.538358,4219.487076,4218.461435,4227.179384,4229.230666,4217.435794,4229.743486,4218.461435,4233.33323,4213.846051,4248.205024
89,0,4313.333228,4246.666563,4250.769127,4250.256306,4220.512717,4218.461435,4229.230666,4230.769127,4216.410153,4235.384512,4219.999897,4231.794768,4217.948615,4246.666563
90,0,4313.846048,4240.512717,4252.307588,4252.307588,4228.717845,4221.538358,4230.256307,4228.717845,4217.948615,4234.871691,4224.615281,4232.307589,4219.999897,4250.256306
91,0,4310.769125,4231.794768,4249.230665,4242.563999,4232.820409,4221.538358,4229.230666,4230.256307,4217.435794,4231.281948,4220.512717,4232.307589,4217.948615,4249.230665
92,0,4310.256305,4230.256307,4245.640922,4238.974255,4225.640922,4217.948615,4226.153743,4229.743486,4214.871692,4231.794768,4220.512717,4232.307589,4219.999897,4243.58964
93,0,4311.281946,4233.84605,4245.128101,4240.512717,4219.999897,4215.897333,4219.487076,4222.563999,4213.33323,4231.281948,4227.692204,4231.794768,4221.025538,4243.58964
94,0,4309.743484,4233.33323,4245.640922,4240.512717,4219.999897,4216.922974,4217.948615,4219.999897,4212.307589,4229.230666,4224.615281,4232.307589,4218.974256,4247.692204
95,0,4308.717843,4231.794768,4245.128101,4244.615281,4218.974256,4217.948615,4224.615281,4227.692204,4212.307589,4230.769127,4218.461435,4234.358871,4216.410153,4248.205024
96,0,4310.769125,4232.307589,4247.692204,4248.717845,4219.999897,4218.461435,4232.820409,4233.84605,4215.897333,4238.974255,4225.128102,4235.384512,4217.435794,4245.128101
97,0,4313.333228,4235.897332,4249.743486,4248.717845,4224.102461,4219.999897,4233.33323,4234.871691,4220.512717,4245.640922,4236.410153,4236.410153,4226.153743,4249.743486
98,0,4309.230664,4233.84605,4248.717845,4248.717845,4222.051179,4218.974256,4230.256307,4232.820409,4218.461435,4237.948614,4231.794768,4235.384512,4227.179384,4251.794768
99,0,4305.1281,4231.794768,4245.640922,4247.179383,4215.384512,4216.410153,4230.769127,4229.230666,4213.846051,4226.666563,4219.999897,4232.307589,4215.384512,4241.025537
100,0,4309.230664,4234.871691,4246.153742,4245.640922,4219.487076,4217.435794,4231.794768,4228.205025,4216.410153,4227.179384,4217.435794,4231.281948,4210.256307,4238.974255
101,0,4310.769125,4232.820409,4248.205024,4249.743486,4229.743486,4217.948615,4230.769127,4230.256307,4216.922974,4231.281948,4226.666563,4234.871691,4218.461435,4245.640922
102,0,4304.102459,4228.717845,4246.153742,4250.769127,4230.256307,4216.410153,4232.820409,4229.743486,4215.384512,4236.922973,4234.871691,4236.410153,4222.563999,4245.128101
103,0,4299.999895,4231.794768,4243.076819,4245.128101,4225.128102,4217.948615,4235.384512,4230.769127,4222.051179,4243.076819,4228.717845,4235.897332,4221.538358,4243.58964
104,0,4297.435792,4234.871691,4243.076819,4242.051178,4219.487076,4218.461435,4235.384512,4232.307589,4226.666563,4242.563999,4220.512717,4235.897332,4218.974256,4247.179383
105,0,4296.410151,4232.820409,4244.615281,4246.153742,4218.461435,4218.461435,4234.871691,4233.84605,4221.538358,4239.999896,4228.205025,4236.410153,4223.58964,4246.153742
106,0,4298.974254,4232.307589,4244.10246,4248.717845,4223.58964,4222.051179,4235.384512,4240.512717,4219.487076,4238.974255,4236.922973,4236.410153,4232.820409,4238.461435
107,0,4296.410151,4234.871691,4242.051178,4245.640922,4227.692204,4223.58964,4234.871691,4242.051178,4219.487076,4232.307589,4228.717845,4232.820409,4227.179384,4233.33323
108,0,4296.922972,4233.84605,4244.615281,4246.153742,4227.179384,4218.974256,4234.358871,4234.871691,4216.922974,4227.179384,4223.58964,4232.820409,4218.974256,4238.461435
109,0,4308.205023,4236.410153,4250.256306,4252.307588,4228.205025,4218.461435,4236.410153,4237.435794,4221.538358,4234.358871,4234.358871,4240.512717,4229.743486,4248.717845
110,0,4307.179382,4235.897332,4250.256306,4252.820409,4231.281948,4225.128102,4236.410153,4245.640922,4225.128102,4236.922973,4237.948614,4241.538358,4235.897332,4248.717845
111,0,4294.358869,4227.692204,4245.128101,4247.692204,4229.230666,4227.692204,4233.33323,4241.538358,4216.410153,4228.717845,4230.769127,4232.820409,4220.512717,4237.435794
112,0,4293.333228,4229.743486,4244.10246,4246.666563,4225.128102,4228.205025,4237.948614,4241.538358,4221.538358,4229.230666,4231.281948,4230.256307,4218.974256,4235.897332
113,0,4297.435792,4239.487076,4244.615281,4248.205024,4226.666563,4228.717845,4244.10246,4249.230665,4231.281948,4235.897332,4233.84605,4233.84605,4229.230666,4237.948614
114,0,4293.333228,4239.487076,4244.615281,4249.230665,4230.769127,4229.743486,4236.922973,4244.10246,4223.07682,4233.33323,4232.307589,4232.307589,4224.615281,4233.84605
115,0,4291.794767,4231.794768,4243.076819,4248.717845,4227.179384,4229.743486,4230.769127,4237.948614,4217.435794,4228.205025,4231.281948,4230.256307,4217.435794,4236.410153
116,0,4294.87169,4230.256307,4236.922973,4245.640922,4219.487076,4228.205025,4234.358871,4239.487076,4224.615281,4231.281948,4231.281948,4231.794768,4219.487076,4241.538358
117,0,4292.820408,4233.84605,4231.794768,4242.563999,4226.666563,4231.281948,4234.358871,4235.897332,4222.563999,4233.33323,4232.307589,4231.794768,4217.948615,4231.794768
118,0,4293.333228,4233.84605,4232.307589,4243.58964,4233.84605,4232.307589,4229.743486,4232.307589,4215.897333,4231.794768,4233.84605,4230.769127,4219.487076,4230.256307
119,0,4297.435792,4229.230666,4233.33323,4247.692204,4221.538358,4223.07682,4230.769127,4233.84605,4217.948615,4228.717845,4229.230666,4230.256307,4223.58964,4242.051178
120,0,4298.461433,4229.230666,4236.410153,4246.153742,4212.307589,4216.410153,4229.743486,4232.307589,4217.435794,4225.640922,4233.84605,4230.256307,4218.461435,4237.948614
121,0,4298.461433,4236.410153,4244.10246,4244.10246,4219.999897,4219.999897,4228.205025,4232.820409,4218.461435,4230.769127,4248.205024,4231.794768,4219.999897,4236.922973
122,0,4297.435792,4236.410153,4247.179383,4250.256306,4220.512717,4220.512717,4230.769127,4233.33323,4218.974256,4230.256307,4245.128101,4233.84605,4224.615281,4249.743486
123,0,4292.307587,4229.743486,4244.10246,4246.153742,4211.281948,4215.384512,4228.205025,4222.563999,4209.230666,4217.435794,4230.256307,4231.281948,4217.435794,4249.743486
124,0,4289.230664,4229.230666,4242.051178,4236.410153,4214.358871,4214.871692,4219.487076,4216.410153,4202.564,4212.82041,4231.281948,4229.743486,4213.33323,4244.10246
125,0,4292.307587,4233.84605,4237.435794,4239.487076,4218.974256,4215.897333,4216.410153,4223.07682,4208.205025,4217.435794,4241.538358,4230.769127,4216.922974,4243.58964
126,0,4296.410151,4236.922973,4235.897332,4249.743486,4219.487076,4217.948615,4223.07682,4228.717845,4215.897333,4222.563999,4242.563999,4230.256307,4219.487076,4243.58964
127,0,4291.794767,4232.307589,4237.435794,4248.717845,4223.07682,4218.974256,4230.769127,4230.256307,4217.948615,4228.205025,4238.461435,4230.769127,4219.487076,4246.666563
128,0,4279.487075,4226.153743,4233.84605,4239.487076,4219.487076,4215.897333,4228.205025,4231.794768,4217.435794,4232.307589,4234.358871,4229.743486,4218.461435,4246.666563
0,0,4276.922972,4228.717845,4230.769127,4235.384512,4210.769128,4214.358871,4220.512717,4229.230666,4217.435794,4229.743486,4232.820409,4222.563999,4214.358871,4233.84605
1,0,4278.974254,4231.794768,4228.205025,4235.897332,4211.281948,4214.871692,4217.435794,4221.025538,4212.307589,4221.025538,4232.820409,4216.922974,4213.33323,4231.794768
2,0,4268.205024,4229.230666,4220.512717,4234.358871,4215.384512,4214.358871,4216.922974,4214.358871,4202.564,4212.82041,4229.743486,4216.922974,4213.846051,4242.051178
3,0,4263.076819,4226.153743,4217.948615,4233.33323,4213.33323,4212.307589,4212.82041,4214.358871,4198.974256,4212.82041,4226.666563,4216.410153,4214.358871,4243.58964
4,0,4276.922972,4232.820409,4227.179384,4239.487076,4213.33323,4211.794769,4214.871692,4217.948615,4206.153743,4216.410153,4230.256307,4219.487076,4214.358871,4243.58964
5,0,4284.61528,4236.922973,4234.871691,4245.640922,4210.769128,4213.33323,4223.07682,4218.974256,4214.358871,4215.897333,4238.974255,4229.743486,4215.897333,4249.743486
6,0,4278.461434,4224.615281,4233.33323,4239.999896,4202.564,4213.33323,4223.07682,4217.948615,4214.871692,4216.922974,4238.974255,4230.769127,4219.487076,4252.820409
7,0,4272.307588,4218.974256,4230.769127,4234.871691,4202.564,4213.33323,4217.948615,4217.948615,4213.846051,4214.871692,4235.897332,4221.538358,4218.461435,4249.743486
8,0,4266.666562,4226.153743,4225.640922,4232.307589,4205.640923,4207.692205,4217.435794,4215.897333,4211.281948,4205.640923,4230.769127,4216.410153,4207.692205,4248.205024
9,0,4257.948614,4222.051179,4216.410153,4227.179384,4205.128102,4200.512718,4214.871692,4211.794769,4203.589641,4198.461436,4218.461435,4214.871692,4198.461436,4246.666563
10,0,4251.794768,4214.871692,4215.384512,4226.666563,4207.692205,4205.128102,4214.358871,4211.794769,4199.999897,4203.589641,4221.025538,4213.846051,4203.07682,4246.153742
11,0,4246.666563,4216.922974,4219.487076,4229.743486,4212.307589,4215.384512,4218.974256,4215.897333,4208.717846,4215.384512,4234.358871,4214.358871,4215.897333,4247.179383
12,0,4246.153742,4220.512717,4219.999897,4233.33323,4215.384512,4214.871692,4220.512717,4217.435794,4216.410153,4220.512717,4235.384512,4216.410153,4221.025538,4249.743486
13,0,4253.333229,4223.07682,4223.58964,4234.871691,4213.33323,4211.794769,4217.948615,4216.410153,4214.358871,4217.948615,4234.871691,4217.948615,4217.948615,4254.871691
14,0,4258.974255,4219.999897,4228.717845,4233.84605,4205.640923,4213.846051,4218.974256,4215.897333,4209.743487,4214.358871,4241.025537,4218.461435,4214.358871,4258.461434
15,0,4257.435793,4217.948615,4227.179384,4237.435794,4203.589641,4213.846051,4220.512717,4217.435794,4209.743487,4213.846051,4234.358871,4216.922974,4214.358871,4258.974255
16,0,4257.948614,4229.743486,4226.666563,4246.666563,4213.846051,4214.358871,4221.538358,4216.922974,4213.33323,4216.922974,4226.666563,4215.897333,4216.410153,4258.461434
17,0,4259.999896,4235.897332,4225.640922,4244.615281,4220.512717,4214.871692,4221.538358,4215.897333,4216.410153,4218.461435,4229.230666,4217.435794,4215.897333,4256.922973
18,0,4253.333229,4227.179384,4219.487076,4231.794768,4212.82041,4211.281948,4217.435794,4216.410153,4215.897333,4218.461435,4232.820409,4218.974256,4217.948615,4261.538357
19,0,4250.769127,4227.179384,4216.922974,4233.33323,4206.666564,4212.307589,4213.846051,4217.435794,4216.410153,4218.974256,4239.999896,4219.999897,4225.640922,4272.307588
20,0,4257.948614,4230.769127,4219.999897,4239.999896,4210.256307,4212.307589,4214.871692,4215.897333,4216.410153,4216.410153,4245.128101,4218.974256,4225.640922,4272.307588
21,0,4254.871691,4232.307589,4218.974256,4232.307589,4214.871692,4204.102461,4215.384512,4215.384512,4212.82041,4212.82041,4238.461435,4216.922974,4216.410153,4262.563998
22,0,4246.153742,4228.717845,4216.410153,4231.281948,4211.794769,4201.025538,4214.358871,4216.922974,4211.794769,4213.846051,4232.820409,4215.384512,4216.410153,4260.512716
23,0,4247.179383,4217.435794,4216.922974,4241.538358,4207.179384,4209.230666,4214.871692,4216.922974,4214.358871,4213.846051,4233.33323,4213.846051,4220.512717,4265.128101
24,0,4247.179383,4218.461435,4216.410153,4239.487076,4209.743487,4214.358871,4214.871692,4217.948615,4214.358871,4211.281948,4232.307589,4213.33323,4214.358871,4260.512716
25,0,4244.10246,4229.743486,4215.897333,4229.230666,4216.410153,4213.846051,4213.33323,4225.640922,4219.487076,4216.410153,4233.33323,4215.384512,4213.33323,4255.384511
26,0,4256.410152,4236.410153,4224.615281,4236.410153,4221.025538,4215.384512,4214.871692,4229.230666,4225.640922,4228.717845,4244.615281,4218.974256,4230.769127,4271.794767
27,0,4267.179383,4233.84605,4232.307589,4248.205024,4217.948615,4212.82041,4216.410153,4221.538358,4218.461435,4227.179384,4251.281947,4219.999897,4237.948614,4287.692203
28,0,4254.35887,4224.102461,4223.58964,4241.538358,4210.769128,4203.589641,4212.82041,4212.307589,4209.743487,4209.230666,4240.512717,4218.461435,4222.051179,4274.87169
29,0,4239.487076,4214.871692,4213.33323,4232.307589,4210.769128,4201.538359,4211.794769,4214.358871,4212.82041,4203.589641,4229.743486,4216.410153,4211.794769,4259.487075
30,0,4241.538358,4215.384512,4214.871692,4234.871691,4215.384512,4209.230666,4216.922974,4224.615281,4217.948615,4213.33323,4234.358871,4214.871692,4218.974256,4264.10246
31,0,4248.205024,4218.461435,4216.922974,4240.512717,4215.384512,4214.871692,4218.974256,4232.820409,4218.461435,4219.487076,4241.025537,4217.435794,4222.563999,4270.769126
32,0,4244.615281,4217.435794,4212.307589,4236.922973,4210.256307,4211.281948,4214.358871,4230.769127,4217.948615,4215.384512,4230.769127,4214.358871,4213.846051,4265.640921
33,0,4241.538358,4215.897333,4211.281948,4230.769127,4209.230666,4203.589641,4211.281948,4221.538358,4215.897333,4207.692205,4222.563999,4204.615282,4207.692205,4256.922973
34,0,4248.205024,4215.384512,4216.410153,4236.410153,4213.33323,4203.589641,4213.846051,4218.461435,4214.871692,4205.128102,4228.717845,4206.153743,4211.794769,4254.35887
35,0,4253.333229,4225.128102,4219.999897,4245.128101,4215.897333,4210.256307,4214.871692,4219.999897,4215.384512,4213.33323,4234.358871,4215.897333,4216.922974,4261.025537
36,0,4251.794768,4235.384512,4223.58964,4246.153742,4215.897333,4210.769128,4212.82041,4218.974256,4212.82041,4215.897333,4235.897332,4217.435794,4217.435794,4266.666562
37,0,4253.333229,4231.794768,4224.615281,4242.563999,4214.358871,4210.256307,4212.82041,4218.461435,4211.794769,4205.640923,4236.922973,4215.384512,4218.461435,4263.076819
38,0,4253.333229,4225.128102,4223.58964,4236.922973,4215.897333,4214.358871,4214.871692,4221.538358,4214.871692,4204.102461,4239.487076,4217.435794,4221.538358,4263.589639
39,0,4250.256306,4221.538358,4222.563999,4234.358871,4218.974256,4215.384512,4212.82041,4221.025538,4214.358871,4209.743487,4242.563999,4216.922974,4220.512717,4268.205024
40,0,4249.230665,4218.461435,4221.538358,4234.871691,4217.948615,4214.871692,4206.153743,4217.435794,4211.794769,4204.102461,4241.538358,4214.358871,4214.358871,4265.128101
41,0,4246.666563,4221.025538,4221.025538,4234.358871,4217.435794,4216.410153,4207.692205,4221.025538,4213.33323,4196.922974,4233.84605,4213.846051,4209.230666,4259.487075
42,0,4243.58964,4232.820409,4226.666563,4240.512717,4221.538358,4217.948615,4216.922974,4231.794768,4217.948615,4207.179384,4235.897332,4214.358871,4210.256307,4261.538357
43,0,4249.743486,4237.435794,4234.358871,4248.205024,4223.07682,4222.051179,4218.974256,4237.948614,4219.999897,4217.435794,4245.128101,4221.025538,4217.948615,4266.153742
44,0,4255.384511,4225.128102,4230.769127,4241.025537,4214.358871,4215.384512,4214.871692,4232.820409,4218.974256,4206.153743,4243.076819,4219.487076,4215.897333,4266.666562
45,0,4246.153742,4215.897333,4217.948615,4230.769127,4207.179384,4201.538359,4210.769128,4225.128102,4215.897333,4194.358872,4229.230666,4206.666564,4204.102461,4257.948614
46,0,4237.435794,4225.128102,4213.846051,4230.769127,4210.769128,4202.564,4204.615282,4223.07682,4213.846051,4198.461436,4220.512717,4205.128102,4197.948615,4248.205024
47,0,4246.153742,4235.384512,4219.999897,4235.384512,4217.948615,4216.410153,4203.07682,4223.07682,4214.871692,4206.153743,4230.256307,4216.922974,4208.205025,4256.922973
48,0,4248.205024,4229.743486,4221.025538,4238.461435,4218.974256,4220.512717,4206.153743,4221.025538,4215.897333,4204.615282,4238.974255,4216.922974,4217.435794,4266.153742
49,0,4232.307589,4217.435794,4212.82041,4234.871691,4216.410153,4214.871692,4202.051179,4216.922974,4213.846051,4204.102461,4231.794768,4204.102461,4212.307589,4252.307588
50,0,4227.692204,4216.922974,4212.82041,4233.84605,4212.307589,4215.897333,4199.487077,4215.897333,4216.410153,4211.281948,4229.743486,4201.538359,4212.82041,4243.58964
51,0,4232.820409,4217.435794,4214.358871,4241.538358,4205.640923,4215.897333,4204.102461,4216.410153,4217.435794,4211.281948,4231.794768,4203.589641,4215.384512,4254.35887
52,0,4230.256307,4205.640923,4207.692205,4243.076819,4202.051179,4209.230666,4204.615282,4216.410153,4208.205025,4202.564,4221.538358,4199.999897,4206.666564,4248.205024
53,0,4225.128102,4199.487077,4204.102461,4241.025537,4204.615282,4208.717846,4202.564,4216.922974,4205.128102,4198.974256,4213.33323,4196.922974,4196.410154,4233.33323
54,0,4221.025538,4204.615282,4205.640923,4248.205024,4197.948615,4210.256307,4200.512718,4218.974256,4212.82041,4202.051179,4214.358871,4192.82041,4197.435795,4233.33323
55,0,4216.410153,4202.564,4206.153743,4253.84605,4187.179385,4205.640923,4201.538359,4219.999897,4218.974256,4204.615282,4216.922974,4188.717846,4201.538359,4231.794768
56,0,4211.281948,4200.512718,4204.102461,4247.692204,4187.179385,4200.512718,4201.538359,4218.461435,4214.871692,4203.589641,4213.846051,4186.153744,4194.358872,4218.974256
57,0,4207.179384,4197.435795,4199.487077,4242.563999,4189.230667,4199.999897,4193.333231,4213.846051,4204.615282,4192.30759,4207.692205,4182.564,4182.05118,4213.33323
58,0,4210.256307,4188.205026,4197.435795,4244.615281,4184.615282,4202.051179,4191.281949,4211.281948,4198.974256,4183.589641,4206.153743,4181.025539,4184.615282,4223.07682
59,0,4216.410153,4192.30759,4200.512718,4241.025537,4186.666564,4203.589641,4196.410154,4207.692205,4201.025538,4191.281949,4211.794769,4187.692205,4200.512718,4232.820409
60,0,4213.33323,4204.615282,4199.999897,4233.84605,4193.333231,4201.025538,4191.794769,4200.512718,4199.999897,4197.948615,4213.33323,4188.717846,4202.051179,4233.33323
61,0,4209.743487,4202.564,4196.922974,4238.974255,4191.281949,4199.999897,4185.640923,4202.564,4199.487077,4202.051179,4214.358871,4184.615282,4197.435795,4229.230666
62,0,4213.846051,4196.922974,4198.974256,4249.743486,4185.128103,4207.692205,4192.82041,4215.897333,4213.33323,4214.871692,4225.640922,4192.82041,4208.717846,4231.794768
63,0,4217.435794,4204.615282,4202.564,4245.640922,4185.128103,4209.230666,4199.999897,4221.025538,4220.512717,4223.58964,4229.743486,4203.589641,4218.974256,4245.128101
64,0,4214.871692,4205.128102,4202.564,4236.410153,4187.692205,4202.564,4197.435795,4218.461435,4216.922974,4214.871692,4223.58964,4198.974256,4212.82041,4245.640922
65,0,4205.640923,4188.717846,4195.897333,4233.33323,4185.640923,4198.461436,4193.333231,4216.410153,4213.33323,4204.102461,4216.922974,4189.230667,4202.051179,4233.84605
66,0,4200.512718,4183.076821,4193.333231,4230.256307,4183.076821,4199.487077,4192.30759,4215.384512,4207.179384,4199.999897,4213.33323,4192.30759,4199.999897,4234.871691
67,0,4209.743487,4199.487077,4201.538359,4232.307589,4186.153744,4203.589641,4197.435795,4217.435794,4204.615282,4199.999897,4214.871692,4201.538359,4208.205025,4247.692204
68,0,4217.948615,4208.205025,4203.589641,4236.922973,4189.230667,4203.589641,4197.948615,4217.435794,4209.743487,4204.615282,4214.871692,4200.512718,4212.307589,4246.153742
69,0,4215.897333,4199.999897,4203.07682,4235.384512,4188.205026,4201.538359,4195.897333,4214.358871,4215.384512,4213.33323,4217.948615,4198.461436,4213.846051,4242.563999
70,0,4216.410153,4205.640923,4211.794769,4235.897332,4186.153744,4205.128102,4201.025538,4218.461435,4217.435794,4218.974256,4221.025538,4202.564,4218.461435,4248.205024
71,0,4218.461435,4212.82041,4210.769128,4238.974255,4185.128103,4205.128102,4198.974256,4217.435794,4212.82041,4208.717846,4215.897333,4198.974256,4213.846051,4241.538358
72,0,4213.846051,4205.128102,4196.410154,4234.358871,4184.615282,4197.435795,4184.102462,4203.07682,4200.512718,4195.897333,4202.564,4185.128103,4197.435795,4228.205025
73,0,4213.33323,4198.461436,4194.358872,4228.205025,4186.153744,4203.589641,4182.05118,4201.538359,4198.974256,4194.358872,4197.948615,4183.076821,4194.871692,4226.666563
74,0,4216.410153,4197.435795,4199.999897,4230.256307,4191.281949,4215.384512,4193.333231,4215.897333,4211.281948,4199.999897,4207.692205,4193.333231,4209.743487,4230.256307
75,0,4207.179384,4198.461436,4198.974256,4231.281948,4195.897333,4211.794769,4198.974256,4219.487076,4216.922974,4209.743487,4215.384512,4195.384513,4218.461435,4231.281948
76,0,4198.461436,4201.025538,4197.435795,4230.769127,4193.333231,4205.128102,4197.435795,4214.871692,4215.897333,4215.897333,4217.948615,4193.333231,4216.922974,4231.281948
77,0,4208.205025,4201.538359,4201.025538,4233.84605,4188.717846,4207.692205,4196.922974,4216.922974,4218.974256,4218.461435,4222.563999,4199.487077,4216.922974,4234.871691
78,0,4217.948615,4202.051179,4203.07682,4233.33323,4190.256308,4208.205025,4199.487077,4219.999897,4219.487076,4215.897333,4218.461435,4202.051179,4221.538358,4237.948614
79,0,4214.358871,4204.102461,4199.999897,4228.205025,4187.692205,4202.564,4196.410154,4215.897333,4214.871692,4206.153743,4204.102461,4199.487077,4213.846051,4234.871691
80,0,4213.33323,4199.999897,4198.974256,4228.205025,4183.589641,4203.589641,4189.230667,4213.846051,4213.33323,4199.487077,4204.102461,4198.974256,4204.102461,4229.230666
81,0,4215.384512,4197.435795,4199.487077,4231.794768,4190.256308,4209.743487,4190.769128,4213.846051,4215.384512,4201.025538,4209.230666,4193.846051,4211.281948,4225.640922
82,0,4206.153743,4203.07682,4193.333231,4229.743486,4193.846051,4206.666564,4190.769128,4211.794769,4213.846051,4199.999897,4198.461436,4183.076821,4214.358871,4219.999897
83,0,4195.897333,4201.025538,4186.666564,4226.666563,4186.666564,4200.512718,4186.666564,4212.82041,4214.871692,4198.974256,4195.897333,4183.589641,4206.153743,4215.384512
84,0,4196.410154,4191.281949,4187.179385,4227.179384,4179.487077,4202.564,4187.692205,4217.435794,4216.922974,4202.051179,4205.128102,4187.692205,4201.538359,4213.846051
85,0,4196.410154,4184.102462,4186.153744,4223.07682,4174.871693,4204.615282,4189.230667,4215.897333,4214.358871,4200.512718,4202.051179,4185.640923,4203.589641,4211.794769
86,0,4191.794769,4183.076821,4185.128103,4218.974256,4174.871693,4201.538359,4186.153744,4214.358871,4215.384512,4201.025538,4195.897333,4184.615282,4208.205025,4214.358871
87,0,4187.692205,4189.230667,4187.692205,4218.974256,4177.948616,4201.025538,4184.102462,4211.281948,4212.307589,4197.435795,4197.435795,4186.153744,4209.743487,4216.410153
88,0,4189.230667,4197.948615,4187.179385,4218.461435,4179.999898,4202.051179,4185.128103,4206.666564,4203.07682,4187.179385,4199.487077,4186.153744,4211.281948,4213.33323
89,0,4193.846051,4201.025538,4185.640923,4218.974256,4182.564,4201.025538,4185.640923,4208.205025,4206.666564,4190.769128,4197.948615,4187.179385,4212.82041,4214.358871
90,0,4188.205026,4196.410154,4185.128103,4217.948615,4183.589641,4198.461436,4183.589641,4206.666564,4211.794769,4198.461436,4196.410154,4184.615282,4208.717846,4214.871692
91,0,4184.102462,4197.435795,4186.153744,4218.974256,4181.538359,4198.461436,4183.076821,4204.102461,4208.205025,4194.871692,4199.487077,4189.230667,4204.102461,4212.82041
92,0,4192.30759,4203.07682,4191.281949,4224.102461,4184.102462,4203.07682,4186.153744,4213.846051,4212.307589,4195.897333,4205.128102,4201.538359,4213.33323,4215.897333
93,0,4192.82041,4198.974256,4193.333231,4223.07682,4186.153744,4203.07682,4187.179385,4221.538358,4218.974256,4204.102461,4205.128102,4198.974256,4219.999897,4221.538358
94,0,4185.640923,4192.82041,4188.717846,4217.435794,4179.999898,4198.974256,4185.640923,4216.410153,4215.384512,4204.102461,4202.564,4193.846051,4215.384512,4227.179384
95,0,4186.666564,4197.948615,4187.692205,4217.948615,4174.358872,4198.974256,4184.102462,4213.846051,4212.82041,4195.384513,4201.538359,4195.897333,4218.974256,4225.128102
96,0,4181.025539,4203.07682,4190.256308,4216.410153,4173.846052,4199.999897,4183.589641,4214.871692,4215.897333,4191.281949,4199.487077,4195.384513,4218.974256,4217.948615
97,0,4175.384513,4194.358872,4188.717846,4216.922974,4175.384513,4202.564,4185.640923,4214.871692,4216.922974,4195.897333,4203.07682,4193.333231,4211.794769,4219.999897
98,0,4179.999898,4185.128103,4186.666564,4220.512717,4173.333231,4200.512718,4184.102462,4215.897333,4211.281948,4194.358872,4196.410154,4190.769128,4210.256307,4216.922974
99,0,4175.384513,4187.692205,4184.102462,4212.307589,4174.358872,4190.769128,4176.922975,4208.205025,4201.538359,4181.538359,4184.102462,4184.102462,4206.666564,4201.025538
100,0,4163.589642,4191.281949,4181.538359,4204.615282,4183.076821,4190.769128,4174.871693,4199.999897,4196.410154,4177.948616,4186.153744,4183.076821,4200.512718,4199.999897
101,0,4164.615283,4190.256308,4183.589641,4213.33323,4184.615282,4199.487077,4179.487077,4205.128102,4197.435795,4186.666564,4191.794769,4188.717846,4200.512718,4208.205025
102,0,4170.769129,4191.281949,4186.153744,4215.897333,4176.922975,4201.538359,4185.128103,4215.897333,4203.07682,4187.692205,4190.256308,4187.179385,4203.07682,4203.07682
103,0,4169.743488,4191.281949,4185.128103,4204.615282,4173.333231,4198.974256,4186.153744,4217.948615,4211.794769,4184.102462,4194.871692,4187.179385,4206.153743,4205.640923
104,0,4168.205026,4185.128103,4183.589641,4206.153743,4171.79477,4198.461436,4184.102462,4215.384512,4215.897333,4191.281949,4205.128102,4188.205026,4213.846051,4219.999897
105,0,4170.769129,4185.640923,4188.205026,4216.922974,4172.30759,4200.512718,4186.153744,4220.512717,4213.33323,4199.999897,4201.025538,4186.153744,4216.922974,4217.948615
106,0,4167.692206,4188.205026,4185.128103,4209.230666,4172.820411,4197.435795,4185.128103,4221.025538,4208.205025,4193.333231,4189.230667,4185.640923,4207.692205,4206.153743
107,0,4156.410155,4184.615282,4173.846052,4194.871692,4169.743488,4188.205026,4173.846052,4207.179384,4199.487077,4181.025539,4186.666564,4184.615282,4198.974256,4207.179384
108,0,4154.871693,4184.102462,4174.871693,4204.102461,4166.153744,4188.205026,4169.743488,4202.564,4194.358872,4177.435795,4186.666564,4185.640923,4200.512718,4216.922974
109,0,4166.153744,4181.025539,4184.102462,4215.384512,4168.717847,4198.461436,4178.461436,4208.205025,4196.410154,4173.846052,4184.615282,4189.230667,4202.051179,4221.538358
110,0,4169.230667,4179.487077,4185.640923,4204.102461,4176.410154,4202.051179,4182.564,4207.179384,4197.435795,4174.358872,4186.153744,4188.205026,4201.538359,4214.871692
111,0,4160.512719,4186.153744,4178.974257,4196.410154,4179.999898,4197.435795,4181.538359,4201.025538,4197.435795,4180.512718,4189.743487,4184.102462,4201.025538,4207.692205
112,0,4154.358873,4185.128103,4171.281949,4202.051179,4174.358872,4197.435795,4183.589641,4204.102461,4198.461436,4181.538359,4189.230667,4182.564,4200.512718,4205.128102
113,0,4155.897334,4182.05118,4170.769129,4203.07682,4169.743488,4198.461436,4185.640923,4211.281948,4199.487077,4178.974257,4190.256308,4183.589641,4199.487077,4202.051179
114,0,4163.589642,4185.640923,4179.999898,4201.025538,4170.769129,4196.922974,4184.102462,4209.743487,4201.538359,4181.025539,4193.333231,4183.076821,4199.999897,4201.025538
115,0,4169.230667,4184.615282,4183.589641,4203.589641,4170.769129,4196.410154,4183.076821,4203.589641,4202.051179,4184.615282,4193.846051,4182.05118,4202.564,4207.692205
116,0,4167.692206,4184.102462,4182.564,4203.07682,4173.846052,4198.461436,4179.487077,4203.07682,4201.025538,4181.538359,4194.871692,4185.640923,4203.07682,4217.948615
117,0,4158.974257,4187.179385,4182.05118,4200.512718,4181.025539,4201.025538,4173.846052,4206.153743,4198.974256,4177.948616,4192.30759,4190.256308,4199.999897,4217.948615
118,0,4147.692206,4184.102462,4176.922975,4201.025538,4183.076821,4199.999897,4176.922975,4203.589641,4198.974256,4177.435795,4186.153744,4181.538359,4196.410154,4203.589641
119,0,4146.153745,4178.974257,4170.256308,4197.948615,4179.999898,4200.512718,4184.102462,4207.692205,4201.538359,4180.512718,4189.743487,4168.205026,4198.461436,4193.846051
120,0,4151.28195,4173.846052,4171.281949,4198.461436,4177.948616,4200.512718,4182.564,4216.410153,4203.07682,4182.564,4199.487077,4174.871693,4202.564,4201.025538
121,0,4154.871693,4174.871693,4179.999898,4205.640923,4179.487077,4199.487077,4181.025539,4217.435794,4202.051179,4184.102462,4199.487077,4189.743487,4201.538359,4207.179384
122,0,4155.897334,4186.666564,4182.05118,4205.128102,4185.128103,4201.025538,4185.640923,4213.33323,4204.102461,4188.717846,4199.487077,4183.589641,4201.538359,4205.128102
123,0,4153.333232,4189.743487,4173.846052,4197.948615,4183.076821,4202.051179,4183.589641,4206.666564,4203.589641,4184.615282,4202.051179,4170.769129,4199.487077,4199.999897
124,0,4145.640924,4180.512718,4169.743488,4198.461436,4174.871693,4198.974256,4175.384513,4200.512718,4190.769128,4172.30759,4193.333231,4171.79477,4184.615282,4189.743487
125,0,4137.435796,4177.948616,4167.179385,4202.564,4175.384513,4195.897333,4170.769129,4196.410154,4180.512718,4164.615283,4181.025539,4170.256308,4172.820411,4177.435795
126,0,4133.333232,4177.948616,4163.076821,4198.461436,4182.564,4200.512718,4175.384513,4203.07682,4185.128103,4170.769129,4181.025539,4164.615283,4180.512718,4180.512718
127,0,4136.410155,4174.358872,4165.128103,4193.846051,4187.179385,4207.179384,4181.538359,4211.281948,4192.82041,4176.922975,4190.256308,4168.717847,4186.666564,4186.153744
128,0,4137.435796,4173.846052,4167.179385,4196.922974,4187.692205,4204.615282,4174.871693,4207.179384,4193.333231,4170.769129,4190.256308,4169.230667,4176.410154,4173.333231
0,0,4133.333232,4178.461436,4163.076821,4201.025538,4182.564,4199.999897,4168.205026,4204.102461,4194.871692,4168.205026,4189.230667,4165.128103,4175.384513,4168.717847
1,0,4126.153745,4183.589641,4166.153744,4196.922974,4173.333231,4202.051179,4176.410154,4214.358871,4201.025538,4177.948616,4197.948615,4176.410154,4186.153744,4182.564
2,0,4121.02554,4175.897334,4170.256308,4188.717846,4168.717847,4203.07682,4182.564,4221.025538,4204.615282,4187.179385,4202.051179,4184.615282,4187.179385,4190.256308
3,0,4128.717848,4164.615283,4169.230667,4190.769128,4170.769129,4198.461436,4174.871693,4215.384512,4202.051179,4186.666564,4202.051179,4173.846052,4185.128103,4188.717846
4,0,4134.871694,4171.79477,4170.256308,4199.487077,4169.743488,4197.435795,4170.256308,4209.743487,4195.384513,4182.564,4206.153743,4166.153744,4189.743487,4190.256308
5,0,4125.640925,4179.999898,4168.205026,4199.487077,4167.692206,4199.999897,4170.769129,4204.102461,4188.205026,4175.384513,4205.128102,4169.743488,4189.230667,4189.230667
6,0,4118.974258,4174.871693,4166.153744,4189.230667,4169.743488,4199.999897,4171.281949,4201.025538,4183.589641,4163.076821,4194.871692,4171.281949,4179.487077,4182.564
7,0,4124.102463,4170.256308,4170.769129,4184.615282,4175.384513,4199.999897,4173.333231,4206.153743,4182.05118,4159.487078,4198.974256,4169.743488,4175.384513,4177.948616
8,0,4122.051181,4169.230667,4165.640924,4186.153744,4181.538359,4204.102461,4173.846052,4211.281948,4184.102462,4166.153744,4203.589641,4169.230667,4172.820411,4173.846052
9,0,4113.333233,4172.820411,4154.358873,4191.281949,4186.666564,4205.128102,4176.410154,4213.846051,4192.30759,4171.281949,4194.358872,4170.256308,4171.79477,4171.79477
10,0,4117.435797,4182.564,4159.487078,4198.461436,4188.717846,4203.07682,4182.05118,4215.897333,4198.974256,4171.79477,4196.922974,4169.230667,4181.025539,4171.79477
11,0,4123.589643,4185.128103,4170.769129,4201.025538,4185.128103,4209.743487,4184.102462,4216.922974,4198.974256,4173.333231,4210.256307,4169.230667,4187.692205,4176.922975
12,0,4125.128104,4184.102462,4171.281949,4199.487077,4182.564,4217.435794,4184.102462,4218.461435,4202.051179,4177.435795,4210.769128,4174.358872,4183.076821,4182.05118
13,0,4122.564002,4187.692205,4162.564001,4199.999897,4182.564,4209.743487,4179.487077,4216.922974,4202.564,4171.281949,4198.461436,4174.871693,4171.281949,4173.333231
14,0,4116.410156,4177.948616,4157.948616,4200.512718,4184.102462,4202.564,4176.410154,4211.281948,4192.30759,4156.410155,4194.871692,4168.205026,4163.076821,4164.615283
15,0,4110.25631,4169.230667,4156.410155,4197.948615,4183.076821,4206.153743,4175.897334,4204.615282,4184.102462,4157.948616,4203.07682,4164.615283,4173.846052,4167.692206
16,0,4104.102464,4181.538359,4153.846052,4198.461436,4181.025539,4204.615282,4174.358872,4202.564,4185.640923,4166.666565,4202.564,4166.666565,4183.589641,4169.743488
17,0,4106.153746,4186.666564,4157.948616,4193.846051,4182.05118,4201.025538,4177.435795,4205.640923,4188.205026,4166.666565,4198.461436,4171.281949,4172.30759,4169.743488
18,0,4121.02554,4182.564,4170.256308,4188.717846,4183.589641,4201.538359,4182.05118,4204.102461,4186.666564,4161.53836,4206.666564,4170.256308,4170.256308,4177.435795
19,0,4125.128104,4184.102462,4172.820411,4196.922974,4182.564,4202.051179,4181.025539,4203.07682,4184.102462,4161.53836,4217.435794,4169.743488,4177.948616,4186.666564
20,0,4115.384515,4177.435795,4167.179385,4205.640923,4184.615282,4205.128102,4181.025539,4209.230666,4187.179385,4166.153744,4220.512717,4176.922975,4172.30759,4194.871692
21,0,4114.871694,4171.281949,4168.717847,4195.897333,4187.692205,4211.794769,4183.076821,4212.82041,4190.769128,4167.179385,4214.871692,4177.435795,4175.384513,4197.435795
22,0,4123.076822,4182.564,4166.153744,4185.128103,4187.179385,4212.307589,4177.435795,4209.230666,4188.717846,4164.615283,4204.102461,4169.743488,4185.640923,4187.692205
23,0,4121.02554,4187.179385,4162.564001,4183.076821,4185.128103,4208.717846,4176.410154,4209.230666,4189.743487,4172.30759,4202.051179,4168.205026,4179.487077,4181.025539
24,0,4117.435797,4182.05118,4166.666565,4186.666564,4186.153744,4209.743487,4179.487077,4213.846051,4199.487077,4186.153744,4218.974256,4169.743488,4177.435795,4192.82041
25,0,4128.205027,4187.692205,4171.281949,4196.922974,4189.743487,4213.33323,4174.358872,4215.384512,4205.128102,4187.179385,4232.820409,4169.743488,4189.230667,4205.128102
26,0,4137.948617,4189.743487,4174.871693,4188.205026,4191.794769,4215.384512,4175.384513,4214.358871,4202.564,4188.717846,4229.230666,4172.820411,4192.30759,4205.640923
27,0,4139.999899,4183.076821,4176.410154,4158.974257,4189.743487,4213.33323,4183.076821,4217.435794,4199.999897,4193.333231,4227.179384,4172.820411,4188.717846,4205.640923
28,0,4136.410155,4185.640923,4172.820411,4147.179386,4187.179385,4212.307589,4183.076821,4214.358871,4199.487077,4187.179385,4230.769127,4169.230667,4190.769128,4203.589641
29,0,4131.28195,4186.666564,4169.743488,4153.333232,4188.205026,4216.922974,4179.487077,4207.179384,4197.948615,4181.538359,4225.128102,4173.333231,4185.640923,4203.589641
30,0,4130.76913,4173.333231,4168.717847,4155.384514,4182.05118,4211.794769,4174.871693,4203.07682,4190.769128,4182.564,4212.307589,4168.717847,4169.230667,4201.538359
31,0,4138.974258,4164.615283,4168.205026,4150.769129,4172.820411,4199.999897,4173.333231,4202.564,4184.615282,4183.589641,4219.487076,4158.974257,4171.281949,4192.30759
32,0,4149.230668,4170.769129,4173.333231,4150.769129,4170.769129,4204.102461,4175.897334,4207.179384,4192.30759,4185.128103,4238.461435,4165.640924,4185.128103,4191.794769
33,0,4144.615283,4184.102462,4175.384513,4164.615283,4173.333231,4213.33323,4178.461436,4213.846051,4198.461436,4185.640923,4231.794768,4175.384513,4175.897334,4195.897333
34,0,4138.461437,4189.230667,4169.743488,4180.512718,4179.999898,4208.717846,4174.871693,4215.384512,4195.384513,4184.102462,4217.435794,4171.281949,4167.692206,4192.82041
35,0,4146.666565,4174.871693,4169.230667,4153.333232,4179.487077,4201.025538,4171.79477,4213.33323,4192.82041,4182.564,4223.07682,4168.205026,4184.615282,4196.410154
36,0,4147.179386,4164.102462,4172.820411,4102.051182,4171.79477,4203.589641,4176.410154,4215.384512,4196.410154,4180.512718,4230.769127,4174.358872,4186.666564,4205.640923
37,0,4142.564001,4175.384513,4173.846052,4091.794772,4172.820411,4210.256307,4181.025539,4217.435794,4199.999897,4182.564,4229.230666,4174.358872,4175.897334,4201.538359
38,0,4147.692206,4184.102462,4174.358872,4106.153746,4182.05118,4215.384512,4178.461436,4216.410153,4200.512718,4188.717846,4232.820409,4168.717847,4186.153744,4198.974256
39,0,4153.846052,4184.102462,4177.948616,4106.153746,4182.564,4211.794769,4171.281949,4213.846051,4199.999897,4190.256308,4230.769127,4175.897334,4190.769128,4208.205025
40,0,4158.974257,4189.230667,4183.589641,4106.666566,4181.025539,4205.640923,4170.769129,4212.307589,4200.512718,4188.205026,4229.743486,4181.538359,4185.128103,4207.179384
41,0,4169.230667,4186.666564,4189.743487,4110.76913,4185.128103,4210.256307,4177.948616,4216.410153,4203.589641,4191.794769,4242.563999,4183.076821,4191.281949,4215.897333
42,0,4174.871693,4183.076821,4192.30759,4111.794771,4181.025539,4213.33323,4183.589641,4218.974256,4201.025538,4193.846051,4244.615281,4193.333231,4190.769128,4235.384512
43,0,4169.230667,4192.82041,4190.256308,4117.948617,4175.384513,4212.307589,4184.615282,4217.435794,4196.922974,4185.640923,4235.897332,4194.871692,4183.589641,4224.102461
44,0,4162.564001,4194.358872,4187.179385,4117.948617,4173.846052,4214.358871,4183.589641,4218.974256,4199.487077,4184.102462,4239.999896,4170.769129,4186.666564,4194.871692
45,0,4155.897334,4184.102462,4184.102462,4107.179387,4176.410154,4215.897333,4184.615282,4221.538358,4202.051179,4194.871692,4247.179383,4160.512719,4188.205026,4195.384513
46,0,4151.28195,4181.538359,4181.538359,4107.179387,4182.05118,4213.846051,4186.153744,4218.974256,4199.487077,4199.999897,4242.563999,4176.922975,4182.564,4205.640923
47,0,4157.435796,4186.153744,4182.564,4113.333233,4185.640923,4214.871692,4186.666564,4217.435794,4205.128102,4197.948615,4243.076819,4183.589641,4182.05118,4198.461436
48,0,4165.640924,4186.666564,4186.153744,4115.897335,4186.153744,4219.999897,4188.205026,4221.538358,4218.461435,4200.512718,4249.230665,4182.564,4190.769128,4204.615282
49,0,4168.717847,4187.692205,4184.102462,4117.948617,4185.128103,4217.948615,4187.179385,4226.153743,4221.025538,4206.666564,4250.769127,4183.589641,4196.410154,4221.025538
50,0,4166.153744,4186.153744,4182.05118,4117.948617,4187.179385,4215.897333,4188.205026,4229.230666,4218.461435,4205.640923,4249.230665,4174.871693,4193.846051,4211.794769
51,0,4170.256308,4184.102462,4186.666564,4119.487079,4188.717846,4218.461435,4190.769128,4228.717845,4217.435794,4191.794769,4245.640922,4175.384513,4185.128103,4197.435795
52,0,4177.435795,4185.128103,4191.281949,4123.589643,4183.589641,4213.846051,4189.743487,4228.205025,4211.794769,4182.05118,4244.615281,4197.948615,4179.487077,4201.538359
53,0,4173.333231,4184.102462,4188.717846,4113.846053,4173.333231,4202.564,4187.179385,4226.666563,4202.051179,4185.640923,4237.435794,4210.769128,4182.05118,4206.153743
54,0,4168.717847,4187.179385,4186.153744,4103.589643,4173.333231,4198.974256,4187.692205,4219.487076,4198.461436,4185.640923,4230.769127,4193.333231,4192.30759,4202.564
55,0,4169.743488,4184.102462,4182.564,4110.76913,4182.564,4205.640923,4189.743487,4216.410153,4206.666564,4187.179385,4242.563999,4175.384513,4202.051179,4196.922974
56,0,4166.153744,4174.358872,4174.358872,4115.897335,4185.640923,4212.307589,4188.205026,4217.948615,4214.358871,4196.410154,4251.281947,4169.743488,4195.897333,4189.743487
57,0,4165.640924,4175.897334,4174.358872,4112.307592,4185.128103,4214.871692,4187.179385,4217.435794,4209.743487,4192.82041,4239.487076,4169.230667,4185.128103,4185.128103
58,0,4174.871693,4185.640923,4182.05118,4116.922976,4185.128103,4213.846051,4191.794769,4220.512717,4204.102461,4181.025539,4234.871691,4177.948616,4184.102462,4190.769128
59,0,4181.538359,4182.05118,4185.640923,4125.640925,4182.05118,4212.82041,4198.461436,4226.153743,4210.256307,4190.256308,4249.230665,4184.615282,4187.179385,4202.051179
60,0,4175.897334,4177.948616,4181.025539,4117.435797,4181.538359,4214.358871,4199.999897,4224.102461,4216.410153,4200.512718,4253.84605,4185.128103,4182.05118,4199.487077
61,0,4168.717847,4185.640923,4174.871693,4109.230669,4186.666564,4214.358871,4194.871692,4217.948615,4212.307589,4189.230667,4246.666563,4183.589641,4174.871693,4191.281949
62,0,4165.128103,4183.589641,4168.205026,4117.435797,4182.564,4213.33323,4193.333231,4216.922974,4209.743487,4182.05118,4247.179383,4176.410154,4180.512718,4193.846051
63,0,4168.717847,4176.410154,4167.692206,4122.051181,4175.384513,4212.82041,4198.461436,4222.563999,4215.897333,4192.30759,4249.743486,4172.820411,4187.179385,4190.769128
64,0,4181.025539,4177.435795,4178.974257,4117.435797,4176.922975,4212.82041,4205.128102,4231.794768,4219.999897,4202.051179,4255.897332,4187.692205,4184.102462,4185.128103
65,0,4187.179385,4185.640923,4186.666564,4119.487079,4184.615282,4217.435794,4210.256307,4236.410153,4219.999897,4204.615282,4276.922972,4200.512718,4188.205026,4201.025538
66,0,4185.640923,4190.256308,4187.179385,4126.153745,4187.692205,4222.051179,4212.82041,4233.84605,4221.025538,4203.589641,4282.563998,4201.538359,4198.461436,4224.615281
67,0,4189.230667,4187.692205,4191.281949,4123.076822,4184.615282,4217.435794,4210.769128,4232.307589,4217.948615,4201.025538,4263.589639,4198.974256,4199.487077,4222.051179
68,0,4192.82041,4191.281949,4191.281949,4119.487079,4185.640923,4214.358871,4208.205025,4231.794768,4213.846051,4199.487077,4260.512716,4191.281949,4202.051179,4208.717846
69,0,4182.564,4192.30759,4183.076821,4123.589643,4188.717846,4217.948615,4209.743487,4231.281948,4214.871692,4200.512718,4275.384511,4190.769128,4207.179384,4202.564
70,0,4175.897334,4184.102462,4181.538359,4123.076822,4186.666564,4218.974256,4210.256307,4231.794768,4216.410153,4201.538359,4274.35887,4197.948615,4195.897333,4202.051179
71,0,4178.974257,4185.128103,4187.179385,4110.25631,4185.640923,4215.897333,4211.794769,4232.820409,4215.384512,4195.897333,4268.717844,4191.794769,4186.666564,4205.128102
72,0,4174.358872,4187.179385,4184.615282,4102.564002,4186.153744,4214.871692,4214.358871,4233.84605,4216.922974,4188.205026,4270.256306,4183.076821,4188.205026,4197.948615
73,0,4174.358872,4181.025539,4181.538359,4108.717848,4185.640923,4216.410153,4214.871692,4234.871691,4217.435794,4190.256308,4261.025537,4190.256308,4185.640923,4189.230667
74,0,4182.05118,4189.230667,4185.640923,4112.820412,4191.794769,4219.487076,4215.897333,4237.435794,4219.487076,4201.538359,4254.871691,4193.846051,4184.102462,4188.717846
75,0,4175.897334,4199.487077,4181.025539,4106.153746,4196.922974,4218.974256,4212.82041,4234.358871,4221.025538,4204.615282,4262.051178,4183.589641,4189.230667,4187.692205
76,0,4167.179385,4184.615282,4174.871693,4103.589643,4188.205026,4214.358871,4209.743487,4231.794768,4217.435794,4198.461436,4261.025537,4185.128103,4186.666564,4189.743487
77,0,4177.948616,4177.435795,4182.05118,4113.846053,4182.564,4212.82041,4212.307589,4237.435794,4216.410153,4198.974256,4262.563998,4196.410154,4182.564,4197.435795
78,0,4188.205026,4187.179385,4189.743487,4124.102463,4189.230667,4217.435794,4219.487076,4239.487076,4219.487076,4205.128102,4275.384511,4201.025538,4193.333231,4205.128102
79,0,4183.589641,4191.281949,4187.179385,4124.102463,4189.230667,4220.512717,4225.640922,4237.948614,4219.487076,4204.615282,4274.87169,4195.897333,4202.564,4205.640923
80,0,4180.512718,4186.153744,4184.102462,4119.487079,4183.076821,4218.461435,4225.640922,4242.051178,4217.435794,4197.435795,4266.666562,4193.333231,4197.948615,4202.051179
81,0,4181.025539,4183.076821,4187.692205,4120.51272,4190.256308,4221.025538,4225.640922,4249.230665,4218.974256,4198.974256,4266.153742,4197.435795,4191.794769,4197.435795
82,0,4184.615282,4190.769128,4193.846051,4120.51272,4202.051179,4230.256307,4230.769127,4250.769127,4221.025538,4208.717846,4265.128101,4205.128102,4192.82041,4204.102461
83,0,4184.102462,4196.410154,4193.333231,4122.051181,4199.487077,4228.205025,4231.281948,4250.769127,4219.487076,4207.692205,4262.051178,4203.07682,4200.512718,4209.743487
84,0,4174.358872,4189.230667,4185.128103,4129.230668,4195.384513,4219.487076,4223.58964,4247.692204,4216.410153,4202.051179,4268.205024,4190.769128,4197.948615,4201.538359
85,0,4167.692206,4185.640923,4179.999898,4125.128104,4197.948615,4218.461435,4217.435794,4241.538358,4215.384512,4200.512718,4265.640921,4185.640923,4190.769128,4202.564
86,0,4176.922975,4187.179385,4184.615282,4119.487079,4194.871692,4218.974256,4218.461435,4239.999896,4216.922974,4198.974256,4262.051178,4188.717846,4196.410154,4207.179384
87,0,4185.640923,4183.076821,4183.589641,4128.717848,4190.769128,4217.435794,4224.615281,4243.076819,4219.487076,4199.487077,4271.281947,4194.871692,4201.538359,4205.128102
88,0,4179.487077,4188.205026,4181.025539,4136.922976,4196.922974,4219.487076,4227.179384,4246.153742,4219.487076,4202.564,4272.307588,4198.461436,4190.769128,4203.07682
89,0,4176.922975,4201.538359,4191.281949,4133.846053,4202.051179,4220.512717,4224.615281,4244.10246,4215.384512,4200.512718,4268.717844,4194.871692,4187.179385,4210.769128
90,0,4188.205026,4190.769128,4197.435795,4132.820412,4199.999897,4218.974256,4227.179384,4244.615281,4215.384512,4199.487077,4276.922972,4202.564,4201.025538,4224.615281
91,0,4199.999897,4179.487077,4194.871692,4136.922976,4198.461436,4219.487076,4228.205025,4247.692204,4216.922974,4203.589641,4281.538357,4214.871692,4201.538359,4233.33323
92,0,4207.179384,4196.922974,4198.461436,4135.897335,4200.512718,4219.999897,4223.58964,4245.640922,4214.358871,4203.07682,4278.974254,4209.230666,4195.897333,4239.999896
93,0,4215.897333,4207.692205,4203.07682,4134.871694,4201.538359,4218.461435,4225.128102,4243.076819,4213.846051,4200.512718,4282.563998,4205.128102,4209.230666,4256.922973
94,0,4228.717845,4197.948615,4203.589641,4138.461437,4199.999897,4215.897333,4229.743486,4243.076819,4214.358871,4200.512718,4286.153741,4218.974256,4216.922974,4280.512716
95,0,4244.10246,4197.435795,4209.743487,4142.051181,4199.487077,4217.435794,4229.743486,4245.128101,4210.256307,4201.538359,4289.743485,4220.512717,4208.717846,4292.307587
96,0,4253.84605,4202.051179,4218.461435,4144.615283,4199.999897,4219.999897,4232.307589,4248.205024,4210.769128,4203.07682,4302.563997,4224.102461,4212.307589,4306.666561
97,0,4250.769127,4199.487077,4218.974256,4143.076822,4198.461436,4219.999897,4232.820409,4250.256306,4217.948615,4204.615282,4299.999895,4233.84605,4215.384512,4315.38451
98,0,4246.666563,4198.974256,4214.358871,4139.487078,4195.897333,4217.948615,4228.717845,4244.10246,4213.33323,4203.589641,4285.640921,4220.512717,4204.102461,4302.563997
99,0,4245.640922,4195.384513,4210.256307,4141.53836,4196.922974,4215.384512,4226.666563,4238.974255,4199.999897,4197.948615,4282.563998,4213.33323,4197.948615,4295.38451
100,0,4243.076819,4190.256308,4211.281948,4143.076822,4196.922974,4214.358871,4227.179384,4244.615281,4200.512718,4191.794769,4278.461434,4226.666563,4200.512718,4294.87169
101,0,4246.666563,4194.871692,4216.922974,4141.02554,4198.461436,4217.948615,4229.743486,4251.794768,4214.871692,4196.922974,4279.999895,4226.666563,4206.666564,4288.717844
102,0,4244.10246,4205.640923,4214.358871,4146.153745,4201.538359,4218.974256,4231.281948,4250.256306,4216.922974,4206.666564,4297.435792,4217.948615,4216.410153,4281.025536
103,0,4234.871691,4211.794769,4212.307589,4151.28195,4199.999897,4215.897333,4231.281948,4246.153742,4207.692205,4206.153743,4302.051177,4219.999897,4215.384512,4269.230665
104,0,4227.692204,4207.692205,4212.307589,4145.640924,4198.461436,4221.025538,4230.769127,4248.205024,4206.666564,4200.512718,4282.051177,4220.512717,4204.615282,4253.333229
105,0,4217.948615,4195.384513,4205.640923,4145.128104,4202.564,4228.717845,4229.743486,4247.692204,4214.358871,4197.435795,4264.10246,4216.922974,4200.512718,4242.051178
106,0,4212.307589,4193.333231,4203.589641,4156.922975,4205.128102,4229.743486,4231.281948,4248.717845,4224.615281,4209.230666,4255.897332,4217.948615,4204.615282,4233.33323
107,0,4211.794769,4202.051179,4206.666564,4150.256309,4205.128102,4226.153743,4233.33323,4257.435793,4229.230666,4228.205025,4247.692204,4216.922974,4208.205025,4225.640922
108,0,4208.205025,4201.025538,4202.564,4137.948617,4203.07682,4219.487076,4233.33323,4257.435793,4222.051179,4222.563999,4236.922973,4214.358871,4206.666564,4219.999897
109,0,4197.435795,4199.999897,4199.999897,4148.717847,4200.512718,4218.461435,4233.84605,4250.256306,4214.871692,4200.512718,4214.358871,4214.871692,4200.512718,4205.128102
110,0,4190.256308,4197.948615,4205.640923,4152.307591,4200.512718,4224.615281,4234.358871,4252.820409,4215.897333,4196.410154,4198.461436,4213.33323,4199.487077,4193.846051
111,0,4192.82041,4185.640923,4204.102461,4141.02554,4202.564,4232.820409,4235.384512,4262.051178,4217.435794,4204.102461,4196.922974,4214.358871,4201.538359,4201.538359
112,0,4198.461436,4182.564,4202.051179,4146.153745,4203.07682,4230.256307,4236.922973,4264.10246,4216.410153,4204.102461,4188.205026,4217.948615,4199.999897,4204.102461
113,0,4199.487077,4193.333231,4205.640923,4157.435796,4203.07682,4219.999897,4233.84605,4256.922973,4215.384512,4201.538359,4172.30759,4215.384512,4200.512718,4198.974256
114,0,4197.948615,4199.999897,4206.153743,4152.820411,4205.640923,4218.461435,4231.281948,4250.769127,4213.33323,4198.461436,4165.640924,4212.307589,4205.640923,4202.051179
115,0,4196.922974,4198.461436,4203.589641,4148.205027,4206.153743,4227.179384,4234.871691,4252.820409,4215.384512,4198.461436,4166.666565,4216.410153,4207.692205,4202.051179
116,0,4189.743487,4197.435795,4203.07682,4151.28195,4208.205025,4231.281948,4234.871691,4253.84605,4214.871692,4199.999897,4159.487078,4215.897333,4202.564,4189.743487
117,0,4191.281949,4199.487077,4206.666564,4150.769129,4215.897333,4229.230666,4232.307589,4248.205024,4209.743487,4199.487077,4146.153745,4209.743487,4198.461436,4183.076821
118,0,4202.051179,4201.538359,4214.358871,4152.307591,4215.897333,4230.769127,4239.999896,4255.384511,4212.82041,4198.974256,4139.999899,4212.307589,4204.102461,4189.230667
119,0,4203.589641,4202.051179,4216.410153,4152.307591,4209.743487,4231.281948,4245.128101,4264.61528,4218.974256,4200.512718,4138.461437,4222.051179,4206.153743,4191.794769
120,0,4196.410154,4199.999897,4207.692205,4151.28195,4211.281948,4223.58964,4237.435794,4254.871691,4214.358871,4198.974256,4130.256309,4217.435794,4195.384513,4181.538359
121,0,4188.717846,4195.897333,4202.051179,4155.897334,4215.897333,4221.025538,4231.794768,4247.179383,4212.82041,4191.281949,4118.974258,4201.538359,4189.230667,4172.820411
122,0,4186.153744,4192.30759,4202.564,4156.410155,4214.358871,4224.615281,4232.820409,4249.230665,4212.82041,4184.102462,4109.743489,4196.922974,4196.922974,4175.384513
123,0,4185.640923,4196.410154,4201.025538,4152.820411,4215.384512,4227.692204,4233.84605,4245.640922,4206.153743,4187.692205,4106.153746,4202.051179,4198.974256,4183.076821
124,0,4182.564,4207.179384,4203.07682,4153.333232,4218.461435,4228.717845,4234.358871,4245.128101,4208.717846,4198.461436,4109.230669,4203.07682,4195.897333,4184.102462
125,0,4191.794769,4202.564,4213.33323,4156.410155,4219.487076,4231.794768,4234.871691,4248.205024,4214.871692,4202.051179,4110.25631,4208.205025,4208.205025,4181.538359
126,0,4203.07682,4192.82041,4219.487076,4157.948616,4219.487076,4232.820409,4237.435794,4246.666563,4209.230666,4201.025538,4107.179387,4218.461435,4217.948615,4186.666564
127,0,4195.384513,4203.589641,4214.871692,4155.384514,4215.384512,4231.281948,4241.538358,4250.769127,4206.153743,4207.179384,4107.179387,4213.846051,4209.230666,4186.153744
128,0,4189.230667,4217.948615,4213.33323,4158.461437,4214.871692,4234.358871,4246.153742,4260.512716,4214.871692,4215.897333,4106.153746,4208.205025,4203.589641,4175.897334
0,0,4197.948615,4215.897333,4216.410153,4169.230667,4217.435794,4234.871691,4244.615281,4254.871691,4216.410153,4215.897333,4102.564002,4213.33323,4205.128102,4175.897334
1,0,4201.025538,4208.717846,4215.384512,4170.769129,4213.846051,4231.281948,4236.410153,4248.205024,4207.692205,4213.846051,4105.640925,4209.743487,4207.692205,4185.128103
2,0,4199.487077,4202.051179,4214.871692,4164.102462,4214.871692,4231.281948,4234.871691,4253.84605,4205.128102,4216.410153,4103.076823,4199.487077,4208.717846,4183.589641
3,0,4197.948615,4201.538359,4213.33323,4174.871693,4225.640922,4234.358871,4242.563999,4255.384511,4211.281948,4217.948615,4089.74349,4199.487077,4210.769128,4176.922975
4,0,4205.640923,4205.128102,4216.922974,4187.179385,4230.769127,4236.922973,4246.666563,4253.333229,4216.922974,4223.58964,4093.846054,4207.692205,4216.410153,4184.102462
5,0,4222.051179,4198.974256,4228.205025,4173.846052,4224.615281,4234.358871,4244.615281,4256.410152,4217.435794,4229.743486,4104.615284,4212.82041,4220.512717,4190.769128
6,0,4219.487076,4200.512718,4227.692204,4161.025539,4223.58964,4234.871691,4246.153742,4262.051178,4218.974256,4230.256307,4098.974259,4212.307589,4218.974256,4185.128103
7,0,4206.153743,4221.538358,4212.307589,4175.384513,4230.769127,4240.512717,4246.666563,4262.563998,4222.051179,4232.820409,4090.769131,4212.82041,4218.461435,4175.897334
8,0,4212.307589,4223.07682,4211.794769,4186.666564,4235.384512,4239.999896,4245.128101,4254.35887,4217.435794,4233.84605,4092.307592,4211.794769,4218.461435,4173.333231
9,0,4217.948615,4202.051179,4223.58964,4177.948616,4231.281948,4235.384512,4246.153742,4248.717845,4212.82041,4228.717845,4091.794772,4205.640923,4211.281948,4171.79477
10,0,4213.846051,4200.512718,4223.58964,4173.846052,4221.025538,4235.897332,4246.666563,4255.384511,4214.871692,4229.743486,4090.769131,4206.666564,4213.846051,4174.871693
11,0,4219.999897,4210.256307,4219.487076,4181.538359,4218.974256,4236.922973,4248.205024,4263.589639,4217.435794,4231.794768,4092.820413,4216.410153,4220.512717,4181.538359
12,0,4218.974256,4213.33323,4218.974256,4185.128103,4226.666563,4238.974255,4249.743486,4263.589639,4216.410153,4229.230666,4090.25631,4216.922974,4218.974256,4177.435795
13,0,4207.692205,4215.384512,4222.563999,4184.102462,4231.281948,4245.640922,4248.717845,4264.10246,4216.410153,4235.384512,4096.410156,4212.307589,4226.666563,4166.153744
14,0,4212.307589,4217.435794,4227.179384,4185.128103,4231.281948,4245.640922,4247.179383,4263.076819,4217.435794,4237.435794,4103.076823,4216.410153,4235.897332,4166.153744
15,0,4216.410153,4215.897333,4222.563999,4187.692205,4233.33323,4242.563999,4247.179383,4261.025537,4218.461435,4233.33323,4101.538361,4221.025538,4235.384512,4172.30759
16,0,4209.230666,4217.435794,4218.974256,4188.717846,4236.410153,4244.615281,4249.230665,4264.61528,4218.461435,4239.487076,4101.538361,4214.358871,4232.307589,4168.717847
17,0,4202.564,4216.410153,4218.461435,4185.128103,4232.820409,4239.999896,4246.666563,4261.538357,4215.897333,4239.999896,4095.384515,4207.179384,4224.102461,4154.871693
18,0,4206.666564,4203.07682,4214.871692,4181.025539,4228.205025,4231.794768,4242.051178,4249.743486,4209.743487,4226.153743,4087.692208,4210.769128,4212.82041,4148.205027
19,0,4214.358871,4200.512718,4217.435794,4185.128103,4229.230666,4237.435794,4244.10246,4250.256306,4213.33323,4231.794768,4093.846054,4217.948615,4224.615281,4162.564001
20,0,4214.871692,4215.384512,4223.58964,4189.230667,4231.794768,4247.179383,4249.230665,4263.076819,4223.58964,4252.820409,4108.717848,4215.384512,4243.58964,4175.897334
21,0,4213.33323,4222.563999,4218.974256,4188.205026,4232.820409,4248.205024,4249.743486,4267.179383,4225.128102,4258.461434,4113.846053,4215.897333,4241.025537,4166.666565
22,0,4210.769128,4215.384512,4213.33323,4185.640923,4232.820409,4247.179383,4250.256306,4261.538357,4217.948615,4245.128101,4106.666566,4213.846051,4235.384512,4155.384514
23,0,4205.128102,4204.615282,4214.871692,4183.589641,4230.769127,4247.179383,4250.256306,4260.512716,4209.743487,4233.84605,4094.358874,4203.07682,4227.179384,4154.871693
24,0,4205.128102,4196.922974,4213.846051,4183.076821,4230.256307,4245.640922,4248.717845,4260.512716,4207.179384,4231.794768,4085.640926,4204.615282,4215.897333,4154.358873
25,0,4214.871692,4204.102461,4214.871692,4191.281949,4235.384512,4249.230665,4254.35887,4263.076819,4211.794769,4235.897332,4094.871695,4215.897333,4222.563999,4157.435796
26,0,4218.974256,4215.897333,4219.487076,4201.025538,4238.461435,4254.35887,4262.563998,4268.717844,4217.948615,4242.563999,4108.717848,4215.897333,4235.384512,4169.230667
27,0,4212.307589,4214.358871,4217.948615,4199.999897,4233.33323,4250.256306,4257.948614,4270.256306,4218.974256,4248.205024,4107.179387,4211.794769,4234.358871,4172.820411
28,0,4214.358871,4214.871692,4215.384512,4191.281949,4231.281948,4245.640922,4250.769127,4267.179383,4216.922974,4248.717845,4101.025541,4215.897333,4231.794768,4166.666565
29,0,4219.487076,4207.692205,4216.410153,4189.230667,4232.307589,4245.128101,4250.769127,4264.10246,4213.846051,4242.051178,4103.076823,4215.897333,4233.33323,4167.692206
30,0,4218.461435,4194.358872,4220.512717,4199.487077,4231.794768,4245.640922,4249.743486,4263.076819,4213.33323,4241.025537,4108.205028,4213.846051,4230.256307,4174.871693
31,0,4216.922974,4210.769128,4221.538358,4204.615282,4237.435794,4249.230665,4248.717845,4265.128101,4218.974256,4248.205024,4107.179387,4218.974256,4232.307589,4179.999898
32,0,4215.384512,4230.769127,4217.948615,4197.948615,4247.179383,4252.820409,4254.35887,4265.128101,4218.974256,4249.743486,4105.640925,4221.025538,4236.410153,4181.025539
33,0,4220.512717,4217.435794,4222.563999,4196.410154,4249.743486,4251.281947,4257.948614,4262.563998,4214.871692,4248.717845,4105.640925,4218.461435,4233.33323,4182.564
34,0,4230.769127,4209.743487,4231.794768,4201.538359,4245.640922,4248.205024,4256.922973,4263.589639,4218.461435,4247.692204,4106.666566,4219.999897,4233.33323,4187.179385
35,0,4235.897332,4223.07682,4233.84605,4203.07682,4243.076819,4247.692204,4257.435793,4262.563998,4214.871692,4241.538358,4108.717848,4219.487076,4233.33323,4187.179385
36,0,4242.051178,4217.435794,4232.820409,4201.538359,4242.563999,4246.153742,4257.435793,4257.948614,4204.102461,4239.487076,4107.179387,4216.922974,4234.358871,4188.717846
37,0,4245.640922,4211.794769,4233.84605,4202.564,4239.487076,4247.692204,4256.922973,4259.999896,4205.640923,4245.640922,4106.666566,4221.538358,4242.563999,4197.435795
38,0,4239.999896,4225.640922,4234.871691,4209.743487,4242.051178,4250.769127,4262.563998,4265.128101,4213.33323,4247.179383,4113.846053,4229.743486,4249.743486,4201.538359
39,0,4236.410153,4226.666563,4232.307589,4213.33323,4245.640922,4250.256306,4263.076819,4263.589639,4210.769128,4246.153742,4120.51272,4231.794768,4245.640922,4199.999897
40,0,4245.128101,4212.82041,4232.820409,4202.564,4238.461435,4246.153742,4252.820409,4260.512716,4201.025538,4247.179383,4112.307592,4229.230666,4241.538358,4199.999897
41,0,4245.640922,4210.256307,4236.922973,4198.461436,4234.871691,4244.10246,4251.281947,4262.051178,4202.051179,4246.666563,4111.281951,4230.769127,4246.153742,4201.538359
42,0,4235.384512,4221.025538,4236.922973,4206.153743,4243.58964,4247.692204,4259.487075,4264.10246,4210.256307,4246.153742,4123.076822,4234.358871,4248.205024,4202.564
43,0,4236.922973,4224.102461,4229.743486,4203.07682,4248.205024,4250.769127,4259.999896,4263.076819,4206.666564,4246.666563,4124.615284,4232.307589,4246.666563,4203.07682
44,0,4246.666563,4220.512717,4230.256307,4201.538359,4246.153742,4250.769127,4257.948614,4261.538357,4203.589641,4246.153742,4125.128104,4229.743486,4254.35887,4207.692205
45,0,4251.281947,4227.692204,4241.538358,4214.871692,4250.256306,4250.256306,4262.051178,4260.512716,4213.33323,4247.692204,4135.897335,4232.307589,4263.589639,4213.846051
46,0,4249.230665,4234.871691,4243.58964,4217.948615,4252.820409,4250.256306,4263.589639,4261.538357,4216.922974,4250.256306,4138.461437,4234.871691,4255.897332,4211.794769
47,0,4246.666563,4230.769127,4234.871691,4211.794769,4250.769127,4249.230665,4258.974255,4258.974255,4208.205025,4251.281947,4134.871694,4232.820409,4247.179383,4206.666564
48,0,4249.230665,4233.33323,4231.794768,4214.358871,4247.692204,4248.717845,4251.281947,4249.230665,4204.615282,4246.666563,4133.846053,4230.769127,4251.794768,4206.666564
49,0,4251.281947,4235.384512,4238.974255,4217.435794,4249.230665,4249.230665,4247.692204,4244.10246,4203.07682,4242.051178,4131.794771,4229.230666,4251.794768,4206.153743
50,0,4250.256306,4218.461435,4246.666563,4217.435794,4254.871691,4249.743486,4254.871691,4254.35887,4203.07682,4247.692204,4141.53836,4237.435794,4246.153742,4210.769128
51,0,4248.205024,4221.025538,4245.128101,4216.922974,4252.307588,4248.717845,4261.538357,4265.128101,4211.794769,4251.281947,4154.871693,4245.128101,4252.820409,4219.487076
52,0,4249.230665,4238.974255,4245.640922,4214.358871,4250.256306,4249.230665,4262.051178,4267.179383,4219.999897,4250.256306,4157.435796,4238.974255,4267.179383,4219.999897
53,0,4247.692204,4227.692204,4243.58964,4213.846051,4253.333229,4250.769127,4263.589639,4267.692203,4216.922974,4253.333229,4149.230668,4232.820409,4262.563998,4212.82041
54,0,4243.58964,4221.025538,4232.307589,4215.384512,4249.743486,4251.281947,4264.10246,4264.61528,4205.128102,4253.333229,4142.051181,4231.794768,4246.153742,4201.538359
55,0,4243.076819,4227.692204,4231.281948,4215.384512,4250.769127,4250.769127,4261.025537,4261.538357,4204.615282,4247.692204,4146.666565,4232.820409,4245.128101,4198.974256
56,0,4244.615281,4222.051179,4240.512717,4214.358871,4258.461434,4250.769127,4262.563998,4264.61528,4216.410153,4247.179383,4154.871693,4238.974255,4257.435793,4209.743487
57,0,4245.640922,4217.948615,4241.025537,4215.384512,4253.84605,4251.281947,4263.076819,4267.692203,4219.487076,4256.410152,4159.487078,4244.10246,4264.10246,4219.999897
58,0,4236.922973,4223.58964,4235.384512,4213.33323,4243.58964,4252.307588,4261.025537,4264.10246,4214.871692,4257.948614,4163.076821,4243.58964,4261.025537,4220.512717
59,0,4230.256307,4223.58964,4232.820409,4209.743487,4251.794768,4252.307588,4263.589639,4263.589639,4216.922974,4253.84605,4168.717847,4247.692204,4262.051178,4223.07682
60,0,4230.769127,4223.58964,4231.794768,4212.82041,4259.487075,4249.230665,4262.563998,4263.589639,4217.435794,4255.897332,4173.333231,4246.153742,4261.025537,4223.07682
61,0,4222.051179,4219.999897,4229.743486,4216.410153,4253.333229,4248.717845,4254.35887,4256.922973,4208.205025,4259.487075,4167.179385,4232.307589,4252.820409,4208.205025
62,0,4209.743487,4212.307589,4229.743486,4214.358871,4249.230665,4245.640922,4249.743486,4248.205024,4198.974256,4249.743486,4153.846052,4228.205025,4246.666563,4198.461436
63,0,4216.410153,4221.025538,4232.307589,4214.871692,4250.769127,4235.384512,4249.230665,4244.615281,4195.897333,4232.307589,4149.743488,4233.33323,4242.563999,4203.589641
64,0,4230.769127,4236.922973,4234.871691,4220.512717,4249.230665,4237.435794,4251.281947,4247.179383,4198.461436,4233.33323,4158.461437,4233.33323,4241.538358,4207.692205
65,0,4230.769127,4239.487076,4233.84605,4222.563999,4250.769127,4247.692204,4258.461434,4248.717845,4199.999897,4244.10246,4163.589642,4232.307589,4244.10246,4206.666564
66,0,4232.820409,4232.820409,4236.922973,4216.922974,4259.999896,4247.692204,4261.025537,4250.256306,4199.999897,4246.153742,4167.692206,4235.384512,4248.717845,4211.281948
67,0,4233.33323,4232.820409,4238.974255,4214.358871,4258.461434,4244.615281,4257.435793,4249.743486,4199.487077,4241.025537,4170.256308,4242.563999,4247.692204,4216.922974
68,0,4221.538358,4236.922973,4231.794768,4215.897333,4251.794768,4247.692204,4260.512716,4247.692204,4199.487077,4245.640922,4167.692206,4246.666563,4247.692204,4213.846051
69,0,4222.051179,4221.025538,4229.743486,4213.846051,4252.820409,4248.205024,4262.563998,4246.666563,4201.025538,4254.35887,4169.230667,4240.512717,4252.307588,4210.769128
70,0,4232.307589,4208.717846,4235.897332,4213.33323,4253.84605,4245.128101,4259.487075,4248.717845,4203.07682,4247.692204,4174.358872,4233.33323,4250.256306,4210.769128
71,0,4222.051179,4224.102461,4236.922973,4221.025538,4254.871691,4245.640922,4258.974255,4249.230665,4198.461436,4242.563999,4175.384513,4234.358871,4246.666563,4213.846051
72,0,4212.307589,4236.922973,4234.358871,4227.692204,4259.999896,4244.615281,4259.487075,4245.640922,4189.743487,4248.205024,4169.743488,4235.384512,4247.179383,4216.922974
73,0,4231.281948,4233.84605,4234.871691,4229.743486,4264.61528,4245.128101,4258.461434,4244.10246,4190.256308,4243.58964,4167.179385,4233.84605,4247.692204,4212.82041
74,0,4237.948614,4233.84605,4233.33323,4229.743486,4264.10246,4249.230665,4259.487075,4246.153742,4197.435795,4232.820409,4171.281949,4234.358871,4243.58964,4206.153743
75,0,4218.461435,4233.84605,4230.256307,4228.717845,4261.538357,4248.717845,4258.974255,4245.128101,4200.512718,4241.538358,4171.79477,4232.307589,4245.128101,4207.179384
76,0,4214.358871,4232.307589,4230.256307,4226.153743,4262.051178,4247.179383,4259.487075,4247.692204,4201.538359,4255.384511,4168.717847,4230.256307,4252.307588,4210.256307
77,0,4221.025538,4235.897332,4229.743486,4221.025538,4263.589639,4246.666563,4258.461434,4246.666563,4202.564,4251.794768,4169.230667,4233.33323,4247.179383,4206.666564
78,0,4216.922974,4229.743486,4227.692204,4224.102461,4259.999896,4244.615281,4253.333229,4236.922973,4200.512718,4245.640922,4170.769129,4231.281948,4238.461435,4198.461436
79,0,4220.512717,4225.128102,4230.256307,4227.179384,4257.435793,4245.640922,4253.333229,4236.410153,4200.512718,4246.153742,4167.692206,4229.743486,4243.58964,4199.999897
80,0,4232.307589,4234.871691,4232.820409,4219.999897,4264.10246,4248.717845,4259.999896,4247.692204,4202.564,4246.666563,4167.692206,4234.871691,4251.794768,4210.256307
81,0,4234.358871,4234.358871,4233.84605,4218.974256,4266.153742,4247.692204,4261.538357,4248.717845,4201.538359,4247.179383,4172.30759,4235.897332,4249.743486,4216.410153
82,0,4233.33323,4226.666563,4235.897332,4231.281948,4262.563998,4246.153742,4256.922973,4237.948614,4203.07682,4245.640922,4171.281949,4233.33323,4247.179383,4216.922974
83,0,4227.692204,4228.717845,4231.281948,4228.717845,4263.076819,4243.58964,4250.256306,4231.281948,4196.922974,4242.051178,4165.640924,4231.794768,4245.640922,4211.281948
84,0,4217.948615,4231.794768,4227.179384,4215.384512,4263.076819,4239.487076,4245.640922,4230.256307,4188.205026,4241.538358,4166.666565,4230.256307,4243.58964,4202.051179
85,0,4222.563999,4231.281948,4230.769127,4218.974256,4261.025537,4241.538358,4244.615281,4229.230666,4191.281949,4242.051178,4169.743488,4231.794768,4245.640922,4198.974256
86,0,4224.102461,4233.33323,4230.256307,4227.179384,4265.128101,4245.640922,4248.717845,4231.794768,4198.974256,4244.10246,4170.256308,4234.358871,4246.666563,4201.538359
87,0,4215.384512,4231.794768,4230.769127,4228.205025,4268.205024,4244.615281,4254.35887,4236.922973,4198.974256,4246.666563,4175.897334,4233.84605,4247.179383,4204.615282
88,0,4226.153743,4228.205025,4242.051178,4229.743486,4268.205024,4245.640922,4259.999896,4244.615281,4200.512718,4253.333229,4186.153744,4237.948614,4258.461434,4211.794769
89,0,4236.922973,4239.487076,4247.179383,4229.743486,4270.256306,4248.717845,4263.076819,4245.128101,4205.640923,4261.025537,4189.743487,4246.153742,4267.692203,4221.538358
90,0,4227.179384,4248.717845,4241.538358,4227.692204,4267.179383,4245.640922,4261.538357,4236.922973,4203.07682,4255.897332,4180.512718,4249.743486,4260.512716,4219.487076
91,0,4226.666563,4245.128101,4246.153742,4232.307589,4265.128101,4244.615281,4259.999896,4232.307589,4199.999897,4248.717845,4175.897334,4245.128101,4257.435793,4215.384512
92,0,4235.897332,4248.205024,4246.666563,4238.974255,4272.820408,4249.230665,4261.538357,4235.384512,4203.07682,4253.333229,4185.128103,4240.512717,4264.61528,4219.999897
93,0,4230.256307,4246.153742,4234.358871,4232.307589,4277.435793,4247.692204,4256.922973,4234.871691,4203.07682,4253.333229,4185.640923,4243.076819,4258.974255,4219.999897
94,0,4227.179384,4235.384512,4233.33323,4230.256307,4272.820408,4243.58964,4251.794768,4228.205025,4197.948615,4245.128101,4174.871693,4245.128101,4246.666563,4214.358871
95,0,4234.358871,4241.025537,4246.666563,4242.051178,4275.384511,4248.205024,4257.435793,4229.743486,4201.025538,4252.307588,4173.846052,4241.538358,4251.281947,4214.358871
96,0,4235.897332,4255.384511,4247.692204,4243.076819,4282.051177,4251.794768,4264.10246,4235.897332,4207.692205,4263.589639,4179.999898,4240.512717,4260.512716,4220.512717
97,0,4233.33323,4250.256306,4241.025537,4231.794768,4279.487075,4248.717845,4260.512716,4235.897332,4208.205025,4260.512716,4177.948616,4243.58964,4261.025537,4216.922974
98,0,4228.717845,4241.025537,4244.615281,4234.871691,4280.512716,4251.794768,4259.999896,4234.871691,4208.717846,4259.999896,4173.846052,4239.999896,4255.897332,4202.564
99,0,4228.205025,4247.179383,4248.717845,4247.179383,4283.076818,4255.384511,4263.076819,4234.358871,4209.230666,4266.153742,4173.333231,4235.897332,4249.743486,4203.07682
100,0,4244.615281,4249.743486,4249.743486,4249.230665,4276.922972,4249.743486,4261.538357,4231.794768,4203.07682,4261.538357,4169.230667,4234.358871,4246.666563,4214.871692
101,0,4263.076819,4250.769127,4253.84605,4249.743486,4276.922972,4247.692204,4262.563998,4231.281948,4201.538359,4249.230665,4169.743488,4231.794768,4245.640922,4216.410153
102,0,4267.179383,4252.307588,4259.487075,4254.871691,4275.384511,4251.281947,4263.076819,4230.256307,4203.07682,4246.666563,4175.897334,4239.487076,4243.58964,4219.999897
103,0,4275.897331,4253.333229,4265.640921,4260.512716,4267.692203,4249.230665,4260.512716,4223.58964,4203.07682,4251.281947,4172.820411,4248.205024,4246.666563,4234.358871
104,0,4282.563998,4258.461434,4264.61528,4263.589639,4270.256306,4247.692204,4257.948614,4217.948615,4202.051179,4250.769127,4166.153744,4243.58964,4248.205024,4232.307589
105,0,4269.743485,4256.922973,4255.384511,4254.871691,4274.87169,4249.743486,4253.333229,4217.948615,4201.025538,4248.205024,4166.666565,4233.84605,4243.58964,4217.435794
106,0,4258.974255,4249.743486,4249.230665,4248.205024,4266.153742,4247.179383,4250.769127,4217.948615,4205.128102,4255.384511,4165.128103,4233.84605,4245.640922,4216.410153
107,0,4263.589639,4248.717845,4251.281947,4250.769127,4262.051178,4246.153742,4250.769127,4217.435794,4211.281948,4259.487075,4162.05118,4234.871691,4247.179383,4218.974256
108,0,4263.589639,4246.153742,4248.205024,4250.256306,4269.230665,4249.230665,4249.230665,4217.435794,4209.230666,4252.820409,4168.205026,4232.820409,4244.10246,4215.897333
109,0,4251.794768,4239.999896,4241.538358,4246.153742,4267.179383,4244.615281,4245.640922,4212.307589,4200.512718,4248.205024,4163.589642,4227.692204,4241.538358,4212.82041
110,0,4247.692204,4243.58964,4243.58964,4247.179383,4259.999896,4238.461435,4245.128101,4209.230666,4197.948615,4248.717845,4149.743488,4229.230666,4238.974255,4210.256307
111,0,4250.769127,4250.769127,4249.230665,4249.230665,4262.563998,4242.051178,4247.179383,4213.846051,4201.538359,4247.179383,4154.871693,4239.487076,4231.794768,4210.769128
112,0,4251.794768,4248.205024,4247.179383,4251.281947,4266.153742,4245.640922,4247.692204,4214.871692,4202.564,4249.230665,4166.666565,4239.487076,4232.820409,4216.410153
113,0,4251.794768,4249.230665,4244.615281,4254.871691,4264.61528,4245.128101,4248.205024,4214.871692,4201.025538,4254.871691,4167.692206,4229.743486,4245.128101,4218.461435
114,0,4253.333229,4247.692204,4246.666563,4250.256306,4259.999896,4246.153742,4254.35887,4223.58964,4204.102461,4252.820409,4163.589642,4230.769127,4246.666563,4213.33323
115,0,4256.922973,4242.563999,4248.717845,4247.692204,4260.512716,4247.692204,4261.025537,4231.281948,4210.769128,4251.794768,4161.53836,4241.538358,4242.051178,4214.871692
116,0,4261.538357,4246.153742,4248.717845,4258.974255,4264.10246,4246.153742,4262.051178,4230.769127,4213.846051,4260.512716,4167.179385,4247.179383,4244.10246,4219.999897
117,0,4265.128101,4251.794768,4249.230665,4263.076819,4265.640921,4246.153742,4258.974255,4229.743486,4213.846051,4263.076819,4168.717847,4243.076819,4248.717845,4218.461435
118,0,4255.897332,4247.692204,4248.717845,4253.333229,4265.128101,4248.717845,4253.333229,4225.128102,4214.358871,4255.384511,4156.410155,4234.871691,4246.666563,4213.33323
119,0,4247.692204,4248.717845,4245.128101,4251.281947,4265.640921,4246.666563,4249.230665,4216.922974,4213.33323,4255.384511,4154.358873,4238.461435,4244.10246,4212.307589
120,0,4254.871691,4252.307588,4244.615281,4255.897332,4267.179383,4244.10246,4249.230665,4216.922974,4210.769128,4264.61528,4166.666565,4247.179383,4247.692204,4213.846051
121,0,4258.461434,4243.076819,4246.666563,4250.256306,4265.640921,4244.615281,4247.179383,4219.487076,4206.666564,4261.025537,4169.743488,4238.974255,4249.230665,4215.384512
122,0,4251.281947,4237.948614,4248.717845,4248.717845,4263.589639,4247.179383,4244.10246,4216.410153,4202.564,4248.205024,4162.05118,4231.794768,4246.153742,4211.794769
123,0,4244.10246,4248.717845,4249.230665,4261.538357,4266.666562,4245.640922,4246.666563,4216.410153,4201.025538,4247.179383,4157.948616,4238.461435,4242.051178,4207.179384
124,0,4246.153742,4250.769127,4248.717845,4260.512716,4261.538357,4239.487076,4247.692204,4215.897333,4201.025538,4246.666563,4156.410155,4239.487076,4245.640922,4208.205025
125,0,4246.666563,4243.076819,4244.10246,4246.153742,4252.820409,4232.307589,4244.10246,4210.256307,4200.512718,4233.84605,4153.846052,4230.256307,4244.10246,4208.205025
126,0,4243.076819,4240.512717,4239.487076,4243.58964,4256.410152,4231.794768,4246.153742,4210.256307,4200.512718,4234.871691,4151.79477,4228.717845,4233.84605,4201.538359
127,0,4240.512717,4234.358871,4241.538358,4247.179383,4261.025537,4234.871691,4247.692204,4214.358871,4202.564,4248.717845,4152.820411,4233.84605,4234.358871,4198.974256
128,0,4236.922973,4229.743486,4240.512717,4244.615281,4257.435793,4233.84605,4244.10246,4213.33323,4200.512718,4243.58964,4152.307591,4232.820409,4236.922973,4199.999897
0,0,4238.974255,4242.051178,4239.999896,4244.615281,4258.974255,4234.358871,4245.128101,4213.33323,4200.512718,4234.871691,4152.820411,4231.281948,4233.33323,4203.589641
1,0,4246.666563,4250.256306,4247.692204,4250.769127,4266.666562,4235.897332,4249.230665,4215.897333,4207.179384,4244.615281,4158.974257,4234.871691,4240.512717,4210.769128
2,0,4251.794768,4246.666563,4249.743486,4251.794768,4267.692203,4236.410153,4247.179383,4215.897333,4208.205025,4250.769127,4159.999898,4236.922973,4245.640922,4208.205025
3,0,4251.281947,4247.179383,4243.58964,4253.333229,4264.10246,4239.487076,4245.640922,4216.410153,4202.564,4246.666563,4153.846052,4234.358871,4236.410153,4201.025538
4,0,4250.769127,4246.666563,4243.58964,4258.461434,4260.512716,4238.461435,4246.666563,4211.794769,4202.051179,4247.179383,4151.28195,4230.769127,4234.871691,4201.025538
5,0,4254.35887,4243.076819,4248.205024,4263.589639,4263.589639,4233.84605,4245.128101,4205.640923,4202.564,4250.256306,4152.820411,4231.281948,4246.153742,4203.589641
6,0,4261.025537,4247.692204,4243.58964,4257.435793,4269.230665,4234.358871,4241.025537,4210.769128,4201.025538,4250.769127,4155.384514,4234.358871,4249.230665,4209.230666
7,0,4264.10246,4249.743486,4241.538358,4246.666563,4264.61528,4235.384512,4239.999896,4213.846051,4201.025538,4249.743486,4156.410155,4233.84605,4244.10246,4213.846051
8,0,4255.384511,4245.128101,4243.58964,4253.84605,4258.974255,4234.871691,4242.051178,4206.666564,4202.051179,4246.666563,4155.897334,4230.769127,4244.10246,4207.692205
9,0,4245.640922,4249.230665,4239.487076,4263.589639,4259.487075,4233.84605,4242.563999,4204.102461,4199.999897,4243.58964,4154.358873,4233.33323,4247.692204,4206.666564
10,0,4249.743486,4251.794768,4239.487076,4257.948614,4261.538357,4232.820409,4242.563999,4209.743487,4202.051179,4248.205024,4156.410155,4236.410153,4251.794768,4218.974256
11,0,4258.974255,4246.666563,4247.179383,4255.384511,4263.589639,4239.487076,4246.153742,4216.410153,4209.743487,4255.897332,4164.102462,4235.897332,4250.256306,4219.487076
12,0,4252.307588,4244.10246,4247.179383,4259.999896,4264.61528,4244.10246,4247.692204,4215.384512,4209.230666,4254.35887,4168.717847,4239.487076,4245.128101,4213.846051
13,0,4246.666563,4247.179383,4243.076819,4257.948614,4261.025537,4235.384512,4240.512717,4205.128102,4201.538359,4248.717845,4163.076821,4242.563999,4251.794768,4224.102461
14,0,4258.461434,4249.230665,4246.666563,4261.538357,4258.974255,4231.794768,4236.922973,4204.102461,4199.999897,4249.743486,4159.487078,4244.615281,4261.538357,4235.897332
15,0,4257.435793,4249.743486,4249.230665,4261.025537,4261.538357,4236.410153,4242.051178,4213.33323,4204.615282,4251.281947,4167.692206,4250.256306,4257.435793,4235.897332
16,0,4244.10246,4251.794768,4246.153742,4248.205024,4263.589639,4234.358871,4246.153742,4217.948615,4208.205025,4250.256306,4172.820411,4248.205024,4255.384511,4236.410153
17,0,4252.820409,4245.128101,4247.692204,4253.84605,4263.076819,4231.281948,4243.076819,4215.384512,4207.692205,4251.281947,4164.615283,4244.615281,4259.999896,4235.897332
18,0,4264.61528,4236.922973,4248.205024,4266.666562,4261.538357,4233.84605,4241.538358,4209.230666,4202.564,4250.256306,4155.897334,4243.076819,4253.84605,4229.743486
19,0,4250.256306,4244.10246,4246.666563,4260.512716,4264.10246,4234.871691,4242.563999,4209.230666,4199.487077,4248.717845,4154.871693,4237.948614,4246.153742,4229.230666
20,0,4240.512717,4253.333229,4246.666563,4254.871691,4262.051178,4233.84605,4238.461435,4212.82041,4203.589641,4248.205024,4156.410155,4237.435794,4246.666563,4228.717845
21,0,4245.640922,4248.717845,4246.666563,4265.640921,4251.281947,4231.794768,4232.307589,4206.666564,4203.07682,4244.615281,4154.871693,4240.512717,4246.666563,4222.563999
22,0,4245.128101,4245.640922,4239.487076,4264.61528,4252.307588,4231.794768,4231.794768,4203.07682,4201.025538,4245.128101,4151.79477,4233.84605,4250.769127,4224.102461
23,0,4242.563999,4252.820409,4235.897332,4251.794768,4265.128101,4235.384512,4234.871691,4212.82041,4208.717846,4257.435793,4157.435796,4229.230666,4255.897332,4231.794768
24,0,4246.153742,4250.769127,4237.435794,4249.743486,4265.128101,4237.948614,4232.820409,4215.897333,4215.897333,4261.538357,4165.128103,4236.922973,4249.230665,4229.743486
25,0,4248.205024,4243.076819,4235.384512,4256.922973,4259.999896,4234.871691,4228.205025,4213.846051,4215.897333,4250.769127,4163.076821,4236.922973,4246.666563,4228.717845
26,0,4246.666563,4245.128101,4237.435794,4262.051178,4261.025537,4229.743486,4227.179384,4212.82041,4214.358871,4246.153742,4154.358873,4229.230666,4247.692204,4232.307589
27,0,4246.153742,4250.256306,4239.999896,4257.435793,4257.948614,4229.230666,4227.692204,4207.692205,4209.230666,4246.153742,4152.307591,4229.230666,4238.974255,4224.615281
28,0,4244.615281,4246.153742,4234.871691,4250.769127,4260.512716,4232.820409,4228.717845,4207.692205,4202.564,4235.384512,4155.384514,4232.820409,4237.435794,4218.974256
29,0,4244.10246,4242.051178,4237.435794,4247.692204,4263.589639,4231.794768,4229.743486,4210.769128,4204.615282,4230.769127,4154.871693,4234.358871,4243.58964,4228.205025
30,0,4245.640922,4246.666563,4246.666563,4247.692204,4250.769127,4225.640922,4230.256307,4210.256307,4214.358871,4243.58964,4156.922975,4232.820409,4245.128101,4232.820409
31,0,4244.615281,4239.487076,4248.205024,4250.256306,4243.076819,4227.179384,4230.769127,4210.256307,4213.846051,4246.153742,4154.358873,4238.461435,4244.10246,4229.743486
32,0,4236.922973,4229.743486,4241.538358,4251.281947,4249.230665,4230.256307,4230.256307,4206.666564,4203.589641,4232.820409,4147.179386,4244.615281,4235.897332,4230.256307
33,0,4232.307589,4239.487076,4236.922973,4248.717845,4246.666563,4223.58964,4225.640922,4198.974256,4198.461436,4227.179384,4147.179386,4236.922973,4230.256307,4227.179384
34,0,4237.435794,4246.666563,4235.897332,4246.153742,4242.051178,4214.871692,4218.974256,4198.461436,4202.051179,4232.820409,4151.79477,4228.205025,4239.999896,4224.102461
35,0,4243.076819,4238.461435,4242.563999,4250.256306,4247.692204,4217.435794,4216.922974,4201.025538,4204.615282,4236.922973,4151.79477,4232.820409,4240.512717,4229.230666
36,0,4249.230665,4240.512717,4246.153742,4252.820409,4250.256306,4224.615281,4220.512717,4195.897333,4201.538359,4234.358871,4147.692206,4234.871691,4231.794768,4229.230666
37,0,4245.640922,4246.153742,4237.435794,4248.205024,4250.256306,4227.179384,4221.025538,4193.846051,4200.512718,4231.794768,4147.692206,4230.769127,4240.512717,4226.153743
38,0,4236.922973,4235.384512,4232.307589,4247.179383,4251.794768,4226.666563,4218.461435,4195.384513,4205.128102,4235.897332,4151.79477,4233.84605,4244.615281,4231.794768
39,0,4234.871691,4234.871691,4231.281948,4248.205024,4251.281947,4227.179384,4221.025538,4196.410154,4205.640923,4236.410153,4154.871693,4237.948614,4236.922973,4236.410153
40,0,4237.948614,4246.666563,4233.84605,4250.769127,4255.384511,4228.717845,4225.128102,4195.384513,4203.07682,4232.307589,4151.79477,4234.358871,4244.10246,4233.33323
41,0,4238.461435,4246.153742,4237.948614,4256.922973,4256.922973,4229.743486,4227.179384,4196.410154,4203.07682,4236.922973,4150.769129,4232.307589,4246.666563,4230.256307
42,0,4234.358871,4243.076819,4231.794768,4254.35887,4251.794768,4230.256307,4228.205025,4197.948615,4208.205025,4244.615281,4153.333232,4230.769127,4234.358871,4227.179384
43,0,4233.33323,4244.10246,4228.205025,4246.153742,4247.692204,4230.769127,4228.205025,4199.487077,4214.358871,4243.076819,4151.28195,4231.281948,4237.948614,4232.820409
44,0,4241.025537,4234.871691,4239.999896,4253.84605,4249.230665,4234.358871,4232.307589,4205.128102,4221.538358,4249.230665,4154.871693,4243.076819,4252.820409,4245.640922
45,0,4243.076819,4228.717845,4242.563999,4261.538357,4249.743486,4229.743486,4231.281948,4205.128102,4219.999897,4252.307588,4160.512719,4247.179383,4246.153742,4243.076819
46,0,4231.281948,4240.512717,4228.717845,4248.205024,4248.717845,4219.999897,4222.563999,4198.461436,4213.33323,4238.461435,4151.28195,4233.84605,4230.769127,4225.128102
47,0,4234.871691,4246.666563,4231.794768,4243.58964,4247.179383,4221.538358,4222.051179,4196.922974,4214.358871,4233.33323,4143.589642,4226.153743,4229.230666,4220.512717
48,0,4251.281947,4244.10246,4242.051178,4260.512716,4248.717845,4232.307589,4229.230666,4199.487077,4216.410153,4242.051178,4150.256309,4234.871691,4233.33323,4227.179384
49,0,4243.076819,4251.281947,4236.922973,4263.076819,4253.333229,4232.307589,4228.717845,4199.487077,4213.846051,4241.538358,4154.358873,4238.974255,4232.307589,4230.256307
50,0,4227.179384,4245.640922,4230.769127,4251.281947,4251.281947,4221.538358,4222.563999,4198.461436,4210.769128,4234.358871,4153.333232,4232.820409,4231.281948,4231.794768
51,0,4234.871691,4231.281948,4231.281948,4249.230665,4247.692204,4217.435794,4222.563999,4198.461436,4210.769128,4232.820409,4152.820411,4228.717845,4234.871691,4231.794768
52,0,4245.128101,4236.922973,4230.256307,4253.333229,4246.153742,4219.487076,4224.102461,4198.461436,4208.205025,4231.281948,4152.820411,4230.256307,4237.435794,4231.281948
53,0,4234.871691,4237.948614,4229.230666,4248.717845,4244.10246,4216.410153,4219.487076,4196.922974,4204.102461,4228.205025,4153.846052,4231.794768,4233.33323,4228.717845
54,0,4225.640922,4230.769127,4230.256307,4242.051178,4244.615281,4216.922974,4217.948615,4195.384513,4206.153743,4229.743486,4152.820411,4229.743486,4228.717845,4226.666563
55,0,4236.410153,4240.512717,4231.281948,4246.666563,4248.717845,4224.102461,4224.102461,4198.461436,4214.871692,4232.820409,4148.717847,4229.743486,4230.769127,4231.281948
56,0,4243.58964,4242.051178,4231.281948,4253.333229,4249.743486,4222.563999,4226.666563,4199.999897,4216.922974,4232.307589,4148.205027,4234.871691,4232.307589,4233.33323
57,0,4234.871691,4232.307589,4229.230666,4249.230665,4246.153742,4219.487076,4225.128102,4198.461436,4212.82041,4230.256307,4151.79477,4237.948614,4229.230666,4228.717845
58,0,4238.461435,4242.563999,4231.794768,4250.769127,4248.717845,4228.205025,4229.743486,4201.025538,4216.922974,4233.84605,4159.487078,4235.384512,4231.281948,4236.410153
59,0,4252.820409,4252.307588,4240.512717,4259.487075,4251.794768,4230.256307,4232.307589,4205.128102,4220.512717,4234.358871,4164.615283,4232.307589,4235.897332,4250.769127
60,0,4247.692204,4245.128101,4240.512717,4256.410152,4249.743486,4226.153743,4228.205025,4206.153743,4218.974256,4232.820409,4160.512719,4232.820409,4236.922973,4247.179383
61,0,4232.820409,4245.128101,4234.358871,4248.205024,4247.179383,4229.743486,4228.717845,4206.666564,4221.025538,4240.512717,4156.922975,4235.384512,4236.922973,4242.563999
62,0,4228.717845,4238.974255,4231.794768,4247.179383,4247.179383,4227.692204,4228.717845,4202.564,4221.538358,4239.999896,4157.435796,4234.358871,4233.84605,4244.615281
63,0,4232.820409,4227.179384,4230.769127,4249.230665,4247.692204,4217.948615,4218.974256,4191.794769,4217.435794,4231.794768,4154.358873,4229.230666,4230.256307,4238.974255
64,0,4242.563999,4237.435794,4232.820409,4258.461434,4248.205024,4216.922974,4216.410153,4186.153744,4217.435794,4238.974255,4154.358873,4229.743486,4233.33323,4238.974255
65,0,4246.153742,4248.205024,4236.410153,4263.589639,4246.666563,4218.974256,4225.128102,4187.692205,4217.948615,4245.128101,4154.871693,4235.897332,4231.794768,4245.128101
66,0,4241.538358,4238.974255,4234.871691,4253.84605,4245.640922,4223.58964,4227.179384,4190.256308,4215.897333,4234.358871,4154.358873,4235.897332,4221.538358,4237.948614
67,0,4244.10246,4232.307589,4231.281948,4256.410152,4245.640922,4228.205025,4219.487076,4190.769128,4216.410153,4230.769127,4154.871693,4226.153743,4218.461435,4228.717845
68,0,4245.128101,4233.84605,4230.769127,4264.61528,4242.563999,4219.999897,4217.435794,4187.179385,4217.435794,4235.384512,4145.640924,4217.948615,4215.897333,4227.179384
69,0,4240.512717,4230.769127,4228.205025,4253.333229,4241.538358,4215.897333,4220.512717,4184.102462,4216.410153,4234.358871,4139.487078,4215.897333,4211.794769,4222.563999
70,0,4242.051178,4228.717845,4225.640922,4247.179383,4245.128101,4223.07682,4216.922974,4183.076821,4214.358871,4231.794768,4145.640924,4216.410153,4217.435794,4215.384512
71,0,4243.076819,4233.33323,4230.256307,4258.461434,4241.538358,4224.102461,4216.922974,4185.128103,4215.897333,4230.769127,4144.615283,4212.307589,4216.410153,4210.769128
72,0,4239.999896,4232.820409,4231.794768,4263.589639,4240.512717,4221.538358,4224.102461,4189.230667,4223.58964,4236.410153,4144.615283,4214.871692,4209.743487,4217.435794
73,0,4244.10246,4230.769127,4230.256307,4264.10246,4242.051178,4220.512717,4223.07682,4188.717846,4228.717845,4245.640922,4155.384514,4225.640922,4227.692204,4231.794768
74,0,4241.025537,4232.307589,4227.179384,4262.051178,4236.922973,4219.487076,4216.410153,4185.640923,4226.153743,4248.717845,4160.512719,4224.102461,4248.205024,4237.435794
75,0,4230.769127,4225.640922,4221.538358,4251.281947,4235.897332,4221.025538,4215.384512,4186.153744,4225.128102,4242.563999,4161.53836,4214.871692,4238.461435,4239.999896
76,0,4231.794768,4217.435794,4217.435794,4247.179383,4242.051178,4221.538358,4217.948615,4187.692205,4228.205025,4236.410153,4166.153744,4216.922974,4235.384512,4247.179383
77,0,4229.230666,4219.487076,4217.435794,4248.205024,4235.384512,4221.538358,4214.358871,4189.743487,4229.230666,4238.974255,4164.102462,4224.615281,4249.743486,4250.769127
78,0,4222.563999,4219.487076,4221.025538,4246.153742,4230.256307,4226.153743,4216.410153,4196.410154,4237.435794,4250.256306,4167.692206,4229.230666,4253.333229,4254.35887
79,0,4230.769127,4215.897333,4228.205025,4254.35887,4242.563999,4232.307589,4226.666563,4201.538359,4246.666563,4259.999896,4177.435795,4233.33323,4256.922973,4263.589639
80,0,4236.922973,4219.999897,4232.820409,4264.10246,4249.230665,4231.281948,4228.205025,4203.07682,4249.743486,4261.025537,4179.487077,4235.384512,4267.179383,4266.153742
81,0,4229.230666,4226.666563,4227.179384,4255.384511,4245.128101,4229.230666,4224.615281,4209.230666,4254.35887,4264.10246,4183.076821,4235.897332,4264.61528,4262.563998
82,0,4226.153743,4223.58964,4224.615281,4247.179383,4246.666563,4231.281948,4228.717845,4216.922974,4257.435793,4266.666562,4186.153744,4237.435794,4261.538357,4262.051178
83,0,4230.256307,4219.999897,4226.666563,4251.281947,4243.076819,4230.769127,4233.84605,4214.358871,4251.281947,4260.512716,4176.410154,4233.84605,4263.076819,4263.076819
84,0,4230.256307,4218.461435,4222.563999,4250.256306,4232.820409,4226.153743,4226.153743,4206.153743,4247.179383,4252.307588,4168.717847,4230.256307,4255.384511,4263.589639
85,0,4226.666563,4213.846051,4215.897333,4244.615281,4232.820409,4223.07682,4216.922974,4201.538359,4248.205024,4247.692204,4173.846052,4231.281948,4252.307588,4262.051178
86,0,4228.205025,4214.358871,4216.922974,4247.692204,4235.384512,4222.051179,4218.974256,4202.051179,4245.128101,4249.230665,4173.846052,4233.33323,4256.922973,4261.538357
87,0,4233.33323,4217.435794,4222.563999,4249.743486,4232.307589,4224.102461,4221.538358,4203.07682,4246.153742,4257.948614,4170.769129,4233.33323,4261.538357,4265.128101
88,0,4233.33323,4218.974256,4221.025538,4247.179383,4242.051178,4230.769127,4218.461435,4202.051179,4249.743486,4262.563998,4175.384513,4233.33323,4262.051178,4264.10246
89,0,4227.692204,4223.58964,4214.871692,4248.717845,4249.743486,4229.743486,4214.871692,4199.487077,4244.615281,4255.384511,4177.435795,4230.256307,4254.871691,4259.487075
90,0,4228.717845,4228.717845,4215.897333,4252.307588,4239.487076,4225.128102,4214.871692,4198.974256,4244.615281,4252.307588,4174.871693,4225.640922,4251.794768,4261.025537
91,0,4235.384512,4231.794768,4219.487076,4254.35887,4232.307589,4228.205025,4215.384512,4199.999897,4251.794768,4256.922973,4175.384513,4230.256307,4256.410152,4261.025537
92,0,4231.794768,4223.58964,4218.461435,4249.230665,4235.897332,4227.179384,4215.384512,4199.487077,4250.769127,4250.256306,4177.948616,4231.281948,4254.35887,4252.307588
93,0,4219.487076,4206.153743,4212.82041,4245.128101,4230.769127,4216.922974,4212.82041,4197.435795,4245.640922,4241.025537,4173.846052,4221.538358,4246.153742,4245.128101
94,0,4210.769128,4204.102461,4206.666564,4247.692204,4221.025538,4214.871692,4209.230666,4195.897333,4244.615281,4244.615281,4168.205026,4217.948615,4244.615281,4246.666563
95,0,4209.230666,4219.999897,4201.538359,4240.512717,4221.538358,4216.922974,4211.794769,4194.871692,4239.999896,4246.666563,4169.743488,4218.974256,4248.717845,4248.205024
96,0,4206.153743,4216.922974,4202.564,4227.692204,4227.692204,4215.897333,4214.358871,4195.897333,4237.948614,4243.58964,4173.333231,4215.897333,4250.769127,4245.640922
97,0,4204.102461,4201.025538,4205.128102,4239.999896,4228.205025,4216.410153,4212.82041,4197.435795,4244.10246,4244.615281,4167.179385,4219.999897,4243.58964,4238.974255
98,0,4206.153743,4209.230666,4203.07682,4254.35887,4220.512717,4217.435794,4211.281948,4198.974256,4245.128101,4242.051178,4160.512719,4223.58964,4236.922973,4229.743486
99,0,4204.615282,4213.846051,4203.589641,4240.512717,4219.999897,4215.897333,4212.82041,4199.999897,4243.076819,4236.922973,4167.692206,4215.384512,4242.051178,4232.307589
100,0,4208.205025,4201.538359,4210.769128,4234.871691,4223.58964,4215.384512,4214.358871,4202.564,4248.205024,4233.33323,4170.256308,4212.82041,4247.179383,4242.051178
101,0,4217.435794,4207.692205,4210.256307,4243.076819,4221.025538,4216.410153,4210.769128,4202.051179,4244.615281,4232.307589,4157.435796,4215.897333,4241.538358,4237.435794
102,0,4216.922974,4223.07682,4201.025538,4242.051178,4219.487076,4213.33323,4202.564,4197.948615,4233.84605,4231.794768,4157.435796,4214.358871,4232.820409,4229.743486
103,0,4214.871692,4218.974256,4201.025538,4236.410153,4221.025538,4215.897333,4202.051179,4196.410154,4237.435794,4234.358871,4171.79477,4215.897333,4236.410153,4239.999896
104,0,4221.025538,4211.794769,4207.692205,4236.410153,4218.461435,4218.974256,4206.153743,4198.974256,4245.640922,4240.512717,4172.30759,4222.051179,4249.230665,4251.281947
105,0,4227.692204,4216.922974,4205.128102,4242.051178,4212.82041,4212.82041,4205.640923,4201.025538,4247.179383,4243.58964,4167.179385,4228.205025,4252.820409,4253.84605
106,0,4234.871691,4212.307589,4204.102461,4244.10246,4212.82041,4209.230666,4202.564,4199.487077,4245.128101,4238.974255,4175.384513,4230.256307,4246.153742,4267.692203
107,0,4248.205024,4208.205025,4210.256307,4239.487076,4215.384512,4211.794769,4201.538359,4196.922974,4237.948614,4231.281948,4176.922975,4223.58964,4245.640922,4291.281946
108,0,4257.948614,4224.102461,4211.794769,4238.461435,4214.871692,4206.666564,4201.025538,4199.487077,4233.84605,4230.256307,4168.205026,4222.051179,4252.307588,4300.512715
109,0,4268.205024,4235.384512,4213.33323,4247.179383,4212.82041,4198.461436,4199.999897,4199.487077,4237.948614,4229.743486,4168.205026,4228.717845,4247.179383,4298.974254
110,0,4283.589639,4229.743486,4217.435794,4249.230665,4214.871692,4199.487077,4197.435795,4190.769128,4237.948614,4222.051179,4171.79477,4230.769127,4233.84605,4302.563997
111,0,4297.435792,4233.33323,4219.999897,4247.692204,4219.487076,4203.07682,4199.487077,4192.30759,4235.897332,4222.051179,4173.846052,4227.179384,4231.281948,4312.820407
112,0,4296.922972,4242.051178,4217.948615,4249.743486,4214.358871,4202.051179,4202.051179,4198.461436,4238.974255,4228.717845,4170.769129,4222.563999,4231.281948,4306.666561
113,0,4283.589639,4229.743486,4213.846051,4244.615281,4207.692205,4201.538359,4198.461436,4189.230667,4233.84605,4223.07682,4156.410155,4214.358871,4216.410153,4279.487075
114,0,4279.487075,4222.563999,4214.358871,4245.640922,4212.82041,4200.512718,4194.871692,4186.153744,4228.205025,4214.871692,4150.256309,4212.82041,4207.692205,4259.999896
115,0,4284.102459,4239.999896,4219.999897,4249.230665,4219.999897,4203.589641,4197.435795,4197.948615,4237.435794,4219.487076,4162.564001,4217.948615,4212.82041,4256.410152
116,0,4276.410152,4253.333229,4219.487076,4245.640922,4218.461435,4213.846051,4202.051179,4204.102461,4248.717845,4228.717845,4171.281949,4220.512717,4214.358871,4254.871691
117,0,4265.128101,4238.461435,4216.922974,4247.179383,4216.922974,4217.435794,4204.102461,4201.025538,4248.205024,4230.769127,4168.717847,4215.384512,4212.82041,4242.563999
118,0,4253.84605,4217.948615,4213.33323,4247.692204,4217.948615,4206.666564,4201.025538,4198.974256,4239.999896,4222.563999,4158.974257,4205.128102,4204.615282,4225.128102
119,0,4233.84605,4218.974256,4202.051179,4239.999896,4215.384512,4198.461436,4196.410154,4193.333231,4233.33323,4213.33323,4145.128104,4197.948615,4186.666564,4207.692205
120,0,4221.538358,4229.743486,4195.384513,4238.974255,4216.922974,4209.743487,4197.948615,4190.769128,4235.384512,4215.384512,4148.205027,4197.948615,4189.743487,4199.487077
121,0,4221.025538,4232.307589,4199.487077,4245.128101,4223.07682,4217.435794,4199.487077,4190.769128,4234.358871,4217.435794,4155.384514,4199.487077,4198.974256,4201.025538
122,0,4215.897333,4222.051179,4201.025538,4245.640922,4222.051179,4207.179384,4195.384513,4187.179385,4229.743486,4213.846051,4144.102463,4195.384513,4192.30759,4192.82041
123,0,4214.358871,4213.846051,4199.999897,4243.076819,4211.794769,4200.512718,4194.358872,4190.256308,4235.897332,4211.281948,4138.974258,4196.410154,4186.153744,4182.564
124,0,4214.358871,4215.384512,4195.384513,4238.974255,4203.589641,4206.153743,4200.512718,4202.051179,4244.10246,4207.179384,4153.333232,4203.589641,4185.640923,4184.615282
125,0,4196.922974,4213.33323,4183.589641,4231.794768,4202.051179,4205.640923,4198.461436,4201.025538,4236.922973,4202.051179,4154.871693,4196.922974,4182.05118,4182.05118
126,0,4187.179385,4207.692205,4181.025539,4232.820409,4197.435795,4199.487077,4188.717846,4189.230667,4228.717845,4199.487077,4142.051181,4188.717846,4182.05118,4175.384513
127,0,4201.025538,4211.794769,4189.230667,4235.384512,4199.999897,4201.025538,4190.769128,4190.769128,4232.820409,4201.538359,4145.640924,4196.410154,4187.179385,4182.05118
128,0,4202.051179,4219.999897,4192.30759,4231.794768,4211.794769,4203.589641,4196.410154,4202.051179,4238.461435,4207.692205,4158.461437,4204.615282,4188.717846,4190.256308
0,0,4187.179385,4212.82041,4188.717846,4231.281948,4214.871692,4201.025538,4193.846051,4202.051179,4234.871691,4207.692205,4155.384514,4199.487077,4186.153744,4183.076821
1,0,4186.666564,4206.153743,4187.179385,4237.948614,4213.846051,4201.025538,4195.897333,4198.974256,4233.33323,4203.07682,4148.205027,4198.461436,4185.640923,4176.410154
2,0,4193.846051,4215.384512,4188.717846,4247.692204,4215.384512,4202.564,4204.615282,4203.07682,4235.897332,4201.025538,4152.307591,4202.564,4185.640923,4179.999898
3,0,4186.666564,4219.487076,4186.153744,4242.051178,4209.743487,4201.025538,4204.615282,4201.025538,4232.820409,4192.82041,4149.743488,4202.051179,4178.461436,4179.487077
4,0,4173.333231,4207.179384,4181.025539,4223.58964,4196.410154,4197.948615,4199.487077,4189.230667,4226.153743,4182.564,4136.410155,4196.410154,4166.153744,4175.384513
5,0,4174.358872,4198.461436,4181.538359,4222.051179,4198.974256,4198.461436,4201.025538,4190.256308,4227.179384,4190.256308,4134.871694,4190.769128,4170.769129,4178.461436
6,0,4187.692205,4209.230666,4186.666564,4234.358871,4209.743487,4201.025538,4202.564,4201.025538,4235.384512,4202.051179,4145.128104,4190.256308,4184.102462,4179.999898
7,0,4186.666564,4219.999897,4185.128103,4232.307589,4208.205025,4201.025538,4199.999897,4201.538359,4234.871691,4199.487077,4144.102463,4186.666564,4184.102462,4167.692206
8,0,4177.948616,4211.794769,4181.538359,4226.666563,4203.07682,4198.974256,4198.461436,4195.897333,4232.820409,4198.461436,4140.512719,4188.205026,4176.922975,4165.640924
9,0,4181.538359,4204.102461,4185.640923,4235.384512,4204.102461,4202.051179,4200.512718,4199.487077,4241.538358,4202.051179,4147.692206,4197.948615,4174.871693,4177.948616
10,0,4186.666564,4214.871692,4184.615282,4237.948614,4204.102461,4199.487077,4195.384513,4198.974256,4243.076819,4200.512718,4148.717847,4193.846051,4173.846052,4174.871693
11,0,4182.564,4217.948615,4179.999898,4229.230666,4199.999897,4193.333231,4187.692205,4188.205026,4232.307589,4197.948615,4142.564001,4184.102462,4174.358872,4168.205026
12,0,4178.461436,4202.564,4177.435795,4226.153743,4199.487077,4195.897333,4187.179385,4185.640923,4228.205025,4198.974256,4138.461437,4187.179385,4172.30759,4169.230667
13,0,4180.512718,4204.615282,4177.948616,4230.769127,4199.487077,4201.025538,4190.769128,4189.230667,4232.820409,4195.897333,4138.461437,4189.230667,4169.230667,4167.692206
14,0,4183.589641,4220.512717,4182.564,4235.897332,4200.512718,4199.999897,4191.281949,4190.256308,4234.358871,4196.922974,4141.02554,4186.666564,4170.256308,4169.743488
15,0,4182.564,4213.33323,4185.640923,4232.307589,4203.589641,4198.461436,4189.230667,4189.743487,4232.820409,4199.487077,4145.640924,4189.743487,4171.79477,4171.79477
16,0,4180.512718,4204.615282,4183.076821,4230.769127,4198.461436,4194.358872,4186.153744,4185.640923,4231.281948,4191.281949,4149.230668,4188.205026,4176.410154,4167.692206
17,0,4187.692205,4216.922974,4186.666564,4238.974255,4200.512718,4193.846051,4185.640923,4184.102462,4232.307589,4189.743487,4153.846052,4187.179385,4183.589641,4169.230667
18,0,4188.205026,4224.102461,4190.256308,4242.051178,4217.435794,4202.564,4189.230667,4190.769128,4234.871691,4202.051179,4156.922975,4191.281949,4178.461436,4174.358872
19,0,4173.333231,4213.846051,4176.922975,4230.769127,4218.974256,4205.128102,4188.205026,4192.30759,4234.358871,4202.564,4149.743488,4188.205026,4167.692206,4168.717847
20,0,4168.717847,4209.230666,4168.205026,4225.128102,4206.153743,4199.999897,4184.615282,4186.666564,4240.512717,4199.487077,4145.640924,4183.589641,4172.820411,4162.05118
21,0,4173.846052,4211.794769,4173.333231,4231.794768,4195.384513,4199.999897,4184.615282,4188.717846,4245.640922,4199.999897,4151.28195,4184.615282,4178.974257,4158.974257
22,0,4173.846052,4204.615282,4173.333231,4229.743486,4189.743487,4198.974256,4183.589641,4189.230667,4236.922973,4189.743487,4153.846052,4185.128103,4169.230667,4153.333232
23,0,4170.769129,4192.82041,4175.384513,4224.615281,4192.82041,4196.410154,4182.05118,4184.615282,4232.307589,4187.179385,4149.743488,4184.102462,4169.230667,4155.384514
24,0,4168.717847,4200.512718,4183.589641,4231.794768,4202.564,4198.974256,4183.589641,4192.30759,4244.10246,4199.487077,4150.256309,4184.615282,4186.666564,4167.692206
25,0,4175.897334,4220.512717,4185.640923,4237.435794,4204.102461,4201.538359,4186.153744,4199.999897,4251.794768,4203.589641,4156.410155,4193.333231,4189.230667,4173.333231
26,0,4182.05118,4215.384512,4182.564,4232.820409,4197.435795,4199.487077,4184.102462,4189.743487,4240.512717,4197.948615,4156.922975,4198.974256,4175.897334,4168.717847
27,0,4174.871693,4198.461436,4184.102462,4228.205025,4199.999897,4198.974256,4183.589641,4185.640923,4234.358871,4198.974256,4155.897334,4191.281949,4177.435795,4168.205026
28,0,4171.281949,4210.769128,4185.640923,4230.769127,4207.692205,4203.589641,4185.128103,4198.461436,4241.025537,4201.538359,4158.974257,4193.333231,4190.256308,4170.769129
29,0,4181.538359,4221.025538,4185.128103,4233.84605,4207.179384,4203.589641,4184.615282,4196.922974,4240.512717,4196.410154,4159.487078,4201.025538,4186.153744,4165.640924
30,0,4181.538359,4202.564,4186.153744,4231.794768,4200.512718,4197.948615,4177.948616,4183.076821,4231.794768,4186.666564,4155.384514,4191.794769,4171.281949,4163.076821
31,0,4173.333231,4194.871692,4181.025539,4228.205025,4199.487077,4196.410154,4171.281949,4180.512718,4229.743486,4177.435795,4151.79477,4182.05118,4167.692206,4162.05118
