title:V                                                                               , recorded:07.07.20 11.06.42, sampling:128, subject:B                                                                               , labels:COUNTER INTERPOLATED AF3 F7 F3 FC5 T7 P7 O1 O2 P8 T8 FC6 F4 F8 AF4 ,, units:emotiv,,,,,,,,,
32,0,4196.410154,4230.256307,4204.102461,4232.307589,4237.948614,4233.33323,4229.743486,4215.384512,4442.563994,4232.307589,4172.820411,4237.435794,4214.871692,3575.384528
33,0,4196.922974,4231.281948,4212.307589,4229.743486,4231.281948,4230.256307,4229.230666,4215.897333,4444.615276,4235.384512,4173.333231,4240.512717,4218.974256,3578.461451
34,0,4200.512718,4241.025537,4213.33323,4231.281948,4232.820409,4231.794768,4229.230666,4217.435794,4443.589635,4243.076819,4173.333231,4241.538358,4221.025538,3583.589656
35,0,4210.769128,4248.717845,4213.33323,4236.410153,4242.051178,4232.820409,4230.769127,4217.435794,4443.076814,4247.692204,4173.333231,4242.051178,4222.051179,3592.820425
36,0,4214.358871,4246.666563,4214.871692,4231.281948,4236.922973,4228.717845,4227.692204,4214.358871,4443.076814,4238.974255,4169.743488,4237.948614,4217.948615,3591.794784
37,0,4211.281948,4246.153742,4216.922974,4226.666563,4230.769127,4224.102461,4226.153743,4216.922974,4441.538353,4231.794768,4173.846052,4238.461435,4216.922974,3588.717861
38,0,4219.487076,4250.769127,4225.128102,4232.820409,4242.051178,4227.692204,4232.307589,4228.205025,4442.563994,4235.384512,4185.128103,4247.179383,4226.666563,3597.435809
39,0,4230.769127,4251.794768,4230.256307,4234.871691,4248.717845,4235.384512,4235.384512,4234.358871,4446.666558,4236.922973,4184.102462,4250.769127,4230.769127,3603.589655
40,0,4223.58964,4248.717845,4221.025538,4229.743486,4242.051178,4232.820409,4232.307589,4229.743486,4445.640917,4235.897332,4170.769129,4246.153742,4219.487076,3594.358886
41,0,4213.33323,4242.563999,4214.871692,4228.717845,4246.153742,4232.307589,4234.358871,4230.769127,4444.615276,4240.512717,4170.769129,4244.615281,4214.871692,3586.666579
42,0,4213.846051,4234.871691,4216.922974,4222.051179,4250.256306,4237.435794,4235.897332,4235.897332,4451.794763,4240.512717,4176.922975,4248.205024,4218.974256,3590.769143
43,0,4209.743487,4233.33323,4213.846051,4215.897333,4242.051178,4233.84605,4230.769127,4230.256307,4458.97425,4233.33323,4170.256308,4244.615281,4210.256307,3587.69222
44,0,4208.205025,4236.410153,4213.33323,4222.563999,4242.051178,4230.256307,4230.769127,4226.153743,4458.461429,4231.794768,4167.179385,4236.922973,4205.128102,3583.589656
45,0,4213.33323,4236.410153,4219.487076,4222.563999,4249.230665,4235.384512,4234.871691,4228.205025,4456.410147,4235.384512,4169.230667,4238.461435,4210.769128,3587.179399
46,0,4214.871692,4236.922973,4218.461435,4215.384512,4248.717845,4235.384512,4233.33323,4228.205025,4456.922968,4234.871691,4165.640924,4245.640922,4213.33323,3590.769143
47,0,4215.384512,4243.076819,4215.897333,4222.563999,4244.615281,4234.871691,4232.820409,4230.769127,4458.97425,4230.256307,4169.743488,4247.179383,4214.358871,3596.922989
48,0,4219.999897,4249.230665,4218.461435,4232.307589,4247.692204,4238.461435,4235.897332,4235.897332,4461.538352,4234.358871,4178.974257,4246.153742,4217.948615,3607.179399
49,0,4220.512717,4247.179383,4219.999897,4226.666563,4251.281947,4237.435794,4234.871691,4234.358871,4461.538352,4245.128101,4177.948616,4244.10246,4211.794769,3606.666578
50,0,4211.281948,4239.999896,4214.358871,4222.563999,4247.692204,4232.820409,4231.794768,4230.769127,4459.48707,4243.58964,4185.128103,4242.051178,4206.153743,3598.974271
51,0,4214.871692,4242.563999,4214.358871,4228.717845,4248.205024,4234.871691,4233.33323,4233.33323,4461.538352,4240.512717,4207.692205,4247.692204,4214.871692,3608.20504
52,0,4229.743486,4251.281947,4226.666563,4233.33323,4251.794768,4237.948614,4236.410153,4234.358871,4463.076814,4244.10246,4221.025538,4253.333229,4221.538358,3622.564014
53,0,4230.256307,4248.717845,4233.33323,4231.794768,4249.743486,4235.384512,4235.384512,4232.307589,4461.025532,4239.999896,4222.563999,4249.230665,4217.435794,3622.051193
54,0,4223.07682,4240.512717,4230.769127,4228.717845,4243.076819,4233.33323,4231.794768,4231.794768,4459.48707,4231.794768,4229.743486,4244.615281,4212.307589,3619.999911
55,0,4224.102461,4241.538358,4229.743486,4229.743486,4242.051178,4233.84605,4231.281948,4232.820409,4462.051173,4233.33323,4239.999896,4248.717845,4210.256307,3626.666578
56,0,4229.230666,4247.179383,4233.33323,4231.281948,4248.205024,4234.358871,4234.871691,4234.358871,4465.128096,4233.84605,4247.692204,4257.948614,4211.794769,3633.333244
57,0,4227.692204,4247.179383,4234.358871,4231.794768,4249.743486,4232.307589,4233.84605,4232.307589,4462.563993,4229.230666,4251.794768,4255.384511,4210.256307,3634.358885
58,0,4230.256307,4246.153742,4235.897332,4233.33323,4249.230665,4232.307589,4232.307589,4230.769127,4464.102455,4231.281948,4257.948614,4249.230665,4209.230666,3636.922988
59,0,4235.897332,4248.717845,4238.974255,4235.384512,4250.256306,4235.384512,4233.33323,4231.281948,4472.307583,4233.84605,4263.589639,4255.384511,4213.33323,3639.999911
60,0,4235.384512,4247.692204,4236.922973,4233.33323,4248.717845,4233.33323,4232.820409,4228.717845,4471.794762,4232.820409,4265.640921,4256.922973,4211.794769,3639.48709
61,0,4233.33323,4241.538358,4235.384512,4229.230666,4246.153742,4228.205025,4231.281948,4226.666563,4466.666557,4232.307589,4273.333229,4247.692204,4206.666564,3644.102475
62,0,4233.33323,4235.384512,4236.410153,4229.743486,4246.153742,4228.717845,4232.820409,4227.692204,4470.769121,4232.307589,4281.025536,4246.153742,4209.743487,3651.281962
63,0,4232.820409,4233.84605,4233.84605,4229.230666,4246.153742,4230.256307,4231.281948,4223.58964,4475.384506,4229.743486,4279.487075,4248.717845,4210.256307,3650.769141
64,0,4230.256307,4236.922973,4229.230666,4228.205025,4244.10246,4229.743486,4227.692204,4219.999897,4473.846044,4228.205025,4276.922972,4246.153742,4204.102461,3651.794782
65,0,4238.461435,4243.58964,4232.307589,4232.307589,4247.692204,4231.281948,4229.230666,4223.07682,4474.871685,4231.794768,4278.461434,4246.666563,4210.256307,3662.051193
66,0,4247.179383,4248.205024,4234.871691,4234.871691,4250.256306,4231.281948,4232.307589,4224.102461,4474.358865,4230.769127,4283.076818,4248.205024,4216.410153,3671.794782
67,0,4248.205024,4248.205024,4231.794768,4231.794768,4249.230665,4231.794768,4230.769127,4224.615281,4471.281942,4227.179384,4289.230664,4247.692204,4213.33323,3679.48709
68,0,4253.84605,4252.820409,4238.461435,4237.948614,4255.384511,4233.33323,4230.256307,4229.743486,4474.871685,4231.281948,4297.948613,4251.794768,4222.051179,3692.820423
69,0,4262.563998,4258.461434,4244.10246,4242.563999,4259.999896,4232.307589,4233.33323,4231.794768,4476.922967,4232.820409,4301.538356,4252.307588,4230.769127,3699.99991
70,0,4263.076819,4252.307588,4237.948614,4234.871691,4252.820409,4232.820409,4234.358871,4231.281948,4476.410147,4232.307589,4298.974254,4248.717845,4222.563999,3694.358884
71,0,4254.35887,4245.128101,4232.820409,4230.769127,4245.128101,4234.358871,4232.307589,4227.692204,4476.922967,4234.358871,4293.846049,4246.153742,4213.846051,3688.717859
72,0,4250.769127,4247.692204,4233.84605,4234.871691,4247.179383,4227.179384,4229.230666,4219.999897,4477.435788,4227.179384,4294.358869,4249.230665,4213.846051,3690.769141
73,0,4258.461434,4252.307588,4235.384512,4234.871691,4250.256306,4218.974256,4229.743486,4215.897333,4476.410147,4223.07682,4296.410151,4257.435793,4216.410153,3702.564012
74,0,4264.61528,4255.384511,4235.384512,4232.820409,4246.153742,4218.461435,4227.179384,4217.948615,4475.384506,4224.102461,4297.948613,4262.051178,4222.563999,3713.846063
75,0,4259.487075,4257.435793,4234.871691,4233.84605,4242.051178,4216.922974,4221.025538,4214.871692,4474.871685,4219.487076,4303.076818,4261.538357,4228.717845,3714.358884
76,0,4257.435793,4259.487075,4239.999896,4234.871691,4244.10246,4216.922974,4221.538358,4216.410153,4473.333224,4221.538358,4307.179382,4263.076819,4228.205025,3715.897345
77,0,4270.769126,4264.10246,4247.692204,4235.384512,4245.640922,4220.512717,4227.692204,4226.153743,4474.871685,4232.820409,4306.666561,4263.076819,4228.717845,3724.615294
78,0,4278.974254,4265.128101,4247.692204,4235.384512,4244.10246,4220.512717,4229.230666,4231.281948,4476.922967,4234.871691,4308.205023,4259.999896,4231.794768,3732.307601
79,0,4269.743485,4258.974255,4242.563999,4231.281948,4243.58964,4221.538358,4227.692204,4228.717845,4476.922967,4230.256307,4308.205023,4261.538357,4232.820409,3735.897345
80,0,4261.025537,4258.974255,4242.563999,4232.307589,4244.10246,4226.666563,4229.743486,4227.692204,4481.538352,4233.84605,4302.051177,4262.051178,4231.794768,3737.435806
81,0,4267.179383,4263.076819,4245.640922,4237.948614,4243.58964,4227.692204,4231.281948,4231.794768,4489.74348,4237.948614,4294.358869,4258.461434,4229.743486,3737.435806
82,0,4279.487075,4266.153742,4247.692204,4238.974255,4245.640922,4229.230666,4230.256307,4235.384512,4491.794762,4239.999896,4295.38451,4262.051178,4231.794768,3743.589652
83,0,4278.974254,4267.179383,4247.179383,4235.897332,4245.128101,4227.692204,4230.256307,4233.33323,4486.666557,4236.922973,4293.333228,4267.179383,4233.84605,3754.358883
84,0,4270.256306,4264.10246,4246.666563,4231.281948,4235.897332,4219.999897,4229.230666,4230.256307,4484.615275,4232.307589,4279.999895,4264.10246,4232.307589,3756.410165
85,0,4269.743485,4266.666562,4248.205024,4232.820409,4234.358871,4222.563999,4230.256307,4236.922973,4488.717839,4241.538358,4275.897331,4263.589639,4238.974255,3759.999908
86,0,4279.999895,4274.35887,4249.230665,4238.974255,4239.999896,4233.33323,4234.871691,4248.205024,4494.358864,4251.794768,4276.922972,4267.179383,4251.281947,3770.256318
87,0,4279.487075,4271.281947,4249.230665,4238.461435,4236.922973,4233.33323,4234.358871,4245.640922,4493.333223,4249.230665,4269.230665,4265.640921,4249.230665,3774.358882
88,0,4269.743485,4261.538357,4246.666563,4231.281948,4231.281948,4231.281948,4232.820409,4234.871691,4488.717839,4242.051178,4261.025537,4261.025537,4237.948614,3768.205036
89,0,4261.538357,4259.999896,4239.487076,4231.281948,4233.33323,4228.717845,4229.743486,4230.769127,4488.205018,4237.948614,4255.897332,4254.35887,4227.692204,3756.922985
90,0,4253.333229,4257.948614,4232.820409,4233.33323,4234.358871,4218.461435,4220.512717,4226.153743,4488.205018,4232.307589,4245.640922,4245.128101,4217.948615,3746.666575
91,0,4253.84605,4254.35887,4236.410153,4227.179384,4229.743486,4217.435794,4218.461435,4222.563999,4487.692198,4229.743486,4242.051178,4245.128101,4213.846051,3751.28196
92,0,4262.051178,4258.461434,4250.256306,4232.307589,4234.358871,4229.230666,4230.769127,4232.820409,4493.846044,4239.999896,4251.794768,4259.999896,4221.025538,3767.179395
93,0,4255.384511,4250.769127,4250.769127,4234.358871,4232.820409,4229.743486,4233.84605,4237.435794,4495.384505,4241.025537,4250.256306,4264.10246,4220.512717,3768.205036
94,0,4236.410153,4232.820409,4232.820409,4217.435794,4217.435794,4222.563999,4222.051179,4227.692204,4489.230659,4227.179384,4241.538358,4251.794768,4213.846051,3756.922985
95,0,4236.922973,4237.435794,4228.717845,4215.384512,4222.563999,4229.230666,4226.666563,4232.820409,4496.922967,4237.435794,4252.307588,4252.307588,4223.58964,3763.589652
96,0,4254.35887,4254.35887,4244.10246,4232.820409,4246.666563,4242.051178,4243.076819,4253.333229,4512.307582,4263.076819,4269.743485,4266.666562,4238.974255,3783.589651
97,0,4256.922973,4257.435793,4249.743486,4234.871691,4248.205024,4241.025537,4241.538358,4253.84605,4508.205018,4259.487075,4268.717844,4268.717844,4240.512717,3790.256318
98,0,4245.640922,4254.35887,4242.051178,4225.128102,4230.256307,4225.128102,4228.205025,4234.358871,4490.769121,4238.461435,4254.871691,4259.487075,4229.743486,3782.05119
99,0,4246.153742,4253.333229,4243.076819,4229.743486,4229.743486,4222.563999,4227.179384,4231.281948,4489.74348,4235.384512,4254.35887,4261.538357,4223.58964,3783.076831
100,0,4250.769127,4250.256306,4247.692204,4234.358871,4233.33323,4231.794768,4232.820409,4237.435794,4495.384505,4239.487076,4252.820409,4263.076819,4221.025538,3787.692215
101,0,4238.461435,4245.128101,4244.10246,4219.487076,4216.410153,4224.102461,4228.205025,4223.58964,4489.230659,4229.743486,4235.384512,4252.820409,4205.640923,3775.897344
102,0,4232.307589,4244.10246,4242.051178,4211.794769,4206.666564,4212.307589,4225.128102,4214.871692,4490.2563,4221.025538,4232.307589,4252.307588,4196.922974,3768.717857
103,0,4249.743486,4256.922973,4252.307588,4227.179384,4225.640922,4228.717845,4232.820409,4237.435794,4506.153736,4241.025537,4254.35887,4265.128101,4216.922974,3792.3076
104,0,4266.153742,4281.025536,4260.512716,4234.358871,4242.051178,4246.153742,4238.461435,4253.84605,4514.358864,4265.128101,4270.256306,4271.794767,4241.025537,3815.897343
105,0,4257.435793,4277.948613,4252.307588,4216.410153,4228.717845,4236.410153,4234.358871,4238.974255,4506.666556,4256.922973,4261.025537,4262.563998,4232.820409,3804.102471
106,0,4238.461435,4259.487075,4242.051178,4210.256307,4212.307589,4226.666563,4228.717845,4227.692204,4504.102454,4236.922973,4247.692204,4251.281947,4218.461435,3783.589651
107,0,4242.051178,4271.281947,4246.153742,4221.025538,4218.461435,4233.33323,4230.769127,4232.820409,4508.717838,4236.922973,4245.640922,4251.281947,4226.153743,3791.281959
108,0,4245.640922,4285.1281,4244.615281,4215.897333,4217.948615,4231.281948,4231.794768,4230.256307,4504.102454,4235.384512,4246.666563,4251.281947,4223.58964,3799.999907
109,0,4233.33323,4279.487075,4236.410153,4206.153743,4206.666564,4223.58964,4227.692204,4222.563999,4498.461428,4229.230666,4245.640922,4247.692204,4207.179384,3791.281959
110,0,4232.820409,4283.589639,4243.076819,4214.358871,4211.794769,4225.640922,4227.692204,4227.179384,4504.615274,4239.999896,4244.10246,4253.84605,4215.897333,3794.871702
111,0,4248.205024,4298.974254,4252.820409,4221.538358,4225.128102,4232.820409,4232.307589,4237.435794,4513.333223,4255.384511,4249.743486,4266.153742,4233.33323,3813.846061
112,0,4249.743486,4297.948613,4249.743486,4214.871692,4222.563999,4232.307589,4233.33323,4237.948614,4510.76912,4250.769127,4254.871691,4265.640921,4222.563999,3816.922984
113,0,4235.384512,4291.281946,4244.10246,4210.256307,4214.871692,4229.743486,4230.769127,4229.230666,4504.615274,4234.871691,4243.076819,4255.897332,4211.794769,3806.153753
114,0,4231.794768,4298.461433,4248.717845,4217.948615,4223.07682,4235.384512,4232.820409,4229.743486,4506.666556,4231.281948,4231.794768,4252.307588,4219.999897,3806.153753
115,0,4228.717845,4295.38451,4245.128101,4213.33323,4221.025538,4232.820409,4229.743486,4230.256307,4508.205018,4234.871691,4234.358871,4250.256306,4213.33323,3802.56401
116,0,4219.999897,4284.102459,4233.33323,4198.974256,4204.615282,4218.461435,4218.974256,4217.948615,4505.128095,4229.230666,4232.820409,4245.640922,4204.615282,3788.717856
117,0,4223.07682,4288.205023,4237.948614,4205.640923,4207.179384,4221.538358,4222.051179,4214.358871,4504.102454,4223.07682,4231.281948,4247.692204,4211.794769,3789.230677
118,0,4235.897332,4297.948613,4251.281947,4215.897333,4221.538358,4237.435794,4234.871691,4231.281948,4509.230659,4234.358871,4243.076819,4255.384511,4219.999897,3803.589651
119,0,4234.871691,4294.87169,4245.128101,4206.666564,4216.922974,4229.230666,4229.743486,4234.358871,4512.820402,4243.076819,4242.563999,4254.35887,4222.051179,3802.56401
120,0,4218.461435,4292.820408,4230.769127,4197.948615,4209.743487,4214.871692,4220.512717,4217.948615,4510.2563,4235.384512,4225.640922,4247.179383,4215.384512,3784.615292
121,0,4218.461435,4295.38451,4231.281948,4201.025538,4217.435794,4226.153743,4226.666563,4215.897333,4508.205018,4228.717845,4225.128102,4246.666563,4206.666564,3777.435805
122,0,4222.563999,4281.025536,4230.769127,4192.82041,4208.205025,4226.666563,4223.07682,4218.461435,4508.205018,4224.615281,4227.692204,4242.563999,4201.025538,3773.846062
123,0,4215.897333,4270.769126,4225.128102,4182.05118,4194.358872,4213.33323,4212.307589,4211.794769,4506.666556,4215.897333,4216.922974,4236.922973,4198.461436,3763.076831
124,0,4220.512717,4277.948613,4230.256307,4191.794769,4203.07682,4225.128102,4224.102461,4219.999897,4510.76912,4216.410153,4225.640922,4245.640922,4202.051179,3764.102472
125,0,4226.666563,4278.974254,4235.384512,4206.666564,4207.692205,4234.358871,4234.871691,4227.692204,4513.333223,4221.538358,4237.435794,4251.794768,4201.025538,3772.3076
126,0,4224.102461,4278.974254,4233.33323,4198.461436,4201.025538,4217.948615,4223.58964,4219.999897,4510.76912,4217.435794,4229.743486,4247.692204,4199.999897,3772.3076
127,0,4222.563999,4277.435793,4232.820409,4186.666564,4198.461436,4210.256307,4216.410153,4220.512717,4510.2563,4218.974256,4227.692204,4245.640922,4210.769128,3769.230677
128,0,4221.025538,4265.128101,4232.820409,4197.435795,4197.948615,4217.435794,4219.487076,4223.58964,4509.230659,4215.897333,4233.84605,4245.128101,4210.256307,3766.153754
0,0,4222.563999,4268.717844,4231.281948,4204.102461,4200.512718,4216.410153,4221.538358,4213.846051,4505.128095,4203.07682,4232.307589,4245.128101,4200.512718,3767.179395
1,0,4232.307589,4285.1281,4231.794768,4193.846051,4203.589641,4213.33323,4221.025538,4209.230666,4505.640915,4206.666564,4222.051179,4247.692204,4202.564,3777.435805
2,0,4233.84605,4273.846049,4232.307589,4195.897333,4201.025538,4212.82041,4219.999897,4217.948615,4510.2563,4217.435794,4212.82041,4248.205024,4204.615282,3782.56401
3,0,4231.281948,4260.512716,4232.307589,4208.205025,4195.384513,4210.256307,4219.487076,4217.948615,4507.179377,4214.358871,4202.564,4249.230665,4203.589641,3781.538369
4,0,4234.871691,4262.563998,4236.922973,4207.692205,4185.640923,4201.538359,4215.384512,4205.128102,4498.461428,4197.948615,4189.230667,4249.230665,4207.179384,3775.384523
5,0,4219.487076,4250.769127,4233.33323,4188.205026,4175.384513,4197.435795,4210.769128,4202.564,4499.99989,4192.30759,4181.538359,4245.640922,4200.512718,3766.666575
6,0,4211.794769,4238.974255,4225.128102,4176.410154,4176.922975,4202.564,4212.307589,4211.794769,4506.153736,4206.666564,4187.179385,4244.10246,4197.948615,3771.281959
7,0,4241.538358,4254.871691,4239.999896,4198.974256,4196.922974,4206.666564,4218.974256,4221.025538,4510.2563,4221.025538,4202.051179,4254.871691,4211.794769,3785.640933
8,0,4247.179383,4261.538357,4251.794768,4211.794769,4204.102461,4203.07682,4220.512717,4224.102461,4514.358864,4217.948615,4208.205025,4261.538357,4215.897333,3789.743497
9,0,4219.999897,4218.461435,4238.974255,4171.281949,4185.128103,4203.07682,4219.487076,4223.58964,4515.384505,4216.922974,4200.512718,4253.84605,4212.307589,3787.692215
10,0,4213.846051,4185.640923,4230.769127,4161.53836,4177.435795,4201.025538,4217.435794,4214.358871,4507.692197,4215.384512,4181.538359,4246.153742,4212.307589,3784.615292
11,0,4213.33323,4195.384513,4232.820409,4199.999897,4187.179385,4195.384513,4214.871692,4208.205025,4502.563992,4198.461436,4164.615283,4248.205024,4203.07682,3779.487087
12,0,4212.82041,4179.999898,4233.33323,4203.07682,4182.05118,4199.999897,4219.487076,4217.948615,4510.2563,4199.487077,4168.717847,4252.820409,4198.461436,3781.538369
13,0,4222.051179,4127.179386,4237.948614,4185.128103,4161.53836,4199.487077,4218.461435,4215.897333,4507.692197,4211.794769,4165.640924,4248.205024,4195.897333,3773.333241
14,0,4208.717846,4129.230668,4233.84605,4180.512718,4170.256308,4197.435795,4216.410153,4212.82041,4508.205018,4215.384512,4148.717847,4245.128101,4197.435795,3765.640934
15,0,4179.999898,4143.589642,4218.461435,4159.487078,4193.333231,4208.717846,4222.563999,4229.230666,4523.589633,4226.153743,4143.076822,4247.179383,4207.179384,3773.333241
16,0,4199.487077,4105.640925,4231.281948,4155.897334,4214.871692,4225.640922,4234.871691,4245.640922,4534.871684,4241.025537,4150.256309,4254.871691,4213.846051,3779.487087
17,0,4220.512717,4111.794771,4241.025537,4194.358872,4229.743486,4230.256307,4241.025537,4245.128101,4533.846043,4237.435794,4150.256309,4257.435793,4214.358871,3778.461446
18,0,4150.256309,4062.564003,4201.025538,4149.743488,4157.435796,4196.410154,4212.82041,4202.051179,4505.128095,4185.640923,4121.538361,4228.717845,4179.999898,3742.051191
19,0,4115.384515,3997.94862,4187.692205,4104.102464,4113.333233,4186.666564,4198.974256,4186.153744,4498.461428,4174.871693,4116.922976,4224.102461,4167.692206,3730.76914
20,0,4185.128103,4094.871695,4222.563999,4188.717846,4196.410154,4229.743486,4234.871691,4234.871691,4534.871684,4235.897332,4134.871694,4257.948614,4216.410153,3785.640933
21,0,4209.743487,4173.333231,4224.615281,4207.692205,4241.538358,4244.10246,4252.820409,4263.076819,4552.820401,4259.999896,4136.410155,4266.666562,4242.051178,3813.33324
22,0,4163.076821,4141.02554,4201.538359,4129.743489,4199.487077,4221.025538,4233.84605,4245.640922,4538.461427,4233.33323,4142.564001,4252.820409,4223.58964,3793.846061
23,0,4151.28195,4134.871694,4193.846051,4168.717847,4184.102462,4214.358871,4225.640922,4226.153743,4527.179376,4218.461435,4131.794771,4246.666563,4201.538359,3781.025549
24,0,4163.076821,4144.615283,4187.179385,4213.846051,4177.948616,4209.230666,4224.615281,4210.256307,4521.02553,4205.640923,4093.333233,4236.410153,4188.205026,3768.717857
25,0,4155.897334,4168.205026,4189.230667,4146.153745,4165.128103,4208.205025,4225.128102,4214.871692,4520.51271,4201.538359,4092.307592,4236.922973,4194.358872,3765.640934
26,0,4161.53836,4256.410152,4201.538359,4144.615283,4198.974256,4234.871691,4241.025537,4245.128101,4538.974248,4236.922973,4132.307591,4258.974255,4207.179384,3794.871702
27,0,4157.435796,4258.461434,4192.30759,4183.589641,4223.07682,4242.563999,4243.076819,4249.230665,4546.153735,4250.256306,4119.487079,4258.461434,4206.666564,3797.948625
28,0,4144.102463,4206.153743,4182.05118,4171.79477,4204.102461,4232.820409,4233.33323,4236.922973,4539.999889,4231.794768,4079.9999,4243.076819,4224.102461,3778.461446
29,0,4132.820412,4217.948615,4182.564,4157.948616,4177.948616,4226.153743,4226.666563,4223.58964,4530.76912,4209.743487,4067.692208,4233.33323,4209.230666,3766.666575
30,0,4133.333232,4233.84605,4185.640923,4176.410154,4193.846051,4233.33323,4233.33323,4225.128102,4533.846043,4210.256307,4072.820413,4236.922973,4162.564001,3769.743498
31,0,4164.615283,4295.897331,4193.846051,4216.410153,4251.794768,4261.538357,4256.410152,4266.153742,4561.025529,4255.897332,4089.230669,4256.410152,4210.256307,3804.615292
32,0,4134.871694,4299.487074,4175.897334,4195.384513,4215.897333,4242.563999,4239.999896,4246.153742,4548.205017,4238.461435,4056.410157,4236.410153,4232.307589,3784.615292
33,0,4092.307592,4219.999897,4161.025539,4130.256309,4158.974257,4216.410153,4215.897333,4196.410154,4522.563992,4187.692205,4016.410158,4212.82041,4170.256308,3741.02555
34,0,4132.820412,4260.512716,4188.717846,4170.256308,4218.461435,4247.179383,4241.025537,4229.743486,4542.051171,4219.999897,4041.538363,4242.051178,4183.076821,3779.487087
35,0,4169.743488,4326.666561,4209.230666,4272.820408,4253.84605,4253.333229,4251.794768,4255.897332,4551.28194,4245.128101,4054.871696,4259.487075,4215.384512,3808.717856
36,0,4144.615283,4267.692203,4196.922974,4215.897333,4183.076821,4216.922974,4223.58964,4218.974256,4529.743479,4202.564,4009.743492,4236.922973,4178.974257,3769.743498
37,0,4147.692206,4284.61528,4196.922974,4145.640924,4193.333231,4238.974255,4231.794768,4233.84605,4537.948607,4212.307589,4005.640928,4248.205024,4195.897333,3779.487087
38,0,4148.717847,4363.589637,4193.846051,4181.025539,4244.615281,4256.410152,4241.538358,4252.307588,4547.179376,4234.358871,4027.692209,4252.307588,4214.358871,3800.512728
39,0,4096.410156,4344.102458,4172.30759,4168.717847,4201.025538,4215.384512,4213.846051,4209.743487,4530.76912,4195.897333,4005.128107,4217.435794,4160.512719,3755.384524
40,0,4105.640925,4351.794765,4181.025539,4152.307591,4198.461436,4226.666563,4224.102461,4216.922974,4543.589632,4209.230666,3998.461441,4219.999897,4179.999898,3755.384524
41,0,4147.179386,4405.128097,4199.999897,4198.461436,4262.051178,4270.769126,4253.84605,4259.999896,4564.102452,4252.307588,4017.94862,4245.128101,4238.974255,3799.487087
42,0,4123.076822,4373.846047,4192.30759,4191.794769,4254.871691,4257.435793,4242.051178,4242.563999,4549.230658,4227.692204,4010.769133,4232.307589,4202.051179,3783.076831
43,0,4096.922977,4342.051176,4182.564,4127.179386,4219.487076,4237.948614,4231.281948,4221.025538,4543.076812,4208.205025,3997.4358,4218.974256,4177.948616,3762.05119
44,0,4122.564002,4393.333226,4191.794769,4158.461437,4243.076819,4258.974255,4247.692204,4244.10246,4555.897324,4238.461435,4009.230671,4235.384512,4223.07682,3793.333241
45,0,4132.820412,4403.076815,4193.333231,4212.307589,4241.538358,4259.487075,4247.692204,4245.128101,4548.717837,4236.922973,4009.230671,4236.410153,4209.743487,3794.871702
46,0,4105.640925,4350.256304,4185.640923,4167.179385,4216.922974,4243.58964,4235.384512,4227.179384,4539.487068,4212.307589,4002.051184,4225.640922,4165.128103,3770.256318
47,0,4114.871694,4353.846047,4197.435795,4139.487078,4247.179383,4256.922973,4246.153742,4242.051178,4554.358863,4229.743486,4011.794774,4237.435794,4193.846051,3791.794779
48,0,4135.897335,4386.153739,4201.025538,4151.79477,4253.333229,4258.974255,4247.179383,4251.794768,4561.53835,4244.615281,4020.512722,4244.10246,4232.307589,3811.794779
49,0,4131.28195,4379.487072,4190.769128,4144.102463,4229.743486,4244.615281,4235.897332,4241.025537,4550.769119,4229.230666,4029.230671,4235.897332,4222.051179,3797.435805
50,0,4125.128104,4359.999893,4191.794769,4130.76913,4235.384512,4247.179383,4237.435794,4240.512717,4549.230658,4221.538358,4023.076825,4231.281948,4209.230666,3791.794779
51,0,4134.871694,4351.794765,4202.051179,4131.794771,4248.717845,4254.871691,4247.179383,4249.743486,4557.948606,4232.820409,4024.615286,4235.897332,4225.128102,3805.640933
52,0,4133.846053,4326.666561,4197.948615,4122.051181,4235.897332,4249.230665,4246.153742,4243.076819,4551.79476,4230.769127,4041.538363,4236.922973,4225.128102,3804.615292
53,0,4119.487079,4304.615279,4183.589641,4114.358874,4217.435794,4243.076819,4232.820409,4227.692204,4536.410145,4211.794769,4035.897337,4229.743486,4204.102461,3788.717856
54,0,4116.410156,4306.666561,4182.05118,4128.205027,4226.153743,4246.153742,4229.743486,4227.179384,4541.02553,4211.281948,4016.410158,4226.666563,4203.07682,3788.717856
55,0,4124.615284,4312.820407,4189.230667,4140.512719,4245.640922,4247.179383,4234.871691,4235.897332,4554.358863,4223.07682,4035.384517,4232.307589,4217.948615,3805.640933
56,0,4131.794771,4296.410151,4189.743487,4148.717847,4239.487076,4244.10246,4233.33323,4234.358871,4550.769119,4214.871692,4066.666567,4234.871691,4218.974256,3806.666574
57,0,4135.897335,4270.769126,4188.205026,4150.769129,4234.358871,4246.666563,4233.84605,4234.358871,4550.256299,4213.846051,4067.179388,4233.33323,4216.922974,3804.615292
58,0,4131.794771,4261.025537,4188.717846,4145.640924,4237.435794,4250.769127,4238.461435,4236.410153,4553.846042,4225.128102,4058.97426,4232.820409,4218.461435,3812.307599
59,0,4114.871694,4255.897332,4179.999898,4133.846053,4210.769128,4238.461435,4228.205025,4222.051179,4539.487068,4206.666564,4051.794773,4228.717845,4204.615282,3808.205035
60,0,4109.743489,4239.999896,4176.410154,4118.461438,4199.487077,4226.153743,4221.025538,4214.871692,4532.820402,4194.358872,4048.205029,4224.102461,4203.07682,3802.56401
61,0,4125.640925,4245.128101,4186.666564,4137.435796,4232.307589,4232.307589,4232.307589,4232.307589,4546.666555,4225.128102,4057.948619,4233.33323,4228.205025,3817.435804
62,0,4139.487078,4283.076818,4189.230667,4179.487077,4245.128101,4236.922973,4235.897332,4239.999896,4551.79476,4238.974255,4077.948618,4244.10246,4233.84605,3830.256317
63,0,4136.410155,4296.410151,4183.589641,4181.025539,4232.307589,4231.794768,4227.692204,4228.717845,4547.692196,4216.922974,4078.461439,4236.922973,4216.410153,3829.743496
64,0,4126.666566,4274.87169,4184.615282,4156.410155,4228.205025,4232.820409,4230.256307,4229.743486,4550.256299,4222.051179,4060.512721,4230.256307,4216.922974,3827.179394
65,0,4124.102463,4265.128101,4184.102462,4153.333232,4218.974256,4233.33323,4232.307589,4236.922973,4550.256299,4236.410153,4051.281952,4231.794768,4220.512717,3825.640932
66,0,4115.384515,4235.897332,4172.30759,4146.666565,4199.487077,4214.358871,4215.384512,4217.948615,4535.384504,4205.640923,4038.46144,4219.999897,4199.487077,3812.82042
67,0,4119.487079,4198.974256,4174.871693,4136.410155,4199.999897,4210.256307,4212.82041,4210.256307,4535.384504,4195.897333,4040.512722,4219.487076,4196.410154,3814.358881
68,0,4148.717847,4215.897333,4194.358872,4155.897334,4215.384512,4238.461435,4231.281948,4235.897332,4557.435786,4234.871691,4067.179388,4244.615281,4221.538358,3847.179393
69,0,4170.769129,4248.717845,4206.153743,4181.025539,4234.358871,4254.35887,4239.999896,4245.640922,4565.640914,4253.333229,4083.589644,4256.922973,4232.820409,3875.897341
70,0,4158.461437,4223.07682,4200.512718,4157.948616,4235.384512,4234.871691,4231.281948,4222.051179,4552.307581,4233.33323,4062.564003,4238.461435,4216.922974,3862.051188
71,0,4136.410155,4182.05118,4190.769128,4114.871694,4211.794769,4216.922974,4219.487076,4202.051179,4541.53835,4212.307589,4041.538363,4227.179384,4195.897333,3836.922983
72,0,4135.384514,4185.128103,4188.717846,4134.871694,4204.102461,4218.461435,4216.410153,4196.410154,4535.897325,4208.205025,4043.076824,4234.871691,4193.333231,3842.564009
73,0,4154.358873,4211.794769,4196.922974,4179.487077,4225.640922,4225.128102,4226.153743,4206.666564,4539.487068,4227.179384,4063.076824,4246.153742,4216.410153,3868.717854
74,0,4162.05118,4209.743487,4206.153743,4160.512719,4226.153743,4228.205025,4234.358871,4221.538358,4550.256299,4243.076819,4074.358875,4245.128101,4228.717845,3877.435803
75,0,4136.922976,4159.999898,4193.846051,4124.615284,4185.128103,4216.922974,4218.461435,4198.974256,4541.02553,4214.871692,4038.97426,4222.051179,4202.051179,3854.35888
76,0,4132.307591,4153.846052,4184.615282,4123.589643,4179.999898,4212.82041,4209.230666,4180.512718,4533.846043,4197.435795,4032.820414,4220.512717,4191.794769,3852.820419
77,0,4168.205026,4212.307589,4205.128102,4138.461437,4236.410153,4234.358871,4229.743486,4214.358871,4555.897324,4234.358871,4081.025541,4247.692204,4226.666563,3886.153751
78,0,4168.205026,4211.281948,4209.743487,4144.615283,4251.794768,4238.461435,4233.84605,4225.128102,4558.461427,4246.153742,4076.410157,4245.640922,4230.256307,3887.179392
79,0,4129.743489,4160.512719,4182.05118,4135.897335,4196.922974,4213.33323,4211.281948,4187.179385,4531.794761,4204.102461,4035.897337,4219.487076,4185.128103,3854.871701
80,0,4142.051181,4183.589641,4188.205026,4140.512719,4180.512718,4216.410153,4214.358871,4189.743487,4536.410145,4204.615282,4051.281952,4229.230666,4186.153744,3864.10247
81,0,4169.230667,4213.846051,4212.307589,4156.410155,4219.999897,4239.999896,4234.871691,4222.563999,4558.461427,4242.563999,4074.871695,4249.230665,4222.563999,3889.743495
82,0,4142.564001,4153.846052,4203.07682,4143.076822,4234.358871,4229.230666,4225.640922,4216.410153,4551.28194,4236.410153,4066.153747,4235.897332,4207.692205,3875.897341
83,0,4122.564002,4107.179387,4192.30759,4104.615284,4207.179384,4211.794769,4211.281948,4192.30759,4531.794761,4205.640923,4055.897337,4225.640922,4181.025539,3861.025547
84,0,4137.948617,4138.974258,4196.410154,4124.615284,4190.256308,4217.948615,4217.435794,4184.102462,4523.589633,4197.948615,4043.589645,4232.820409,4186.666564,3869.743495
85,0,4137.435796,4147.179386,4190.256308,4167.692206,4196.410154,4212.82041,4211.281948,4181.025539,4524.102453,4194.871692,4039.487081,4228.717845,4184.102462,3869.230675
86,0,4148.717847,4128.205027,4201.025538,4166.153744,4220.512717,4214.871692,4212.307589,4198.974256,4543.076812,4213.846051,4069.23067,4234.358871,4189.230667,3884.102469
87,0,4166.153744,4133.846053,4215.384512,4159.999898,4227.179384,4228.717845,4226.153743,4213.33323,4549.230658,4227.179384,4081.538362,4244.615281,4197.948615,3902.564007
88,0,4129.743489,4107.692207,4189.230667,4133.846053,4184.615282,4209.743487,4209.230666,4178.461436,4521.02553,4180.512718,4039.487081,4224.102461,4167.692206,3872.820418
89,0,4131.28195,4099.9999,4188.717846,4122.051181,4181.538359,4204.615282,4206.666564,4180.512718,4529.230658,4188.717846,4044.102465,4225.128102,4176.922975,3878.974264
90,0,4188.717846,4156.922975,4224.102461,4144.102463,4231.794768,4242.051178,4239.999896,4234.871691,4566.153734,4259.487075,4099.487079,4262.051178,4229.743486,3933.333237
91,0,4189.230667,4161.53836,4223.07682,4161.025539,4254.35887,4252.820409,4245.128101,4239.487076,4560.512709,4257.435793,4102.564002,4264.61528,4213.33323,3933.333237
92,0,4124.615284,4057.435798,4184.102462,4150.769129,4197.948615,4202.051179,4201.538359,4176.410154,4515.897325,4181.025539,4043.589645,4215.384512,4141.53836,3866.153752
93,0,4089.74349,4010.769133,4162.564001,4116.410156,4126.153745,4175.384513,4182.564,4141.53836,4498.974249,4147.179386,4016.922979,4189.743487,4122.564002,3832.820419
94,0,4136.410155,4113.333233,4189.743487,4106.666566,4174.358872,4223.07682,4220.512717,4192.82041,4534.871684,4202.051179,4064.102465,4229.230666,4181.025539,3888.717854
95,0,4184.615282,4155.897334,4218.461435,4150.256309,4248.717845,4245.640922,4239.487076,4229.743486,4557.948606,4239.999896,4084.615285,4254.35887,4211.281948,3933.846058
96,0,4177.948616,4082.564003,4218.461435,4186.666564,4212.82041,4216.410153,4217.948615,4200.512718,4542.051171,4214.358871,4070.256311,4237.435794,4180.512718,3918.974263
97,0,4159.999898,4081.538362,4204.102461,4147.692206,4171.281949,4218.461435,4214.871692,4187.692205,4535.897325,4201.538359,4074.871695,4230.769127,4173.846052,3904.615289
98,0,4173.333231,4158.461437,4197.948615,4149.743488,4226.666563,4249.743486,4235.384512,4220.512717,4554.871683,4233.84605,4083.076823,4244.10246,4201.025538,3922.051186
99,0,4172.30759,4125.128104,4200.512718,4184.615282,4230.256307,4231.794768,4225.128102,4213.846051,4545.640914,4227.692204,4062.564003,4234.871691,4178.461436,3909.743494
100,0,4141.02554,4045.128106,4198.461436,4151.79477,4164.615283,4200.512718,4203.07682,4175.384513,4522.051171,4184.615282,4040.512722,4213.846051,4131.28195,3874.35888
101,0,4162.05118,4107.692207,4208.205025,4162.564001,4209.743487,4226.153743,4227.179384,4211.281948,4547.692196,4216.410153,4090.769131,4238.461435,4164.102462,3911.281956
102,0,4186.666564,4172.30759,4207.179384,4217.435794,4251.281947,4239.487076,4237.948614,4238.461435,4559.999888,4242.051178,4111.281951,4253.84605,4197.948615,3944.102468
103,0,4146.666565,4095.897336,4188.717846,4215.897333,4186.153744,4210.769128,4205.640923,4185.128103,4521.02553,4190.769128,4045.128106,4217.435794,4159.999898,3893.846059
104,0,4127.179386,4048.205029,4193.846051,4204.615282,4188.205026,4206.153743,4199.999897,4170.769129,4515.897325,4177.948616,4030.769132,4205.640923,4151.79477,3874.8717
105,0,4162.05118,4089.74349,4214.358871,4192.82041,4236.922973,4223.58964,4221.538358,4213.33323,4547.179376,4217.435794,4079.9999,4229.230666,4177.435795,3917.948622
106,0,4175.897334,4121.538361,4207.692205,4170.769129,4210.256307,4227.179384,4224.102461,4218.974256,4548.717837,4225.640922,4091.794772,4231.794768,4170.256308,3927.692212
107,0,4164.615283,4123.076822,4196.922974,4207.692205,4199.487077,4229.743486,4223.58964,4208.717846,4543.076812,4225.128102,4087.179387,4229.230666,4176.410154,3926.15375
108,0,4164.615283,4099.487079,4204.615282,4229.743486,4231.281948,4233.84605,4227.692204,4219.487076,4552.820401,4232.307589,4099.9999,4234.871691,4193.333231,3938.461442
109,0,4151.28195,4084.102464,4197.948615,4194.358872,4215.897333,4222.563999,4213.33323,4202.051179,4537.435786,4203.07682,4065.640926,4213.846051,4173.846052,3912.307597
110,0,4158.461437,4111.281951,4206.153743,4194.871692,4213.846051,4228.717845,4221.025538,4201.538359,4530.76912,4201.025538,4062.051183,4217.948615,4186.153744,3913.846058
111,0,4171.79477,4112.307592,4216.922974,4196.410154,4231.281948,4233.33323,4234.871691,4223.58964,4543.076812,4226.666563,4110.76913,4239.487076,4212.307589,3950.256314
112,0,4133.846053,4073.846054,4186.153744,4169.743488,4199.999897,4211.794769,4216.922974,4202.564,4535.384504,4209.743487,4095.384515,4221.025538,4187.179385,3930.769135
113,0,4141.53836,4105.128105,4190.256308,4197.435795,4203.589641,4225.640922,4225.128102,4212.307589,4547.179376,4223.07682,4080.512721,4226.666563,4199.487077,3930.769135
114,0,4180.512718,4128.717848,4222.051179,4242.563999,4220.512717,4233.33323,4235.384512,4223.58964,4549.743478,4233.33323,4082.564003,4239.999896,4221.025538,3949.743493
115,0,4187.179385,4118.974258,4221.538358,4252.820409,4234.871691,4228.205025,4228.717845,4217.435794,4544.615273,4225.128102,4096.410156,4234.871691,4213.33323,3956.41016
116,0,4177.948616,4141.02554,4210.256307,4237.435794,4246.666563,4241.025537,4234.871691,4229.743486,4557.435786,4241.538358,4137.435796,4244.615281,4215.897333,3972.820416
117,0,4168.205026,4127.179386,4214.871692,4192.30759,4217.948615,4232.820409,4228.205025,4215.897333,4545.640914,4227.179384,4125.128104,4245.128101,4199.487077,3961.538365
118,0,4165.128103,4116.922976,4218.461435,4186.153744,4206.666564,4217.948615,4213.846051,4190.769128,4530.256299,4202.564,4082.051182,4231.281948,4188.205026,3945.128109
119,0,4186.666564,4158.461437,4226.153743,4251.794768,4240.512717,4242.051178,4233.84605,4224.615281,4556.410145,4241.025537,4109.743489,4246.666563,4227.692204,3976.92298
120,0,4202.564,4163.076821,4237.948614,4277.435793,4255.897332,4254.35887,4249.743486,4254.35887,4572.307581,4270.256306,4146.153745,4263.076819,4244.10246,4002.564005
121,0,4193.846051,4149.230668,4234.358871,4255.897332,4257.948614,4231.794768,4233.33323,4224.102461,4547.179376,4236.410153,4121.02554,4251.281947,4213.33323,3986.666569
122,0,4184.102462,4154.358873,4224.615281,4241.025537,4250.769127,4226.666563,4225.128102,4209.743487,4535.384504,4217.948615,4112.820412,4241.025537,4193.846051,3970.769134
123,0,4172.820411,4136.922976,4218.974256,4226.666563,4212.307589,4236.410153,4228.717845,4220.512717,4543.076812,4224.102461,4124.615284,4236.922973,4188.717846,3966.153749
124,0,4170.256308,4107.179387,4226.666563,4212.307589,4202.564,4234.871691,4227.692204,4217.435794,4544.102453,4216.410153,4112.307592,4235.897332,4184.102462,3966.66657
125,0,4193.846051,4139.999899,4236.922973,4232.820409,4255.897332,4244.10246,4238.461435,4229.743486,4551.28194,4233.33323,4125.128104,4250.769127,4211.281948,3992.820415
126,0,4200.512718,4176.410154,4228.717845,4268.717844,4275.897331,4247.179383,4241.025537,4235.897332,4551.79476,4251.281947,4140.512719,4250.256306,4239.487076,4004.102466
127,0,4171.281949,4129.743489,4215.384512,4258.461434,4237.435794,4233.84605,4224.102461,4216.410153,4542.051171,4230.256307,4115.384515,4231.794768,4219.999897,3979.487082
128,0,4158.461437,4100.51272,4215.897333,4230.256307,4223.07682,4230.256307,4221.538358,4213.33323,4542.563991,4219.999897,4117.435797,4236.410153,4200.512718,3978.974262
0,0,4183.589641,4153.846052,4223.58964,4244.10246,4255.897332,4242.051178,4235.897332,4234.358871,4552.820401,4242.051178,4168.717847,4254.35887,4213.846051,4008.717851
1,0,4180.512718,4160.512719,4215.897333,4259.487075,4248.717845,4235.384512,4227.692204,4221.538358,4540.512709,4228.717845,4156.410155,4243.076819,4213.33323,3999.999902
2,0,4152.820411,4106.153746,4208.205025,4228.205025,4213.846051,4219.999897,4214.871692,4196.922974,4524.102453,4201.538359,4102.051182,4224.615281,4200.512718,3972.307595
3,0,4155.897334,4118.974258,4213.846051,4197.435795,4223.58964,4229.230666,4226.153743,4210.769128,4538.461427,4223.58964,4124.615284,4232.820409,4209.743487,3979.999903
4,0,4180.512718,4171.281949,4219.487076,4236.922973,4261.025537,4246.153742,4241.025537,4236.410153,4556.410145,4250.256306,4164.102462,4247.179383,4219.487076,3998.974261
5,0,4191.794769,4182.05118,4219.999897,4278.461434,4279.999895,4253.333229,4249.230665,4249.743486,4561.025529,4253.84605,4159.487078,4253.333229,4225.640922,4005.640928
6,0,4170.256308,4165.640924,4212.307589,4260.512716,4261.025537,4245.640922,4244.10246,4244.10246,4553.846042,4244.10246,4158.974257,4245.640922,4216.922974,3990.769133
7,0,4151.79477,4136.410155,4209.230666,4249.230665,4229.230666,4234.358871,4227.692204,4224.615281,4542.563991,4227.692204,4166.153744,4233.33323,4189.743487,3959.999903
8,0,4188.717846,4152.307591,4227.692204,4267.179383,4254.35887,4249.743486,4241.025537,4241.025537,4555.897324,4248.717845,4165.128103,4250.256306,4218.974256,3979.487082
9,0,4198.461436,4176.922975,4224.102461,4252.307588,4262.563998,4248.717845,4245.640922,4248.205024,4555.897324,4248.205024,4157.948616,4253.333229,4236.922973,3992.307595
10,0,4166.153744,4157.948616,4205.128102,4219.487076,4228.717845,4229.743486,4225.640922,4225.128102,4536.922966,4215.384512,4152.820411,4236.922973,4204.615282,3965.128108
11,0,4194.358872,4176.410154,4227.692204,4234.358871,4250.769127,4245.640922,4242.051178,4246.666563,4554.871683,4247.692204,4172.820411,4256.922973,4226.666563,3992.307595
12,0,4219.999897,4195.384513,4241.025537,4262.051178,4272.820408,4255.897332,4257.435793,4264.61528,4567.179375,4273.846049,4179.999898,4265.640921,4243.076819,4014.358876
13,0,4186.153744,4169.743488,4216.410153,4264.61528,4247.179383,4233.33323,4237.435794,4236.410153,4543.589632,4231.281948,4156.922975,4235.897332,4202.564,3971.281954
14,0,4173.846052,4166.666565,4207.692205,4248.205024,4235.384512,4226.666563,4230.256307,4229.743486,4537.435786,4218.974256,4149.743488,4229.743486,4199.487077,3953.846057
15,0,4192.82041,4178.461436,4218.974256,4244.615281,4237.948614,4235.897332,4241.025537,4244.615281,4548.205017,4242.051178,4166.666565,4247.179383,4218.974256,3976.410159
16,0,4196.922974,4169.230667,4224.615281,4271.794767,4237.948614,4236.410153,4242.563999,4240.512717,4545.128094,4229.743486,4179.487077,4246.153742,4198.974256,3971.794775
17,0,4205.640923,4188.205026,4231.281948,4278.461434,4265.640921,4247.692204,4248.205024,4250.256306,4550.256299,4233.84605,4178.974257,4247.179383,4207.692205,3970.769134
18,0,4215.384512,4214.358871,4231.281948,4252.820409,4282.051177,4255.384511,4251.794768,4269.230665,4561.025529,4264.10246,4176.410154,4252.307588,4241.538358,3987.69221
19,0,4210.256307,4205.128102,4227.179384,4256.410152,4275.384511,4250.769127,4249.743486,4264.10246,4557.435786,4263.076819,4184.102462,4249.743486,4230.256307,3987.69221
20,0,4208.205025,4202.564,4228.205025,4277.435793,4276.922972,4250.256306,4250.769127,4256.410152,4551.28194,4252.307588,4184.102462,4250.769127,4218.461435,3978.974262
21,0,4187.179385,4189.743487,4208.205025,4248.717845,4238.974255,4237.435794,4234.358871,4238.461435,4536.410145,4235.384512,4158.974257,4240.512717,4213.846051,3961.025544
22,0,4186.666564,4191.794769,4198.974256,4238.974255,4230.256307,4230.769127,4229.230666,4233.33323,4536.922966,4228.717845,4164.102462,4241.538358,4208.717846,3963.076826
23,0,4218.974256,4219.999897,4215.384512,4284.102459,4276.410152,4238.461435,4244.10246,4252.820409,4552.307581,4246.153742,4197.435795,4256.922973,4221.025538,3982.051185
24,0,4206.666564,4195.897333,4206.666564,4266.666562,4257.948614,4227.692204,4234.358871,4242.051178,4542.051171,4240.512717,4180.512718,4242.563999,4218.974256,3964.615288
25,0,4187.179385,4184.102462,4193.333231,4225.128102,4231.281948,4227.179384,4230.769127,4232.820409,4540.512709,4235.897332,4157.948616,4234.358871,4210.769128,3953.846057
26,0,4209.230666,4230.769127,4203.07682,4254.871691,4263.589639,4249.743486,4250.256306,4259.999896,4561.025529,4260.512716,4177.948616,4250.769127,4227.692204,3975.384518
27,0,4201.025538,4221.538358,4194.871692,4262.051178,4244.615281,4238.974255,4239.999896,4253.84605,4550.769119,4252.820409,4189.743487,4243.58964,4223.07682,3963.076826
28,0,4177.948616,4184.615282,4187.179385,4232.307589,4204.615282,4218.461435,4221.025538,4227.179384,4533.333222,4225.640922,4182.564,4231.281948,4195.384513,3943.589647
29,0,4216.922974,4225.640922,4215.897333,4260.512716,4257.948614,4238.974255,4242.051178,4253.333229,4553.333222,4249.743486,4201.025538,4253.84605,4218.974256,3978.974262
30,0,4239.487076,4256.922973,4223.07682,4276.410152,4285.640921,4247.692204,4250.769127,4271.281947,4561.53835,4264.61528,4209.230666,4261.538357,4253.84605,3996.922979
31,0,4204.102461,4222.051179,4197.435795,4237.948614,4236.410153,4228.717845,4230.769127,4242.563999,4538.461427,4238.461435,4181.025539,4241.538358,4233.33323,3967.17939
32,0,4193.846051,4207.692205,4191.281949,4237.435794,4229.230666,4226.666563,4229.743486,4236.410153,4534.871684,4233.33323,4184.615282,4236.922973,4208.205025,3958.974262
33,0,4205.640923,4224.102461,4192.82041,4251.794768,4244.10246,4233.84605,4235.384512,4243.076819,4541.02553,4236.410153,4203.07682,4238.461435,4216.410153,3969.230672
34,0,4210.256307,4236.922973,4193.846051,4236.922973,4244.615281,4238.974255,4231.281948,4242.563999,4538.974248,4235.897332,4191.281949,4242.051178,4231.794768,3977.948621
35,0,4218.461435,4239.999896,4203.589641,4237.435794,4255.897332,4242.051178,4233.84605,4246.666563,4541.02553,4249.743486,4181.025539,4246.666563,4231.794768,3983.589646
36,0,4217.948615,4235.897332,4199.487077,4229.230666,4251.794768,4232.820409,4233.33323,4238.461435,4539.487068,4249.230665,4189.743487,4236.922973,4223.58964,3975.384518
37,0,4203.589641,4227.179384,4185.640923,4171.281949,4230.769127,4225.640922,4221.025538,4224.102461,4536.410145,4230.769127,4187.179385,4227.179384,4221.025538,3965.640929
38,0,4206.153743,4226.153743,4187.179385,4135.384514,4241.538358,4232.307589,4221.025538,4236.922973,4539.999889,4231.281948,4190.769128,4235.384512,4221.025538,3976.410159
39,0,4214.358871,4238.461435,4191.281949,4155.897334,4252.307588,4233.33323,4229.230666,4249.230665,4542.563991,4238.974255,4206.153743,4241.025537,4218.461435,3984.102467
40,0,4204.102461,4239.487076,4184.615282,4158.974257,4228.717845,4225.128102,4222.051179,4231.281948,4536.922966,4229.230666,4190.256308,4230.256307,4214.358871,3973.846057
41,0,4203.589641,4237.948614,4181.025539,4137.948617,4228.717845,4225.128102,4213.846051,4222.051179,4535.384504,4224.102461,4174.871693,4226.153743,4214.871692,3977.4358
42,0,4217.435794,4244.615281,4186.153744,4142.051181,4244.615281,4228.717845,4217.435794,4231.794768,4537.948607,4232.307589,4189.743487,4232.820409,4217.948615,3989.230672
43,0,4213.33323,4247.179383,4187.692205,4159.999898,4235.384512,4229.230666,4221.538358,4235.384512,4537.948607,4235.897332,4202.051179,4234.358871,4216.922974,3986.153749
44,0,4202.051179,4243.076819,4183.589641,4180.512718,4224.615281,4226.666563,4219.487076,4229.230666,4538.461427,4229.743486,4201.025538,4231.281948,4210.256307,3978.974262
45,0,4215.384512,4243.58964,4186.153744,4225.128102,4237.435794,4228.717845,4221.025538,4231.281948,4537.948607,4230.256307,4202.564,4233.84605,4212.82041,3987.69221
46,0,4218.461435,4243.076819,4187.692205,4252.307588,4242.051178,4231.794768,4223.58964,4234.358871,4536.410145,4234.871691,4202.051179,4232.820409,4217.435794,3990.256313
47,0,4202.564,4238.974255,4180.512718,4239.487076,4228.717845,4230.256307,4223.07682,4228.717845,4535.897325,4230.256307,4196.922974,4227.692204,4212.82041,3978.974262
48,0,4211.281948,4251.281947,4186.153744,4239.487076,4230.769127,4231.281948,4226.666563,4234.871691,4536.410145,4229.743486,4203.07682,4236.410153,4212.307589,3985.128108
49,0,4233.84605,4264.10246,4200.512718,4255.384511,4246.666563,4234.871691,4231.794768,4244.615281,4538.974248,4241.538358,4213.846051,4245.640922,4218.974256,4002.051184
50,0,4232.307589,4258.974255,4196.922974,4256.922973,4244.615281,4229.743486,4226.666563,4244.10246,4539.999889,4244.10246,4211.281948,4241.538358,4220.512717,4002.564005
51,0,4207.692205,4235.384512,4181.538359,4241.025537,4218.461435,4214.871692,4211.794769,4225.640922,4527.179376,4217.435794,4195.384513,4229.230666,4207.179384,3983.076826
52,0,4201.025538,4227.179384,4180.512718,4231.794768,4212.82041,4214.358871,4211.281948,4216.410153,4518.974248,4205.128102,4198.974256,4232.820409,4196.410154,3981.538364
53,0,4217.435794,4244.615281,4188.717846,4237.948614,4223.58964,4227.179384,4223.58964,4227.692204,4525.128094,4224.615281,4214.358871,4242.563999,4199.999897,3994.871697
54,0,4218.974256,4246.153742,4185.640923,4241.538358,4222.051179,4229.743486,4221.538358,4232.307589,4522.563992,4224.615281,4208.205025,4235.897332,4202.051179,3990.256313
55,0,4215.897333,4246.666563,4182.564,4231.794768,4233.33323,4229.230666,4216.922974,4230.769127,4526.153735,4219.999897,4207.179384,4235.384512,4199.487077,3992.307595
56,0,4223.58964,4252.307588,4187.179385,4223.58964,4245.640922,4232.307589,4221.538358,4233.33323,4536.410145,4235.897332,4227.692204,4245.128101,4202.051179,4008.717851
57,0,4223.58964,4238.461435,4188.205026,4231.281948,4230.256307,4230.256307,4223.07682,4236.410153,4529.743479,4237.948614,4233.33323,4242.051178,4204.102461,4009.743492
58,0,4216.410153,4229.230666,4187.179385,4232.307589,4223.58964,4228.717845,4219.487076,4232.307589,4519.487069,4223.58964,4226.666563,4236.922973,4199.999897,4003.076825
59,0,4227.692204,4240.512717,4191.281949,4232.820409,4236.922973,4231.281948,4219.999897,4233.33323,4524.102453,4228.205025,4239.999896,4245.640922,4199.487077,4012.820415
60,0,4234.358871,4236.922973,4190.769128,4235.384512,4220.512717,4226.153743,4218.461435,4233.84605,4527.179376,4234.358871,4245.640922,4244.10246,4206.153743,4019.487081
61,0,4215.384512,4214.358871,4183.076821,4220.512717,4197.435795,4222.051179,4213.846051,4227.692204,4520.51271,4227.179384,4230.769127,4232.307589,4210.769128,4010.769133
62,0,4208.717846,4211.794769,4183.589641,4217.948615,4222.563999,4230.769127,4221.025538,4234.871691,4522.051171,4233.33323,4234.358871,4232.820409,4215.897333,4015.897338
63,0,4220.512717,4222.051179,4188.717846,4236.922973,4243.076819,4235.897332,4229.230666,4249.743486,4532.307581,4247.692204,4251.794768,4237.948614,4220.512717,4029.230671
64,0,4221.025538,4219.487076,4188.205026,4241.025537,4222.051179,4230.769127,4223.58964,4249.743486,4532.820402,4248.205024,4253.84605,4236.922973,4219.487076,4030.256312
65,0,4216.410153,4215.897333,4186.666564,4222.051179,4217.435794,4230.769127,4218.974256,4238.461435,4525.128094,4242.051178,4250.256306,4234.358871,4213.33323,4027.179389
66,0,4222.051179,4225.128102,4186.666564,4212.82041,4238.461435,4236.410153,4226.666563,4239.487076,4527.692197,4246.153742,4255.384511,4232.820409,4213.33323,4031.794773
67,0,4227.179384,4227.179384,4186.666564,4215.897333,4232.820409,4235.384512,4232.820409,4246.153742,4532.307581,4252.820409,4254.871691,4233.33323,4217.435794,4037.435799
68,0,4225.128102,4217.948615,4190.769128,4214.358871,4220.512717,4230.769127,4229.743486,4245.128101,4526.666556,4249.230665,4254.35887,4239.487076,4215.384512,4040.512722
69,0,4226.666563,4219.487076,4194.871692,4217.435794,4229.743486,4231.794768,4228.717845,4242.051178,4523.076812,4244.10246,4262.563998,4243.58964,4215.384512,4043.589645
70,0,4233.33323,4227.179384,4198.461436,4227.179384,4235.897332,4238.461435,4233.33323,4246.153742,4525.640915,4245.128101,4266.153742,4239.999896,4218.461435,4045.640927
71,0,4227.692204,4222.051179,4195.897333,4209.743487,4230.769127,4234.358871,4230.256307,4244.615281,4523.589633,4245.640922,4252.820409,4234.358871,4209.743487,4042.564004
72,0,4212.307589,4211.281948,4187.692205,4173.333231,4226.666563,4218.461435,4217.435794,4234.358871,4521.538351,4234.871691,4245.640922,4231.794768,4197.948615,4036.410158
73,0,4214.358871,4213.33323,4186.666564,4165.128103,4224.102461,4214.358871,4218.461435,4237.435794,4522.563992,4229.743486,4259.487075,4231.281948,4205.128102,4037.435799
74,0,4226.153743,4221.538358,4195.897333,4152.307591,4218.974256,4227.692204,4230.769127,4251.794768,4525.640915,4243.076819,4267.179383,4237.948614,4219.487076,4050.769132
75,0,4224.615281,4223.07682,4199.999897,4112.820412,4220.512717,4228.205025,4230.256307,4254.35887,4528.717838,4256.410152,4262.563998,4244.10246,4216.410153,4059.999901
76,0,4214.871692,4218.461435,4191.281949,4093.333233,4219.999897,4217.948615,4223.07682,4246.666563,4524.615274,4246.666563,4261.538357,4237.435794,4202.051179,4054.358875
77,0,4216.410153,4215.897333,4186.666564,4106.153746,4218.974256,4224.102461,4227.692204,4243.076819,4523.589633,4235.384512,4262.051178,4230.769127,4199.487077,4049.23067
78,0,4218.461435,4218.461435,4188.717846,4116.922976,4225.128102,4235.897332,4229.743486,4237.948614,4526.666556,4236.922973,4255.384511,4230.256307,4204.615282,4049.23067
79,0,4216.922974,4218.461435,4188.205026,4127.179386,4231.281948,4230.256307,4220.512717,4229.743486,4519.487069,4234.358871,4257.435793,4231.281948,4199.999897,4051.794773
80,0,4221.538358,4218.461435,4191.794769,4142.564001,4233.33323,4220.512717,4215.384512,4227.692204,4512.820402,4231.794768,4267.692203,4234.871691,4203.589641,4061.538362
81,0,4227.179384,4222.051179,4197.948615,4151.79477,4224.615281,4217.435794,4215.384512,4225.640922,4515.897325,4234.358871,4266.666562,4238.461435,4217.435794,4073.333234
82,0,4233.84605,4230.256307,4200.512718,4161.025539,4215.384512,4217.435794,4213.33323,4222.563999,4513.846043,4233.33323,4262.563998,4241.025537,4218.461435,4075.897336
83,0,4241.025537,4240.512717,4201.538359,4169.743488,4226.153743,4217.948615,4214.871692,4225.640922,4511.281941,4231.794768,4267.179383,4246.153742,4213.846051,4075.384516
84,0,4236.410153,4238.461435,4198.461436,4171.79477,4234.871691,4215.897333,4215.897333,4230.256307,4514.358864,4234.871691,4268.205024,4242.563999,4214.871692,4075.897336
85,0,4228.717845,4230.769127,4193.333231,4173.333231,4220.512717,4215.384512,4214.871692,4229.743486,4518.974248,4236.922973,4260.512716,4231.794768,4211.794769,4078.461439
86,0,4236.410153,4238.461435,4196.922974,4180.512718,4216.410153,4219.999897,4217.435794,4229.743486,4519.487069,4234.871691,4266.153742,4233.84605,4209.230666,4086.153746
87,0,4251.794768,4253.333229,4206.153743,4198.461436,4238.461435,4222.563999,4221.025538,4234.358871,4517.948607,4234.871691,4284.102459,4245.640922,4217.435794,4099.487079
88,0,4254.871691,4255.384511,4206.153743,4205.640923,4239.999896,4217.948615,4219.487076,4235.384512,4518.461428,4235.897332,4282.051177,4244.615281,4220.512717,4110.25631
89,0,4245.640922,4244.615281,4199.999897,4190.769128,4219.999897,4213.33323,4213.846051,4229.230666,4518.974248,4233.84605,4265.128101,4232.820409,4211.281948,4110.25631
90,0,4241.538358,4238.461435,4196.410154,4184.615282,4211.794769,4213.846051,4210.256307,4224.102461,4512.307582,4226.666563,4265.640921,4227.692204,4202.564,4103.076823
91,0,4257.948614,4254.871691,4201.538359,4202.051179,4220.512717,4218.974256,4214.871692,4230.769127,4508.717838,4228.205025,4282.563998,4234.358871,4212.307589,4112.307592
92,0,4269.230665,4266.666562,4206.153743,4203.07682,4225.640922,4221.538358,4213.846051,4232.307589,4512.820402,4234.358871,4282.563998,4238.461435,4220.512717,4124.615284
93,0,4255.384511,4249.230665,4198.461436,4183.076821,4212.82041,4215.384512,4202.051179,4217.948615,4507.179377,4224.102461,4264.10246,4230.769127,4202.051179,4114.871694
94,0,4254.871691,4250.769127,4196.410154,4190.256308,4215.897333,4213.33323,4202.051179,4216.410153,4502.563992,4218.974256,4267.179383,4228.717845,4194.871692,4110.76913
95,0,4278.461434,4277.948613,4211.281948,4214.358871,4239.999896,4221.538358,4217.435794,4235.384512,4511.281941,4232.820409,4289.230664,4244.10246,4217.435794,4129.743489
96,0,4276.922972,4274.35887,4213.846051,4216.922974,4235.384512,4220.512717,4217.435794,4236.410153,4511.794761,4235.897332,4289.230664,4247.692204,4218.461435,4131.28195
97,0,4259.999896,4256.922973,4202.051179,4211.794769,4212.307589,4210.769128,4205.640923,4224.102461,4504.615274,4225.640922,4272.820408,4233.33323,4196.922974,4113.333233
98,0,4268.717844,4266.153742,4208.205025,4218.461435,4219.999897,4214.358871,4209.743487,4228.717845,4506.153736,4229.743486,4278.461434,4237.948614,4203.07682,4114.871694
99,0,4276.922972,4270.769126,4214.871692,4223.07682,4235.897332,4222.051179,4216.922974,4238.974255,4512.307582,4239.487076,4287.179382,4249.743486,4219.487076,4126.153745
100,0,4263.589639,4259.487075,4204.615282,4216.410153,4219.487076,4219.487076,4212.82041,4230.256307,4506.666556,4233.33323,4282.051177,4238.974255,4208.205025,4123.076822
101,0,4259.487075,4263.589639,4204.615282,4223.07682,4214.358871,4221.538358,4210.769128,4228.205025,4504.102454,4228.205025,4288.717844,4227.692204,4200.512718,4120.51272
102,0,4266.666562,4275.897331,4215.897333,4234.358871,4238.974255,4232.820409,4217.948615,4243.076819,4515.384505,4239.999896,4296.410151,4231.794768,4215.897333,4122.564002
103,0,4265.128101,4271.794767,4213.846051,4236.410153,4244.615281,4234.871691,4221.025538,4243.076819,4517.948607,4252.820409,4290.256305,4231.794768,4220.512717,4122.564002
104,0,4263.589639,4261.538357,4212.307589,4242.563999,4229.230666,4227.692204,4215.897333,4231.281948,4508.717838,4246.666563,4291.794767,4228.205025,4214.358871,4124.102463
105,0,4265.640921,4260.512716,4217.948615,4243.076819,4227.179384,4220.512717,4214.358871,4234.871691,4505.640915,4235.384512,4298.974254,4230.769127,4215.384512,4124.615284
106,0,4261.025537,4261.538357,4213.33323,4229.230666,4230.769127,4217.435794,4216.922974,4243.076819,4511.794761,4236.410153,4293.846049,4230.769127,4214.871692,4120.51272
107,0,4268.205024,4263.076819,4212.82041,4236.922973,4229.743486,4222.563999,4219.487076,4245.640922,4521.02553,4249.230665,4297.435792,4232.307589,4223.58964,4132.307591
108,0,4278.461434,4267.692203,4219.999897,4251.794768,4230.256307,4223.58964,4219.487076,4248.717845,4520.51271,4254.35887,4308.717843,4235.897332,4230.769127,4144.102463
109,0,4261.025537,4260.512716,4212.82041,4233.84605,4219.999897,4214.871692,4213.33323,4242.051178,4507.692197,4233.84605,4301.538356,4225.640922,4210.769128,4126.153745
110,0,4243.076819,4251.794768,4201.025538,4230.256307,4213.846051,4212.307589,4208.205025,4226.666563,4501.538351,4215.384512,4290.256305,4212.307589,4192.82041,4105.640925
111,0,4243.58964,4247.692204,4199.999897,4245.128101,4222.051179,4217.948615,4211.281948,4224.615281,4504.615274,4218.974256,4286.666562,4210.769128,4197.948615,4103.076823
112,0,4250.256306,4248.205024,4206.666564,4239.999896,4227.179384,4219.487076,4216.410153,4230.256307,4504.615274,4227.692204,4287.692203,4216.410153,4202.051179,4108.205028
113,0,4261.025537,4261.538357,4213.846051,4237.948614,4222.563999,4215.897333,4214.358871,4233.33323,4508.205018,4230.769127,4292.820408,4218.461435,4202.564,4119.487079
114,0,4267.692203,4269.743485,4215.384512,4252.307588,4216.922974,4214.358871,4211.281948,4228.205025,4508.205018,4228.717845,4296.922972,4217.435794,4204.102461,4125.640925
115,0,4270.769126,4272.820408,4216.922974,4258.461434,4224.102461,4215.897333,4214.358871,4229.743486,4502.563992,4226.666563,4295.38451,4221.025538,4201.025538,4123.589643
116,0,4278.974254,4278.461434,4223.58964,4266.153742,4231.794768,4217.435794,4218.974256,4241.538358,4506.666556,4231.281948,4294.358869,4228.205025,4201.025538,4130.76913
117,0,4276.410152,4272.307588,4223.58964,4265.640921,4218.974256,4213.33323,4216.410153,4241.025537,4509.743479,4232.307589,4296.922972,4225.640922,4198.461436,4133.846053
118,0,4260.512716,4261.025537,4213.33323,4248.205024,4210.769128,4208.205025,4211.281948,4233.33323,4503.589633,4225.128102,4295.38451,4215.384512,4190.256308,4122.564002
119,0,4260.512716,4270.256306,4213.846051,4252.307588,4228.717845,4214.358871,4214.871692,4242.051178,4505.640915,4230.256307,4295.38451,4215.897333,4199.999897,4121.02554
120,0,4259.999896,4268.205024,4214.871692,4261.025537,4225.128102,4215.384512,4214.871692,4243.58964,4506.666556,4230.769127,4293.846049,4216.410153,4210.256307,4125.640925
121,0,4243.58964,4245.640922,4203.589641,4246.153742,4199.487077,4204.615282,4203.07682,4221.538358,4493.846044,4209.230666,4287.179382,4208.717846,4196.922974,4119.999899
122,0,4241.538358,4247.179383,4202.051179,4246.153742,4202.564,4206.153743,4201.538359,4215.897333,4487.692198,4206.666564,4284.102459,4208.205025,4189.230667,4117.435797
123,0,4256.410152,4265.640921,4212.307589,4264.61528,4221.025538,4213.846051,4212.307589,4229.230666,4495.384505,4225.640922,4290.256305,4214.871692,4199.487077,4127.692207
124,0,4268.205024,4275.897331,4218.974256,4270.769126,4229.743486,4216.410153,4217.435794,4234.358871,4496.410146,4227.179384,4297.948613,4218.974256,4207.179384,4139.487078
125,0,4260.512716,4266.666562,4212.82041,4256.922973,4221.538358,4210.256307,4211.794769,4231.794768,4492.307582,4213.33323,4294.358869,4216.922974,4195.384513,4137.948617
126,0,4250.256306,4254.35887,4205.640923,4251.281947,4211.794769,4205.640923,4211.281948,4232.820409,4497.435787,4214.358871,4293.846049,4214.358871,4182.05118,4133.333232
127,0,4254.35887,4257.948614,4210.256307,4259.487075,4213.33323,4204.615282,4212.82041,4234.871691,4498.974249,4217.948615,4294.87169,4215.384512,4187.692205,4138.461437
128,0,4260.512716,4263.589639,4215.384512,4267.179383,4215.897333,4205.128102,4204.615282,4230.256307,4491.281941,4210.769128,4290.769126,4214.871692,4198.461436,4139.999899
0,0,4261.538357,4263.076819,4216.922974,4269.230665,4215.897333,4210.256307,4206.153743,4230.769127,4489.230659,4212.82041,4296.922972,4215.897333,4200.512718,4141.02554
1,0,4262.051178,4263.076819,4216.922974,4267.179383,4215.897333,4209.743487,4212.82041,4228.717845,4491.794762,4214.871692,4300.512715,4216.410153,4198.461436,4145.640924
2,0,4260.512716,4265.128101,4214.871692,4263.589639,4216.410153,4210.256307,4208.717846,4219.487076,4489.74348,4205.640923,4291.794767,4213.846051,4201.538359,4146.666565
3,0,4266.666562,4264.61528,4209.230666,4266.153742,4215.897333,4213.846051,4202.564,4215.384512,4488.717839,4203.589641,4289.230664,4212.307589,4203.589641,4151.28195
4,0,4287.692203,4271.281947,4214.358871,4276.922972,4221.025538,4212.82041,4204.615282,4219.999897,4491.281941,4212.307589,4292.307587,4214.358871,4202.051179,4165.128103
5,0,4309.743484,4279.487075,4225.640922,4279.487075,4221.025538,4206.666564,4208.205025,4223.07682,4490.769121,4214.358871,4284.61528,4215.897333,4201.538359,4181.538359
6,0,4336.41015,4289.230664,4230.769127,4279.487075,4214.871692,4211.794769,4211.794769,4229.230666,4490.769121,4215.384512,4296.410151,4223.07682,4213.33323,4213.33323
7,0,4373.846047,4306.666561,4240.512717,4292.307587,4216.922974,4221.538358,4217.948615,4244.615281,4493.846044,4219.999897,4321.538356,4239.487076,4235.897332,4257.435793
8,0,4400.512713,4316.922971,4250.769127,4301.025536,4217.948615,4210.256307,4217.435794,4247.692204,4493.333223,4218.974256,4319.999894,4248.717845,4241.025537,4274.87169
9,0,4401.538354,4314.871689,4252.820409,4295.38451,4208.205025,4196.410154,4211.794769,4234.871691,4488.205018,4215.897333,4309.743484,4243.076819,4231.281948,4269.743485
10,0,4393.846046,4312.820407,4245.128101,4293.846049,4204.102461,4197.948615,4208.205025,4228.205025,4487.692198,4218.461435,4316.922971,4235.897332,4239.487076,4268.717844
11,0,4388.717841,4313.846048,4238.461435,4304.102459,4217.948615,4204.102461,4208.717846,4233.33323,4492.820403,4219.999897,4328.205022,4233.33323,4254.35887,4264.61528
12,0,4373.846047,4301.025536,4234.358871,4300.512715,4214.358871,4199.487077,4204.615282,4229.743486,4484.615275,4210.769128,4319.487074,4224.102461,4243.076819,4239.487076
13,0,4354.871688,4287.179382,4228.717845,4288.717844,4198.461436,4195.897333,4200.512718,4221.025538,4471.794762,4203.589641,4303.076818,4217.948615,4227.692204,4213.846051
14,0,4353.846047,4293.333228,4231.794768,4299.999895,4217.435794,4210.256307,4212.82041,4229.743486,4483.076813,4213.33323,4306.666561,4230.769127,4227.692204,4215.897333
15,0,4356.92297,4301.538356,4238.974255,4313.846048,4241.538358,4220.512717,4223.07682,4239.487076,4495.384505,4224.102461,4316.410151,4236.410153,4228.205025,4222.051179
16,0,4333.333227,4288.205023,4229.230666,4297.435792,4227.692204,4215.897333,4214.358871,4231.794768,4481.025531,4211.794769,4303.076818,4218.461435,4213.33323,4199.487077
17,0,4307.692202,4264.61528,4215.897333,4276.922972,4208.205025,4213.33323,4208.717846,4224.615281,4470.256301,4197.435795,4288.717844,4211.281948,4193.846051,4172.820411
18,0,4307.179382,4253.84605,4221.025538,4278.461434,4210.256307,4214.871692,4216.922974,4233.33323,4478.461429,4211.281948,4301.025536,4225.128102,4199.999897,4174.358872
19,0,4297.948613,4245.640922,4223.07682,4270.256306,4199.999897,4204.102461,4211.794769,4231.794768,4479.48707,4219.487076,4302.051177,4224.102461,4215.384512,4174.871693
20,0,4278.974254,4240.512717,4214.871692,4265.640921,4182.05118,4196.922974,4198.974256,4221.025538,4474.871685,4207.179384,4291.281946,4213.846051,4207.692205,4156.410155
21,0,4287.692203,4258.461434,4224.615281,4290.256305,4197.948615,4207.179384,4206.666564,4229.230666,4477.948608,4210.769128,4305.1281,4224.102461,4202.051179,4151.28195
22,0,4297.948613,4274.35887,4235.384512,4299.487074,4220.512717,4207.692205,4217.948615,4239.999896,4480.512711,4225.128102,4316.410151,4233.84605,4214.358871,4155.384514
23,0,4281.538357,4257.948614,4223.07682,4277.435793,4214.871692,4199.999897,4207.179384,4233.33323,4477.435788,4217.948615,4299.999895,4222.563999,4214.871692,4145.640924
24,0,4271.281947,4241.538358,4212.82041,4272.820408,4207.692205,4203.589641,4197.948615,4224.615281,4475.384506,4211.281948,4288.717844,4216.922974,4205.128102,4137.435796
25,0,4272.307588,4248.717845,4216.922974,4285.640921,4213.846051,4206.153743,4202.051179,4220.512717,4474.358865,4212.82041,4296.410151,4221.025538,4196.410154,4134.358873
26,0,4264.10246,4254.871691,4220.512717,4281.538357,4215.384512,4199.487077,4202.051179,4215.897333,4472.820403,4203.589641,4298.461433,4217.435794,4189.743487,4127.179386
27,0,4259.487075,4246.666563,4219.999897,4278.461434,4211.794769,4198.461436,4199.999897,4222.563999,4472.820403,4203.589641,4290.256305,4212.82041,4195.384513,4124.615284
28,0,4264.10246,4234.358871,4216.922974,4281.025536,4208.205025,4203.07682,4202.564,4232.307589,4474.871685,4214.871692,4290.256305,4216.410153,4200.512718,4124.615284
29,0,4269.743485,4232.307589,4224.102461,4278.974254,4206.666564,4204.102461,4211.794769,4236.410153,4477.435788,4218.461435,4303.076818,4221.538358,4198.461436,4128.205027
30,0,4269.743485,4235.384512,4229.743486,4275.384511,4204.102461,4201.025538,4213.846051,4237.435794,4475.897326,4215.384512,4303.076818,4219.487076,4201.025538,4131.28195
31,0,4260.512716,4233.84605,4224.615281,4273.333229,4198.461436,4196.922974,4206.153743,4234.871691,4473.846044,4216.922974,4293.333228,4218.461435,4202.564,4124.102463
32,0,4261.538357,4241.538358,4225.128102,4278.461434,4199.487077,4198.461436,4206.666564,4239.487076,4477.435788,4223.58964,4306.153741,4226.153743,4202.051179,4127.179386
33,0,4266.666562,4246.153742,4227.179384,4281.025536,4202.564,4202.051179,4209.743487,4238.974255,4477.948608,4222.563999,4315.89733,4227.179384,4204.615282,4135.384514
34,0,4253.333229,4235.384512,4218.461435,4278.461434,4203.589641,4201.538359,4202.051179,4224.102461,4473.846044,4218.461435,4297.948613,4215.897333,4203.07682,4123.589643
35,0,4243.076819,4227.179384,4212.82041,4276.410152,4209.743487,4201.538359,4196.410154,4211.281948,4466.666557,4213.33323,4286.153741,4212.307589,4194.871692,4107.692207
36,0,4246.153742,4233.84605,4213.846051,4276.410152,4214.358871,4203.07682,4198.461436,4211.281948,4458.461429,4203.07682,4290.256305,4215.384512,4185.640923,4107.692207
37,0,4246.666563,4241.538358,4212.307589,4277.435793,4211.794769,4204.102461,4197.948615,4213.846051,4463.076814,4203.07682,4284.61528,4212.307589,4183.589641,4109.743489
38,0,4243.076819,4238.461435,4211.281948,4276.922972,4213.846051,4201.025538,4199.487077,4215.384512,4469.74348,4209.230666,4273.333229,4210.769128,4187.692205,4108.717848
39,0,4245.128101,4234.358871,4214.871692,4277.435793,4217.435794,4202.051179,4203.589641,4221.025538,4467.179378,4204.615282,4279.999895,4213.33323,4185.640923,4110.76913
40,0,4248.717845,4234.871691,4216.410153,4277.435793,4213.846051,4209.230666,4205.640923,4230.769127,4470.256301,4205.640923,4290.769126,4215.897333,4183.076821,4115.897335
41,0,4239.487076,4226.666563,4209.743487,4266.666562,4200.512718,4206.666564,4203.589641,4233.84605,4475.384506,4215.384512,4283.076818,4213.33323,4184.615282,4114.871694
42,0,4235.384512,4222.051179,4207.179384,4264.61528,4196.922974,4198.461436,4199.999897,4230.256307,4474.871685,4217.948615,4281.538357,4212.307589,4194.358872,4115.897335
43,0,4243.076819,4233.84605,4215.897333,4278.461434,4207.692205,4200.512718,4202.564,4233.33323,4476.922967,4220.512717,4297.435792,4219.487076,4202.051179,4123.076822
44,0,4238.974255,4231.281948,4209.743487,4275.897331,4205.640923,4203.589641,4201.025538,4233.84605,4471.281942,4219.487076,4294.87169,4213.33323,4192.30759,4116.410156
45,0,4225.640922,4222.563999,4195.384513,4266.666562,4204.102461,4200.512718,4199.487077,4228.717845,4462.563993,4212.82041,4280.512716,4202.051179,4182.564,4103.076823
46,0,4228.205025,4233.33323,4199.487077,4275.897331,4226.153743,4206.666564,4208.717846,4232.820409,4471.281942,4216.410153,4290.256305,4208.205025,4187.692205,4107.179387
47,0,4233.33323,4230.769127,4207.179384,4282.563998,4234.358871,4216.922974,4217.435794,4238.974255,4477.948608,4222.051179,4296.922972,4216.410153,4190.256308,4110.76913
48,0,4226.666563,4214.871692,4202.051179,4272.820408,4217.948615,4217.435794,4214.871692,4234.358871,4470.769121,4216.410153,4280.512716,4209.743487,4182.05118,4105.640925
49,0,4223.58964,4219.487076,4199.487077,4264.61528,4209.743487,4214.358871,4210.769128,4231.281948,4470.769121,4213.846051,4274.87169,4207.179384,4181.025539,4110.76913
50,0,4231.794768,4234.871691,4207.179384,4267.179383,4220.512717,4217.435794,4213.33323,4237.948614,4477.948608,4221.025538,4290.256305,4215.384512,4190.256308,4123.076822
51,0,4235.897332,4230.256307,4211.794769,4266.666562,4219.487076,4217.948615,4211.794769,4241.025537,4474.358865,4225.640922,4297.435792,4218.461435,4191.794769,4128.205027
52,0,4222.563999,4206.666564,4205.640923,4254.871691,4191.794769,4203.07682,4201.538359,4229.743486,4461.538352,4214.871692,4285.640921,4215.897333,4183.076821,4122.564002
53,0,4222.563999,4211.281948,4199.999897,4253.84605,4186.666564,4195.384513,4197.948615,4227.692204,4462.563993,4213.33323,4283.589639,4215.384512,4189.743487,4125.640925
54,0,4244.10246,4246.153742,4204.102461,4272.307588,4218.974256,4210.256307,4206.153743,4240.512717,4477.435788,4235.384512,4298.974254,4216.410153,4208.205025,4141.53836
55,0,4243.58964,4250.256306,4204.615282,4277.948613,4223.58964,4213.846051,4208.717846,4241.025537,4477.948608,4235.897332,4299.487074,4216.922974,4202.051179,4138.974258
56,0,4227.179384,4235.897332,4201.025538,4273.333229,4208.205025,4204.615282,4202.564,4231.281948,4469.74348,4215.384512,4283.589639,4213.33323,4186.666564,4121.538361
57,0,4229.230666,4247.179383,4198.974256,4277.435793,4225.640922,4212.82041,4203.589641,4228.717845,4471.281942,4214.871692,4277.948613,4204.615282,4186.153744,4118.461438
58,0,4234.358871,4257.435793,4198.461436,4279.487075,4239.487076,4220.512717,4206.666564,4231.794768,4469.23066,4222.563999,4281.025536,4199.999897,4187.179385,4123.589643
59,0,4232.307589,4245.128101,4202.051179,4274.35887,4223.58964,4208.205025,4204.102461,4231.281948,4462.051173,4218.461435,4282.563998,4208.717846,4186.153744,4125.128104
60,0,4230.769127,4234.871691,4201.538359,4267.179383,4217.435794,4199.487077,4200.512718,4223.07682,4460.512711,4211.281948,4278.974254,4212.82041,4180.512718,4121.538361
61,0,4224.102461,4226.666563,4197.435795,4259.999896,4211.281948,4203.589641,4199.999897,4218.461435,4458.461429,4204.102461,4271.794767,4206.153743,4169.230667,4114.358874
62,0,4227.179384,4227.179384,4204.615282,4259.999896,4198.974256,4202.051179,4203.07682,4227.692204,4459.48707,4207.179384,4278.974254,4211.281948,4176.922975,4122.051181
63,0,4243.076819,4239.487076,4216.922974,4271.281947,4207.179384,4199.487077,4205.640923,4239.487076,4465.640916,4227.179384,4293.846049,4223.07682,4198.461436,4139.999899
64,0,4247.179383,4242.563999,4217.435794,4274.35887,4220.512717,4206.666564,4210.256307,4241.538358,4471.794762,4233.84605,4291.794767,4220.512717,4202.564,4142.051181
65,0,4243.076819,4243.076819,4215.897333,4268.205024,4216.410153,4216.410153,4215.384512,4245.640922,4475.384506,4227.692204,4289.230664,4217.435794,4201.538359,4138.461437
66,0,4239.999896,4248.205024,4216.922974,4272.307588,4216.922974,4214.871692,4214.358871,4252.307588,4473.333224,4230.256307,4294.87169,4221.538358,4205.128102,4142.051181
67,0,4227.692204,4238.461435,4204.615282,4271.281947,4216.922974,4202.564,4211.281948,4242.051178,4463.589634,4219.999897,4286.153741,4214.358871,4192.30759,4133.333232
68,0,4220.512717,4228.717845,4195.384513,4262.051178,4211.794769,4198.461436,4213.33323,4230.256307,4458.461429,4202.564,4275.384511,4207.179384,4177.948616,4122.051181
69,0,4237.435794,4247.179383,4212.307589,4275.384511,4225.640922,4211.794769,4215.384512,4239.999896,4461.025532,4211.281948,4279.999895,4215.897333,4184.102462,4136.410155
70,0,4243.58964,4251.281947,4219.487076,4283.076818,4229.230666,4216.410153,4211.794769,4243.58964,4461.025532,4222.051179,4282.051177,4219.487076,4184.615282,4146.153745
71,0,4228.205025,4229.743486,4205.128102,4266.153742,4211.281948,4206.666564,4210.256307,4230.256307,4457.435788,4212.307589,4273.846049,4213.33323,4173.846052,4136.410155
72,0,4227.179384,4232.820409,4205.640923,4267.179383,4221.025538,4208.205025,4214.358871,4236.410153,4458.97425,4211.794769,4276.922972,4215.384512,4177.948616,4141.53836
73,0,4236.922973,4245.128101,4217.948615,4278.461434,4235.384512,4218.974256,4216.922974,4253.84605,4463.589634,4221.025538,4290.769126,4221.538358,4187.179385,4151.79477
74,0,4231.794768,4233.33323,4215.384512,4268.717844,4218.974256,4215.897333,4214.871692,4250.256306,4462.563993,4220.512717,4291.281946,4218.461435,4189.230667,4148.717847
75,0,4226.666563,4229.743486,4210.256307,4262.563998,4212.82041,4212.82041,4212.307589,4243.58964,4457.948609,4223.07682,4279.487075,4213.846051,4195.384513,4149.743488
76,0,4233.84605,4242.051178,4214.871692,4269.230665,4229.230666,4219.999897,4215.384512,4250.769127,4464.615275,4233.33323,4282.051177,4216.410153,4204.615282,4155.384514
77,0,4234.871691,4238.461435,4212.82041,4268.717844,4230.256307,4215.384512,4215.384512,4254.35887,4471.794762,4236.922973,4290.256305,4215.897333,4203.589641,4154.871693
78,0,4219.487076,4227.692204,4202.051179,4261.025537,4214.871692,4204.102461,4204.615282,4242.051178,4462.051173,4224.615281,4279.999895,4206.153743,4190.769128,4147.179386
79,0,4213.33323,4228.205025,4198.974256,4256.922973,4211.281948,4207.179384,4198.974256,4234.358871,4454.871686,4213.33323,4274.35887,4203.589641,4180.512718,4144.102463
80,0,4227.179384,4229.743486,4208.205025,4261.025537,4224.102461,4215.384512,4209.230666,4244.615281,4461.538352,4222.563999,4283.076818,4214.358871,4182.564,4151.28195
81,0,4230.256307,4228.717845,4212.82041,4267.179383,4231.281948,4215.384512,4216.922974,4252.820409,4462.563993,4231.794768,4279.487075,4217.948615,4188.717846,4155.384514
82,0,4218.461435,4226.153743,4209.743487,4262.051178,4220.512717,4212.82041,4212.82041,4246.153742,4458.461429,4226.153743,4270.769126,4212.82041,4185.128103,4146.666565
83,0,4215.384512,4221.538358,4209.743487,4262.051178,4215.384512,4215.897333,4212.307589,4246.153742,4461.025532,4226.666563,4282.051177,4214.358871,4188.717846,4142.051181
84,0,4216.922974,4212.82041,4204.615282,4262.563998,4217.435794,4216.922974,4215.384512,4251.794768,4461.025532,4232.820409,4289.230664,4213.33323,4193.846051,4145.640924
85,0,4211.794769,4215.384512,4201.538359,4253.84605,4211.794769,4216.410153,4213.33323,4246.666563,4457.948609,4224.615281,4278.974254,4208.205025,4187.692205,4145.128104
86,0,4216.410153,4231.281948,4213.846051,4256.922973,4218.974256,4216.922974,4213.846051,4247.692204,4459.999891,4226.153743,4281.538357,4215.897333,4190.769128,4151.28195
87,0,4219.999897,4232.820409,4214.871692,4259.999896,4231.281948,4215.384512,4217.948615,4252.307588,4460.512711,4232.820409,4290.769126,4221.538358,4196.922974,4157.435796
88,0,4207.692205,4214.871692,4198.974256,4249.230665,4222.051179,4214.358871,4212.307589,4241.538358,4455.897327,4222.563999,4278.461434,4212.82041,4189.230667,4153.333232
89,0,4203.589641,4206.666564,4202.051179,4248.717845,4212.82041,4215.384512,4204.615282,4234.871691,4455.384506,4212.82041,4263.076819,4207.692205,4182.564,4150.769129
90,0,4214.358871,4218.974256,4215.384512,4266.153742,4225.128102,4217.435794,4211.281948,4246.153742,4459.48707,4217.435794,4270.256306,4215.384512,4187.692205,4155.897334
91,0,4212.82041,4224.102461,4210.256307,4267.692203,4232.307589,4217.948615,4218.974256,4252.820409,4460.512711,4223.58964,4280.512716,4216.922974,4187.692205,4155.897334
92,0,4198.461436,4210.256307,4198.974256,4247.179383,4218.461435,4219.487076,4215.384512,4249.743486,4461.025532,4225.640922,4276.922972,4212.82041,4186.153744,4149.743488
93,0,4197.435795,4207.179384,4198.461436,4241.538358,4214.358871,4219.487076,4212.307589,4249.230665,4458.97425,4223.07682,4273.333229,4213.846051,4190.256308,4149.743488
94,0,4203.589641,4213.846051,4201.538359,4248.717845,4218.461435,4217.435794,4214.358871,4248.205024,4453.333224,4218.461435,4274.35887,4215.384512,4187.692205,4152.820411
95,0,4201.538359,4213.846051,4198.461436,4249.230665,4214.871692,4224.102461,4216.410153,4247.179383,4453.333224,4225.640922,4276.410152,4214.358871,4191.281949,4155.897334
96,0,4203.589641,4218.974256,4197.948615,4250.769127,4222.051179,4232.820409,4218.461435,4250.769127,4458.461429,4235.897332,4278.974254,4215.897333,4203.07682,4164.615283
97,0,4216.410153,4233.33323,4207.692205,4263.589639,4235.384512,4233.84605,4217.948615,4251.794768,4460.512711,4233.84605,4280.512716,4220.512717,4206.153743,4175.897334
98,0,4221.025538,4235.897332,4215.384512,4266.666562,4227.692204,4229.230666,4213.33323,4247.179383,4453.333224,4229.230666,4279.487075,4218.461435,4198.974256,4174.871693
99,0,4215.384512,4230.256307,4215.897333,4257.435793,4218.461435,4222.563999,4211.794769,4245.128101,4446.666558,4228.205025,4279.487075,4214.871692,4196.922974,4165.128103
100,0,4217.948615,4234.358871,4213.33323,4259.487075,4231.794768,4218.461435,4212.82041,4251.281947,4449.743481,4231.281948,4282.051177,4217.435794,4205.640923,4169.230667
101,0,4215.384512,4228.717845,4207.692205,4256.410152,4232.820409,4217.948615,4207.692205,4246.153742,4447.179378,4230.769127,4279.487075,4219.487076,4202.564,4176.922975
102,0,4204.615282,4215.384512,4203.589641,4248.205024,4217.435794,4216.922974,4202.051179,4232.820409,4439.999891,4222.051179,4273.333229,4214.358871,4188.205026,4171.281949
103,0,4201.025538,4215.897333,4202.564,4253.333229,4215.897333,4213.846051,4203.07682,4231.281948,4441.538353,4216.922974,4272.820408,4213.846051,4191.281949,4164.102462
104,0,4202.051179,4214.871692,4199.999897,4251.794768,4216.922974,4210.769128,4201.538359,4232.820409,4440.512712,4215.897333,4273.333229,4215.384512,4192.82041,4164.102462
105,0,4207.179384,4214.358871,4206.666564,4247.179383,4213.846051,4211.794769,4202.564,4229.743486,4434.358866,4213.33323,4276.410152,4217.435794,4184.615282,4170.256308
106,0,4218.461435,4224.615281,4217.948615,4255.897332,4217.435794,4210.769128,4211.281948,4238.974255,4440.512712,4217.948615,4280.512716,4223.07682,4199.487077,4183.076821
107,0,4219.999897,4224.615281,4211.794769,4254.871691,4217.435794,4204.615282,4210.256307,4247.179383,4446.666558,4220.512717,4277.948613,4223.07682,4215.384512,4190.256308
108,0,4214.358871,4216.922974,4204.102461,4246.153742,4214.358871,4207.179384,4207.179384,4245.640922,4443.589635,4216.410153,4283.589639,4221.538358,4203.589641,4188.717846
109,0,4212.82041,4220.512717,4208.717846,4253.84605,4218.461435,4218.461435,4213.846051,4247.179383,4445.128096,4222.051179,4292.307587,4221.538358,4194.871692,4187.692205
110,0,4204.615282,4220.512717,4206.153743,4255.384511,4216.410153,4218.974256,4215.897333,4248.205024,4446.153737,4233.84605,4282.563998,4221.538358,4202.051179,4184.615282
111,0,4199.487077,4215.384512,4201.538359,4246.153742,4214.871692,4215.384512,4213.33323,4247.692204,4445.640917,4233.84605,4276.922972,4224.615281,4203.589641,4185.128103
112,0,4202.564,4214.358871,4204.615282,4250.769127,4218.461435,4219.999897,4213.846051,4246.666563,4445.128096,4224.102461,4282.563998,4224.102461,4199.487077,4185.640923
113,0,4195.897333,4203.07682,4199.999897,4248.717845,4209.230666,4215.897333,4205.128102,4234.358871,4438.46143,4213.846051,4272.820408,4213.846051,4190.256308,4172.30759
114,0,4193.333231,4201.538359,4195.384513,4242.051178,4205.128102,4213.33323,4198.974256,4227.179384,4437.948609,4212.307589,4266.153742,4209.743487,4188.205026,4168.205026
115,0,4203.07682,4219.487076,4203.07682,4247.692204,4217.948615,4222.563999,4211.281948,4242.563999,4444.615276,4227.179384,4278.974254,4219.487076,4198.974256,4178.974257
116,0,4206.666564,4221.538358,4205.640923,4252.820409,4225.128102,4224.102461,4219.999897,4253.333229,4445.128096,4236.410153,4287.179382,4226.666563,4203.07682,4185.640923
117,0,4207.692205,4217.435794,4205.128102,4256.410152,4222.563999,4218.974256,4215.897333,4248.205024,4443.076814,4222.051179,4289.743485,4229.743486,4199.999897,4193.846051
118,0,4214.358871,4225.128102,4212.307589,4257.435793,4217.948615,4218.461435,4213.846051,4246.153742,4441.025532,4215.897333,4295.897331,4233.33323,4202.564,4204.102461
119,0,4218.461435,4225.640922,4214.871692,4252.820409,4217.948615,4218.461435,4212.307589,4244.615281,4438.46143,4231.281948,4290.256305,4235.384512,4211.281948,4204.615282
120,0,4213.846051,4218.974256,4206.666564,4253.333229,4219.999897,4215.384512,4207.179384,4238.461435,4435.897327,4235.897332,4282.563998,4232.307589,4211.281948,4201.538359
121,0,4200.512718,4210.256307,4197.435795,4246.666563,4207.179384,4211.794769,4199.999897,4227.179384,4429.230661,4215.384512,4286.153741,4224.102461,4195.384513,4191.794769
122,0,4191.794769,4206.153743,4193.846051,4234.871691,4203.07682,4214.358871,4200.512718,4222.563999,4426.666558,4210.256307,4293.846049,4223.58964,4191.281949,4187.692205
123,0,4206.666564,4215.384512,4197.948615,4246.153742,4227.692204,4221.538358,4209.743487,4232.307589,4434.358866,4227.179384,4302.051177,4230.769127,4205.128102,4201.025538
124,0,4216.922974,4220.512717,4202.051179,4256.410152,4228.717845,4221.538358,4209.743487,4236.922973,4434.358866,4226.666563,4307.692202,4231.281948,4203.589641,4204.102461
125,0,4207.179384,4210.256307,4198.461436,4246.666563,4203.589641,4214.358871,4200.512718,4227.692204,4427.179379,4211.281948,4308.205023,4226.666563,4192.30759,4191.281949
126,0,4207.179384,4211.794769,4198.974256,4249.230665,4206.153743,4215.897333,4205.640923,4230.769127,4426.666558,4211.281948,4305.64092,4228.205025,4203.589641,4193.846051
127,0,4219.487076,4229.743486,4209.743487,4265.128101,4224.615281,4219.487076,4214.358871,4246.153742,4431.794763,4226.666563,4309.230664,4234.871691,4218.974256,4210.256307
128,0,4221.538358,4231.281948,4212.82041,4259.487075,4219.487076,4214.358871,4206.666564,4241.538358,4433.846045,4233.84605,4317.948612,4236.410153,4216.410153,4213.846051
0,0,4214.871692,4215.897333,4203.07682,4247.179383,4205.128102,4212.307589,4198.974256,4228.205025,4429.230661,4230.256307,4323.076817,4233.33323,4206.666564,4209.743487
1,0,4216.922974,4212.307589,4201.025538,4252.307588,4209.743487,4216.410153,4204.615282,4237.948614,4431.794763,4231.281948,4326.15374,4233.33323,4211.794769,4214.871692
2,0,4221.538358,4222.051179,4207.179384,4256.410152,4222.051179,4218.974256,4209.230666,4249.743486,4438.97425,4237.948614,4329.230663,4234.358871,4222.051179,4224.102461
3,0,4213.33323,4215.897333,4205.640923,4248.205024,4219.487076,4217.948615,4204.615282,4237.948614,4431.281943,4234.871691,4329.230663,4231.281948,4211.281948,4218.974256
4,0,4201.025538,4201.538359,4199.999897,4241.538358,4211.794769,4218.461435,4199.487077,4229.743486,4422.051174,4226.153743,4323.589638,4228.205025,4194.871692,4203.589641
5,0,4203.589641,4208.205025,4206.153743,4244.615281,4215.384512,4217.948615,4205.128102,4243.58964,4435.897327,4231.794768,4325.64092,4230.256307,4203.07682,4205.640923
6,0,4219.999897,4223.07682,4215.897333,4250.256306,4216.922974,4214.871692,4214.871692,4251.794768,4442.563994,4239.999896,4336.922971,4235.384512,4219.999897,4225.640922
7,0,4228.205025,4225.128102,4217.435794,4254.871691,4214.871692,4217.435794,4217.435794,4249.743486,4430.256302,4237.435794,4338.461432,4238.461435,4217.948615,4236.922973
8,0,4221.025538,4214.358871,4215.897333,4254.35887,4214.358871,4216.410153,4213.33323,4248.205024,4425.640917,4229.230666,4328.205022,4233.84605,4209.230666,4228.717845
9,0,4211.281948,4203.07682,4216.922974,4245.640922,4202.051179,4206.153743,4206.666564,4238.974255,4427.692199,4217.948615,4321.538356,4228.205025,4203.589641,4214.358871
10,0,4213.846051,4203.589641,4217.948615,4245.640922,4194.358872,4205.128102,4207.179384,4232.820409,4427.179379,4218.461435,4323.589638,4230.769127,4198.461436,4213.846051
11,0,4221.025538,4215.897333,4217.948615,4253.333229,4209.230666,4217.435794,4213.33323,4242.563999,4427.179379,4231.794768,4327.179381,4235.384512,4205.640923,4227.179384
12,0,4221.025538,4218.974256,4214.871692,4249.230665,4224.615281,4221.025538,4214.871692,4245.128101,4427.179379,4232.820409,4328.717843,4233.33323,4214.871692,4229.743486
13,0,4208.717846,4203.07682,4206.153743,4239.487076,4213.846051,4212.82041,4209.230666,4232.820409,4420.512712,4216.410153,4318.461433,4227.179384,4204.615282,4214.358871
14,0,4204.615282,4196.922974,4206.153743,4246.666563,4202.564,4211.281948,4205.128102,4229.230666,4417.435789,4217.435794,4312.307587,4227.179384,4195.384513,4209.743487
15,0,4215.897333,4204.615282,4213.33323,4250.256306,4208.717846,4215.384512,4208.717846,4233.33323,4422.051174,4226.666563,4315.89733,4229.230666,4203.589641,4217.948615
16,0,4216.922974,4206.153743,4214.871692,4235.897332,4213.846051,4214.358871,4215.384512,4231.281948,4421.025533,4220.512717,4313.333228,4228.205025,4205.128102,4216.410153
17,0,4210.769128,4208.205025,4214.871692,4238.974255,4215.384512,4213.846051,4217.435794,4231.794768,4420.512712,4223.07682,4313.846048,4232.820409,4197.948615,4220.512717
18,0,4214.871692,4218.974256,4213.846051,4254.871691,4216.922974,4216.922974,4215.897333,4236.922973,4422.563994,4228.717845,4316.922971,4235.384512,4201.025538,4230.769127
19,0,4217.435794,4219.487076,4208.717846,4250.769127,4211.794769,4216.922974,4214.871692,4233.84605,4421.025533,4223.07682,4309.743484,4225.640922,4204.102461,4225.640922
20,0,4215.384512,4212.307589,4209.230666,4241.025537,4211.794769,4214.871692,4211.281948,4231.281948,4415.897328,4222.563999,4309.743484,4224.615281,4202.564,4224.102461
21,0,4230.256307,4226.666563,4221.025538,4250.769127,4230.769127,4225.128102,4212.307589,4239.999896,4422.051174,4236.410153,4321.538356,4243.58964,4212.82041,4241.025537
22,0,4235.384512,4236.922973,4218.974256,4255.897332,4237.435794,4229.230666,4215.897333,4243.076819,4427.692199,4237.948614,4317.948612,4247.692204,4221.025538,4245.640922
23,0,4214.871692,4219.999897,4201.538359,4240.512717,4217.435794,4216.410153,4211.794769,4231.281948,4417.435789,4219.999897,4304.615279,4228.205025,4208.205025,4227.692204
24,0,4213.33323,4219.487076,4201.025538,4242.051178,4214.358871,4217.435794,4211.281948,4227.179384,4414.358866,4216.922974,4306.666561,4223.07682,4202.051179,4225.128102
25,0,4235.384512,4242.051178,4219.999897,4263.076819,4236.922973,4234.871691,4218.974256,4241.538358,4428.71784,4236.922973,4312.307587,4235.384512,4218.461435,4242.563999
26,0,4241.025537,4246.153742,4219.487076,4262.051178,4239.487076,4230.256307,4221.025538,4245.640922,4429.743481,4244.615281,4311.281946,4238.974255,4225.640922,4245.640922
27,0,4226.153743,4227.179384,4204.615282,4245.640922,4216.410153,4213.33323,4213.846051,4231.281948,4411.794764,4221.025538,4302.051177,4232.307589,4213.33323,4230.769127
28,0,4224.615281,4226.666563,4207.179384,4248.205024,4218.461435,4221.538358,4214.358871,4227.692204,4411.794764,4217.435794,4293.846049,4229.743486,4211.281948,4225.128102
29,0,4234.358871,4237.435794,4212.82041,4252.820409,4231.794768,4230.256307,4217.435794,4235.384512,4420.512712,4234.358871,4295.38451,4230.769127,4213.846051,4223.07682
30,0,4227.179384,4231.281948,4204.102461,4243.076819,4221.025538,4223.07682,4215.897333,4233.84605,4413.846046,4226.153743,4295.38451,4230.256307,4203.07682,4214.358871
31,0,4213.33323,4222.563999,4198.974256,4241.025537,4215.384512,4223.58964,4215.384512,4228.205025,4408.717841,4212.307589,4286.153741,4226.666563,4196.922974,4208.717846
32,0,4220.512717,4230.769127,4205.640923,4249.230665,4235.384512,4231.281948,4217.435794,4233.84605,4416.410148,4222.051179,4284.102459,4227.179384,4209.230666,4210.769128
33,0,4235.384512,4243.076819,4214.358871,4254.35887,4248.205024,4231.794768,4217.435794,4236.410153,4416.922969,4236.410153,4292.820408,4231.281948,4221.538358,4216.922974
34,0,4232.307589,4235.897332,4213.846051,4249.230665,4236.922973,4229.743486,4216.922974,4231.794768,4412.307584,4231.281948,4291.794767,4231.281948,4216.922974,4216.410153
35,0,4227.692204,4226.666563,4211.794769,4243.076819,4230.769127,4233.33323,4218.974256,4236.922973,4416.410148,4231.281948,4287.692203,4231.794768,4213.846051,4216.410153
36,0,4238.461435,4233.33323,4217.948615,4251.281947,4233.33323,4233.84605,4221.025538,4245.640922,4419.487071,4243.076819,4295.897331,4237.435794,4228.205025,4227.692204
37,0,4234.871691,4230.769127,4217.435794,4248.205024,4224.102461,4224.615281,4218.461435,4238.974255,4413.333225,4235.897332,4296.922972,4235.384512,4228.717845,4225.640922
38,0,4217.435794,4215.384512,4202.564,4232.820409,4212.82041,4216.410153,4215.384512,4227.692204,4406.666559,4214.871692,4284.61528,4227.179384,4204.615282,4202.564
39,0,4218.461435,4213.846051,4197.435795,4239.487076,4217.948615,4218.974256,4216.410153,4231.281948,4404.102456,4216.922974,4278.974254,4225.128102,4199.999897,4196.922974
40,0,4229.230666,4220.512717,4203.07682,4246.666563,4218.461435,4219.999897,4217.435794,4235.384512,4403.589636,4229.743486,4279.999895,4229.743486,4214.358871,4210.256307
41,0,4229.743486,4219.487076,4208.205025,4237.948614,4212.82041,4216.922974,4215.384512,4231.794768,4407.179379,4230.256307,4284.61528,4231.794768,4218.461435,4216.922974
42,0,4228.717845,4214.871692,4211.794769,4241.538358,4223.07682,4217.948615,4217.435794,4235.897332,4410.256302,4229.743486,4292.820408,4232.307589,4215.384512,4216.922974
43,0,4234.871691,4218.461435,4215.384512,4250.769127,4233.33323,4218.974256,4219.999897,4245.640922,4411.281943,4231.281948,4296.410151,4236.410153,4217.435794,4219.999897
44,0,4237.948614,4225.640922,4218.461435,4242.563999,4227.692204,4218.974256,4219.487076,4245.640922,4412.820405,4227.692204,4292.820408,4238.974255,4218.974256,4221.025538
45,0,4229.743486,4223.07682,4213.33323,4232.820409,4219.487076,4219.487076,4218.461435,4236.922973,4409.743482,4223.07682,4283.589639,4231.281948,4212.82041,4210.256307
46,0,4217.948615,4214.358871,4202.564,4235.384512,4215.897333,4216.410153,4215.384512,4231.281948,4402.563995,4214.358871,4275.897331,4225.128102,4200.512718,4194.871692
47,0,4214.871692,4212.82041,4199.999897,4236.410153,4212.82041,4213.33323,4212.82041,4230.769127,4403.076815,4212.82041,4275.897331,4228.717845,4193.846051,4194.358872
48,0,4217.435794,4216.410153,4203.589641,4231.281948,4210.256307,4214.871692,4212.307589,4233.33323,4412.307584,4227.179384,4279.999895,4233.84605,4208.205025,4209.230666
49,0,4218.974256,4214.871692,4204.102461,4230.256307,4214.358871,4216.922974,4214.358871,4240.512717,4413.333225,4236.410153,4286.153741,4237.948614,4228.205025,4216.922974
50,0,4232.307589,4217.948615,4210.256307,4242.051178,4217.948615,4219.487076,4216.922974,4248.717845,4412.307584,4238.461435,4295.897331,4245.128101,4232.820409,4220.512717
51,0,4248.717845,4227.692204,4218.461435,4250.769127,4216.922974,4216.922974,4216.922974,4250.256306,4414.358866,4244.615281,4297.948613,4247.692204,4230.769127,4229.743486
52,0,4248.717845,4232.820409,4215.384512,4242.051178,4223.58964,4216.922974,4221.538358,4247.692204,4413.333225,4249.230665,4305.1281,4248.205024,4238.461435,4234.358871
53,0,4243.076819,4230.256307,4215.384512,4236.922973,4236.922973,4226.153743,4231.794768,4253.333229,4415.897328,4245.128101,4314.358869,4248.717845,4250.256306,4234.358871
54,0,4237.435794,4220.512717,4214.358871,4237.948614,4230.769127,4224.102461,4230.769127,4250.769127,4413.846046,4236.922973,4296.922972,4238.461435,4238.974255,4223.07682
55,0,4222.051179,4206.666564,4203.07682,4228.717845,4210.769128,4212.82041,4216.410153,4234.871691,4401.025533,4226.666563,4272.307588,4228.205025,4211.281948,4204.615282
56,0,4219.487076,4208.717846,4204.615282,4231.281948,4214.358871,4216.922974,4213.846051,4233.84605,4401.025533,4227.179384,4275.897331,4234.871691,4207.692205,4203.07682
57,0,4231.281948,4222.563999,4211.281948,4249.743486,4231.794768,4223.58964,4226.153743,4251.281947,4412.820405,4238.461435,4286.666562,4244.615281,4228.717845,4218.974256
58,0,4228.717845,4222.563999,4206.153743,4246.666563,4233.84605,4222.051179,4230.256307,4261.538357,4418.46143,4243.076819,4283.589639,4244.615281,4237.948614,4222.051179
59,0,4215.384512,4211.281948,4202.051179,4228.205025,4227.179384,4227.692204,4227.179384,4262.563998,4417.94861,4245.128101,4279.999895,4244.615281,4228.717845,4215.384512
60,0,4215.897333,4208.205025,4202.051179,4228.717845,4222.051179,4232.307589,4227.692204,4262.051178,4413.846046,4248.205024,4277.948613,4247.179383,4227.179384,4220.512717
61,0,4227.179384,4220.512717,4207.179384,4243.076819,4226.153743,4229.743486,4230.769127,4262.051178,4412.820405,4250.256306,4276.922972,4248.205024,4241.025537,4232.307589
62,0,4236.410153,4233.84605,4216.922974,4251.281947,4236.922973,4234.871691,4233.33323,4268.717844,4419.999892,4252.820409,4277.435793,4249.743486,4246.666563,4235.897332
63,0,4230.769127,4226.153743,4212.307589,4242.563999,4228.205025,4230.769127,4228.717845,4265.128101,4415.897328,4245.640922,4267.692203,4242.563999,4226.153743,4224.102461
64,0,4215.897333,4208.205025,4198.461436,4228.717845,4210.769128,4221.538358,4221.538358,4249.743486,4404.102456,4230.256307,4255.897332,4230.769127,4208.205025,4210.769128
65,0,4215.897333,4214.871692,4206.666564,4237.948614,4223.07682,4230.769127,4228.205025,4258.461434,4410.769123,4233.84605,4257.435793,4233.84605,4223.58964,4217.435794
66,0,4222.051179,4220.512717,4212.307589,4245.128101,4229.743486,4229.743486,4231.281948,4267.692203,4416.922969,4241.025537,4263.076819,4241.025537,4232.820409,4223.58964
67,0,4214.871692,4205.640923,4199.487077,4229.230666,4209.743487,4212.307589,4217.948615,4251.794768,4410.256302,4231.794768,4259.999896,4235.897332,4217.948615,4215.384512
68,0,4213.33323,4204.615282,4201.025538,4227.692204,4212.82041,4218.974256,4218.461435,4247.692204,4410.256302,4233.33323,4258.974255,4234.358871,4221.538358,4215.897333
69,0,4225.640922,4220.512717,4213.33323,4245.640922,4236.410153,4237.435794,4232.307589,4263.589639,4415.384507,4248.205024,4263.589639,4246.153742,4238.974255,4233.84605
70,0,4233.84605,4226.666563,4214.871692,4250.256306,4235.897332,4232.820409,4231.281948,4264.61528,4412.307584,4251.794768,4265.640921,4250.769127,4236.922973,4243.58964
71,0,4231.281948,4228.717845,4211.794769,4243.076819,4226.666563,4227.692204,4226.666563,4252.820409,4405.640918,4244.10246,4261.538357,4245.128101,4228.205025,4235.384512
72,0,4230.256307,4233.84605,4213.33323,4244.615281,4232.307589,4233.84605,4228.717845,4250.256306,4403.076815,4236.410153,4255.897332,4243.076819,4231.281948,4233.33323
73,0,4236.922973,4230.256307,4215.897333,4249.230665,4230.769127,4227.179384,4226.153743,4248.205024,4403.589636,4230.769127,4260.512716,4247.179383,4230.769127,4243.58964
74,0,4250.769127,4232.820409,4217.948615,4248.205024,4228.205025,4221.025538,4223.58964,4251.794768,4405.128097,4233.33323,4268.205024,4251.281947,4232.820409,4257.948614
75,0,4264.61528,4246.153742,4219.999897,4247.179383,4232.307589,4228.717845,4230.769127,4261.538357,4405.640918,4238.461435,4264.10246,4250.256306,4238.461435,4268.717844
76,0,4267.692203,4238.974255,4216.922974,4247.692204,4224.102461,4225.640922,4230.769127,4255.384511,4400.512713,4233.33323,4253.84605,4244.10246,4231.281948,4270.256306
77,0,4277.435793,4232.820409,4215.384512,4245.128101,4213.33323,4213.33323,4221.025538,4247.692204,4395.384508,4227.692204,4259.999896,4250.256306,4236.922973,4288.205023
78,0,4309.230664,4253.333229,4225.640922,4247.179383,4216.922974,4215.384512,4218.974256,4254.35887,4398.974251,4239.999896,4275.897331,4265.128101,4258.974255,4323.076817
79,0,4327.179381,4262.563998,4228.717845,4253.333229,4216.922974,4218.461435,4220.512717,4256.410152,4403.076815,4246.153742,4273.846049,4262.051178,4259.487075,4335.384509
80,0,4312.820407,4247.692204,4219.999897,4252.307588,4208.205025,4211.281948,4215.897333,4245.128101,4394.871687,4228.205025,4267.179383,4252.820409,4246.153742,4329.743484
81,0,4310.256305,4247.692204,4222.051179,4248.205024,4211.281948,4211.794769,4212.82041,4243.58964,4392.307585,4224.102461,4275.897331,4260.512716,4258.461434,4343.076817
82,0,4327.179381,4256.410152,4232.307589,4250.769127,4219.999897,4218.461435,4216.922974,4251.794768,4401.538354,4248.205024,4284.61528,4269.743485,4274.87169,4356.92297
83,0,4318.974253,4250.769127,4232.307589,4251.281947,4220.512717,4218.974256,4215.897333,4249.230665,4401.538354,4252.820409,4279.999895,4264.61528,4268.717844,4345.128099
84,0,4297.948613,4246.153742,4227.692204,4248.205024,4224.615281,4216.922974,4214.358871,4243.58964,4396.410149,4234.871691,4274.35887,4257.948614,4262.051178,4327.692202
85,0,4296.410151,4246.153742,4225.128102,4246.153742,4232.820409,4222.051179,4221.025538,4248.205024,4396.922969,4234.871691,4274.87169,4262.563998,4263.076819,4317.435792
86,0,4282.051177,4227.692204,4215.897333,4238.974255,4224.615281,4225.128102,4218.461435,4247.692204,4393.333226,4234.871691,4266.666562,4258.974255,4252.820409,4304.102459
87,0,4262.051178,4213.33323,4213.846051,4231.281948,4216.410153,4225.640922,4217.948615,4245.640922,4392.820405,4230.256307,4261.538357,4251.794768,4243.076819,4293.333228
88,0,4271.281947,4218.974256,4223.07682,4234.358871,4224.102461,4236.410153,4232.307589,4263.076819,4403.589636,4244.615281,4271.281947,4257.435793,4251.281947,4293.846049
89,0,4269.230665,4211.281948,4221.538358,4233.84605,4215.897333,4231.794768,4230.769127,4267.692203,4403.076815,4248.717845,4272.820408,4258.974255,4250.769127,4287.692203
90,0,4246.666563,4203.07682,4213.33323,4229.230666,4202.564,4215.897333,4216.922974,4249.743486,4390.769123,4232.820409,4264.61528,4250.769127,4233.33323,4273.846049
91,0,4249.230665,4215.384512,4215.897333,4230.256307,4217.948615,4220.512717,4220.512717,4251.794768,4392.307585,4232.307589,4266.153742,4251.281947,4233.33323,4276.410152
92,0,4258.461434,4224.102461,4221.538358,4235.384512,4230.256307,4229.230666,4226.666563,4263.589639,4398.461431,4242.051178,4268.717844,4256.922973,4247.692204,4282.051177
93,0,4249.230665,4223.58964,4216.410153,4239.999896,4225.128102,4224.102461,4224.615281,4252.820409,4395.384508,4239.999896,4264.61528,4256.922973,4247.692204,4277.948613
94,0,4244.10246,4227.179384,4213.846051,4239.999896,4228.205025,4224.102461,4225.640922,4246.666563,4393.333226,4236.410153,4265.128101,4258.461434,4237.435794,4275.897331
95,0,4239.999896,4216.410153,4216.922974,4234.358871,4227.179384,4224.102461,4223.07682,4249.230665,4389.743482,4232.307589,4262.563998,4252.820409,4227.179384,4266.153742
96,0,4228.717845,4205.640923,4214.358871,4229.743486,4217.435794,4216.410153,4219.487076,4246.153742,4385.640918,4226.666563,4253.333229,4243.58964,4217.948615,4247.179383
97,0,4227.179384,4211.281948,4210.769128,4230.256307,4217.435794,4219.487076,4227.179384,4257.948614,4390.769123,4236.410153,4255.897332,4242.563999,4216.922974,4242.563999
98,0,4232.307589,4205.640923,4215.384512,4230.769127,4218.461435,4226.153743,4232.307589,4276.410152,4402.051174,4246.153742,4268.717844,4246.153742,4225.128102,4252.820409
99,0,4241.538358,4201.538359,4230.256307,4236.410153,4222.563999,4233.33323,4235.897332,4285.640921,4412.820405,4256.410152,4284.61528,4259.999896,4236.922973,4267.692203
100,0,4241.538358,4201.538359,4229.230666,4231.794768,4216.922974,4234.358871,4238.461435,4283.589639,4410.256302,4263.076819,4282.051177,4264.10246,4239.999896,4266.153742
101,0,4228.205025,4191.794769,4215.384512,4216.922974,4200.512718,4221.025538,4230.769127,4270.256306,4395.897328,4253.333229,4263.589639,4249.230665,4229.230666,4248.717845
102,0,4229.230666,4198.974256,4216.410153,4222.051179,4207.692205,4222.051179,4228.717845,4262.563998,4391.794764,4245.640922,4263.076819,4250.769127,4225.640922,4249.743486
103,0,4237.435794,4209.230666,4218.461435,4232.307589,4218.461435,4230.256307,4229.230666,4257.435793,4393.846046,4241.538358,4266.153742,4258.461434,4227.179384,4259.487075
104,0,4232.820409,4204.615282,4211.281948,4232.820409,4213.33323,4221.025538,4219.999897,4247.179383,4386.666559,4229.743486,4253.84605,4246.666563,4214.871692,4250.256306
105,0,4228.717845,4209.743487,4211.281948,4236.410153,4221.538358,4219.487076,4214.871692,4243.58964,4381.025534,4216.922974,4248.205024,4241.025537,4202.564,4234.358871
106,0,4234.871691,4225.640922,4217.948615,4241.025537,4237.435794,4228.205025,4217.435794,4240.512717,4378.461431,4216.922974,4250.769127,4247.179383,4208.717846,4235.384512
107,0,4230.256307,4215.384512,4213.33323,4233.84605,4230.769127,4223.07682,4215.897333,4230.769127,4368.717842,4215.384512,4246.666563,4239.487076,4209.743487,4241.025537
108,0,4215.897333,4198.974256,4205.128102,4227.692204,4216.410153,4218.974256,4214.871692,4234.871691,4371.281944,4213.846051,4245.128101,4229.743486,4199.487077,4235.897332
109,0,4216.922974,4206.153743,4205.128102,4235.897332,4221.025538,4231.794768,4221.538358,4256.922973,4392.307585,4227.179384,4249.743486,4235.897332,4211.794769,4234.358871
110,0,4218.461435,4199.487077,4204.615282,4230.256307,4218.974256,4228.205025,4222.051179,4259.999896,4393.333226,4233.33323,4248.205024,4242.051178,4217.948615,4233.84605
111,0,4205.640923,4174.871693,4199.999897,4206.666564,4200.512718,4214.871692,4217.435794,4249.230665,4382.563995,4228.205025,4250.256306,4244.10246,4194.358872,4227.692204
112,0,4205.640923,4181.025539,4204.615282,4204.102461,4205.128102,4223.07682,4224.102461,4255.384511,4392.820405,4237.948614,4261.538357,4247.179383,4204.102461,4237.948614
113,0,4219.999897,4203.07682,4211.794769,4228.717845,4231.281948,4236.922973,4231.281948,4266.666562,4402.563995,4253.84605,4266.153742,4248.205024,4244.10246,4257.948614
114,0,4216.922974,4194.358872,4205.640923,4236.922973,4230.256307,4235.897332,4224.102461,4257.435793,4392.307585,4247.692204,4262.051178,4246.153742,4247.179383,4256.922973
115,0,4209.743487,4183.589641,4204.615282,4226.153743,4217.948615,4231.794768,4218.461435,4248.205024,4389.743482,4241.538358,4264.61528,4246.666563,4237.948614,4258.461434
116,0,4218.974256,4191.281949,4216.922974,4226.153743,4226.153743,4233.33323,4223.07682,4249.743486,4391.794764,4248.205024,4272.820408,4249.743486,4253.84605,4274.87169
117,0,4219.999897,4187.179385,4216.922974,4226.153743,4229.230666,4236.410153,4228.205025,4252.307588,4387.17938,4247.692204,4276.410152,4252.307588,4263.589639,4278.974254
118,0,4206.666564,4173.846052,4206.153743,4213.33323,4221.025538,4235.897332,4226.153743,4254.35887,4388.205021,4243.076819,4277.435793,4251.794768,4261.538357,4278.461434
119,0,4197.948615,4165.128103,4206.666564,4206.666564,4214.871692,4232.307589,4220.512717,4252.820409,4390.769123,4245.128101,4274.87169,4247.179383,4262.051178,4281.538357
120,0,4202.564,4161.025539,4213.33323,4214.871692,4216.922974,4237.435794,4223.58964,4253.84605,4390.769123,4251.794768,4276.922972,4250.769127,4264.61528,4283.076818
121,0,4213.846051,4166.666565,4216.410153,4222.051179,4226.666563,4250.256306,4233.33323,4267.179383,4398.974251,4261.538357,4291.281946,4265.640921,4277.435793,4293.846049
122,0,4211.794769,4173.846052,4217.948615,4215.384512,4221.538358,4244.10246,4233.84605,4271.794767,4402.051174,4266.666562,4296.922972,4268.205024,4285.640921,4298.974254
123,0,4200.512718,4166.666565,4214.871692,4211.794769,4201.025538,4229.743486,4227.179384,4259.999896,4391.281944,4261.538357,4282.051177,4252.307588,4270.256306,4280.512716
124,0,4199.487077,4165.128103,4211.794769,4218.461435,4201.538359,4232.820409,4229.230666,4261.538357,4391.794764,4258.974255,4278.974254,4245.128101,4261.538357,4268.717844
125,0,4204.102461,4179.999898,4213.846051,4216.410153,4220.512717,4237.948614,4232.820409,4269.230665,4397.94861,4263.076819,4290.256305,4249.230665,4270.769126,4276.922972
126,0,4201.025538,4188.205026,4213.33323,4210.769128,4228.205025,4233.84605,4229.230666,4266.153742,4394.358867,4260.512716,4289.230664,4249.743486,4272.820408,4277.435793
127,0,4200.512718,4185.640923,4206.666564,4216.410153,4225.128102,4233.33323,4223.07682,4262.563998,4388.205021,4254.35887,4280.512716,4248.205024,4266.153742,4270.256306
128,0,4200.512718,4181.538359,4198.974256,4216.922974,4214.358871,4232.820409,4217.435794,4248.205024,4379.999893,4244.10246,4267.692203,4239.487076,4251.794768,4258.974255
0,0,4196.410154,4176.922975,4195.384513,4208.717846,4203.07682,4228.205025,4213.846051,4228.717845,4369.230662,4225.640922,4259.999896,4230.769127,4232.820409,4249.230665
1,0,4197.948615,4174.358872,4197.948615,4212.82041,4209.230666,4227.179384,4214.358871,4230.256307,4372.820406,4223.58964,4265.640921,4236.410153,4237.948614,4253.333229
2,0,4202.051179,4172.820411,4202.051179,4216.922974,4221.538358,4232.820409,4224.102461,4245.640922,4388.717841,4243.58964,4274.87169,4247.692204,4261.025537,4265.640921
3,0,4199.999897,4169.743488,4201.025538,4203.07682,4217.435794,4237.948614,4229.743486,4248.717845,4389.230662,4250.256306,4274.35887,4247.179383,4263.076819,4266.153742
4,0,4196.410154,4167.179385,4199.487077,4193.333231,4205.128102,4232.307589,4222.051179,4243.58964,4384.615277,4244.615281,4269.230665,4245.128101,4256.410152,4262.051178
5,0,4195.384513,4170.769129,4203.07682,4199.999897,4199.999897,4221.025538,4216.410153,4246.666563,4388.717841,4250.256306,4266.666562,4246.153742,4262.563998,4265.640921
6,0,4192.30759,4171.281949,4203.07682,4204.615282,4201.538359,4221.538358,4217.435794,4247.692204,4388.717841,4252.307588,4266.153742,4245.128101,4255.897332,4263.076819
7,0,4192.30759,4171.281949,4200.512718,4202.051179,4208.205025,4230.769127,4217.435794,4247.179383,4384.615277,4246.153742,4268.205024,4250.769127,4246.153742,4262.563998
8,0,4188.205026,4167.179385,4198.461436,4196.922974,4204.102461,4229.230666,4215.384512,4248.205024,4383.589636,4244.10246,4265.128101,4249.230665,4245.640922,4263.076819
9,0,4181.025539,4163.076821,4196.922974,4196.922974,4194.871692,4225.128102,4214.871692,4241.538358,4380.512713,4236.922973,4259.487075,4235.384512,4238.461435,4249.743486
10,0,4190.256308,4176.922975,4201.538359,4205.640923,4209.230666,4230.769127,4217.435794,4241.538358,4375.384508,4228.205025,4265.128101,4238.461435,4236.410153,4252.307588
11,0,4196.922974,4185.640923,4204.615282,4207.692205,4219.999897,4228.205025,4218.461435,4245.640922,4373.333226,4229.230666,4266.153742,4248.717845,4242.563999,4266.153742
12,0,4186.153744,4172.30759,4199.487077,4199.999897,4204.615282,4216.922974,4212.82041,4238.461435,4369.743483,4229.743486,4249.743486,4242.563999,4234.358871,4255.897332
13,0,4186.666564,4167.179385,4200.512718,4199.999897,4201.025538,4218.974256,4212.82041,4237.948614,4374.358867,4231.794768,4246.666563,4239.487076,4230.769127,4245.128101
14,0,4200.512718,4181.025539,4209.743487,4208.717846,4216.922974,4232.307589,4225.640922,4253.84605,4389.743482,4244.10246,4271.281947,4250.769127,4250.256306,4265.640921
15,0,4206.666564,4192.82041,4210.769128,4216.410153,4219.487076,4232.820409,4230.769127,4260.512716,4398.974251,4255.897332,4282.563998,4254.35887,4260.512716,4285.1281
16,0,4201.025538,4182.564,4203.589641,4212.82041,4206.666564,4221.025538,4219.999897,4248.717845,4390.769123,4248.717845,4266.666562,4247.179383,4250.769127,4276.410152
17,0,4186.666564,4157.435796,4200.512718,4196.922974,4194.358872,4214.358871,4212.82041,4239.487076,4377.43579,4232.307589,4255.384511,4244.615281,4241.538358,4261.538357
18,0,4188.205026,4161.53836,4203.07682,4192.82041,4199.999897,4217.435794,4216.410153,4241.538358,4377.948611,4233.33323,4261.025537,4249.230665,4238.974255,4263.076819
19,0,4209.230666,4191.794769,4204.102461,4208.717846,4211.281948,4218.974256,4218.461435,4241.025537,4381.025534,4238.461435,4256.410152,4247.692204,4231.794768,4269.230665
20,0,4218.461435,4203.07682,4202.564,4221.538358,4213.33323,4215.384512,4211.794769,4230.256307,4372.820406,4225.128102,4241.025537,4236.410153,4218.974256,4261.538357
21,0,4213.846051,4207.179384,4201.538359,4216.410153,4212.307589,4214.358871,4205.128102,4214.358871,4362.051175,4203.589641,4226.666563,4229.743486,4203.07682,4246.666563
22,0,4213.33323,4216.922974,4196.922974,4214.358871,4209.230666,4208.717846,4199.487077,4203.07682,4353.846047,4188.205026,4214.358871,4225.128102,4179.487077,4231.281948
23,0,4215.384512,4218.974256,4193.333231,4224.102461,4207.179384,4206.666564,4196.922974,4197.948615,4352.307586,4186.666564,4206.666564,4218.461435,4164.102462,4219.999897
24,0,4216.922974,4224.615281,4196.922974,4225.640922,4214.871692,4213.33323,4198.461436,4198.974256,4357.948611,4197.948615,4209.230666,4223.07682,4168.205026,4219.999897
25,0,4217.435794,4234.871691,4198.461436,4217.435794,4219.999897,4217.435794,4199.999897,4207.179384,4361.538355,4202.051179,4214.871692,4229.743486,4172.820411,4218.974256
26,0,4217.435794,4233.84605,4198.461436,4217.435794,4213.846051,4215.897333,4199.487077,4209.230666,4357.948611,4192.30759,4211.794769,4230.769127,4169.230667,4218.974256
27,0,4235.384512,4243.076819,4210.769128,4229.743486,4217.435794,4217.435794,4208.205025,4217.948615,4362.563996,4201.538359,4220.512717,4240.512717,4182.564,4236.922973
28,0,4254.871691,4251.281947,4223.07682,4237.435794,4225.128102,4215.897333,4215.897333,4233.84605,4370.256303,4222.563999,4233.84605,4253.333229,4202.051179,4255.384511
29,0,4245.128101,4237.435794,4218.974256,4234.358871,4215.384512,4207.692205,4206.666564,4233.84605,4366.153739,4222.051179,4226.666563,4248.205024,4195.384513,4249.743486
30,0,4231.281948,4230.256307,4214.871692,4230.256307,4209.230666,4210.256307,4205.640923,4225.640922,4360.512714,4211.794769,4211.281948,4234.871691,4183.589641,4238.974255
31,0,4232.307589,4237.948614,4213.846051,4227.692204,4215.897333,4218.974256,4217.948615,4229.230666,4362.051175,4208.205025,4198.974256,4235.384512,4183.589641,4234.871691
32,0,4219.487076,4229.230666,4204.615282,4221.025538,4216.922974,4219.999897,4217.435794,4231.794768,4359.999893,4202.564,4186.153744,4233.33323,4177.948616,4225.640922
33,0,4199.999897,4216.922974,4197.948615,4215.897333,4214.871692,4218.974256,4210.256307,4225.128102,4359.999893,4196.922974,4178.974257,4223.58964,4168.205026,4212.82041
34,0,4206.153743,4221.538358,4199.999897,4218.461435,4215.897333,4219.999897,4210.769128,4226.666563,4362.563996,4198.461436,4183.589641,4223.58964,4166.666565,4211.794769
35,0,4219.999897,4229.743486,4202.564,4217.948615,4207.179384,4215.897333,4205.640923,4228.205025,4360.512714,4201.025538,4184.615282,4231.794768,4170.256308,4223.07682
36,0,4223.58964,4231.794768,4208.717846,4221.538358,4202.051179,4211.281948,4200.512718,4226.666563,4358.974252,4204.102461,4189.743487,4235.384512,4176.922975,4234.871691
37,0,4229.230666,4233.84605,4217.948615,4229.230666,4209.230666,4213.33323,4203.589641,4231.281948,4362.051175,4209.743487,4198.461436,4237.435794,4185.640923,4237.435794
38,0,4233.33323,4234.871691,4214.358871,4223.58964,4208.717846,4214.358871,4204.102461,4233.84605,4364.615278,4215.384512,4191.794769,4238.974255,4188.205026,4236.410153
39,0,4225.128102,4229.230666,4204.102461,4215.897333,4198.974256,4212.82041,4203.589641,4228.717845,4361.025534,4217.435794,4182.05118,4233.84605,4185.128103,4232.820409
40,0,4215.897333,4227.692204,4202.564,4218.974256,4202.051179,4214.358871,4208.205025,4228.205025,4358.461432,4208.717846,4182.564,4230.769127,4183.589641,4227.692204
41,0,4214.871692,4232.820409,4202.051179,4220.512717,4213.33323,4217.435794,4212.82041,4227.692204,4356.92297,4201.538359,4184.102462,4231.281948,4185.128103,4226.153743
42,0,4218.461435,4235.384512,4197.435795,4223.07682,4218.461435,4216.922974,4213.33323,4222.563999,4357.948611,4209.230666,4185.640923,4230.256307,4186.666564,4232.820409
43,0,4215.384512,4231.281948,4195.897333,4223.07682,4215.384512,4214.871692,4210.256307,4216.410153,4357.948611,4211.281948,4186.153744,4228.717845,4182.05118,4235.897332
44,0,4211.281948,4228.205025,4197.948615,4213.33323,4212.82041,4214.358871,4208.717846,4213.846051,4353.846047,4195.384513,4182.564,4229.230666,4179.487077,4232.307589
45,0,4224.102461,4237.948614,4205.640923,4219.487076,4217.948615,4215.384512,4213.846051,4223.58964,4356.41015,4194.358872,4185.128103,4233.33323,4191.281949,4241.025537
46,0,4236.410153,4246.153742,4212.82041,4234.871691,4217.435794,4216.410153,4215.897333,4231.794768,4362.051175,4210.256307,4190.256308,4234.871691,4201.025538,4251.281947
47,0,4235.384512,4247.179383,4214.358871,4231.794768,4217.948615,4216.922974,4214.358871,4231.794768,4364.102457,4216.410153,4190.769128,4235.897332,4199.999897,4250.256306
48,0,4231.281948,4244.10246,4215.384512,4229.230666,4221.025538,4218.461435,4213.33323,4235.384512,4364.102457,4214.358871,4192.30759,4242.051178,4193.333231,4247.179383
49,0,4238.461435,4245.128101,4219.487076,4237.948614,4218.461435,4223.58964,4217.948615,4246.153742,4364.102457,4220.512717,4198.974256,4248.205024,4192.30759,4249.230665
50,0,4249.743486,4249.230665,4222.051179,4238.974255,4225.128102,4232.820409,4226.153743,4251.281947,4366.153739,4226.666563,4203.589641,4248.205024,4196.922974,4250.769127
51,0,4245.640922,4244.615281,4216.410153,4234.358871,4229.230666,4234.871691,4224.615281,4244.10246,4366.66656,4223.07682,4199.487077,4239.487076,4190.256308,4242.051178
52,0,4231.794768,4233.33323,4205.128102,4229.743486,4217.948615,4226.153743,4215.897333,4233.33323,4358.974252,4212.307589,4193.333231,4230.769127,4185.640923,4233.33323
53,0,4226.666563,4231.794768,4200.512718,4225.128102,4219.999897,4223.58964,4214.358871,4226.666563,4349.230663,4202.051179,4190.769128,4231.281948,4192.30759,4231.794768
54,0,4230.769127,4235.897332,4203.589641,4227.179384,4232.307589,4226.153743,4215.384512,4226.666563,4348.717842,4199.999897,4187.692205,4234.871691,4192.82041,4233.33323
55,0,4227.692204,4227.179384,4203.589641,4227.179384,4222.563999,4224.102461,4210.256307,4225.128102,4350.256304,4198.974256,4183.589641,4231.794768,4183.076821,4227.179384
56,0,4223.58964,4221.025538,4204.615282,4217.948615,4216.410153,4225.128102,4209.230666,4225.640922,4348.717842,4199.999897,4191.794769,4231.281948,4185.640923,4225.128102
57,0,4228.717845,4229.743486,4211.281948,4221.538358,4232.820409,4229.743486,4212.82041,4229.743486,4353.846047,4209.743487,4201.538359,4235.384512,4196.410154,4232.820409
58,0,4236.410153,4234.871691,4214.871692,4233.33323,4231.794768,4233.33323,4216.410153,4233.33323,4359.487073,4214.358871,4198.974256,4235.897332,4197.435795,4237.435794
59,0,4235.384512,4233.33323,4215.384512,4229.743486,4217.948615,4232.307589,4218.461435,4241.538358,4359.487073,4216.922974,4198.461436,4235.384512,4197.435795,4235.384512
60,0,4228.205025,4228.717845,4214.358871,4214.358871,4213.846051,4221.538358,4214.871692,4241.538358,4357.435791,4217.435794,4202.564,4233.33323,4192.82041,4229.230666
61,0,4226.666563,4225.640922,4212.82041,4215.897333,4214.871692,4211.794769,4211.281948,4231.281948,4354.358868,4206.666564,4201.025538,4231.281948,4184.102462,4225.640922
62,0,4231.281948,4228.717845,4213.846051,4230.256307,4220.512717,4222.563999,4214.358871,4229.230666,4352.307586,4202.051179,4199.999897,4232.820409,4189.743487,4232.307589
63,0,4234.871691,4234.358871,4215.897333,4229.230666,4228.205025,4231.794768,4215.384512,4230.769127,4353.333227,4211.281948,4199.999897,4234.358871,4198.974256,4239.999896
64,0,4232.820409,4232.307589,4213.846051,4221.025538,4229.743486,4220.512717,4211.281948,4221.025538,4350.769124,4205.640923,4197.435795,4230.769127,4188.205026,4233.33323
65,0,4233.84605,4234.871691,4212.307589,4225.128102,4229.743486,4219.999897,4212.82041,4214.871692,4347.179381,4196.922974,4197.435795,4230.769127,4182.05118,4229.743486
66,0,4243.076819,4250.256306,4216.410153,4234.358871,4235.384512,4230.769127,4216.410153,4220.512717,4348.717842,4210.256307,4200.512718,4234.358871,4197.948615,4238.461435
67,0,4248.717845,4252.307588,4219.999897,4233.84605,4238.461435,4225.640922,4215.897333,4226.153743,4351.794765,4218.974256,4207.179384,4233.84605,4204.102461,4238.974255
68,0,4246.666563,4236.922973,4216.410153,4230.256307,4227.179384,4215.384512,4213.33323,4228.205025,4351.281945,4213.33323,4213.33323,4237.948614,4198.461436,4236.410153
69,0,4246.153742,4229.743486,4215.384512,4231.281948,4217.435794,4217.948615,4216.410153,4229.743486,4349.230663,4216.410153,4218.974256,4247.179383,4202.564,4246.666563
70,0,4249.230665,4234.871691,4225.640922,4234.358871,4222.563999,4220.512717,4224.102461,4238.974255,4352.307586,4224.615281,4224.615281,4250.256306,4209.230666,4252.307588
71,0,4251.794768,4236.410153,4230.769127,4233.84605,4223.58964,4217.948615,4224.102461,4248.717845,4356.41015,4224.615281,4225.128102,4247.179383,4210.256307,4247.692204
72,0,4251.794768,4234.358871,4223.07682,4228.205025,4218.974256,4217.948615,4219.487076,4244.615281,4352.820406,4220.512717,4218.974256,4247.692204,4210.769128,4249.743486
73,0,4246.666563,4230.256307,4217.948615,4227.179384,4221.538358,4217.435794,4217.435794,4232.820409,4346.66656,4212.82041,4212.307589,4248.717845,4199.487077,4246.153742
74,0,4244.615281,4232.307589,4226.153743,4233.84605,4223.58964,4216.922974,4218.461435,4234.358871,4350.256304,4209.230666,4215.384512,4247.692204,4189.230667,4239.999896
75,0,4248.717845,4232.820409,4231.281948,4235.897332,4217.948615,4215.897333,4218.974256,4239.999896,4353.333227,4213.33323,4221.025538,4248.205024,4203.07682,4246.153742
76,0,4238.974255,4218.461435,4222.563999,4227.179384,4213.33323,4214.358871,4215.897333,4234.358871,4350.769124,4215.384512,4220.512717,4248.205024,4217.948615,4250.769127
77,0,4231.281948,4213.846051,4215.897333,4223.58964,4218.974256,4223.07682,4218.461435,4235.384512,4353.333227,4215.897333,4224.615281,4246.153742,4215.384512,4248.717845
78,0,4236.922973,4226.153743,4217.435794,4228.205025,4223.07682,4228.717845,4223.58964,4244.10246,4355.384509,4216.922974,4233.84605,4244.615281,4209.743487,4247.179383
79,0,4237.948614,4231.281948,4220.512717,4230.256307,4222.051179,4223.07682,4220.512717,4245.640922,4349.230663,4221.025538,4231.794768,4245.128101,4217.435794,4249.743486
80,0,4238.974255,4230.256307,4223.07682,4230.256307,4225.640922,4227.692204,4221.025538,4246.153742,4339.487073,4230.256307,4229.743486,4247.692204,4228.205025,4256.922973
81,0,4248.717845,4233.84605,4227.692204,4237.948614,4232.307589,4233.84605,4230.256307,4252.307588,4330.256304,4239.999896,4241.025537,4250.769127,4233.33323,4266.153742
82,0,4251.281947,4235.384512,4228.205025,4242.051178,4228.717845,4221.025538,4226.153743,4247.179383,4323.589638,4232.307589,4239.999896,4249.743486,4232.307589,4266.666562
83,0,4248.717845,4237.435794,4221.025538,4235.384512,4226.153743,4212.82041,4213.33323,4237.948614,4322.563997,4221.538358,4232.820409,4248.205024,4234.358871,4265.128101
