title:V                                                                               , recorded:07.07.20 10.59.30, sampling:128, subject:B                                                                               , labels:COUNTER INTERPOLATED AF3 F7 F3 FC5 T7 P7 O1 O2 P8 T8 FC6 F4 F8 AF4,, units:emotiv,,,,,,,,,
16,0,4234.871691,4222.563999,4247.692204,4199.999897,4218.974256,4216.410153,4228.205025,4239.999896,4231.794768,4232.820409,4215.384512,4266.153742,4214.871692,4267.692203
17,0,4232.820409,4221.025538,4246.666563,4202.564,4216.410153,4216.922974,4226.153743,4232.820409,4232.307589,4234.358871,4217.435794,4264.10246,4217.948615,4270.256306
18,0,4232.307589,4226.666563,4245.640922,4209.743487,4214.358871,4216.922974,4224.615281,4232.820409,4232.820409,4233.33323,4215.897333,4262.051178,4216.410153,4270.256306
19,0,4240.512717,4233.84605,4249.230665,4216.410153,4217.948615,4216.922974,4225.640922,4236.922973,4231.794768,4235.384512,4215.897333,4264.10246,4216.922974,4274.35887
20,0,4247.179383,4231.794768,4252.820409,4218.974256,4227.692204,4216.922974,4226.666563,4235.384512,4232.307589,4234.871691,4225.640922,4266.666562,4218.974256,4278.974254
21,0,4239.487076,4231.281948,4251.281947,4218.461435,4228.717845,4216.410153,4222.563999,4231.794768,4229.230666,4232.820409,4231.794768,4266.666562,4216.922974,4275.384511
22,0,4229.743486,4231.794768,4249.230665,4216.922974,4217.948615,4214.871692,4216.410153,4229.743486,4221.025538,4231.281948,4224.102461,4266.153742,4216.410153,4272.307588
23,0,4230.769127,4231.794768,4249.743486,4214.871692,4213.846051,4212.82041,4217.435794,4230.256307,4220.512717,4228.717845,4217.948615,4264.61528,4218.461435,4274.35887
24,0,4234.871691,4233.84605,4248.205024,4213.846051,4221.538358,4214.871692,4219.999897,4231.281948,4229.230666,4232.307589,4221.025538,4266.666562,4216.922974,4271.281947
25,0,4225.640922,4227.692204,4244.10246,4211.794769,4220.512717,4216.410153,4220.512717,4230.769127,4233.33323,4237.948614,4217.435794,4263.076819,4210.256307,4261.538357
26,0,4220.512717,4223.58964,4243.076819,4212.82041,4215.384512,4215.384512,4221.025538,4231.281948,4228.717845,4231.281948,4205.128102,4250.256306,4203.07682,4255.384511
27,0,4235.384512,4235.384512,4246.153742,4216.922974,4223.58964,4215.897333,4222.051179,4227.692204,4221.538358,4217.948615,4198.974256,4249.743486,4195.897333,4262.563998
28,0,4252.307588,4249.743486,4246.666563,4219.487076,4228.717845,4217.435794,4222.051179,4221.025538,4217.948615,4213.846051,4206.666564,4261.025537,4193.846051,4277.948613
29,0,4262.051178,4251.794768,4247.179383,4222.563999,4219.999897,4215.897333,4218.461435,4221.538358,4221.538358,4217.435794,4214.871692,4265.128101,4206.153743,4291.281946
30,0,4276.922972,4250.256306,4250.256306,4225.128102,4213.846051,4213.846051,4215.897333,4227.692204,4228.205025,4223.07682,4215.384512,4264.10246,4219.487076,4302.051177
31,0,4287.692203,4251.281947,4250.769127,4219.999897,4216.410153,4209.743487,4216.922974,4229.230666,4227.179384,4226.153743,4214.358871,4266.666562,4216.410153,4307.179382
32,0,4279.487075,4247.692204,4248.717845,4216.922974,4216.410153,4208.717846,4214.871692,4226.666563,4225.128102,4221.538358,4211.281948,4265.640921,4204.615282,4304.102459
33,0,4261.025537,4238.461435,4245.640922,4216.410153,4212.307589,4212.307589,4212.82041,4225.640922,4228.205025,4216.410153,4204.615282,4262.051178,4200.512718,4292.820408
34,0,4249.230665,4228.717845,4240.512717,4209.743487,4213.33323,4214.358871,4212.82041,4227.692204,4230.256307,4222.051179,4202.564,4259.487075,4199.487077,4282.563998
35,0,4246.153742,4221.025538,4235.897332,4206.666564,4216.922974,4214.358871,4215.384512,4232.820409,4230.769127,4230.769127,4204.102461,4259.487075,4198.461436,4279.487075
36,0,4239.999896,4216.410153,4232.307589,4211.794769,4213.846051,4217.435794,4231.281948,4233.33323,4229.743486,4229.230666,4205.128102,4262.051178,4198.461436,4279.487075
37,0,4237.948614,4221.538358,4233.33323,4214.871692,4213.846051,4218.461435,4257.435793,4230.769127,4229.743486,4230.256307,4208.205025,4261.538357,4202.564,4280.512716
38,0,4247.179383,4235.384512,4237.435794,4217.435794,4225.640922,4217.948615,4274.87169,4238.974255,4233.33323,4239.999896,4213.846051,4262.563998,4210.256307,4285.1281
39,0,4243.58964,4234.871691,4234.358871,4218.974256,4229.743486,4223.07682,4280.512716,4250.256306,4236.410153,4240.512717,4219.487076,4265.640921,4212.307589,4287.692203
40,0,4230.256307,4219.999897,4226.666563,4215.384512,4218.974256,4228.205025,4280.512716,4248.717845,4233.33323,4229.230666,4211.794769,4262.563998,4198.461436,4279.487075
41,0,4235.384512,4219.487076,4227.692204,4212.82041,4215.897333,4228.205025,4281.538357,4245.640922,4233.84605,4232.820409,4202.051179,4262.051178,4189.743487,4276.410152
42,0,4248.717845,4232.307589,4232.820409,4217.435794,4227.179384,4230.256307,4286.666562,4252.820409,4238.461435,4250.256306,4208.717846,4265.640921,4206.153743,4288.717844
43,0,4250.256306,4234.358871,4233.33323,4217.435794,4230.256307,4229.743486,4288.717844,4251.794768,4235.897332,4250.769127,4217.435794,4266.153742,4215.897333,4296.922972
44,0,4255.897332,4231.281948,4236.922973,4214.871692,4224.615281,4222.563999,4282.563998,4238.974255,4231.794768,4236.922973,4214.358871,4270.256306,4204.615282,4297.435792
45,0,4269.743485,4239.487076,4243.076819,4222.563999,4223.58964,4216.922974,4277.435793,4230.256307,4228.717845,4226.666563,4207.692205,4274.35887,4198.974256,4304.102459
46,0,4285.1281,4248.205024,4244.10246,4230.769127,4221.025538,4217.948615,4277.948613,4228.717845,4222.051179,4219.999897,4205.640923,4273.846049,4205.128102,4317.948612
47,0,4296.410151,4248.205024,4244.10246,4230.256307,4218.974256,4217.948615,4278.461434,4228.205025,4218.974256,4216.922974,4207.179384,4273.846049,4202.564,4328.205022
48,0,4310.769125,4255.384511,4247.179383,4231.794768,4220.512717,4216.410153,4275.897331,4225.640922,4219.999897,4216.922974,4212.307589,4279.999895,4199.487077,4339.487073
49,0,4325.128099,4261.538357,4250.256306,4236.410153,4221.025538,4213.846051,4273.333229,4226.666563,4223.58964,4222.051179,4215.384512,4285.640921,4209.743487,4352.307586
50,0,4325.128099,4253.333229,4250.256306,4234.871691,4215.384512,4209.743487,4276.410152,4229.743486,4229.230666,4229.230666,4215.897333,4284.102459,4221.025538,4357.435791
51,0,4314.358869,4245.640922,4248.717845,4230.256307,4215.384512,4209.743487,4276.922972,4234.358871,4232.820409,4236.922973,4219.999897,4281.025536,4227.179384,4352.820406
52,0,4310.256305,4244.615281,4247.179383,4229.743486,4221.538358,4214.358871,4276.922972,4241.538358,4232.820409,4244.615281,4221.025538,4282.051177,4231.794768,4346.15374
53,0,4307.179382,4239.999896,4246.666563,4229.230666,4227.179384,4216.410153,4286.153741,4247.692204,4235.384512,4250.256306,4219.487076,4283.076818,4235.384512,4339.487073
54,0,4291.794767,4230.256307,4246.666563,4223.58964,4230.769127,4218.461435,4288.717844,4249.230665,4235.897332,4251.281947,4218.974256,4280.512716,4233.84605,4328.717843
55,0,4275.897331,4220.512717,4243.58964,4216.922974,4227.179384,4218.974256,4280.512716,4246.666563,4231.281948,4248.717845,4216.922974,4278.461434,4224.102461,4312.820407
56,0,4276.410152,4214.871692,4242.051178,4215.897333,4217.948615,4218.974256,4283.589639,4244.10246,4232.307589,4247.179383,4212.307589,4276.922972,4213.846051,4299.487074
57,0,4277.435793,4217.948615,4241.538358,4218.461435,4217.948615,4222.051179,4292.820408,4242.563999,4234.871691,4246.153742,4213.33323,4273.333229,4214.871692,4292.820408
58,0,4265.640921,4215.384512,4236.410153,4215.897333,4222.563999,4224.615281,4286.666562,4244.10246,4233.84605,4247.179383,4214.871692,4269.230665,4217.435794,4287.692203
59,0,4255.897332,4203.589641,4229.743486,4210.769128,4219.487076,4222.051179,4278.974254,4245.128101,4231.794768,4246.666563,4206.153743,4265.128101,4206.153743,4275.384511
60,0,4258.461434,4205.128102,4229.743486,4213.846051,4219.999897,4219.999897,4279.487075,4237.435794,4231.794768,4244.10246,4198.461436,4262.051178,4197.435795,4263.589639
61,0,4258.461434,4214.358871,4232.307589,4217.948615,4230.769127,4222.563999,4279.487075,4231.794768,4234.358871,4245.640922,4201.538359,4265.128101,4199.999897,4258.974255
62,0,4259.487075,4215.897333,4232.820409,4216.922974,4231.794768,4226.153743,4279.487075,4238.974255,4235.384512,4247.179383,4210.256307,4271.794767,4202.051179,4259.999896
63,0,4261.025537,4213.33323,4234.871691,4216.922974,4226.153743,4232.307589,4278.974254,4247.692204,4232.307589,4246.666563,4216.410153,4276.922972,4198.974256,4259.999896
64,0,4253.333229,4209.743487,4235.384512,4219.999897,4229.230666,4233.84605,4279.487075,4248.717845,4230.769127,4247.179383,4213.846051,4277.435793,4198.974256,4257.948614
65,0,4246.666563,4202.564,4231.281948,4213.846051,4226.153743,4224.615281,4278.974254,4246.666563,4232.820409,4246.666563,4211.281948,4272.307588,4200.512718,4253.333229
66,0,4249.230665,4199.999897,4227.692204,4209.230666,4217.435794,4220.512717,4276.922972,4243.58964,4232.820409,4244.615281,4213.33323,4267.692203,4194.358872,4248.205024
67,0,4251.794768,4203.07682,4230.769127,4216.410153,4224.615281,4229.230666,4276.410152,4240.512717,4232.307589,4245.640922,4208.205025,4266.666562,4189.230667,4246.153742
68,0,4250.256306,4202.564,4231.281948,4215.897333,4232.307589,4230.256307,4279.487075,4238.461435,4232.820409,4248.205024,4200.512718,4265.128101,4191.281949,4246.153742
69,0,4245.640922,4199.999897,4221.538358,4203.589641,4219.487076,4216.922974,4274.87169,4231.281948,4230.769127,4243.58964,4202.051179,4262.051178,4189.230667,4243.076819
70,0,4242.563999,4200.512718,4215.897333,4200.512718,4211.794769,4219.487076,4267.692203,4222.563999,4227.692204,4235.384512,4203.589641,4261.538357,4186.153744,4236.922973
71,0,4245.640922,4201.538359,4221.025538,4203.589641,4221.538358,4227.692204,4268.205024,4219.999897,4226.666563,4233.84605,4202.564,4264.10246,4189.230667,4233.84605
72,0,4248.205024,4202.564,4226.666563,4204.615282,4224.102461,4220.512717,4268.717844,4219.999897,4226.666563,4234.358871,4204.102461,4264.10246,4188.205026,4236.922973
73,0,4247.179383,4208.205025,4228.717845,4210.256307,4219.999897,4220.512717,4270.256306,4224.615281,4227.179384,4233.33323,4208.205025,4265.128101,4188.205026,4242.563999
74,0,4250.256306,4214.871692,4232.307589,4216.922974,4227.692204,4231.281948,4277.948613,4231.794768,4228.717845,4233.33323,4213.846051,4269.743485,4198.461436,4247.692204
75,0,4252.820409,4213.33323,4231.281948,4218.461435,4234.358871,4228.717845,4279.487075,4231.281948,4230.256307,4234.871691,4214.871692,4269.743485,4200.512718,4245.640922
76,0,4251.281947,4207.692205,4223.58964,4214.871692,4226.666563,4218.461435,4269.743485,4228.205025,4229.743486,4233.84605,4206.666564,4263.589639,4187.692205,4235.384512
77,0,4243.58964,4196.922974,4218.974256,4206.153743,4216.922974,4219.487076,4268.717844,4231.281948,4229.743486,4234.358871,4201.538359,4261.025537,4181.025539,4229.743486
78,0,4234.871691,4187.692205,4217.435794,4199.487077,4215.897333,4223.07682,4277.948613,4234.358871,4230.769127,4234.871691,4201.538359,4263.076819,4183.076821,4230.256307
79,0,4240.512717,4196.922974,4216.922974,4203.07682,4217.435794,4222.051179,4277.435793,4231.794768,4229.743486,4232.307589,4201.538359,4262.051178,4185.128103,4232.307589
80,0,4248.717845,4211.281948,4216.410153,4204.615282,4216.410153,4219.487076,4266.666562,4232.820409,4229.230666,4232.307589,4200.512718,4259.999896,4182.564,4228.205025
81,0,4236.410153,4205.640923,4213.33323,4198.974256,4213.33323,4216.922974,4260.512716,4232.820409,4230.769127,4232.307589,4199.999897,4258.461434,4178.461436,4217.948615
82,0,4229.743486,4200.512718,4213.33323,4204.102461,4215.897333,4218.461435,4264.10246,4230.256307,4231.281948,4231.794768,4200.512718,4259.487075,4178.974257,4218.974256
83,0,4240.512717,4206.666564,4217.948615,4212.307589,4223.07682,4220.512717,4264.61528,4228.717845,4229.743486,4234.358871,4202.051179,4260.512716,4179.999898,4227.692204
84,0,4238.974255,4206.666564,4213.846051,4205.128102,4222.563999,4223.58964,4262.563998,4228.717845,4231.794768,4234.871691,4201.538359,4258.974255,4175.384513,4224.615281
85,0,4228.717845,4202.564,4205.128102,4198.974256,4216.922974,4225.640922,4262.563998,4224.102461,4229.743486,4229.230666,4199.999897,4256.922973,4172.30759,4215.384512
86,0,4230.769127,4203.07682,4209.230666,4208.717846,4217.948615,4223.07682,4263.589639,4216.922974,4221.538358,4226.153743,4201.025538,4253.84605,4173.333231,4214.871692
87,0,4236.922973,4209.230666,4216.410153,4217.435794,4221.538358,4215.384512,4262.563998,4216.410153,4221.538358,4231.281948,4201.025538,4250.256306,4172.30759,4211.794769
88,0,4236.410153,4211.281948,4210.256307,4212.82041,4219.487076,4214.358871,4263.589639,4223.07682,4228.205025,4230.769127,4199.487077,4248.717845,4170.256308,4201.025538
89,0,4235.384512,4206.153743,4207.692205,4211.281948,4223.07682,4224.102461,4266.153742,4229.743486,4231.794768,4230.256307,4202.051179,4253.333229,4171.281949,4198.974256
90,0,4234.358871,4201.025538,4214.358871,4215.897333,4227.179384,4228.205025,4267.179383,4234.358871,4233.33323,4238.461435,4206.666564,4262.051178,4175.384513,4211.794769
91,0,4233.33323,4203.07682,4210.256307,4211.794769,4222.563999,4218.461435,4263.589639,4231.281948,4232.307589,4238.461435,4205.128102,4264.10246,4174.358872,4216.922974
92,0,4229.743486,4200.512718,4200.512718,4203.589641,4215.384512,4212.307589,4259.487075,4226.153743,4227.692204,4231.281948,4204.615282,4255.384511,4168.717847,4207.179384
93,0,4231.281948,4198.461436,4206.153743,4208.717846,4216.922974,4217.948615,4260.512716,4228.717845,4230.256307,4233.84605,4209.230666,4254.35887,4174.871693,4206.153743
94,0,4242.051178,4206.153743,4222.563999,4220.512717,4222.563999,4220.512717,4262.563998,4230.256307,4232.307589,4238.461435,4207.692205,4266.153742,4182.564,4218.974256
95,0,4241.538358,4208.205025,4215.897333,4215.897333,4221.025538,4215.384512,4259.487075,4220.512717,4226.153743,4232.820409,4199.487077,4263.589639,4172.30759,4216.410153
96,0,4228.205025,4197.948615,4200.512718,4204.615282,4216.410153,4214.871692,4256.922973,4213.33323,4225.128102,4228.717845,4198.461436,4253.84605,4164.102462,4205.128102
97,0,4218.974256,4189.743487,4203.589641,4202.051179,4216.410153,4217.948615,4258.461434,4218.974256,4230.256307,4234.358871,4202.564,4258.974255,4170.769129,4205.640923
98,0,4219.487076,4191.281949,4210.769128,4204.102461,4218.974256,4217.435794,4261.538357,4225.128102,4230.256307,4234.358871,4203.589641,4267.179383,4175.897334,4207.179384
99,0,4222.563999,4197.948615,4207.692205,4209.230666,4220.512717,4217.435794,4263.076819,4226.666563,4229.743486,4228.205025,4199.999897,4261.025537,4169.743488,4204.615282
100,0,4226.153743,4201.025538,4204.615282,4212.307589,4218.461435,4223.07682,4264.10246,4229.743486,4233.33323,4233.33323,4196.922974,4255.384511,4166.666565,4206.153743
101,0,4232.307589,4200.512718,4209.743487,4212.307589,4223.58964,4231.281948,4266.666562,4237.435794,4237.435794,4249.230665,4206.153743,4262.563998,4179.487077,4220.512717
102,0,4234.871691,4202.564,4213.846051,4214.358871,4231.281948,4231.794768,4268.205024,4241.538358,4237.435794,4253.84605,4216.922974,4269.230665,4192.30759,4229.230666
103,0,4231.794768,4208.205025,4212.307589,4216.410153,4227.179384,4222.051179,4263.589639,4233.84605,4233.33323,4245.640922,4213.846051,4264.61528,4187.692205,4219.487076
104,0,4230.769127,4215.384512,4211.794769,4216.922974,4222.563999,4216.922974,4259.999896,4228.205025,4230.256307,4243.58964,4213.33323,4259.999896,4185.128103,4217.948615
105,0,4233.33323,4214.358871,4214.871692,4216.922974,4227.179384,4218.974256,4262.051178,4232.307589,4231.281948,4249.743486,4216.922974,4264.10246,4192.82041,4228.717845
106,0,4234.358871,4203.589641,4216.410153,4213.846051,4224.102461,4217.948615,4263.076819,4230.769127,4231.794768,4244.615281,4208.205025,4264.61528,4185.640923,4226.666563
107,0,4231.281948,4199.487077,4211.794769,4205.128102,4213.33323,4213.33323,4258.974255,4222.051179,4229.230666,4233.33323,4197.435795,4260.512716,4174.871693,4212.82041
108,0,4226.666563,4203.07682,4207.179384,4205.640923,4216.410153,4213.846051,4257.948614,4219.487076,4229.230666,4230.256307,4202.564,4262.563998,4184.615282,4212.307589
109,0,4222.051179,4201.538359,4204.102461,4207.692205,4227.692204,4218.461435,4260.512716,4221.025538,4230.256307,4233.33323,4204.615282,4260.512716,4184.615282,4216.410153
110,0,4222.051179,4198.461436,4200.512718,4204.102461,4227.692204,4218.974256,4256.410152,4219.999897,4229.230666,4233.84605,4192.82041,4252.307588,4169.230667,4212.82041
111,0,4224.615281,4198.461436,4201.025538,4204.102461,4221.025538,4216.922974,4248.717845,4218.461435,4228.717845,4234.871691,4186.153744,4255.897332,4174.871693,4215.384512
112,0,4221.538358,4196.922974,4202.051179,4208.717846,4218.974256,4216.410153,4247.692204,4218.461435,4228.717845,4235.384512,4190.769128,4265.128101,4190.256308,4224.102461
113,0,4217.435794,4197.435795,4199.999897,4205.640923,4218.974256,4215.897333,4247.692204,4218.461435,4227.692204,4232.820409,4189.743487,4259.999896,4186.153744,4227.179384
114,0,4218.461435,4196.410154,4199.999897,4203.07682,4214.871692,4214.358871,4245.640922,4215.897333,4224.615281,4231.281948,4177.435795,4256.922973,4181.538359,4226.153743
115,0,4220.512717,4193.846051,4202.564,4203.07682,4213.846051,4213.846051,4245.640922,4212.82041,4221.538358,4230.769127,4171.281949,4258.974255,4187.692205,4229.230666
116,0,4216.410153,4194.871692,4201.025538,4199.999897,4216.410153,4212.82041,4246.666563,4208.205025,4219.487076,4226.666563,4169.743488,4254.871691,4186.666564,4229.743486
117,0,4216.922974,4198.461436,4196.922974,4205.640923,4217.948615,4211.794769,4246.153742,4207.179384,4223.07682,4226.153743,4166.153744,4253.333229,4179.999898,4227.179384
118,0,4225.128102,4201.538359,4196.922974,4213.846051,4226.666563,4216.410153,4248.205024,4214.871692,4227.692204,4231.794768,4167.692206,4256.410152,4181.025539,4228.205025
119,0,4224.102461,4202.564,4199.487077,4207.179384,4228.717845,4218.974256,4247.179383,4217.948615,4223.58964,4231.281948,4166.666565,4251.794768,4186.666564,4227.179384
120,0,4216.410153,4195.897333,4195.897333,4198.974256,4216.410153,4215.384512,4241.025537,4205.640923,4216.410153,4217.948615,4156.410155,4245.128101,4177.948616,4218.461435
121,0,4213.846051,4190.256308,4188.717846,4199.487077,4212.307589,4210.769128,4233.84605,4195.897333,4215.384512,4211.281948,4149.230668,4247.179383,4167.179385,4212.307589
122,0,4217.435794,4197.435795,4189.230667,4201.538359,4217.948615,4211.794769,4233.84605,4206.666564,4219.487076,4223.07682,4153.333232,4249.230665,4177.435795,4219.999897
123,0,4218.461435,4199.487077,4194.871692,4198.974256,4217.435794,4216.410153,4242.051178,4216.410153,4224.102461,4233.33323,4156.410155,4248.717845,4187.692205,4232.307589
124,0,4215.384512,4188.205026,4198.974256,4198.461436,4214.871692,4219.487076,4249.230665,4216.922974,4228.717845,4233.33323,4154.871693,4251.281947,4185.128103,4234.358871
125,0,4213.33323,4182.564,4196.410154,4198.974256,4217.948615,4222.051179,4251.794768,4221.538358,4230.769127,4233.84605,4154.871693,4252.820409,4190.769128,4232.307589
126,0,4213.33323,4187.692205,4188.205026,4198.461436,4222.051179,4225.128102,4251.281947,4224.102461,4229.230666,4235.897332,4154.871693,4249.230665,4200.512718,4232.307589
127,0,4212.82041,4188.205026,4184.102462,4198.974256,4229.230666,4226.666563,4249.230665,4219.999897,4221.538358,4237.435794,4154.358873,4247.179383,4199.999897,4230.256307
128,0,4211.794769,4185.128103,4187.692205,4196.410154,4228.205025,4222.563999,4246.666563,4212.307589,4214.358871,4227.179384,4153.846052,4251.281947,4194.871692,4227.692204
0,0,4213.33323,4191.794769,4189.743487,4196.922974,4218.974256,4217.435794,4243.58964,4203.589641,4213.846051,4214.358871,4150.769129,4251.281947,4187.179385,4226.666563
1,0,4215.384512,4199.999897,4192.30759,4199.999897,4216.410153,4215.384512,4242.051178,4206.153743,4215.384512,4222.563999,4145.640924,4249.230665,4187.179385,4228.717845
2,0,4220.512717,4201.025538,4198.461436,4201.538359,4218.974256,4215.384512,4241.025537,4215.384512,4217.435794,4241.025537,4146.153745,4254.35887,4199.999897,4239.487076
3,0,4232.307589,4206.153743,4203.07682,4206.666564,4223.07682,4214.871692,4243.076819,4217.435794,4218.974256,4243.076819,4152.820411,4262.563998,4208.205025,4247.179383
4,0,4245.128101,4214.358871,4210.769128,4216.410153,4231.794768,4216.410153,4246.153742,4222.563999,4225.640922,4243.076819,4157.435796,4266.153742,4211.794769,4253.333229
5,0,4243.58964,4210.256307,4215.384512,4215.897333,4234.358871,4217.435794,4247.692204,4229.743486,4230.769127,4251.281947,4157.435796,4266.153742,4212.82041,4258.974255
6,0,4232.307589,4201.538359,4208.205025,4205.640923,4227.692204,4216.410153,4244.615281,4221.538358,4225.128102,4248.205024,4155.897334,4265.128101,4205.640923,4254.35887
7,0,4233.33323,4202.564,4204.615282,4203.07682,4225.640922,4217.948615,4242.563999,4215.384512,4219.487076,4236.410153,4155.384514,4264.10246,4201.025538,4247.179383
8,0,4234.358871,4204.615282,4207.179384,4205.640923,4226.153743,4219.999897,4243.076819,4219.487076,4222.051179,4232.307589,4152.820411,4262.563998,4201.025538,4247.179383
9,0,4219.487076,4200.512718,4202.564,4203.589641,4225.640922,4218.461435,4241.538358,4216.922974,4221.538358,4233.84605,4145.128104,4260.512716,4201.538359,4240.512717
10,0,4211.794769,4195.897333,4197.948615,4202.051179,4224.102461,4218.461435,4243.076819,4213.33323,4217.435794,4233.33323,4138.974258,4258.461434,4197.948615,4233.33323
11,0,4217.435794,4195.897333,4201.025538,4202.051179,4222.051179,4219.487076,4244.10246,4215.897333,4216.922974,4232.307589,4142.051181,4258.461434,4188.717846,4235.897332
12,0,4220.512717,4201.538359,4199.999897,4202.051179,4222.051179,4216.922974,4235.384512,4216.410153,4217.435794,4232.820409,4143.076822,4259.487075,4189.743487,4237.435794
13,0,4221.538358,4202.051179,4199.999897,4203.07682,4220.512717,4213.846051,4230.256307,4214.871692,4218.461435,4231.281948,4142.051181,4259.999896,4199.487077,4237.948614
14,0,4229.230666,4199.487077,4210.769128,4209.743487,4221.538358,4215.384512,4240.512717,4220.512717,4221.025538,4233.84605,4148.205027,4264.10246,4200.512718,4246.666563
15,0,4238.974255,4210.769128,4218.461435,4217.435794,4230.769127,4218.461435,4248.717845,4228.717845,4222.563999,4243.58964,4157.948616,4272.820408,4202.564,4255.384511
16,0,4238.974255,4217.435794,4216.410153,4217.435794,4233.84605,4217.948615,4241.538358,4224.615281,4222.051179,4242.051178,4152.820411,4270.256306,4203.589641,4253.333229
17,0,4229.230666,4206.666564,4213.846051,4211.281948,4224.102461,4215.897333,4237.435794,4218.461435,4218.974256,4229.743486,4141.53836,4260.512716,4188.205026,4243.58964
18,0,4230.769127,4205.640923,4214.358871,4214.358871,4225.128102,4216.922974,4244.615281,4224.102461,4218.461435,4229.230666,4145.640924,4260.512716,4186.153744,4243.076819
19,0,4239.999896,4210.256307,4213.33323,4215.897333,4231.794768,4218.974256,4243.58964,4223.58964,4219.487076,4234.358871,4150.769129,4264.10246,4202.564,4248.717845
20,0,4236.922973,4197.948615,4209.743487,4208.205025,4226.666563,4217.948615,4233.33323,4215.384512,4217.948615,4232.820409,4142.051181,4262.051178,4201.538359,4247.692204
21,0,4230.769127,4190.769128,4206.153743,4204.615282,4224.615281,4216.410153,4231.281948,4214.358871,4214.358871,4230.769127,4136.922976,4261.025537,4195.897333,4246.153742
22,0,4232.307589,4202.051179,4202.051179,4206.666564,4230.769127,4216.922974,4234.358871,4216.410153,4214.358871,4231.794768,4143.076822,4261.538357,4200.512718,4249.743486
23,0,4234.358871,4204.615282,4202.564,4208.205025,4234.358871,4217.948615,4234.871691,4216.922974,4219.487076,4234.358871,4146.666565,4259.999896,4201.538359,4250.256306
24,0,4238.974255,4199.999897,4203.589641,4210.769128,4230.769127,4217.948615,4239.487076,4219.487076,4220.512717,4236.922973,4148.205027,4263.589639,4205.640923,4253.84605
25,0,4243.58964,4205.128102,4205.640923,4214.358871,4228.205025,4217.435794,4247.179383,4224.102461,4217.948615,4234.871691,4150.256309,4268.205024,4212.82041,4262.051178
26,0,4245.128101,4214.871692,4208.717846,4214.871692,4229.743486,4217.435794,4247.179383,4228.205025,4223.58964,4230.769127,4148.717847,4268.205024,4208.205025,4264.10246
27,0,4240.512717,4214.871692,4206.153743,4214.871692,4230.256307,4217.435794,4237.948614,4228.717845,4230.769127,4232.820409,4144.615283,4264.10246,4200.512718,4254.871691
28,0,4234.358871,4207.692205,4202.564,4214.358871,4229.230666,4216.922974,4232.820409,4226.666563,4229.230666,4234.358871,4140.512719,4263.076819,4201.538359,4249.230665
29,0,4232.820409,4209.230666,4203.07682,4209.743487,4225.640922,4216.922974,4235.384512,4223.58964,4226.153743,4231.281948,4138.974258,4264.10246,4201.538359,4251.794768
30,0,4235.384512,4211.281948,4204.102461,4204.615282,4219.999897,4217.435794,4234.871691,4224.615281,4227.692204,4236.410153,4138.461437,4263.076819,4201.538359,4252.820409
31,0,4235.897332,4204.102461,4204.615282,4202.051179,4217.435794,4215.384512,4230.256307,4226.153743,4225.640922,4242.051178,4139.999899,4264.10246,4206.666564,4250.256306
32,0,4233.33323,4201.025538,4204.102461,4202.564,4218.461435,4213.846051,4230.769127,4222.051179,4220.512717,4235.897332,4141.53836,4265.128101,4206.666564,4252.820409
33,0,4233.33323,4209.743487,4201.538359,4204.102461,4217.435794,4214.358871,4231.794768,4215.384512,4218.974256,4230.256307,4138.974258,4261.538357,4201.538359,4252.820409
34,0,4238.461435,4217.435794,4202.564,4211.794769,4221.025538,4214.358871,4231.794768,4217.948615,4218.461435,4234.358871,4137.435796,4257.435793,4199.487077,4247.179383
35,0,4244.10246,4219.999897,4211.281948,4218.461435,4230.769127,4215.897333,4242.563999,4226.153743,4218.461435,4237.435794,4139.487078,4262.563998,4202.564,4254.871691
36,0,4244.10246,4219.999897,4215.897333,4215.384512,4233.33323,4219.999897,4246.666563,4228.205025,4216.922974,4233.84605,4141.53836,4272.307588,4208.717846,4265.128101
37,0,4247.179383,4219.999897,4215.897333,4213.33323,4230.769127,4220.512717,4235.897332,4227.692204,4217.435794,4233.84605,4147.179386,4273.333229,4215.897333,4263.589639
38,0,4249.743486,4222.563999,4218.974256,4217.435794,4232.820409,4218.461435,4234.871691,4228.205025,4224.102461,4236.922973,4151.28195,4267.179383,4216.410153,4263.076819
39,0,4238.461435,4218.974256,4212.82041,4215.897333,4232.820409,4218.461435,4242.051178,4223.58964,4225.640922,4235.384512,4143.076822,4262.563998,4205.640923,4261.025537
40,0,4228.205025,4213.846051,4202.564,4206.153743,4230.769127,4218.461435,4238.461435,4217.435794,4219.999897,4229.230666,4136.410155,4262.563998,4199.999897,4252.820409
41,0,4230.769127,4215.897333,4202.051179,4201.025538,4230.769127,4219.487076,4233.84605,4218.461435,4218.974256,4228.205025,4138.974258,4262.563998,4199.999897,4247.179383
42,0,4229.743486,4217.435794,4203.589641,4207.692205,4230.769127,4220.512717,4236.410153,4217.435794,4219.487076,4231.281948,4137.948617,4259.487075,4201.025538,4246.666563
43,0,4230.256307,4217.435794,4201.025538,4213.846051,4231.281948,4219.999897,4236.922973,4214.358871,4221.025538,4233.33323,4133.846053,4258.461434,4206.666564,4250.256306
44,0,4237.948614,4222.563999,4203.589641,4212.82041,4232.307589,4218.974256,4235.897332,4225.128102,4227.179384,4233.84605,4136.922976,4263.076819,4215.384512,4262.051178
45,0,4238.974255,4230.256307,4205.640923,4213.33323,4233.84605,4219.487076,4235.897332,4231.281948,4228.205025,4234.871691,4137.435796,4267.692203,4218.461435,4269.743485
46,0,4231.281948,4229.230666,4198.974256,4215.897333,4232.307589,4218.461435,4232.307589,4218.974256,4219.999897,4233.33323,4128.205027,4263.076819,4206.666564,4263.076819
47,0,4230.256307,4225.128102,4195.384513,4215.897333,4228.717845,4216.922974,4230.256307,4211.794769,4216.922974,4226.666563,4121.538361,4258.461434,4195.897333,4257.948614
48,0,4234.871691,4228.717845,4198.461436,4216.410153,4230.769127,4217.435794,4230.256307,4216.410153,4218.974256,4225.128102,4125.640925,4262.563998,4207.179384,4262.563998
49,0,4235.384512,4227.692204,4198.974256,4216.922974,4229.743486,4217.435794,4230.256307,4217.948615,4219.999897,4229.743486,4126.666566,4266.153742,4215.897333,4265.640921
50,0,4231.794768,4219.999897,4197.435795,4213.846051,4222.051179,4215.384512,4230.256307,4214.871692,4217.948615,4227.692204,4119.999899,4263.076819,4205.128102,4261.025537
51,0,4234.358871,4224.102461,4199.487077,4214.358871,4222.563999,4216.410153,4230.256307,4217.435794,4217.435794,4224.615281,4118.461438,4262.563998,4203.589641,4262.051178
52,0,4238.974255,4230.769127,4204.102461,4216.410153,4231.281948,4218.974256,4232.307589,4225.640922,4223.58964,4231.281948,4125.640925,4272.307588,4216.922974,4274.87169
53,0,4235.384512,4221.025538,4207.179384,4214.358871,4227.692204,4218.461435,4232.307589,4226.153743,4230.256307,4235.384512,4126.153745,4278.461434,4219.487076,4280.512716
54,0,4235.384512,4215.384512,4209.743487,4213.33323,4222.051179,4214.871692,4230.256307,4218.461435,4227.692204,4233.33323,4117.435797,4276.410152,4216.922974,4275.897331
55,0,4245.128101,4222.051179,4213.33323,4216.410153,4228.205025,4215.897333,4229.230666,4215.384512,4220.512717,4232.307589,4116.410156,4274.87169,4215.897333,4277.435793
56,0,4249.230665,4221.025538,4217.435794,4215.897333,4228.205025,4218.974256,4229.743486,4217.435794,4218.461435,4230.769127,4119.999899,4278.461434,4215.384512,4282.563998
57,0,4244.10246,4215.897333,4218.461435,4212.82041,4219.487076,4215.384512,4228.205025,4216.922974,4218.974256,4232.307589,4114.358874,4277.435793,4218.974256,4276.410152
58,0,4236.410153,4215.384512,4213.33323,4212.82041,4214.871692,4209.230666,4221.025538,4211.794769,4215.897333,4228.717845,4106.666566,4268.205024,4211.281948,4264.61528
59,0,4231.281948,4215.384512,4209.743487,4212.82041,4219.999897,4209.743487,4217.948615,4208.717846,4215.384512,4218.461435,4105.128105,4264.10246,4203.589641,4261.025537
60,0,4231.794768,4214.871692,4212.307589,4215.384512,4227.179384,4214.871692,4223.58964,4212.307589,4217.435794,4217.435794,4102.564002,4266.153742,4212.82041,4264.10246
61,0,4238.461435,4215.897333,4216.410153,4216.922974,4229.743486,4218.461435,4229.230666,4219.487076,4218.461435,4224.102461,4103.589643,4267.179383,4218.461435,4265.128101
62,0,4237.948614,4217.435794,4211.794769,4210.769128,4230.256307,4217.948615,4229.230666,4218.974256,4222.563999,4227.179384,4109.230669,4265.640921,4213.846051,4263.589639
63,0,4232.820409,4217.435794,4203.589641,4207.692205,4230.769127,4219.487076,4228.717845,4215.897333,4226.666563,4230.256307,4107.692207,4262.563998,4214.871692,4263.589639
64,0,4230.769127,4218.974256,4203.589641,4212.82041,4233.33323,4228.717845,4231.281948,4224.615281,4229.230666,4233.84605,4107.179387,4260.512716,4216.922974,4261.538357
65,0,4234.871691,4216.922974,4206.153743,4213.33323,4231.794768,4232.307589,4233.84605,4230.769127,4230.769127,4234.358871,4113.333233,4263.589639,4213.33323,4261.025537
66,0,4231.281948,4205.128102,4204.615282,4204.102461,4224.102461,4220.512717,4231.794768,4222.563999,4223.58964,4229.230666,4109.743489,4263.076819,4209.230666,4254.871691
67,0,4219.487076,4196.922974,4199.999897,4196.922974,4215.897333,4212.82041,4225.640922,4209.230666,4213.846051,4218.974256,4091.794772,4250.256306,4197.435795,4238.461435
68,0,4216.410153,4201.025538,4198.974256,4197.948615,4215.897333,4218.461435,4226.666563,4209.743487,4215.384512,4215.384512,4089.74349,4241.025537,4189.743487,4226.153743
69,0,4219.999897,4197.435795,4201.025538,4199.999897,4219.487076,4220.512717,4233.84605,4217.435794,4222.051179,4218.974256,4104.102464,4247.179383,4197.948615,4227.692204
70,0,4222.051179,4193.333231,4202.564,4199.487077,4217.948615,4215.384512,4228.717845,4218.974256,4220.512717,4218.461435,4103.589643,4253.333229,4197.948615,4231.794768
71,0,4229.230666,4206.666564,4202.051179,4198.461436,4214.871692,4214.358871,4219.999897,4217.435794,4217.948615,4215.384512,4090.25631,4251.281947,4187.179385,4229.743486
72,0,4238.461435,4217.435794,4202.051179,4199.999897,4215.897333,4214.358871,4222.563999,4214.358871,4213.846051,4208.717846,4088.717849,4247.692204,4183.076821,4222.563999
73,0,4243.58964,4221.538358,4209.743487,4207.179384,4224.102461,4213.846051,4223.58964,4212.82041,4214.871692,4206.153743,4093.333233,4252.307588,4182.564,4217.948615
74,0,4249.230665,4232.820409,4217.435794,4216.922974,4232.820409,4215.897333,4220.512717,4217.435794,4224.102461,4215.897333,4092.820413,4263.076819,4183.076821,4220.512717
75,0,4250.256306,4232.820409,4212.307589,4214.871692,4230.256307,4219.999897,4222.051179,4218.974256,4223.07682,4218.461435,4089.230669,4258.974255,4180.512718,4219.999897
76,0,4244.615281,4219.487076,4206.153743,4207.179384,4225.640922,4219.999897,4224.102461,4214.358871,4218.974256,4211.281948,4088.205028,4247.692204,4171.79477,4212.307589
77,0,4246.666563,4223.58964,4211.794769,4211.281948,4232.307589,4218.461435,4226.153743,4218.461435,4228.205025,4214.358871,4092.820413,4255.897332,4174.871693,4214.871692
78,0,4249.743486,4229.743486,4212.82041,4216.410153,4233.84605,4216.922974,4225.640922,4226.666563,4233.84605,4220.512717,4095.384515,4266.666562,4187.692205,4219.999897
79,0,4245.128101,4221.025538,4207.692205,4210.256307,4222.051179,4217.948615,4221.538358,4221.538358,4221.025538,4215.384512,4091.281951,4253.84605,4181.538359,4212.82041
80,0,4241.025537,4221.538358,4211.794769,4207.692205,4219.999897,4218.461435,4223.58964,4214.358871,4214.871692,4210.769128,4090.25631,4246.153742,4173.846052,4208.205025
81,0,4243.076819,4231.281948,4217.948615,4211.794769,4228.717845,4215.384512,4229.230666,4218.461435,4225.640922,4211.794769,4092.820413,4253.333229,4183.589641,4213.33323
82,0,4247.179383,4232.307589,4217.948615,4214.871692,4233.84605,4216.922974,4229.230666,4224.615281,4227.179384,4214.358871,4097.948618,4256.922973,4186.666564,4217.948615
83,0,4249.743486,4231.281948,4217.435794,4217.435794,4232.820409,4221.538358,4228.717845,4222.563999,4218.974256,4214.871692,4101.538361,4256.410152,4183.076821,4215.897333
84,0,4248.205024,4229.230666,4217.948615,4213.33323,4229.743486,4219.999897,4225.640922,4217.948615,4217.435794,4214.871692,4096.922977,4254.871691,4187.179385,4214.871692
85,0,4243.58964,4219.999897,4210.769128,4202.051179,4227.179384,4217.435794,4220.512717,4215.897333,4221.538358,4213.33323,4090.25631,4249.743486,4181.538359,4212.307589
86,0,4241.538358,4216.410153,4203.07682,4201.025538,4229.230666,4218.974256,4219.487076,4215.897333,4220.512717,4207.692205,4088.717849,4245.128101,4172.30759,4206.153743
87,0,4242.563999,4219.487076,4205.640923,4208.717846,4230.256307,4216.922974,4219.487076,4216.922974,4220.512717,4205.128102,4092.307592,4244.615281,4178.461436,4206.666564
88,0,4243.076819,4218.974256,4210.256307,4211.794769,4224.615281,4215.897333,4222.563999,4216.922974,4221.538358,4211.794769,4098.974259,4245.640922,4184.102462,4213.33323
89,0,4240.512717,4216.410153,4209.230666,4211.281948,4225.128102,4219.999897,4229.230666,4218.461435,4221.025538,4216.410153,4105.128105,4247.692204,4182.564,4215.384512
90,0,4248.205024,4224.102461,4211.281948,4211.794769,4233.33323,4221.538358,4232.307589,4224.615281,4225.640922,4215.897333,4107.179387,4250.256306,4190.256308,4217.435794
91,0,4259.487075,4231.794768,4214.871692,4207.179384,4233.33323,4217.948615,4228.205025,4223.07682,4226.666563,4214.871692,4105.128105,4252.820409,4196.922974,4224.102461
92,0,4254.35887,4223.07682,4212.82041,4201.538359,4225.128102,4213.33323,4219.487076,4215.897333,4219.487076,4215.384512,4108.205028,4257.435793,4194.358872,4228.205025
93,0,4251.794768,4219.487076,4215.384512,4208.205025,4226.666563,4212.307589,4216.410153,4221.538358,4217.948615,4222.051179,4118.461438,4262.051178,4199.999897,4232.820409
94,0,4262.563998,4233.33323,4219.999897,4219.487076,4229.743486,4210.769128,4217.948615,4224.615281,4221.025538,4225.128102,4122.564002,4264.10246,4203.589641,4238.974255
95,0,4265.128101,4236.410153,4219.999897,4214.358871,4220.512717,4201.538359,4214.871692,4214.871692,4218.974256,4215.897333,4117.435797,4262.051178,4197.948615,4235.897332
96,0,4258.461434,4227.179384,4218.974256,4205.128102,4213.846051,4197.435795,4213.846051,4219.487076,4218.461435,4214.871692,4118.461438,4262.563998,4199.487077,4235.384512
97,0,4258.974255,4229.230666,4217.948615,4210.256307,4221.025538,4208.205025,4218.974256,4234.871691,4224.615281,4226.666563,4123.589643,4264.10246,4203.07682,4243.076819
98,0,4262.563998,4235.897332,4222.563999,4217.948615,4232.307589,4218.461435,4225.128102,4236.410153,4229.230666,4227.692204,4123.589643,4263.589639,4202.051179,4246.153742
99,0,4263.076819,4235.897332,4229.743486,4218.461435,4233.84605,4218.461435,4230.256307,4233.33323,4229.743486,4222.563999,4126.666566,4265.640921,4209.230666,4244.10246
100,0,4262.051178,4233.84605,4229.230666,4216.410153,4231.281948,4215.897333,4231.794768,4233.84605,4227.692204,4226.153743,4128.205027,4267.692203,4209.230666,4245.640922
101,0,4259.487075,4231.281948,4231.281948,4213.33323,4229.230666,4214.871692,4227.179384,4235.897332,4228.205025,4226.666563,4123.589643,4264.61528,4196.410154,4244.10246
102,0,4256.922973,4230.256307,4229.230666,4212.307589,4230.256307,4214.871692,4221.538358,4234.358871,4227.692204,4222.051179,4121.538361,4261.025537,4194.358872,4235.897332
103,0,4250.769127,4232.307589,4219.999897,4212.307589,4231.794768,4214.871692,4217.435794,4222.051179,4221.538358,4216.922974,4121.02554,4260.512716,4200.512718,4229.743486
104,0,4251.281947,4234.871691,4221.538358,4211.794769,4233.84605,4215.384512,4216.922974,4213.846051,4217.948615,4215.897333,4122.051181,4262.563998,4198.461436,4229.230666
105,0,4258.974255,4233.84605,4231.281948,4211.794769,4231.281948,4216.410153,4221.025538,4222.563999,4221.025538,4222.563999,4124.102463,4264.61528,4196.922974,4233.84605
106,0,4259.487075,4233.33323,4226.153743,4211.794769,4225.128102,4214.358871,4220.512717,4230.256307,4222.563999,4225.640922,4127.179386,4265.128101,4201.025538,4236.922973
107,0,4255.384511,4233.33323,4220.512717,4212.82041,4226.153743,4212.82041,4216.410153,4228.205025,4219.487076,4218.461435,4128.717848,4264.10246,4201.025538,4236.410153
108,0,4252.307588,4230.769127,4225.128102,4211.794769,4227.692204,4214.871692,4217.948615,4228.205025,4223.58964,4214.358871,4126.153745,4257.435793,4194.871692,4232.820409
109,0,4247.179383,4228.717845,4223.58964,4208.717846,4224.615281,4216.410153,4221.025538,4226.153743,4227.692204,4216.410153,4120.51272,4249.230665,4189.743487,4231.794768
110,0,4245.640922,4226.666563,4217.948615,4207.179384,4226.666563,4217.435794,4217.435794,4219.487076,4222.051179,4218.461435,4119.999899,4247.692204,4188.717846,4228.717845
111,0,4242.051178,4223.58964,4215.897333,4205.640923,4229.743486,4217.435794,4214.358871,4215.897333,4216.922974,4214.358871,4122.051181,4248.205024,4188.717846,4219.999897
112,0,4232.820409,4224.102461,4215.384512,4202.564,4226.153743,4214.358871,4217.948615,4215.897333,4216.922974,4204.615282,4121.538361,4245.128101,4184.615282,4221.025538
113,0,4234.358871,4226.666563,4214.871692,4199.999897,4223.58964,4211.794769,4217.948615,4214.358871,4217.948615,4204.102461,4125.640925,4244.615281,4184.102462,4229.230666
114,0,4246.153742,4229.743486,4214.871692,4203.589641,4226.153743,4211.794769,4216.410153,4216.410153,4218.974256,4214.358871,4134.871694,4253.333229,4195.897333,4232.307589
115,0,4248.717845,4232.307589,4223.07682,4208.205025,4226.153743,4211.794769,4221.538358,4226.666563,4221.025538,4219.999897,4144.102463,4260.512716,4206.666564,4240.512717
116,0,4246.153742,4232.820409,4229.743486,4207.692205,4224.102461,4213.33323,4225.640922,4231.794768,4219.999897,4222.563999,4146.666565,4259.487075,4205.128102,4246.153742
117,0,4245.640922,4227.179384,4221.538358,4203.07682,4225.128102,4213.846051,4223.07682,4228.717845,4219.487076,4222.563999,4145.640924,4258.974255,4197.948615,4237.435794
118,0,4242.051178,4223.58964,4214.871692,4205.128102,4226.153743,4212.307589,4219.487076,4229.743486,4220.512717,4218.974256,4152.307591,4259.999896,4197.948615,4230.769127
119,0,4233.84605,4227.179384,4219.487076,4209.743487,4221.538358,4213.33323,4218.461435,4231.794768,4218.974256,4217.435794,4153.846052,4253.333229,4201.538359,4232.820409
120,0,4231.794768,4231.794768,4219.999897,4209.743487,4216.410153,4213.846051,4216.410153,4227.179384,4217.948615,4219.487076,4144.102463,4247.692204,4199.487077,4231.794768
121,0,4241.025537,4234.358871,4215.897333,4213.33323,4223.07682,4214.871692,4216.410153,4227.179384,4225.128102,4224.615281,4146.153745,4254.35887,4198.461436,4236.410153
122,0,4245.640922,4234.871691,4217.435794,4213.33323,4233.33323,4219.487076,4223.58964,4232.307589,4230.256307,4229.230666,4157.948616,4262.051178,4210.256307,4245.640922
123,0,4237.435794,4234.358871,4218.974256,4206.153743,4231.281948,4219.487076,4225.640922,4231.281948,4223.07682,4223.58964,4156.410155,4260.512716,4216.410153,4247.179383
124,0,4227.692204,4230.256307,4216.922974,4200.512718,4220.512717,4217.948615,4221.025538,4227.179384,4217.435794,4216.922974,4154.871693,4254.35887,4204.102461,4243.58964
125,0,4223.58964,4225.640922,4213.846051,4198.974256,4214.358871,4215.384512,4216.410153,4221.538358,4218.974256,4216.922974,4165.128103,4250.256306,4201.025538,4242.051178
126,0,4225.128102,4227.692204,4211.281948,4199.999897,4216.922974,4206.666564,4212.82041,4214.358871,4221.025538,4215.897333,4168.717847,4251.281947,4214.871692,4244.615281
127,0,4228.717845,4232.820409,4213.846051,4202.051179,4218.461435,4203.07682,4210.769128,4214.358871,4218.974256,4223.07682,4165.640924,4255.897332,4219.999897,4248.717845
128,0,4231.281948,4233.33323,4218.461435,4204.102461,4219.487076,4212.307589,4212.82041,4218.461435,4218.461435,4231.794768,4171.79477,4259.487075,4215.384512,4251.281947
0,0,4229.743486,4231.794768,4217.948615,4203.589641,4227.179384,4216.922974,4214.358871,4216.922974,4224.615281,4227.692204,4177.948616,4261.025537,4216.410153,4253.333229
1,0,4229.230666,4233.84605,4215.384512,4204.615282,4232.820409,4216.410153,4212.307589,4216.410153,4229.743486,4227.692204,4175.384513,4256.410152,4219.487076,4251.794768
2,0,4228.205025,4236.410153,4214.358871,4204.102461,4231.281948,4217.435794,4212.82041,4219.487076,4227.179384,4233.84605,4169.230667,4247.179383,4217.948615,4246.153742
3,0,4225.128102,4235.384512,4215.384512,4202.051179,4224.102461,4215.384512,4214.358871,4215.897333,4222.051179,4227.179384,4167.692206,4244.615281,4212.307589,4244.10246
4,0,4226.153743,4234.358871,4217.435794,4203.07682,4224.102461,4212.82041,4215.897333,4214.871692,4219.487076,4217.948615,4170.769129,4251.794768,4213.33323,4248.717845
5,0,4228.205025,4233.84605,4217.948615,4204.615282,4227.179384,4213.846051,4215.897333,4218.974256,4218.461435,4220.512717,4172.820411,4255.384511,4216.922974,4249.743486
6,0,4223.07682,4233.84605,4213.846051,4202.051179,4224.102461,4213.33323,4213.33323,4212.82041,4217.435794,4219.487076,4169.743488,4249.743486,4205.128102,4245.128101
7,0,4217.948615,4233.84605,4211.281948,4200.512718,4221.025538,4213.846051,4212.307589,4205.640923,4217.435794,4211.281948,4168.717847,4246.666563,4196.922974,4243.076819
8,0,4219.487076,4234.358871,4215.897333,4204.102461,4221.538358,4215.897333,4213.33323,4213.33323,4219.487076,4215.384512,4171.79477,4247.692204,4206.153743,4243.076819
9,0,4218.974256,4233.33323,4219.487076,4204.102461,4218.974256,4213.846051,4213.33323,4219.999897,4221.025538,4226.666563,4173.333231,4247.692204,4209.230666,4236.922973
10,0,4217.948615,4230.256307,4216.922974,4199.487077,4216.922974,4211.794769,4212.82041,4215.897333,4219.487076,4224.615281,4172.30759,4247.692204,4198.974256,4232.307589
11,0,4215.897333,4226.153743,4214.358871,4196.410154,4217.948615,4210.769128,4209.743487,4213.33323,4218.974256,4216.410153,4174.358872,4248.205024,4197.948615,4238.461435
12,0,4213.33323,4225.640922,4216.410153,4196.922974,4216.410153,4210.769128,4207.692205,4215.897333,4219.999897,4215.384512,4180.512718,4249.743486,4207.692205,4245.640922
13,0,4220.512717,4229.230666,4218.461435,4199.999897,4217.948615,4214.358871,4213.846051,4223.58964,4224.102461,4224.102461,4191.794769,4256.410152,4214.358871,4249.743486
14,0,4229.230666,4230.769127,4217.948615,4202.051179,4221.025538,4217.435794,4218.461435,4232.820409,4228.205025,4230.256307,4196.922974,4264.10246,4217.948615,4255.384511
15,0,4228.205025,4229.743486,4224.102461,4201.538359,4222.051179,4215.897333,4215.384512,4232.307589,4229.230666,4228.717845,4192.30759,4264.10246,4217.435794,4261.025537
16,0,4229.743486,4231.281948,4229.230666,4199.487077,4223.07682,4215.384512,4213.33323,4224.102461,4226.666563,4227.692204,4189.230667,4260.512716,4214.871692,4260.512716
17,0,4229.743486,4231.794768,4224.102461,4198.974256,4219.999897,4216.922974,4212.307589,4223.07682,4225.128102,4228.205025,4191.794769,4258.461434,4213.846051,4252.307588
18,0,4220.512717,4229.743486,4216.410153,4199.487077,4216.922974,4216.410153,4212.307589,4228.205025,4224.102461,4224.102461,4199.487077,4256.922973,4211.281948,4248.205024
19,0,4215.384512,4231.281948,4216.410153,4199.487077,4215.897333,4216.410153,4214.358871,4225.640922,4222.051179,4218.461435,4197.948615,4256.410152,4208.717846,4249.743486
20,0,4216.922974,4231.281948,4217.948615,4199.487077,4214.871692,4215.897333,4213.33323,4219.487076,4219.487076,4215.897333,4186.666564,4251.281947,4209.743487,4246.153742
21,0,4220.512717,4232.307589,4216.922974,4202.051179,4221.025538,4215.384512,4213.33323,4218.974256,4219.487076,4216.410153,4188.717846,4248.205024,4216.410153,4247.179383
22,0,4229.230666,4239.999896,4216.410153,4204.615282,4228.205025,4216.410153,4213.846051,4221.538358,4221.025538,4221.025538,4205.128102,4253.84605,4222.051179,4257.435793
23,0,4227.692204,4239.487076,4216.922974,4202.564,4221.538358,4210.256307,4207.179384,4217.435794,4217.435794,4212.82041,4204.102461,4255.897332,4216.410153,4254.871691
24,0,4216.410153,4230.256307,4214.358871,4198.461436,4212.307589,4202.051179,4198.461436,4212.307589,4213.33323,4197.435795,4192.82041,4249.230665,4201.025538,4242.563999
25,0,4211.794769,4231.281948,4208.717846,4198.974256,4217.435794,4203.589641,4203.589641,4210.256307,4213.846051,4205.128102,4196.922974,4246.153742,4196.922974,4242.563999
26,0,4215.384512,4235.384512,4208.205025,4201.538359,4220.512717,4211.794769,4208.205025,4212.307589,4215.384512,4218.461435,4202.051179,4246.666563,4208.717846,4246.666563
27,0,4223.07682,4233.84605,4212.82041,4201.538359,4215.384512,4215.384512,4205.128102,4214.871692,4217.948615,4216.922974,4198.974256,4247.692204,4216.410153,4249.230665
28,0,4229.743486,4230.769127,4215.897333,4201.538359,4220.512717,4215.897333,4206.153743,4216.410153,4219.487076,4216.922974,4202.564,4254.35887,4216.922974,4258.974255
29,0,4230.256307,4234.871691,4217.435794,4203.589641,4229.230666,4217.948615,4208.717846,4216.922974,4219.999897,4221.538358,4214.358871,4259.999896,4219.999897,4265.128101
30,0,4227.692204,4239.487076,4214.871692,4202.051179,4223.58964,4214.358871,4205.640923,4218.461435,4218.974256,4217.948615,4221.538358,4258.461434,4218.461435,4263.076819
31,0,4226.153743,4237.948614,4216.410153,4200.512718,4214.358871,4209.230666,4202.051179,4217.435794,4217.948615,4215.384512,4217.435794,4258.974255,4215.384512,4263.589639
32,0,4229.743486,4238.974255,4222.563999,4209.230666,4222.563999,4212.307589,4206.153743,4215.897333,4218.461435,4218.461435,4215.897333,4262.563998,4223.58964,4265.640921
33,0,4230.256307,4245.128101,4222.563999,4213.33323,4235.384512,4219.487076,4213.33323,4218.461435,4220.512717,4221.538358,4219.487076,4261.538357,4231.281948,4266.666562
34,0,4222.051179,4245.640922,4214.358871,4208.717846,4233.84605,4218.461435,4213.846051,4219.487076,4217.948615,4218.974256,4216.922974,4255.384511,4218.974256,4264.61528
35,0,4221.538358,4242.051178,4216.922974,4211.281948,4229.230666,4213.846051,4210.769128,4216.922974,4214.358871,4215.384512,4217.948615,4258.461434,4212.82041,4263.589639
36,0,4232.820409,4238.461435,4227.179384,4212.82041,4232.307589,4215.384512,4210.769128,4215.384512,4217.948615,4217.435794,4229.743486,4267.179383,4228.717845,4272.307588
37,0,4233.33323,4232.307589,4226.153743,4207.179384,4231.281948,4215.897333,4214.358871,4218.974256,4221.538358,4218.461435,4236.410153,4268.717844,4235.384512,4281.538357
38,0,4225.640922,4230.256307,4221.538358,4208.205025,4227.179384,4215.384512,4214.358871,4224.102461,4219.487076,4221.025538,4231.281948,4263.589639,4230.256307,4279.999895
39,0,4227.179384,4235.897332,4226.666563,4213.846051,4230.769127,4217.948615,4213.846051,4223.07682,4226.666563,4229.743486,4230.769127,4262.563998,4233.33323,4276.410152
40,0,4232.307589,4241.025537,4230.256307,4214.358871,4231.794768,4220.512717,4215.384512,4218.974256,4229.743486,4231.281948,4232.307589,4262.563998,4234.871691,4277.435793
41,0,4228.717845,4244.10246,4222.563999,4210.256307,4226.153743,4218.461435,4214.871692,4218.974256,4219.999897,4226.153743,4231.794768,4262.051178,4230.256307,4276.410152
42,0,4227.692204,4242.563999,4217.435794,4209.743487,4230.256307,4217.435794,4213.846051,4226.153743,4221.025538,4230.256307,4239.487076,4262.051178,4231.794768,4275.897331
43,0,4230.256307,4236.922973,4221.025538,4211.281948,4231.794768,4218.461435,4213.846051,4232.307589,4232.307589,4235.897332,4248.205024,4261.538357,4235.384512,4278.461434
44,0,4224.102461,4233.84605,4222.563999,4208.717846,4223.58964,4217.948615,4213.846051,4232.307589,4230.256307,4232.307589,4248.205024,4262.051178,4231.281948,4277.435793
45,0,4216.410153,4231.281948,4221.538358,4206.153743,4222.563999,4217.948615,4214.871692,4231.794768,4219.999897,4231.281948,4247.179383,4262.563998,4227.692204,4275.897331
46,0,4218.461435,4231.794768,4225.128102,4210.769128,4225.640922,4217.948615,4214.871692,4230.769127,4221.025538,4230.256307,4246.666563,4261.538357,4231.281948,4276.410152
47,0,4227.692204,4237.435794,4227.692204,4213.846051,4224.615281,4217.948615,4213.33323,4229.230666,4227.179384,4229.743486,4250.256306,4263.589639,4242.051178,4279.999895
48,0,4229.743486,4238.974255,4223.07682,4211.281948,4228.205025,4217.948615,4214.358871,4229.743486,4230.769127,4241.025537,4259.487075,4267.692203,4252.307588,4281.538357
49,0,4223.58964,4234.358871,4218.974256,4211.794769,4226.666563,4217.948615,4213.33323,4229.230666,4230.769127,4246.153742,4262.563998,4268.205024,4251.281947,4280.512716
50,0,4215.384512,4231.281948,4218.461435,4214.871692,4217.435794,4217.435794,4211.794769,4227.692204,4228.717845,4235.897332,4259.999896,4264.10246,4243.076819,4278.461434
51,0,4213.846051,4233.33323,4219.487076,4215.384512,4219.999897,4217.948615,4215.384512,4232.307589,4230.769127,4235.384512,4261.025537,4263.076819,4242.563999,4277.948613
52,0,4215.897333,4234.358871,4220.512717,4209.743487,4224.102461,4218.461435,4217.948615,4236.410153,4231.794768,4240.512717,4255.384511,4265.640921,4243.076819,4277.435793
53,0,4212.82041,4230.769127,4216.922974,4204.615282,4215.384512,4216.410153,4213.846051,4231.281948,4229.230666,4231.794768,4245.128101,4258.974255,4233.33323,4273.333229
54,0,4214.871692,4230.769127,4215.384512,4213.33323,4218.461435,4217.948615,4213.846051,4228.717845,4228.717845,4225.640922,4246.666563,4249.230665,4226.666563,4273.846049
55,0,4221.538358,4234.358871,4216.922974,4215.384512,4230.256307,4223.07682,4218.461435,4229.230666,4229.230666,4231.794768,4255.384511,4252.307588,4232.820409,4277.435793
56,0,4225.640922,4233.84605,4215.897333,4206.666564,4228.717845,4223.07682,4214.871692,4223.58964,4224.102461,4230.256307,4259.999896,4261.025537,4239.999896,4278.461434
57,0,4234.871691,4240.512717,4215.384512,4209.743487,4225.640922,4218.974256,4210.769128,4223.58964,4224.102461,4230.769127,4265.640921,4263.589639,4243.58964,4287.692203
58,0,4244.615281,4254.35887,4218.974256,4218.461435,4230.256307,4217.435794,4213.33323,4231.794768,4231.281948,4242.051178,4273.333229,4262.563998,4250.256306,4299.487074
59,0,4252.820409,4259.999896,4219.999897,4218.461435,4232.307589,4224.102461,4216.410153,4234.358871,4232.820409,4246.153742,4278.461434,4262.051178,4257.435793,4307.692202
60,0,4269.230665,4264.61528,4219.487076,4218.974256,4231.281948,4230.256307,4213.846051,4227.692204,4228.717845,4235.897332,4277.948613,4261.538357,4262.563998,4324.615279
61,0,4283.589639,4270.256306,4218.461435,4221.538358,4227.179384,4224.102461,4207.179384,4220.512717,4227.179384,4226.666563,4272.820408,4262.051178,4262.563998,4346.15374
62,0,4286.666562,4264.10246,4216.410153,4216.922974,4215.897333,4213.33323,4201.538359,4215.384512,4223.58964,4224.615281,4271.281947,4261.538357,4258.974255,4353.333227
63,0,4293.333228,4257.435793,4223.58964,4216.410153,4211.794769,4215.384512,4201.538359,4214.358871,4217.948615,4224.102461,4275.897331,4261.538357,4261.025537,4355.384509
64,0,4300.512715,4264.10246,4234.358871,4227.179384,4219.999897,4218.461435,4207.179384,4216.922974,4218.974256,4225.128102,4281.538357,4268.205024,4265.128101,4358.974252
65,0,4289.230664,4262.051178,4234.358871,4230.769127,4221.025538,4210.256307,4208.717846,4217.435794,4219.999897,4224.615281,4281.025536,4274.35887,4265.128101,4352.307586
66,0,4275.384511,4249.230665,4231.281948,4222.051179,4215.897333,4207.179384,4203.07682,4216.410153,4217.948615,4221.025538,4278.974254,4273.333229,4261.025537,4341.538355
67,0,4267.692203,4245.640922,4231.794768,4217.948615,4217.435794,4212.307589,4198.974256,4212.82041,4218.974256,4223.58964,4278.461434,4266.153742,4251.281947,4336.922971
68,0,4255.897332,4241.538358,4226.153743,4218.974256,4221.025538,4216.410153,4198.974256,4211.281948,4219.487076,4229.743486,4277.948613,4263.076819,4249.230665,4327.692202
69,0,4246.153742,4236.922973,4217.435794,4214.358871,4218.974256,4213.33323,4198.974256,4213.846051,4217.948615,4227.692204,4278.974254,4265.640921,4256.922973,4315.38451
70,0,4239.999896,4239.999896,4214.871692,4211.794769,4218.974256,4211.794769,4198.974256,4216.410153,4220.512717,4223.07682,4278.974254,4261.025537,4256.922973,4308.717843
71,0,4235.384512,4239.999896,4215.897333,4216.922974,4223.07682,4215.384512,4203.07682,4216.922974,4228.205025,4228.205025,4277.948613,4251.794768,4249.230665,4304.615279
72,0,4228.717845,4231.281948,4215.384512,4218.461435,4220.512717,4216.922974,4203.589641,4215.897333,4231.281948,4232.820409,4276.410152,4247.179383,4245.640922,4294.87169
73,0,4219.999897,4230.769127,4214.358871,4216.922974,4220.512717,4216.922974,4202.564,4222.563999,4228.717845,4232.820409,4276.922972,4248.205024,4246.153742,4286.153741
74,0,4212.82041,4235.384512,4214.871692,4216.922974,4230.256307,4219.487076,4204.615282,4231.281948,4230.256307,4233.84605,4278.974254,4249.230665,4247.179383,4278.974254
75,0,4205.640923,4224.615281,4212.82041,4214.358871,4228.717845,4219.999897,4205.640923,4225.128102,4231.281948,4234.358871,4279.999895,4245.128101,4242.563999,4267.179383
76,0,4197.948615,4213.846051,4211.794769,4213.33323,4214.358871,4213.846051,4201.538359,4212.82041,4228.717845,4229.743486,4277.435793,4239.999896,4234.871691,4257.435793
77,0,4202.051179,4223.07682,4215.897333,4214.871692,4216.922974,4216.922974,4201.538359,4217.948615,4228.717845,4230.769127,4278.461434,4243.58964,4238.974255,4259.487075
78,0,4213.33323,4232.307589,4217.948615,4214.871692,4227.179384,4222.051179,4207.692205,4223.58964,4229.230666,4234.358871,4282.051177,4249.743486,4245.640922,4263.076819
79,0,4209.230666,4228.205025,4215.897333,4214.871692,4224.102461,4218.461435,4211.281948,4215.384512,4228.205025,4229.743486,4286.153741,4249.230665,4245.128101,4261.538357
80,0,4202.564,4228.205025,4215.897333,4216.410153,4225.640922,4225.128102,4213.846051,4213.846051,4229.743486,4233.33323,4292.307587,4246.666563,4247.179383,4262.563998
81,0,4204.102461,4234.871691,4216.410153,4218.461435,4235.384512,4232.820409,4211.281948,4218.974256,4233.33323,4243.076819,4296.922972,4247.179383,4251.794768,4266.153742
82,0,4203.07682,4229.230666,4214.871692,4217.948615,4229.743486,4221.025538,4203.589641,4222.051179,4231.281948,4240.512717,4297.948613,4250.256306,4251.281947,4265.640921
83,0,4198.974256,4220.512717,4214.871692,4214.871692,4216.410153,4212.82041,4205.128102,4224.615281,4228.717845,4232.307589,4296.922972,4251.281947,4249.230665,4263.589639
84,0,4197.948615,4216.922974,4216.922974,4212.307589,4216.922974,4220.512717,4213.846051,4223.07682,4231.281948,4234.871691,4294.87169,4248.717845,4246.666563,4254.871691
85,0,4197.948615,4213.846051,4222.051179,4214.358871,4218.974256,4219.999897,4211.794769,4218.974256,4229.743486,4234.871691,4291.794767,4250.769127,4242.051178,4246.153742
86,0,4198.461436,4215.384512,4226.666563,4215.897333,4216.410153,4214.358871,4206.153743,4217.435794,4226.666563,4229.743486,4293.333228,4258.974255,4241.538358,4247.692204
87,0,4202.051179,4214.358871,4228.205025,4213.33323,4214.358871,4216.410153,4209.230666,4219.999897,4227.692204,4229.743486,4297.435792,4264.10246,4243.076819,4249.230665
88,0,4207.692205,4214.871692,4230.256307,4214.871692,4215.384512,4217.948615,4213.33323,4223.58964,4232.307589,4233.33323,4294.87169,4264.10246,4244.10246,4247.692204
89,0,4218.461435,4225.640922,4231.794768,4219.999897,4225.128102,4222.563999,4213.846051,4230.256307,4233.84605,4239.487076,4297.435792,4264.61528,4246.666563,4255.897332
90,0,4222.563999,4232.307589,4228.717845,4219.487076,4231.794768,4227.692204,4214.358871,4231.794768,4232.307589,4244.10246,4307.179382,4265.640921,4250.769127,4262.563998
91,0,4219.487076,4229.743486,4231.794768,4223.07682,4231.794768,4230.256307,4216.922974,4230.769127,4233.33323,4245.640922,4307.692202,4268.717844,4253.84605,4258.974255
92,0,4217.948615,4227.692204,4233.84605,4226.666563,4228.205025,4230.256307,4218.974256,4234.358871,4234.871691,4249.230665,4297.435792,4263.589639,4246.666563,4250.769127
93,0,4216.922974,4224.102461,4222.051179,4221.025538,4224.102461,4222.051179,4215.384512,4234.358871,4233.33323,4245.128101,4292.307587,4250.256306,4234.358871,4237.948614
94,0,4209.230666,4214.871692,4215.897333,4212.307589,4217.435794,4216.410153,4213.33323,4230.256307,4230.769127,4236.410153,4295.38451,4246.666563,4232.307589,4232.820409
95,0,4201.025538,4208.205025,4214.358871,4207.692205,4215.897333,4217.948615,4214.871692,4229.230666,4231.281948,4232.820409,4291.794767,4247.179383,4236.410153,4233.84605
96,0,4196.410154,4201.025538,4204.615282,4202.051179,4217.948615,4219.487076,4213.846051,4225.640922,4230.769127,4230.256307,4281.538357,4236.922973,4227.692204,4223.07682
97,0,4197.435795,4199.487077,4202.564,4203.07682,4218.461435,4218.461435,4210.769128,4219.487076,4229.230666,4228.205025,4279.487075,4228.717845,4219.487076,4214.871692
98,0,4205.128102,4208.717846,4213.846051,4210.256307,4218.461435,4219.487076,4211.281948,4220.512717,4228.205025,4232.820409,4285.640921,4235.897332,4227.692204,4225.640922
99,0,4212.82041,4210.769128,4218.461435,4211.794769,4215.897333,4225.128102,4215.384512,4229.743486,4228.205025,4234.871691,4292.820408,4246.666563,4233.33323,4235.897332
100,0,4215.897333,4208.717846,4215.897333,4214.871692,4217.948615,4228.717845,4216.410153,4233.33323,4229.743486,4234.358871,4294.358869,4247.692204,4230.256307,4234.871691
101,0,4215.897333,4213.33323,4218.974256,4218.974256,4223.58964,4223.07682,4214.871692,4229.743486,4231.281948,4240.512717,4293.846049,4245.640922,4232.307589,4234.871691
102,0,4215.897333,4216.922974,4225.640922,4217.435794,4222.051179,4217.435794,4215.384512,4229.230666,4231.794768,4247.692204,4298.974254,4248.205024,4238.974255,4236.410153
103,0,4215.384512,4213.33323,4224.615281,4213.33323,4217.948615,4220.512717,4216.922974,4233.84605,4232.307589,4243.076819,4305.1281,4250.769127,4238.974255,4235.384512
104,0,4214.871692,4211.794769,4216.922974,4213.33323,4217.435794,4219.999897,4213.846051,4229.743486,4231.794768,4234.871691,4298.461433,4248.717845,4233.84605,4230.256307
105,0,4216.410153,4216.410153,4216.410153,4216.410153,4216.922974,4216.410153,4210.769128,4219.999897,4230.769127,4233.33323,4292.307587,4247.179383,4231.794768,4230.256307
106,0,4223.58964,4217.435794,4225.640922,4217.948615,4216.410153,4218.974256,4210.769128,4216.922974,4231.281948,4236.410153,4303.076818,4250.769127,4236.922973,4242.051178
107,0,4227.692204,4216.410153,4225.128102,4216.922974,4216.410153,4219.999897,4211.794769,4219.999897,4229.743486,4234.358871,4306.153741,4252.820409,4246.153742,4245.128101
108,0,4224.102461,4215.897333,4217.435794,4215.897333,4214.358871,4218.974256,4212.82041,4218.974256,4228.205025,4232.307589,4293.846049,4248.205024,4243.58964,4231.794768
109,0,4228.717845,4217.948615,4217.948615,4216.922974,4212.82041,4219.487076,4209.743487,4216.410153,4229.230666,4234.358871,4295.897331,4249.230665,4235.384512,4230.769127
110,0,4232.820409,4219.487076,4223.07682,4219.487076,4214.358871,4217.948615,4204.615282,4216.410153,4230.769127,4232.307589,4307.179382,4257.435793,4233.84605,4238.461435
111,0,4231.794768,4218.974256,4227.179384,4218.974256,4213.846051,4213.846051,4203.589641,4217.435794,4231.281948,4231.281948,4301.538356,4255.897332,4234.358871,4236.922973
112,0,4239.487076,4223.58964,4231.281948,4219.487076,4213.33323,4213.846051,4206.153743,4217.948615,4230.256307,4232.820409,4297.435792,4249.743486,4231.794768,4237.435794
113,0,4243.58964,4230.769127,4229.743486,4223.58964,4213.846051,4217.435794,4206.153743,4221.025538,4230.769127,4232.820409,4307.692202,4251.794768,4232.820409,4242.051178
114,0,4232.307589,4228.717845,4219.999897,4223.07682,4215.897333,4217.435794,4204.615282,4222.051179,4231.281948,4233.33323,4304.102459,4252.307588,4232.820409,4237.435794
115,0,4224.102461,4221.538358,4214.871692,4219.487076,4215.384512,4215.897333,4204.102461,4217.948615,4227.692204,4228.205025,4289.230664,4241.538358,4224.615281,4227.692204
116,0,4215.897333,4212.307589,4213.33323,4215.384512,4210.769128,4215.384512,4202.051179,4212.307589,4221.538358,4214.358871,4288.717844,4231.794768,4213.846051,4217.435794
117,0,4209.743487,4206.153743,4211.794769,4212.307589,4209.230666,4214.358871,4199.487077,4211.281948,4221.538358,4207.692205,4292.307587,4234.871691,4210.769128,4213.846051
118,0,4223.07682,4214.358871,4214.358871,4218.974256,4214.358871,4215.897333,4201.538359,4214.358871,4224.102461,4216.410153,4295.38451,4243.076819,4221.025538,4224.615281
119,0,4229.230666,4219.999897,4218.974256,4226.666563,4218.974256,4218.974256,4207.179384,4215.384512,4221.538358,4221.025538,4305.1281,4250.256306,4232.820409,4235.897332
120,0,4218.461435,4211.794769,4219.999897,4218.974256,4216.922974,4218.974256,4210.256307,4213.846051,4218.974256,4218.974256,4312.307587,4256.410152,4234.358871,4235.384512
121,0,4228.717845,4215.384512,4222.563999,4215.897333,4216.410153,4219.999897,4212.307589,4213.846051,4225.640922,4217.948615,4308.717843,4256.410152,4234.358871,4234.871691
122,0,4245.640922,4232.820409,4223.58964,4229.230666,4216.922974,4220.512717,4211.281948,4216.922974,4227.692204,4218.461435,4299.999895,4249.743486,4232.820409,4234.871691
123,0,4241.025537,4236.922973,4220.512717,4233.33323,4215.384512,4216.410153,4205.128102,4211.794769,4220.512717,4219.999897,4293.333228,4246.666563,4224.615281,4234.358871
124,0,4231.281948,4230.256307,4218.461435,4226.666563,4212.82041,4213.33323,4200.512718,4203.589641,4222.563999,4220.512717,4293.846049,4247.692204,4217.435794,4229.230666
125,0,4231.794768,4229.230666,4216.922974,4226.153743,4213.33323,4216.410153,4201.538359,4205.640923,4230.769127,4218.974256,4295.897331,4244.10246,4218.461435,4219.999897
126,0,4232.820409,4232.820409,4215.384512,4230.256307,4216.410153,4218.974256,4202.564,4210.256307,4228.205025,4217.948615,4297.948613,4241.025537,4223.07682,4222.051179
127,0,4233.84605,4230.256307,4215.384512,4228.717845,4217.948615,4217.948615,4200.512718,4209.230666,4226.153743,4217.948615,4303.589638,4244.10246,4228.717845,4231.281948
128,0,4230.256307,4223.58964,4215.897333,4221.538358,4215.897333,4216.922974,4203.589641,4210.256307,4229.230666,4216.922974,4307.179382,4246.666563,4232.307589,4230.769127
0,0,4229.743486,4227.179384,4216.410153,4223.58964,4216.410153,4217.948615,4211.281948,4216.922974,4230.769127,4223.58964,4307.692202,4248.717845,4233.33323,4229.230666
1,0,4243.076819,4235.897332,4219.999897,4232.820409,4218.974256,4218.974256,4213.33323,4219.487076,4230.769127,4230.769127,4312.307587,4248.717845,4235.897332,4234.871691
2,0,4248.717845,4235.384512,4219.487076,4232.307589,4217.948615,4217.435794,4207.179384,4216.410153,4229.230666,4222.563999,4313.846048,4247.692204,4234.871691,4234.871691
3,0,4237.435794,4232.307589,4216.410153,4228.717845,4216.410153,4215.897333,4202.564,4211.794769,4223.58964,4213.846051,4308.717843,4246.666563,4227.179384,4229.230666
4,0,4230.769127,4231.281948,4214.358871,4227.692204,4217.435794,4217.435794,4204.615282,4210.769128,4221.025538,4216.922974,4304.102459,4244.615281,4216.410153,4225.640922
5,0,4233.84605,4229.743486,4215.897333,4228.205025,4217.435794,4218.461435,4204.615282,4212.307589,4223.07682,4216.410153,4304.102459,4245.128101,4214.871692,4227.692204
6,0,4234.871691,4231.794768,4216.922974,4231.281948,4216.922974,4216.922974,4201.025538,4208.205025,4224.102461,4213.846051,4305.64092,4242.563999,4224.102461,4229.230666
7,0,4227.692204,4228.717845,4209.743487,4227.179384,4217.435794,4214.358871,4198.974256,4201.025538,4221.025538,4216.410153,4299.999895,4236.922973,4223.07682,4222.051179
8,0,4222.563999,4219.487076,4201.025538,4216.410153,4217.435794,4214.871692,4199.487077,4199.999897,4222.563999,4215.384512,4292.307587,4233.84605,4212.82041,4218.461435
9,0,4226.666563,4221.538358,4200.512718,4218.974256,4216.922974,4215.897333,4201.538359,4206.666564,4228.205025,4215.897333,4297.948613,4234.871691,4218.461435,4227.692204
10,0,4233.84605,4230.769127,4209.230666,4228.205025,4216.922974,4217.435794,4202.564,4211.794769,4228.717845,4224.615281,4308.205023,4238.461435,4233.84605,4232.820409
11,0,4231.794768,4231.794768,4214.871692,4229.230666,4216.922974,4218.461435,4203.589641,4212.82041,4226.666563,4228.717845,4307.179382,4244.10246,4229.230666,4229.743486
12,0,4227.179384,4231.281948,4211.281948,4226.666563,4217.948615,4219.487076,4202.564,4211.794769,4228.205025,4225.640922,4301.538356,4245.128101,4218.461435,4229.230666
13,0,4227.692204,4230.769127,4207.179384,4225.128102,4216.410153,4217.435794,4201.538359,4212.307589,4228.717845,4223.58964,4302.563997,4243.076819,4222.051179,4230.256307
14,0,4229.230666,4228.717845,4211.794769,4225.640922,4215.897333,4216.410153,4206.153743,4216.410153,4228.205025,4229.230666,4308.205023,4245.640922,4230.256307,4231.794768
15,0,4231.281948,4233.33323,4217.948615,4231.281948,4225.128102,4225.640922,4214.358871,4218.974256,4231.794768,4230.256307,4312.307587,4248.205024,4229.743486,4235.897332
16,0,4225.128102,4228.717845,4214.871692,4232.820409,4227.692204,4230.256307,4216.922974,4218.974256,4231.281948,4219.487076,4309.230664,4245.640922,4220.512717,4228.717845
17,0,4214.358871,4216.922974,4206.153743,4226.666563,4217.948615,4221.538358,4212.82041,4223.07682,4228.717845,4216.922974,4303.589638,4241.538358,4212.82041,4216.410153
18,0,4213.846051,4219.999897,4202.564,4224.615281,4219.999897,4220.512717,4211.794769,4231.281948,4231.281948,4231.794768,4307.179382,4241.538358,4222.051179,4222.051179
19,0,4216.410153,4223.58964,4209.743487,4228.205025,4229.230666,4232.307589,4216.922974,4235.384512,4236.410153,4242.051178,4313.846048,4246.153742,4241.025537,4237.948614
20,0,4208.205025,4215.897333,4210.769128,4227.179384,4223.58964,4233.84605,4216.922974,4232.307589,4235.897332,4237.435794,4312.820407,4246.666563,4242.051178,4234.871691
21,0,4197.948615,4213.33323,4202.051179,4225.128102,4215.384512,4227.179384,4210.256307,4227.179384,4231.281948,4232.307589,4309.230664,4243.076819,4230.256307,4218.974256
22,0,4201.025538,4221.025538,4206.153743,4229.230666,4222.051179,4229.230666,4208.717846,4226.666563,4232.307589,4236.410153,4312.307587,4243.58964,4234.358871,4218.974256
23,0,4210.256307,4228.205025,4217.948615,4233.33323,4231.281948,4232.307589,4210.769128,4227.692204,4233.33323,4239.999896,4315.38451,4247.179383,4242.563999,4230.769127
24,0,4214.358871,4232.820409,4216.922974,4232.820409,4230.256307,4230.256307,4210.769128,4223.58964,4231.281948,4233.84605,4313.333228,4247.179383,4238.974255,4231.281948
25,0,4211.281948,4228.717845,4211.281948,4230.256307,4222.563999,4227.692204,4210.769128,4217.948615,4230.769127,4228.717845,4310.769125,4240.512717,4231.794768,4221.538358
26,0,4205.640923,4219.487076,4210.769128,4229.230666,4220.512717,4229.230666,4208.205025,4217.435794,4230.769127,4232.820409,4306.666561,4231.281948,4232.820409,4216.922974
27,0,4201.538359,4216.922974,4212.82041,4229.230666,4225.128102,4231.794768,4207.179384,4218.974256,4230.769127,4233.33323,4305.1281,4232.820409,4233.84605,4217.435794
28,0,4203.589641,4222.563999,4214.871692,4230.256307,4226.666563,4228.717845,4210.769128,4217.435794,4231.794768,4229.743486,4307.692202,4244.10246,4233.33323,4219.999897
29,0,4208.717846,4232.820409,4216.922974,4233.33323,4228.717845,4229.230666,4214.358871,4217.948615,4230.769127,4231.281948,4310.256305,4244.10246,4236.922973,4226.666563
30,0,4207.692205,4234.358871,4214.358871,4234.871691,4232.307589,4234.358871,4215.897333,4222.563999,4229.743486,4233.33323,4309.230664,4234.871691,4236.922973,4230.256307
31,0,4204.102461,4229.230666,4209.743487,4234.358871,4230.769127,4233.84605,4216.922974,4223.58964,4231.281948,4230.769127,4308.717843,4231.794768,4234.358871,4223.07682
32,0,4202.051179,4229.230666,4204.102461,4232.820409,4227.179384,4229.230666,4213.846051,4219.487076,4231.281948,4230.256307,4307.692202,4233.33323,4233.33323,4216.922974
33,0,4203.07682,4231.794768,4202.051179,4232.307589,4227.692204,4229.230666,4212.82041,4218.974256,4230.769127,4233.33323,4305.1281,4233.84605,4234.358871,4223.58964
34,0,4204.102461,4232.820409,4206.153743,4233.84605,4229.743486,4231.281948,4215.384512,4218.461435,4231.281948,4235.384512,4310.256305,4231.794768,4241.538358,4233.33323
35,0,4205.640923,4233.84605,4212.82041,4232.820409,4229.743486,4232.307589,4215.384512,4214.358871,4232.820409,4232.820409,4319.487074,4234.358871,4249.230665,4236.922973
36,0,4207.692205,4233.33323,4214.358871,4229.743486,4228.205025,4230.769127,4212.82041,4217.948615,4233.33323,4234.871691,4318.974253,4241.538358,4247.179383,4236.410153
37,0,4205.640923,4230.769127,4206.153743,4229.230666,4225.640922,4224.102461,4206.153743,4215.384512,4230.769127,4233.84605,4311.794766,4242.051178,4242.563999,4233.84605
38,0,4199.999897,4229.743486,4201.538359,4229.230666,4225.640922,4222.051179,4199.999897,4201.538359,4227.179384,4218.461435,4308.205023,4230.256307,4243.076819,4228.205025
39,0,4196.410154,4227.179384,4209.743487,4228.717845,4228.717845,4230.769127,4207.179384,4203.589641,4228.717845,4216.922974,4307.692202,4226.153743,4245.128101,4226.666563
40,0,4205.128102,4235.384512,4215.897333,4231.281948,4233.33323,4234.871691,4217.435794,4223.58964,4236.922973,4243.58964,4314.871689,4238.974255,4255.897332,4237.435794
41,0,4213.33323,4249.743486,4213.846051,4236.922973,4234.871691,4232.820409,4216.922974,4231.281948,4241.025537,4253.333229,4322.563997,4244.615281,4266.666562,4248.717845
42,0,4208.717846,4246.666563,4212.307589,4234.871691,4232.820409,4232.820409,4213.846051,4222.563999,4236.410153,4237.948614,4317.435792,4235.384512,4259.487075,4245.640922
43,0,4201.025538,4231.281948,4213.846051,4228.205025,4226.153743,4231.794768,4212.307589,4216.922974,4231.281948,4233.33323,4313.333228,4229.743486,4251.794768,4239.487076
44,0,4198.461436,4229.743486,4214.871692,4228.205025,4219.487076,4229.743486,4213.846051,4217.435794,4231.794768,4237.948614,4319.487074,4238.461435,4259.999896,4244.615281
45,0,4207.179384,4241.538358,4216.410153,4233.33323,4223.58964,4231.794768,4217.948615,4222.563999,4233.84605,4235.897332,4323.589638,4248.205024,4267.179383,4249.743486
46,0,4215.897333,4246.153742,4218.974256,4233.84605,4231.281948,4232.820409,4216.922974,4227.179384,4233.33323,4234.358871,4318.461433,4248.205024,4259.999896,4246.666563
47,0,4220.512717,4245.640922,4225.640922,4232.307589,4232.307589,4231.281948,4212.307589,4228.205025,4233.84605,4238.461435,4319.487074,4247.692204,4263.076819,4246.153742
48,0,4222.051179,4248.205024,4229.230666,4233.84605,4231.281948,4233.84605,4214.871692,4232.820409,4234.358871,4245.640922,4326.15374,4250.769127,4276.410152,4251.281947
49,0,4220.512717,4245.640922,4224.102461,4233.84605,4227.179384,4234.358871,4216.410153,4233.33323,4234.358871,4244.10246,4321.025535,4250.769127,4270.769126,4251.794768
50,0,4215.897333,4235.897332,4217.948615,4230.769127,4218.974256,4230.256307,4211.794769,4224.102461,4233.84605,4233.84605,4312.307587,4245.640922,4253.333229,4239.487076
51,0,4211.281948,4229.743486,4215.384512,4228.717845,4216.922974,4229.230666,4208.205025,4215.897333,4231.794768,4228.717845,4309.230664,4242.563999,4247.692204,4231.794768
52,0,4213.33323,4231.794768,4213.33323,4229.230666,4218.461435,4227.692204,4204.102461,4216.410153,4230.769127,4230.256307,4310.256305,4244.10246,4251.281947,4241.025537
53,0,4219.487076,4234.358871,4219.487076,4230.256307,4216.922974,4226.153743,4204.615282,4217.948615,4233.33323,4231.281948,4315.38451,4245.128101,4255.897332,4249.743486
54,0,4221.538358,4235.897332,4230.256307,4230.256307,4216.922974,4226.153743,4209.743487,4220.512717,4234.358871,4232.307589,4319.487074,4247.692204,4257.948614,4248.717845
55,0,4217.435794,4234.871691,4228.205025,4229.743486,4217.948615,4222.563999,4205.640923,4218.461435,4231.794768,4229.743486,4313.846048,4250.256306,4249.743486,4247.179383
56,0,4214.358871,4232.307589,4219.999897,4230.256307,4216.922974,4221.538358,4201.538359,4213.846051,4230.769127,4228.717845,4308.717843,4249.230665,4245.640922,4248.205024
57,0,4216.410153,4232.307589,4217.435794,4230.256307,4218.461435,4228.717845,4207.692205,4216.922974,4231.794768,4230.769127,4312.820407,4247.179383,4251.281947,4246.153742
58,0,4218.461435,4232.820409,4217.948615,4230.256307,4220.512717,4228.717845,4206.153743,4215.384512,4231.281948,4225.128102,4313.333228,4245.640922,4245.640922,4239.487076
59,0,4216.410153,4232.820409,4216.922974,4230.256307,4217.435794,4218.974256,4197.948615,4201.538359,4229.743486,4214.358871,4303.076818,4242.051178,4231.794768,4232.307589
60,0,4212.82041,4231.794768,4216.922974,4230.769127,4216.410153,4217.948615,4199.999897,4197.948615,4229.230666,4212.307589,4297.435792,4239.487076,4232.307589,4231.281948
61,0,4211.794769,4229.743486,4215.897333,4230.769127,4218.974256,4220.512717,4204.102461,4204.102461,4230.256307,4217.948615,4304.102459,4242.563999,4243.58964,4242.051178
62,0,4209.743487,4229.230666,4213.846051,4230.256307,4217.435794,4217.948615,4202.051179,4203.07682,4229.743486,4216.922974,4311.794766,4242.563999,4244.10246,4244.10246
63,0,4207.692205,4230.769127,4215.897333,4230.256307,4218.974256,4220.512717,4202.051179,4203.589641,4228.717845,4212.82041,4309.743484,4236.922973,4236.410153,4235.897332
64,0,4210.769128,4233.33323,4219.487076,4233.84605,4227.692204,4229.230666,4208.205025,4212.307589,4232.307589,4222.051179,4308.205023,4238.461435,4243.58964,4239.999896
65,0,4215.897333,4233.84605,4218.461435,4235.384512,4232.820409,4233.84605,4212.307589,4216.410153,4234.358871,4234.358871,4312.307587,4243.58964,4253.333229,4250.769127
66,0,4216.410153,4233.33323,4217.948615,4233.33323,4232.820409,4231.281948,4212.307589,4216.922974,4231.281948,4234.358871,4312.820407,4244.615281,4251.281947,4250.256306
67,0,4215.897333,4232.820409,4221.025538,4233.33323,4226.666563,4225.128102,4209.743487,4219.999897,4230.256307,4232.820409,4311.281946,4246.666563,4248.717845,4246.153742
68,0,4216.410153,4231.794768,4219.487076,4235.384512,4217.435794,4218.974256,4204.102461,4218.461435,4231.281948,4232.820409,4311.281946,4245.128101,4251.281947,4246.666563
69,0,4215.897333,4231.281948,4216.410153,4235.384512,4214.871692,4217.948615,4201.025538,4210.769128,4228.205025,4221.025538,4310.256305,4237.948614,4247.179383,4244.615281
70,0,4216.410153,4232.820409,4218.461435,4234.871691,4217.948615,4219.999897,4205.640923,4209.743487,4226.666563,4214.358871,4309.743484,4237.948614,4242.051178,4243.076819
71,0,4221.538358,4232.820409,4221.025538,4234.358871,4216.410153,4217.948615,4205.640923,4211.794769,4227.692204,4219.999897,4310.256305,4243.076819,4242.563999,4243.58964
72,0,4224.615281,4231.794768,4221.025538,4233.84605,4215.384512,4216.410153,4204.615282,4208.717846,4224.615281,4220.512717,4308.205023,4244.10246,4246.666563,4244.10246
73,0,4220.512717,4232.820409,4226.666563,4235.384512,4217.435794,4217.435794,4208.205025,4207.692205,4225.640922,4215.897333,4308.205023,4245.128101,4248.205024,4248.717845
74,0,4220.512717,4233.84605,4230.769127,4235.384512,4215.897333,4217.435794,4208.717846,4211.794769,4230.769127,4217.948615,4309.230664,4246.153742,4245.128101,4247.179383
75,0,4230.256307,4233.84605,4224.615281,4235.384512,4215.897333,4217.948615,4208.205025,4214.871692,4231.281948,4222.563999,4308.205023,4249.230665,4246.153742,4247.692204
76,0,4234.358871,4234.358871,4223.58964,4238.974255,4217.435794,4218.461435,4208.717846,4215.384512,4228.717845,4222.563999,4310.769125,4252.307588,4247.179383,4256.922973
77,0,4230.769127,4239.487076,4230.256307,4243.076819,4215.384512,4216.922974,4208.717846,4215.384512,4228.717845,4219.999897,4313.333228,4250.256306,4250.256306,4263.076819
78,0,4231.281948,4241.538358,4231.794768,4244.615281,4215.897333,4217.435794,4211.794769,4214.358871,4229.743486,4221.538358,4310.256305,4248.717845,4253.84605,4261.025537
79,0,4234.871691,4235.897332,4230.256307,4244.615281,4219.487076,4218.974256,4215.897333,4215.897333,4231.281948,4229.230666,4312.820407,4254.35887,4253.84605,4263.076819
80,0,4233.33323,4235.897332,4229.230666,4245.128101,4218.974256,4219.999897,4211.794769,4218.461435,4230.769127,4229.743486,4319.999894,4258.461434,4254.871691,4268.205024
81,0,4229.230666,4243.58964,4227.179384,4246.153742,4214.871692,4218.461435,4204.102461,4214.358871,4230.256307,4222.051179,4316.922971,4252.307588,4251.794768,4264.61528
82,0,4228.205025,4244.615281,4225.640922,4247.179383,4214.871692,4215.384512,4200.512718,4203.589641,4226.666563,4216.922974,4309.230664,4244.615281,4246.153742,4258.974255
83,0,4232.307589,4242.051178,4230.256307,4248.205024,4216.410153,4212.82041,4201.025538,4197.435795,4222.051179,4216.410153,4309.230664,4250.256306,4253.84605,4262.051178
84,0,4236.922973,4246.153742,4234.358871,4250.769127,4217.435794,4213.33323,4202.564,4204.615282,4219.999897,4217.948615,4311.281946,4258.974255,4263.076819,4266.153742
85,0,4236.410153,4249.743486,4230.769127,4252.820409,4219.999897,4216.410153,4203.589641,4209.743487,4220.512717,4218.974256,4309.230664,4254.35887,4254.35887,4263.589639
86,0,4231.794768,4247.692204,4224.615281,4248.717845,4219.999897,4216.410153,4203.589641,4204.102461,4221.538358,4213.846051,4306.153741,4244.615281,4243.076819,4258.461434
87,0,4233.84605,4245.128101,4227.179384,4247.179383,4215.897333,4215.897333,4201.538359,4205.640923,4226.153743,4213.846051,4306.666561,4250.256306,4246.153742,4266.153742
88,0,4249.230665,4251.794768,4236.410153,4256.410152,4221.025538,4218.461435,4207.179384,4216.922974,4231.281948,4228.205025,4315.89733,4264.61528,4261.538357,4285.640921
89,0,4264.10246,4262.051178,4236.922973,4264.61528,4227.692204,4217.435794,4213.33323,4218.974256,4230.769127,4236.922973,4324.102458,4266.153742,4278.974254,4300.512715
90,0,4268.717844,4265.128101,4230.769127,4262.563998,4221.025538,4213.846051,4207.692205,4212.82041,4227.692204,4227.179384,4321.538356,4257.948614,4281.538357,4306.666561
91,0,4282.563998,4270.769126,4235.384512,4262.051178,4219.999897,4214.871692,4202.564,4213.846051,4227.179384,4218.461435,4321.025535,4261.025537,4276.410152,4321.538356
92,0,4308.717843,4281.025536,4246.666563,4269.743485,4228.205025,4218.974256,4208.205025,4215.897333,4228.205025,4218.461435,4327.179381,4270.769126,4278.974254,4344.102458
93,0,4325.128099,4286.153741,4247.692204,4273.846049,4225.640922,4218.974256,4209.230666,4209.743487,4227.179384,4217.948615,4323.589638,4267.179383,4279.999895,4358.461432
94,0,4332.307586,4286.153741,4244.615281,4271.794767,4216.922974,4217.435794,4203.589641,4208.717846,4221.538358,4217.435794,4312.307587,4263.589639,4280.512716,4367.17938
95,0,4342.051176,4285.1281,4247.692204,4272.820408,4214.871692,4213.846051,4201.538359,4209.743487,4218.461435,4215.384512,4312.307587,4273.333229,4279.487075,4375.384508
96,0,4342.051176,4278.974254,4249.230665,4275.384511,4212.82041,4205.640923,4199.487077,4202.051179,4218.461435,4205.640923,4313.846048,4274.35887,4267.179383,4371.794765
97,0,4331.794766,4270.256306,4247.179383,4271.281947,4211.281948,4202.564,4197.435795,4198.461436,4218.461435,4197.948615,4309.743484,4263.076819,4257.948614,4357.435791
98,0,4324.102458,4265.128101,4246.666563,4266.666562,4214.358871,4209.743487,4202.051179,4208.717846,4218.461435,4206.153743,4309.743484,4264.61528,4263.076819,4347.179381
99,0,4317.435792,4263.589639,4246.666563,4269.230665,4215.384512,4216.410153,4209.743487,4217.435794,4218.974256,4218.974256,4311.794766,4274.87169,4265.128101,4342.563996
100,0,4305.64092,4260.512716,4246.153742,4269.230665,4216.410153,4217.435794,4210.769128,4215.384512,4219.487076,4215.384512,4313.846048,4271.794767,4256.922973,4332.307586
101,0,4288.205023,4245.640922,4242.051178,4262.563998,4213.33323,4216.410153,4209.230666,4208.717846,4218.974256,4202.564,4306.666561,4259.999896,4242.563999,4310.256305
102,0,4277.948613,4232.820409,4241.538358,4262.563998,4211.281948,4214.871692,4209.230666,4202.051179,4215.897333,4197.948615,4295.38451,4255.384511,4230.769127,4295.38451
103,0,4275.897331,4234.871691,4244.10246,4266.666562,4214.871692,4214.358871,4207.179384,4200.512718,4216.410153,4205.128102,4295.897331,4262.051178,4233.33323,4296.410151
104,0,4268.205024,4229.743486,4237.948614,4259.999896,4215.897333,4214.871692,4204.615282,4207.179384,4218.974256,4213.33323,4304.102459,4266.153742,4237.435794,4296.410151
105,0,4257.435793,4218.461435,4230.769127,4254.35887,4213.33323,4217.948615,4209.230666,4215.384512,4219.999897,4214.871692,4306.153741,4261.538357,4235.384512,4290.769126
106,0,4259.999896,4221.025538,4235.897332,4260.512716,4217.435794,4218.974256,4214.871692,4217.948615,4223.07682,4212.82041,4308.717843,4261.025537,4234.358871,4292.307587
107,0,4268.717844,4230.256307,4246.666563,4265.128101,4220.512717,4216.922974,4215.384512,4218.461435,4228.205025,4214.871692,4313.846048,4265.640921,4236.410153,4293.333228
108,0,4262.563998,4227.179384,4246.666563,4263.589639,4217.435794,4219.999897,4212.82041,4218.461435,4229.743486,4217.948615,4311.794766,4263.589639,4238.974255,4282.563998
109,0,4252.307588,4224.615281,4239.487076,4264.61528,4225.640922,4228.205025,4212.307589,4214.871692,4224.102461,4219.487076,4309.230664,4259.999896,4244.10246,4276.410152
110,0,4250.256306,4226.153743,4234.358871,4265.128101,4233.33323,4229.230666,4214.871692,4214.871692,4222.563999,4223.58964,4311.794766,4262.563998,4247.692204,4279.999895
111,0,4247.179383,4220.512717,4234.358871,4260.512716,4222.563999,4218.461435,4210.256307,4216.410153,4227.692204,4221.538358,4310.256305,4262.563998,4239.999896,4278.461434
112,0,4248.205024,4214.871692,4241.538358,4261.025537,4217.435794,4215.897333,4205.128102,4217.435794,4229.743486,4223.07682,4307.179382,4259.487075,4235.384512,4271.794767
113,0,4254.871691,4218.461435,4246.153742,4263.589639,4230.769127,4225.128102,4211.281948,4225.128102,4229.230666,4233.33323,4310.769125,4264.10246,4246.153742,4270.256306
114,0,4252.307588,4216.410153,4237.435794,4260.512716,4229.230666,4226.153743,4217.435794,4229.230666,4230.769127,4232.820409,4316.410151,4264.61528,4250.769127,4265.128101
115,0,4243.076819,4202.051179,4228.205025,4255.384511,4214.358871,4223.07682,4213.846051,4219.487076,4229.743486,4222.051179,4307.692202,4252.820409,4233.33323,4251.794768
116,0,4243.58964,4201.538359,4232.307589,4258.461434,4220.512717,4227.692204,4214.358871,4217.435794,4229.230666,4225.640922,4301.538356,4250.256306,4227.179384,4250.256306
117,0,4247.179383,4216.410153,4238.461435,4264.10246,4232.820409,4233.33323,4221.025538,4230.769127,4234.871691,4241.538358,4311.794766,4263.076819,4247.692204,4262.051178
118,0,4244.615281,4214.871692,4233.84605,4261.025537,4227.179384,4232.307589,4221.025538,4234.358871,4235.384512,4248.205024,4316.922971,4265.128101,4253.333229,4259.999896
119,0,4245.128101,4207.692205,4233.84605,4259.999896,4222.051179,4229.743486,4218.974256,4231.281948,4232.820409,4243.076819,4310.769125,4256.922973,4243.58964,4252.307588
120,0,4249.230665,4212.82041,4243.076819,4266.666562,4229.743486,4232.307589,4219.999897,4231.794768,4233.84605,4236.410153,4310.256305,4259.487075,4247.179383,4259.487075
121,0,4248.717845,4213.33323,4241.538358,4264.10246,4230.769127,4230.769127,4217.948615,4226.153743,4231.794768,4233.84605,4311.281946,4263.589639,4248.205024,4261.538357
122,0,4244.10246,4208.717846,4229.230666,4254.871691,4220.512717,4221.538358,4213.33323,4214.358871,4225.640922,4229.743486,4304.102459,4254.871691,4233.84605,4248.717845
123,0,4239.999896,4211.794769,4227.692204,4254.871691,4216.922974,4215.384512,4212.82041,4212.307589,4225.128102,4227.692204,4303.076818,4250.769127,4234.358871,4244.615281
124,0,4236.410153,4209.230666,4234.358871,4256.410152,4217.948615,4222.563999,4214.871692,4221.538358,4229.743486,4231.794768,4308.205023,4259.487075,4245.640922,4249.230665
125,0,4233.33323,4204.102461,4233.84605,4255.384511,4216.410153,4229.743486,4216.410153,4230.256307,4231.794768,4234.871691,4308.717843,4265.128101,4245.640922,4250.256306
126,0,4235.897332,4208.205025,4232.307589,4259.999896,4216.410153,4229.743486,4217.948615,4230.256307,4230.769127,4233.84605,4309.230664,4261.025537,4245.640922,4251.281947
127,0,4234.358871,4211.794769,4231.794768,4260.512716,4218.461435,4230.769127,4217.948615,4227.692204,4231.281948,4232.307589,4310.256305,4257.948614,4249.230665,4250.256306
128,0,4231.794768,4214.358871,4232.820409,4258.461434,4222.051179,4231.281948,4216.922974,4231.794768,4233.84605,4235.384512,4307.692202,4258.974255,4247.179383,4248.717845
0,0,4241.025537,4223.58964,4241.025537,4264.61528,4229.230666,4232.307589,4223.58964,4235.897332,4235.897332,4243.58964,4307.692202,4262.051178,4247.179383,4255.384511
1,0,4252.820409,4230.256307,4245.640922,4268.205024,4232.820409,4233.84605,4228.205025,4235.384512,4236.410153,4252.307588,4312.820407,4263.589639,4253.333229,4262.563998
2,0,4254.871691,4230.769127,4244.10246,4263.076819,4226.666563,4232.820409,4219.999897,4232.820409,4233.84605,4244.10246,4309.743484,4261.025537,4246.666563,4258.461434
3,0,4255.384511,4230.256307,4244.10246,4264.10246,4223.07682,4232.307589,4214.871692,4230.769127,4231.281948,4231.794768,4305.1281,4262.051178,4242.051178,4256.410152
4,0,4261.538357,4232.307589,4247.179383,4272.820408,4230.256307,4232.820409,4218.461435,4232.307589,4233.33323,4238.974255,4316.922971,4266.153742,4256.410152,4266.666562
5,0,4266.666562,4236.410153,4246.153742,4274.87169,4229.743486,4231.794768,4218.461435,4231.281948,4234.358871,4243.58964,4319.487074,4266.666562,4261.538357,4266.666562
6,0,4258.974255,4232.820409,4238.461435,4266.153742,4219.999897,4230.256307,4213.846051,4229.230666,4230.769127,4233.33323,4302.051177,4262.051178,4249.743486,4251.281947
7,0,4247.692204,4220.512717,4232.820409,4255.384511,4215.897333,4230.769127,4215.897333,4230.256307,4228.205025,4229.743486,4294.87169,4255.897332,4241.025537,4243.076819
8,0,4246.153742,4213.846051,4230.256307,4252.307588,4216.922974,4230.769127,4216.922974,4226.666563,4228.205025,4229.230666,4302.051177,4251.794768,4235.384512,4245.128101
9,0,4246.666563,4216.410153,4231.794768,4252.307588,4213.846051,4228.205025,4214.358871,4217.435794,4229.230666,4222.051179,4299.487074,4250.256306,4231.281948,4244.10246
10,0,4244.615281,4214.871692,4232.820409,4251.281947,4213.846051,4224.102461,4213.846051,4219.487076,4231.794768,4227.179384,4293.846049,4251.281947,4241.025537,4241.538358
11,0,4245.640922,4215.897333,4232.307589,4254.871691,4216.410153,4223.58964,4213.846051,4229.743486,4233.84605,4237.435794,4301.538356,4256.922973,4248.717845,4246.153742
12,0,4250.769127,4221.538358,4236.922973,4260.512716,4217.948615,4228.205025,4212.307589,4228.205025,4233.84605,4235.897332,4308.717843,4263.589639,4247.692204,4250.769127
13,0,4250.769127,4221.025538,4242.563999,4259.999896,4217.435794,4228.717845,4213.846051,4219.999897,4233.33323,4231.281948,4305.1281,4266.153742,4247.692204,4251.281947
14,0,4248.205024,4222.563999,4246.153742,4258.974255,4214.871692,4226.666563,4214.871692,4214.871692,4231.281948,4228.717845,4303.589638,4265.128101,4246.153742,4257.435793
15,0,4254.871691,4230.256307,4246.153742,4263.076819,4215.897333,4228.205025,4212.82041,4216.922974,4229.230666,4227.692204,4306.153741,4265.640921,4251.794768,4265.640921
16,0,4267.179383,4233.84605,4239.999896,4264.10246,4220.512717,4228.717845,4213.33323,4224.615281,4229.743486,4231.794768,4309.743484,4267.692203,4259.999896,4266.666562
17,0,4264.10246,4230.769127,4237.948614,4259.999896,4219.999897,4229.230666,4218.461435,4227.692204,4231.794768,4234.358871,4307.179382,4266.666562,4253.333229,4265.640921
18,0,4249.743486,4228.205025,4242.563999,4261.025537,4215.384512,4227.179384,4218.461435,4221.025538,4232.820409,4226.153743,4297.948613,4263.589639,4243.076819,4259.999896
19,0,4247.692204,4228.205025,4238.461435,4264.61528,4214.871692,4218.461435,4214.358871,4213.33323,4229.743486,4217.948615,4299.487074,4261.538357,4245.640922,4250.769127
20,0,4251.281947,4228.717845,4231.281948,4265.128101,4215.897333,4218.461435,4214.358871,4218.974256,4228.205025,4225.128102,4310.256305,4263.589639,4247.692204,4250.769127
21,0,4250.256306,4231.794768,4233.84605,4263.076819,4217.948615,4230.256307,4213.846051,4228.717845,4232.820409,4234.871691,4309.230664,4264.61528,4248.205024,4259.487075
22,0,4249.743486,4232.820409,4234.358871,4264.61528,4221.538358,4229.743486,4207.179384,4227.179384,4235.384512,4235.897332,4302.563997,4263.076819,4252.307588,4263.589639
23,0,4251.281947,4230.256307,4229.230666,4264.61528,4221.538358,4218.974256,4199.487077,4217.948615,4232.307589,4231.281948,4308.205023,4261.538357,4247.692204,4258.461434
24,0,4247.179383,4225.128102,4229.743486,4260.512716,4215.897333,4220.512717,4198.974256,4217.948615,4229.743486,4224.615281,4308.205023,4262.051178,4243.076819,4250.769127
25,0,4248.205024,4226.153743,4233.33323,4258.461434,4214.871692,4228.717845,4207.179384,4228.205025,4229.743486,4221.538358,4300.512715,4262.563998,4248.717845,4251.794768
26,0,4257.948614,4232.307589,4236.410153,4262.563998,4224.615281,4232.820409,4215.384512,4234.358871,4231.794768,4228.717845,4305.1281,4262.563998,4252.307588,4263.076819
27,0,4256.922973,4234.358871,4236.410153,4266.153742,4225.640922,4230.769127,4212.307589,4231.794768,4233.33323,4233.33323,4306.153741,4262.051178,4251.281947,4264.61528
28,0,4248.205024,4231.281948,4233.33323,4264.10246,4218.461435,4229.230666,4206.153743,4225.640922,4231.794768,4224.615281,4295.897331,4263.589639,4245.640922,4253.84605
29,0,4243.076819,4225.128102,4231.281948,4258.974255,4216.410153,4229.743486,4206.666564,4223.58964,4229.230666,4215.897333,4290.256305,4259.487075,4234.358871,4245.640922
30,0,4241.025537,4223.58964,4229.743486,4256.922973,4218.974256,4229.230666,4204.615282,4227.692204,4230.256307,4221.025538,4299.487074,4252.820409,4237.948614,4247.692204
31,0,4243.58964,4225.640922,4231.281948,4259.487075,4224.615281,4231.794768,4207.179384,4233.33323,4232.820409,4233.33323,4307.179382,4256.922973,4259.999896,4259.999896
32,0,4247.179383,4221.538358,4231.281948,4259.487075,4229.230666,4234.358871,4212.307589,4231.794768,4232.820409,4232.820409,4301.538356,4262.563998,4263.076819,4264.10246
33,0,4246.666563,4221.538358,4230.256307,4258.461434,4228.205025,4231.794768,4209.743487,4228.205025,4231.794768,4229.230666,4303.589638,4261.538357,4256.410152,4261.538357
34,0,4247.179383,4232.307589,4232.820409,4262.563998,4227.179384,4230.769127,4205.128102,4230.769127,4231.794768,4234.358871,4310.256305,4261.538357,4262.051178,4265.640921
35,0,4249.743486,4235.897332,4232.307589,4266.153742,4227.179384,4234.358871,4205.128102,4233.33323,4232.307589,4233.84605,4302.051177,4262.563998,4260.512716,4265.128101
36,0,4255.384511,4232.820409,4232.820409,4264.61528,4224.615281,4233.84605,4206.666564,4232.307589,4233.33323,4229.230666,4294.358869,4266.153742,4258.461434,4264.10246
37,0,4262.051178,4235.897332,4240.512717,4265.128101,4228.205025,4229.230666,4208.205025,4231.281948,4233.33323,4231.281948,4302.051177,4272.820408,4264.61528,4271.281947
38,0,4255.897332,4235.384512,4239.999896,4265.128101,4230.256307,4227.179384,4206.666564,4232.820409,4232.820409,4229.230666,4302.563997,4270.256306,4258.461434,4272.307588
39,0,4244.615281,4229.230666,4230.769127,4256.922973,4219.999897,4226.153743,4202.564,4229.230666,4231.794768,4219.999897,4290.256305,4262.051178,4245.640922,4263.589639
40,0,4244.10246,4226.153743,4230.256307,4247.692204,4216.410153,4219.999897,4202.564,4218.461435,4230.769127,4216.410153,4289.743485,4262.051178,4245.128101,4260.512716
41,0,4247.179383,4226.153743,4233.33323,4248.717845,4219.487076,4216.922974,4201.538359,4214.358871,4229.743486,4215.897333,4298.461433,4265.640921,4252.820409,4263.076819
42,0,4248.717845,4229.743486,4234.871691,4257.948614,4218.461435,4224.102461,4200.512718,4223.58964,4227.179384,4216.410153,4299.487074,4267.179383,4255.384511,4268.717844
43,0,4251.281947,4232.307589,4238.974255,4263.076819,4221.538358,4230.256307,4206.666564,4231.281948,4227.692204,4222.051179,4294.87169,4266.666562,4251.281947,4272.820408
44,0,4249.743486,4230.769127,4238.461435,4261.538357,4223.07682,4227.179384,4211.281948,4230.256307,4230.769127,4226.153743,4294.358869,4265.128101,4247.179383,4270.256306
45,0,4247.179383,4229.743486,4234.358871,4262.563998,4217.948615,4223.58964,4211.794769,4229.230666,4232.307589,4221.538358,4295.897331,4265.128101,4246.666563,4265.128101
46,0,4246.666563,4231.794768,4232.820409,4263.589639,4220.512717,4224.615281,4211.794769,4229.743486,4230.256307,4221.025538,4292.307587,4263.076819,4249.230665,4262.051178
47,0,4251.794768,4234.871691,4233.33323,4261.538357,4230.769127,4228.205025,4213.846051,4237.435794,4232.820409,4229.743486,4298.974254,4263.589639,4256.922973,4265.640921
48,0,4258.974255,4242.051178,4236.410153,4262.051178,4228.717845,4229.230666,4217.948615,4245.128101,4236.410153,4236.922973,4309.743484,4272.820408,4267.692203,4276.922972
49,0,4253.333229,4240.512717,4235.897332,4264.61528,4220.512717,4224.102461,4213.846051,4238.974255,4234.358871,4230.769127,4303.589638,4271.281947,4262.563998,4274.35887
50,0,4242.051178,4230.769127,4230.256307,4261.025537,4214.871692,4214.871692,4204.102461,4226.666563,4229.743486,4215.384512,4290.769126,4258.461434,4245.128101,4259.487075
51,0,4243.58964,4235.897332,4230.256307,4260.512716,4215.897333,4216.410153,4205.128102,4228.205025,4229.743486,4212.307589,4290.256305,4257.435793,4239.999896,4257.948614
52,0,4248.717845,4247.692204,4233.84605,4265.640921,4225.128102,4223.07682,4213.33323,4229.230666,4232.307589,4221.025538,4294.87169,4264.61528,4248.717845,4266.153742
53,0,4241.538358,4237.948614,4230.256307,4263.076819,4224.615281,4221.538358,4207.692205,4218.461435,4228.205025,4217.948615,4290.769126,4257.435793,4246.666563,4259.999896
54,0,4237.435794,4228.205025,4228.205025,4257.948614,4215.384512,4218.461435,4198.461436,4213.33323,4224.102461,4211.281948,4288.205023,4254.871691,4240.512717,4255.384511
55,0,4246.666563,4241.538358,4232.307589,4261.538357,4222.563999,4226.153743,4206.666564,4218.461435,4228.205025,4222.563999,4295.897331,4268.717844,4255.897332,4271.794767
56,0,4252.307588,4247.179383,4235.897332,4267.179383,4230.769127,4234.358871,4215.897333,4223.07682,4232.307589,4230.256307,4299.487074,4272.307588,4263.076819,4281.025536
57,0,4245.640922,4237.948614,4233.84605,4264.10246,4219.999897,4230.769127,4213.846051,4221.538358,4230.256307,4217.948615,4292.307587,4261.538357,4250.256306,4268.717844
58,0,4245.640922,4242.051178,4233.33323,4261.538357,4219.487076,4225.640922,4213.33323,4218.974256,4229.230666,4213.33323,4293.846049,4262.051178,4251.794768,4267.692203
59,0,4257.435793,4253.333229,4241.538358,4266.153742,4229.743486,4222.051179,4212.307589,4218.974256,4231.281948,4222.051179,4302.563997,4270.256306,4267.179383,4284.102459
60,0,4263.589639,4250.769127,4245.640922,4267.692203,4223.58964,4220.512717,4206.153743,4221.025538,4231.281948,4223.58964,4299.999895,4267.179383,4267.692203,4284.61528
61,0,4257.948614,4245.640922,4237.435794,4264.10246,4212.82041,4221.025538,4205.640923,4217.435794,4230.769127,4214.871692,4293.333228,4261.025537,4250.769127,4273.846049
62,0,4250.256306,4246.666563,4231.281948,4262.051178,4216.410153,4218.461435,4211.794769,4216.410153,4230.256307,4211.794769,4294.358869,4261.538357,4247.179383,4273.846049
63,0,4249.743486,4249.230665,4234.871691,4264.61528,4224.102461,4225.128102,4213.846051,4225.640922,4231.794768,4218.974256,4295.38451,4264.10246,4258.974255,4279.487075
64,0,4247.692204,4248.205024,4235.384512,4265.640921,4223.58964,4230.769127,4210.256307,4227.692204,4231.794768,4222.563999,4292.307587,4264.10246,4261.025537,4275.384511
65,0,4242.563999,4237.435794,4229.743486,4260.512716,4217.948615,4222.563999,4205.640923,4215.897333,4226.153743,4215.897333,4289.743485,4261.025537,4248.205024,4265.640921
66,0,4244.10246,4235.897332,4231.794768,4259.487075,4216.922974,4223.07682,4209.743487,4214.871692,4228.205025,4212.82041,4293.846049,4262.051178,4246.666563,4269.230665
67,0,4250.256306,4244.615281,4236.922973,4263.589639,4221.025538,4229.230666,4215.384512,4221.025538,4231.281948,4215.897333,4295.897331,4267.692203,4256.410152,4281.025536
68,0,4244.615281,4238.974255,4229.230666,4260.512716,4218.461435,4222.051179,4208.205025,4216.922974,4222.563999,4212.82041,4288.205023,4262.051178,4248.717845,4274.87169
69,0,4234.358871,4228.717845,4223.07682,4257.948614,4209.743487,4213.33323,4196.922974,4211.281948,4214.358871,4202.564,4278.461434,4250.256306,4237.435794,4260.512716
70,0,4241.025537,4235.384512,4228.717845,4263.076819,4207.692205,4214.871692,4196.922974,4211.794769,4217.435794,4199.487077,4278.461434,4254.871691,4241.538358,4261.538357
71,0,4250.256306,4245.128101,4232.307589,4263.076819,4213.846051,4215.897333,4199.999897,4212.82041,4220.512717,4204.615282,4281.025536,4266.153742,4246.666563,4272.307588
72,0,4246.666563,4243.58964,4228.717845,4257.435793,4216.410153,4214.358871,4198.461436,4213.33323,4217.948615,4204.615282,4284.102459,4265.640921,4246.153742,4278.461434
73,0,4249.743486,4244.615281,4231.281948,4262.051178,4216.922974,4215.897333,4200.512718,4216.922974,4220.512717,4206.666564,4290.256305,4267.179383,4248.717845,4279.487075
74,0,4259.487075,4247.179383,4234.358871,4267.179383,4217.948615,4215.384512,4203.589641,4219.999897,4224.102461,4215.897333,4290.256305,4273.333229,4247.179383,4274.87169
75,0,4256.922973,4247.179383,4232.820409,4264.61528,4217.435794,4215.384512,4204.102461,4218.461435,4222.051179,4217.435794,4290.256305,4271.281947,4244.10246,4273.846049
76,0,4249.743486,4246.153742,4230.769127,4264.10246,4219.999897,4223.58964,4207.692205,4221.538358,4221.538358,4215.384512,4295.897331,4266.666562,4256.922973,4282.051177
77,0,4245.640922,4240.512717,4228.205025,4264.10246,4222.563999,4229.743486,4213.846051,4226.153743,4226.153743,4223.07682,4295.897331,4263.589639,4267.692203,4284.102459
78,0,4246.153742,4239.487076,4229.230666,4264.10246,4224.615281,4226.666563,4214.358871,4227.692204,4230.256307,4231.281948,4294.358869,4264.10246,4264.10246,4283.589639
79,0,4251.794768,4244.615281,4230.256307,4265.128101,4227.692204,4227.179384,4212.307589,4231.281948,4230.769127,4232.307589,4297.948613,4271.794767,4264.61528,4292.820408
80,0,4252.307588,4244.615281,4226.666563,4265.128101,4225.128102,4228.205025,4213.33323,4231.794768,4228.205025,4230.769127,4297.948613,4277.948613,4267.179383,4295.897331
81,0,4248.205024,4242.563999,4227.179384,4263.076819,4218.461435,4222.563999,4213.33323,4227.179384,4226.153743,4221.025538,4294.87169,4275.897331,4260.512716,4284.61528
82,0,4246.666563,4246.666563,4229.230666,4266.153742,4218.974256,4221.538358,4210.769128,4222.051179,4228.717845,4213.846051,4292.820408,4270.769126,4259.487075,4278.461434
83,0,4248.717845,4248.717845,4228.205025,4272.307588,4223.58964,4223.07682,4206.153743,4219.487076,4230.256307,4222.563999,4292.307587,4270.769126,4261.025537,4280.512716
84,0,4247.692204,4246.153742,4228.717845,4270.769126,4227.692204,4222.051179,4205.640923,4222.563999,4230.256307,4231.794768,4295.38451,4275.384511,4258.974255,4283.076818
85,0,4245.640922,4245.640922,4231.281948,4265.128101,4228.717845,4227.692204,4212.307589,4230.769127,4233.33323,4232.820409,4296.922972,4276.410152,4261.538357,4279.487075
86,0,4246.153742,4244.615281,4228.717845,4264.61528,4219.999897,4225.640922,4214.871692,4230.769127,4232.307589,4228.717845,4291.794767,4267.692203,4258.974255,4268.717844
87,0,4242.051178,4242.563999,4223.07682,4265.640921,4214.871692,4214.871692,4211.281948,4225.640922,4227.179384,4221.025538,4287.692203,4261.538357,4249.743486,4262.563998
88,0,4235.897332,4242.051178,4222.563999,4263.589639,4218.974256,4219.999897,4212.307589,4229.743486,4228.205025,4216.410153,4290.256305,4263.076819,4245.640922,4265.128101
89,0,4239.999896,4242.563999,4223.58964,4263.589639,4222.051179,4231.794768,4216.922974,4233.84605,4230.769127,4217.948615,4294.87169,4264.61528,4246.153742,4271.794767
90,0,4248.717845,4240.512717,4220.512717,4264.10246,4221.538358,4230.769127,4217.948615,4233.84605,4229.230666,4222.563999,4294.87169,4269.230665,4251.281947,4278.461434
91,0,4245.128101,4239.999896,4222.563999,4262.051178,4223.07682,4229.230666,4217.435794,4231.794768,4228.205025,4221.025538,4293.846049,4273.846049,4259.487075,4281.025536
92,0,4244.615281,4246.153742,4230.256307,4271.281947,4225.128102,4227.692204,4216.922974,4229.743486,4230.256307,4217.435794,4289.743485,4275.897331,4255.897332,4278.461434
93,0,4251.794768,4249.743486,4232.307589,4276.922972,4223.07682,4225.640922,4216.922974,4231.794768,4231.794768,4218.974256,4279.999895,4272.820408,4246.666563,4277.948613
94,0,4251.794768,4247.692204,4227.179384,4268.717844,4224.102461,4227.692204,4215.897333,4229.230666,4228.205025,4216.410153,4276.922972,4267.179383,4244.10246,4279.487075
95,0,4246.153742,4246.153742,4221.538358,4263.589639,4227.179384,4231.794768,4213.33323,4219.999897,4220.512717,4204.102461,4280.512716,4263.076819,4238.461435,4272.307588
96,0,4239.487076,4239.487076,4218.461435,4261.025537,4223.07682,4230.769127,4214.358871,4214.871692,4217.948615,4195.897333,4272.307588,4261.538357,4228.717845,4262.563998
97,0,4231.281948,4229.230666,4218.974256,4255.897332,4215.384512,4223.07682,4216.410153,4216.922974,4221.025538,4199.999897,4261.538357,4262.563998,4228.717845,4259.487075
98,0,4230.256307,4227.179384,4218.461435,4255.384511,4214.871692,4216.410153,4209.743487,4215.384512,4221.538358,4203.07682,4263.589639,4261.538357,4230.769127,4262.051178
99,0,4230.769127,4236.410153,4215.897333,4260.512716,4217.435794,4215.897333,4205.128102,4212.307589,4219.487076,4202.051179,4271.794767,4259.999896,4230.256307,4262.563998
100,0,4230.256307,4243.58964,4218.974256,4262.563998,4216.410153,4217.948615,4213.846051,4216.410153,4222.051179,4207.179384,4277.435793,4263.076819,4239.487076,4266.153742
101,0,4232.820409,4237.948614,4221.025538,4262.563998,4215.897333,4218.974256,4219.999897,4223.58964,4227.692204,4211.281948,4279.487075,4267.179383,4247.692204,4266.666562
102,0,4233.33323,4236.410153,4217.948615,4261.538357,4216.410153,4224.102461,4217.948615,4227.179384,4229.743486,4213.33323,4277.948613,4265.128101,4245.128101,4262.563998
103,0,4233.33323,4249.230665,4224.102461,4262.563998,4224.102461,4231.281948,4221.538358,4231.281948,4230.256307,4222.563999,4279.487075,4267.692203,4249.743486,4271.794767
104,0,4235.897332,4251.794768,4229.743486,4265.128101,4231.281948,4233.33323,4226.666563,4233.33323,4231.794768,4230.769127,4283.076818,4275.384511,4255.897332,4277.948613
105,0,4233.33323,4242.051178,4223.07682,4264.10246,4230.256307,4232.820409,4228.205025,4230.256307,4232.307589,4229.230666,4279.487075,4271.794767,4252.307588,4269.230665
106,0,4228.717845,4248.205024,4219.487076,4265.640921,4224.102461,4233.84605,4226.666563,4227.179384,4231.281948,4228.205025,4278.461434,4266.666562,4255.897332,4267.179383
107,0,4229.743486,4248.717845,4219.487076,4264.10246,4222.051179,4232.307589,4220.512717,4222.051179,4232.307589,4228.205025,4282.051177,4267.179383,4262.563998,4270.256306
108,0,4227.692204,4234.871691,4214.358871,4262.051178,4226.666563,4230.256307,4215.897333,4216.922974,4231.281948,4222.051179,4276.922972,4262.051178,4253.333229,4264.10246
109,0,4219.999897,4236.922973,4209.743487,4264.10246,4228.205025,4230.256307,4217.948615,4219.487076,4229.230666,4215.897333,4266.666562,4256.922973,4243.58964,4257.948614
110,0,4222.051179,4248.205024,4206.666564,4265.128101,4227.179384,4230.769127,4217.948615,4227.179384,4230.256307,4215.384512,4268.205024,4261.025537,4244.615281,4260.512716
111,0,4228.205025,4245.128101,4201.025538,4269.230665,4228.717845,4233.33323,4221.025538,4231.281948,4231.794768,4222.563999,4274.87169,4263.589639,4245.640922,4262.563998
112,0,4225.128102,4239.999896,4204.102461,4278.974254,4232.307589,4236.410153,4229.230666,4233.33323,4232.820409,4230.256307,4275.897331,4262.051178,4246.666563,4263.076819
113,0,4221.025538,4246.666563,4208.205025,4283.076818,4231.794768,4236.410153,4232.307589,4235.384512,4234.358871,4229.743486,4278.461434,4263.589639,4250.256306,4263.076819
114,0,4218.974256,4245.640922,4202.564,4278.461434,4229.743486,4233.84605,4227.179384,4232.307589,4233.33323,4225.128102,4279.999895,4264.10246,4250.256306,4263.076819
115,0,4217.435794,4240.512717,4203.589641,4277.435793,4233.84605,4236.922973,4223.58964,4232.820409,4235.384512,4230.769127,4274.35887,4264.10246,4246.666563,4263.589639
116,0,4225.640922,4246.153742,4214.358871,4283.589639,4239.487076,4247.179383,4229.230666,4242.051178,4242.563999,4242.051178,4276.922972,4263.589639,4246.666563,4265.128101
117,0,4234.871691,4249.230665,4216.922974,4287.179382,4239.999896,4247.692204,4231.281948,4244.10246,4239.999896,4239.487076,4283.589639,4265.640921,4250.256306,4268.717844
118,0,4227.692204,4241.538358,4206.153743,4279.999895,4231.281948,4236.922973,4222.563999,4233.33323,4231.281948,4222.563999,4273.333229,4263.076819,4245.640922,4265.128101
119,0,4211.794769,4229.230666,4195.897333,4270.769126,4221.025538,4230.256307,4214.358871,4224.102461,4230.256307,4211.281948,4259.487075,4251.794768,4232.307589,4249.743486
120,0,4206.153743,4226.153743,4196.410154,4273.333229,4220.512717,4233.84605,4216.922974,4225.640922,4230.769127,4212.82041,4256.410152,4246.666563,4222.563999,4232.307589
121,0,4213.846051,4231.794768,4201.025538,4275.384511,4228.717845,4242.563999,4226.153743,4229.743486,4231.281948,4217.948615,4260.512716,4253.333229,4224.102461,4232.307589
122,0,4214.871692,4228.205025,4201.538359,4267.692203,4232.820409,4244.10246,4232.820409,4232.307589,4235.384512,4221.025538,4263.589639,4261.025537,4232.820409,4245.640922
123,0,4206.153743,4216.410153,4199.487077,4263.076819,4227.692204,4235.384512,4227.692204,4232.307589,4234.871691,4221.538358,4264.61528,4261.538357,4234.358871,4244.615281
124,0,4207.179384,4212.82041,4200.512718,4266.666562,4219.487076,4230.256307,4220.512717,4226.153743,4230.256307,4214.358871,4262.051178,4254.871691,4222.563999,4231.794768
125,0,4212.82041,4215.384512,4199.999897,4266.153742,4215.897333,4234.871691,4222.051179,4219.999897,4230.769127,4205.128102,4258.461434,4248.717845,4213.846051,4226.666563
126,0,4209.743487,4214.871692,4200.512718,4263.076819,4223.07682,4234.358871,4223.58964,4224.615281,4231.794768,4209.230666,4258.974255,4252.307588,4218.974256,4229.230666
127,0,4213.846051,4217.948615,4204.615282,4270.769126,4232.820409,4230.769127,4222.051179,4230.256307,4232.820409,4219.487076,4261.025537,4259.999896,4224.102461,4230.769127
128,0,4219.487076,4221.025538,4206.153743,4281.025536,4227.179384,4233.33323,4221.025538,4223.58964,4233.33323,4211.794769,4261.538357,4256.410152,4219.999897,4230.769127
0,0,4215.897333,4217.948615,4204.102461,4277.948613,4223.07682,4234.871691,4217.948615,4216.410153,4230.769127,4202.564,4253.84605,4247.692204,4216.410153,4228.717845
1,0,4214.358871,4214.871692,4203.07682,4268.205024,4227.179384,4232.307589,4214.871692,4217.948615,4229.230666,4211.281948,4244.10246,4247.692204,4216.922974,4227.179384
2,0,4210.256307,4213.846051,4199.487077,4262.563998,4222.051179,4229.743486,4217.435794,4216.922974,4229.743486,4213.846051,4244.615281,4247.179383,4214.358871,4225.128102
3,0,4207.692205,4214.871692,4198.461436,4262.563998,4216.922974,4232.820409,4219.999897,4216.922974,4230.256307,4206.153743,4248.717845,4238.974255,4213.846051,4219.999897
4,0,4211.794769,4215.897333,4198.974256,4262.563998,4219.999897,4234.358871,4215.897333,4217.435794,4229.743486,4209.743487,4247.692204,4230.769127,4218.974256,4217.948615
5,0,4207.179384,4211.794769,4197.435795,4262.051178,4217.948615,4229.743486,4212.82041,4214.871692,4230.256307,4215.384512,4244.615281,4230.769127,4215.384512,4215.897333
6,0,4201.538359,4211.794769,4198.461436,4261.025537,4215.384512,4228.205025,4215.897333,4215.897333,4230.769127,4214.871692,4246.666563,4233.84605,4214.871692,4216.922974
7,0,4211.794769,4216.922974,4202.051179,4262.051178,4222.563999,4232.307589,4218.974256,4217.948615,4230.769127,4215.897333,4249.230665,4233.33323,4224.615281,4225.128102
8,0,4218.461435,4218.974256,4201.538359,4264.61528,4226.666563,4232.820409,4214.871692,4216.922974,4232.307589,4218.461435,4250.769127,4232.307589,4226.153743,4231.281948
9,0,4217.435794,4217.435794,4202.051179,4265.640921,4227.179384,4231.794768,4214.871692,4224.102461,4235.897332,4224.615281,4254.871691,4237.948614,4227.179384,4231.794768
10,0,4222.563999,4218.461435,4204.615282,4264.61528,4227.179384,4231.794768,4219.487076,4230.256307,4235.897332,4228.717845,4258.461434,4241.025537,4233.84605,4233.33323
11,0,4225.128102,4218.974256,4203.589641,4264.61528,4222.563999,4231.281948,4219.487076,4222.563999,4233.84605,4223.07682,4259.487075,4234.871691,4232.820409,4234.871691
12,0,4223.58964,4216.922974,4202.564,4264.61528,4216.410153,4230.769127,4217.948615,4217.948615,4232.820409,4217.435794,4259.487075,4232.307589,4228.205025,4233.33323
13,0,4226.666563,4216.922974,4207.179384,4263.589639,4213.33323,4227.692204,4216.922974,4219.999897,4230.769127,4217.948615,4259.487075,4241.538358,4232.820409,4231.281948
14,0,4230.769127,4220.512717,4214.358871,4266.666562,4221.025538,4225.128102,4217.435794,4218.461435,4230.769127,4225.128102,4263.076819,4248.205024,4235.897332,4234.871691
15,0,4230.256307,4219.999897,4212.307589,4267.692203,4227.179384,4228.205025,4219.487076,4219.999897,4232.307589,4229.743486,4265.128101,4246.153742,4231.794768,4236.922973
16,0,4229.230666,4215.897333,4204.615282,4265.128101,4220.512717,4230.769127,4221.538358,4223.58964,4231.281948,4223.07682,4261.025537,4243.076819,4229.230666,4231.794768
17,0,4233.33323,4222.563999,4210.256307,4267.179383,4221.538358,4230.769127,4225.128102,4219.487076,4232.820409,4216.922974,4259.487075,4245.640922,4231.794768,4235.384512
18,0,4235.897332,4231.794768,4215.897333,4269.743485,4229.230666,4233.33323,4226.153743,4216.410153,4235.897332,4227.692204,4265.640921,4250.769127,4235.384512,4244.10246
19,0,4232.307589,4223.58964,4205.128102,4264.61528,4220.512717,4232.820409,4225.128102,4212.307589,4231.794768,4227.692204,4263.076819,4242.563999,4231.794768,4236.410153
20,0,4228.205025,4215.897333,4197.948615,4259.999896,4218.974256,4229.743486,4227.692204,4206.666564,4230.769127,4216.410153,4257.948614,4232.820409,4228.717845,4228.717845
21,0,4229.230666,4224.102461,4206.666564,4266.666562,4232.820409,4231.281948,4228.205025,4210.256307,4238.461435,4223.07682,4268.205024,4240.512717,4235.384512,4242.051178
22,0,4235.897332,4230.769127,4213.33323,4275.897331,4232.820409,4232.820409,4225.128102,4216.410153,4238.974255,4234.871691,4278.974254,4250.769127,4245.640922,4251.794768
23,0,4248.205024,4232.307589,4213.846051,4274.87169,4231.281948,4234.358871,4227.692204,4217.948615,4234.871691,4236.922973,4274.35887,4249.230665,4251.281947,4249.743486
24,0,4252.820409,4231.281948,4213.33323,4267.179383,4232.820409,4233.84605,4229.743486,4213.846051,4235.384512,4231.794768,4266.666562,4247.179383,4246.153742,4251.794768
25,0,4238.461435,4219.999897,4207.692205,4264.10246,4221.538358,4229.230666,4220.512717,4204.102461,4233.84605,4221.025538,4263.589639,4243.076819,4233.33323,4247.179383
26,0,4229.230666,4213.33323,4203.07682,4264.10246,4219.999897,4228.205025,4216.410153,4199.487077,4228.717845,4216.410153,4262.563998,4233.84605,4229.230666,4234.358871
27,0,4228.717845,4213.846051,4201.538359,4259.999896,4229.743486,4230.256307,4218.974256,4199.999897,4228.205025,4220.512717,4256.922973,4232.307589,4227.179384,4230.256307
28,0,4219.999897,4205.640923,4198.974256,4257.435793,4227.179384,4228.205025,4217.435794,4197.435795,4228.717845,4215.384512,4250.769127,4232.820409,4216.410153,4227.692204
29,0,4218.974256,4198.974256,4197.948615,4261.538357,4224.102461,4228.717845,4223.07682,4196.922974,4230.256307,4209.230666,4252.820409,4230.256307,4216.410153,4224.102461
30,0,4231.281948,4208.205025,4202.564,4264.61528,4231.281948,4234.871691,4229.743486,4203.07682,4233.84605,4221.538358,4262.563998,4236.410153,4231.281948,4229.230666
31,0,4236.410153,4212.307589,4204.615282,4263.589639,4228.717845,4233.84605,4224.102461,4204.615282,4234.358871,4230.769127,4264.61528,4246.153742,4236.410153,4241.025537
32,0,4232.820409,4205.128102,4203.07682,4261.025537,4219.999897,4227.692204,4218.461435,4201.538359,4233.84605,4223.07682,4261.025537,4248.205024,4232.307589,4247.179383
33,0,4233.33323,4199.999897,4203.589641,4258.461434,4223.07682,4230.769127,4225.640922,4203.589641,4235.897332,4217.435794,4262.051178,4247.179383,4230.256307,4241.538358
34,0,4231.794768,4199.999897,4203.589641,4258.974255,4231.281948,4236.922973,4230.256307,4205.640923,4233.84605,4219.999897,4263.076819,4247.692204,4230.256307,4235.897332
35,0,4230.256307,4203.589641,4204.102461,4264.61528,4232.820409,4235.384512,4223.58964,4202.051179,4231.281948,4222.051179,4258.974255,4247.179383,4231.281948,4237.948614
36,0,4233.33323,4207.179384,4204.102461,4265.640921,4230.769127,4231.794768,4223.07682,4201.025538,4232.820409,4219.999897,4258.461434,4246.153742,4230.769127,4238.461435
37,0,4233.33323,4205.640923,4203.589641,4261.025537,4231.281948,4232.307589,4227.692204,4202.564,4233.33323,4215.384512,4261.025537,4246.666563,4228.717845,4232.307589
38,0,4232.820409,4202.051179,4207.692205,4263.589639,4230.769127,4233.84605,4228.205025,4198.974256,4232.307589,4217.948615,4262.563998,4248.205024,4229.743486,4231.794768
39,0,4229.743486,4201.025538,4211.794769,4262.051178,4229.743486,4234.871691,4227.179384,4197.435795,4232.820409,4225.128102,4263.589639,4249.230665,4232.820409,4236.410153
40,0,4222.563999,4199.999897,4206.153743,4251.281947,4229.743486,4235.384512,4227.179384,4201.538359,4233.84605,4224.102461,4262.051178,4246.666563,4231.794768,4234.358871
41,0,4217.435794,4196.922974,4198.974256,4252.820409,4227.692204,4233.33323,4229.230666,4202.564,4231.794768,4219.487076,4257.948614,4244.10246,4227.179384,4231.281948
42,0,4217.435794,4197.948615,4203.07682,4261.538357,4222.051179,4230.769127,4227.179384,4199.999897,4230.769127,4219.487076,4255.384511,4245.640922,4226.153743,4233.33323
43,0,4219.487076,4199.999897,4206.666564,4255.384511,4217.435794,4231.281948,4222.051179,4201.538359,4232.307589,4218.461435,4257.948614,4247.179383,4229.743486,4231.794768
44,0,4224.102461,4198.974256,4203.589641,4246.153742,4221.025538,4232.820409,4222.563999,4203.07682,4232.820409,4214.358871,4262.563998,4248.205024,4230.769127,4227.179384
45,0,4229.230666,4198.974256,4202.564,4250.256306,4230.256307,4236.410153,4231.281948,4203.589641,4232.307589,4216.922974,4263.589639,4250.769127,4231.794768,4226.153743
46,0,4221.538358,4199.487077,4199.999897,4250.769127,4229.230666,4236.922973,4231.794768,4202.051179,4232.307589,4219.999897,4257.948614,4250.256306,4232.307589,4222.051179
47,0,4214.358871,4197.435795,4199.999897,4247.692204,4217.435794,4231.281948,4225.640922,4200.512718,4233.33323,4217.948615,4256.410152,4245.640922,4229.230666,4213.33323
48,0,4224.615281,4198.974256,4206.666564,4253.333229,4214.871692,4229.743486,4228.205025,4201.025538,4234.358871,4222.563999,4262.563998,4249.230665,4229.743486,4218.461435
49,0,4229.230666,4202.051179,4209.743487,4253.84605,4223.58964,4234.358871,4230.769127,4203.589641,4232.307589,4229.743486,4266.153742,4254.871691,4234.358871,4230.769127
50,0,4222.051179,4199.999897,4209.230666,4248.205024,4229.230666,4235.384512,4228.717845,4208.205025,4232.307589,4230.256307,4264.61528,4254.871691,4234.871691,4230.256307
51,0,4223.07682,4196.410154,4211.794769,4247.692204,4226.666563,4232.307589,4230.256307,4215.384512,4235.897332,4229.230666,4264.61528,4256.410152,4235.384512,4226.153743
52,0,4226.153743,4198.974256,4211.794769,4250.256306,4223.07682,4231.794768,4229.230666,4217.435794,4237.948614,4230.769127,4266.153742,4257.948614,4236.410153,4230.256307
53,0,4218.974256,4203.589641,4205.128102,4249.230665,4221.538358,4230.769127,4221.538358,4211.281948,4234.871691,4229.743486,4264.61528,4249.743486,4232.307589,4230.256307
54,0,4214.358871,4198.974256,4202.564,4247.692204,4219.487076,4230.256307,4222.051179,4209.230666,4232.820409,4228.205025,4259.999896,4246.153742,4229.230666,4226.666563
55,0,4217.948615,4192.82041,4209.230666,4246.153742,4216.922974,4231.794768,4227.692204,4214.871692,4233.84605,4230.256307,4263.589639,4256.410152,4233.84605,4230.256307
56,0,4218.974256,4194.871692,4207.179384,4243.58964,4216.922974,4229.743486,4222.051179,4216.410153,4233.84605,4230.769127,4268.205024,4258.461434,4236.922973,4233.84605
57,0,4215.384512,4199.999897,4198.974256,4243.58964,4216.410153,4227.692204,4215.897333,4211.281948,4231.794768,4225.640922,4259.487075,4247.692204,4233.33323,4229.743486
58,0,4214.871692,4201.025538,4197.948615,4244.615281,4217.948615,4231.281948,4217.435794,4204.102461,4231.794768,4218.461435,4252.820409,4246.666563,4230.769127,4228.205025
59,0,4224.102461,4202.564,4203.07682,4247.692204,4222.051179,4232.820409,4217.948615,4201.538359,4232.820409,4217.435794,4258.461434,4253.84605,4231.794768,4231.794768
60,0,4230.769127,4202.564,4204.102461,4246.666563,4221.025538,4230.256307,4214.871692,4203.07682,4232.307589,4219.999897,4259.487075,4253.84605,4230.769127,4230.256307
61,0,4223.58964,4198.974256,4203.07682,4242.563999,4217.435794,4230.256307,4216.922974,4206.153743,4231.281948,4221.025538,4256.410152,4250.769127,4228.717845,4227.692204
62,0,4218.461435,4199.487077,4204.102461,4244.615281,4217.948615,4228.205025,4218.974256,4205.128102,4231.281948,4222.051179,4258.461434,4250.256306,4231.281948,4227.179384
63,0,4221.025538,4201.025538,4202.564,4243.58964,4216.922974,4218.974256,4215.384512,4198.461436,4229.743486,4212.307589,4254.871691,4247.692204,4228.717845,4221.538358
64,0,4218.461435,4199.487077,4203.07682,4233.33323,4211.794769,4215.897333,4212.307589,4196.410154,4226.153743,4202.051179,4246.153742,4244.615281,4217.435794,4214.358871
65,0,4211.794769,4197.435795,4201.025538,4230.769127,4210.256307,4221.025538,4215.897333,4199.999897,4223.07682,4206.153743,4246.153742,4243.58964,4212.307589,4212.82041
66,0,4210.769128,4196.922974,4198.461436,4233.33323,4214.358871,4218.974256,4215.384512,4194.871692,4223.07682,4211.794769,4246.153742,4244.10246,4215.897333,4214.358871
67,0,4214.871692,4197.435795,4199.487077,4230.769127,4215.384512,4216.922974,4210.256307,4189.230667,4225.640922,4207.692205,4246.666563,4246.153742,4214.871692,4215.897333
