title:V                                                                               , recorded:07.07.20 10.57.19, sampling:128, subject:B                                                                               , labels:COUNTER INTERPOLATED AF3 F7 F3 FC5 T7 P7 O1 O2 P8 T8 FC6 F4 F8 AF4,, units:emotiv,,,,,,,,,
26,0,4204.615282,4207.692205,4215.897333,4220.512717,4217.435794,4227.692204,4229.743486,4225.128102,4228.717845,4230.256307,4228.717845,4255.897332,4217.948615,4220.512717
27,0,4209.230666,4215.384512,4213.846051,4217.948615,4219.487076,4226.666563,4228.717845,4223.07682,4229.743486,4234.358871,4226.666563,4256.922973,4222.563999,4234.358871
28,0,4212.307589,4218.461435,4213.846051,4223.07682,4219.999897,4219.999897,4225.128102,4216.410153,4230.769127,4229.743486,4224.102461,4253.84605,4219.999897,4232.307589
29,0,4214.871692,4214.358871,4214.871692,4227.692204,4216.410153,4215.897333,4224.615281,4214.871692,4228.205025,4216.410153,4231.794768,4257.435793,4221.538358,4226.666563
30,0,4224.615281,4220.512717,4217.435794,4228.717845,4217.948615,4217.948615,4226.666563,4216.410153,4227.179384,4220.512717,4233.33323,4261.538357,4233.84605,4234.871691
31,0,4229.230666,4224.615281,4219.487076,4226.666563,4221.025538,4219.487076,4223.58964,4213.33323,4226.666563,4227.692204,4222.563999,4263.589639,4234.871691,4234.871691
32,0,4219.999897,4213.846051,4217.435794,4220.512717,4217.948615,4222.051179,4223.58964,4211.794769,4221.538358,4215.897333,4214.358871,4259.487075,4219.487076,4223.07682
33,0,4215.897333,4207.692205,4215.897333,4217.435794,4216.922974,4221.025538,4226.153743,4211.794769,4218.461435,4206.666564,4217.435794,4250.769127,4209.743487,4212.82041
34,0,4219.999897,4214.871692,4216.922974,4219.999897,4216.922974,4216.410153,4221.538358,4205.640923,4217.435794,4208.205025,4215.897333,4247.179383,4206.666564,4206.153743
35,0,4219.999897,4219.999897,4216.410153,4221.025538,4216.410153,4216.922974,4215.384512,4199.999897,4216.410153,4202.564,4203.07682,4249.230665,4202.051179,4202.564
36,0,4214.358871,4216.410153,4215.384512,4216.922974,4216.410153,4217.948615,4216.922974,4201.025538,4216.922974,4197.435795,4203.589641,4249.230665,4206.153743,4201.025538
37,0,4215.897333,4212.307589,4217.948615,4216.410153,4219.487076,4221.025538,4219.487076,4202.051179,4217.948615,4207.179384,4214.871692,4250.256306,4215.897333,4203.07682
38,0,4223.07682,4217.435794,4220.512717,4224.615281,4221.538358,4230.769127,4222.051179,4206.153743,4224.102461,4222.563999,4218.461435,4253.333229,4219.999897,4210.769128
39,0,4223.58964,4220.512717,4218.974256,4228.205025,4217.948615,4231.281948,4224.102461,4214.871692,4232.307589,4226.666563,4216.410153,4250.256306,4224.615281,4217.948615
40,0,4216.410153,4214.358871,4216.410153,4222.563999,4216.410153,4225.128102,4225.640922,4217.435794,4227.692204,4219.487076,4218.461435,4249.230665,4229.743486,4216.410153
41,0,4217.948615,4211.794769,4217.948615,4218.461435,4220.512717,4225.640922,4225.640922,4216.410153,4217.435794,4218.461435,4219.999897,4255.897332,4227.692204,4217.435794
42,0,4219.999897,4212.307589,4220.512717,4221.025538,4221.538358,4227.692204,4222.051179,4217.435794,4222.051179,4219.999897,4217.435794,4257.948614,4222.051179,4214.871692
43,0,4214.871692,4211.281948,4216.410153,4217.435794,4217.435794,4226.153743,4223.58964,4216.410153,4229.743486,4218.461435,4214.358871,4255.384511,4219.999897,4203.589641
44,0,4223.07682,4215.384512,4219.487076,4216.922974,4218.974256,4230.769127,4230.769127,4221.538358,4228.717845,4226.666563,4216.410153,4260.512716,4221.025538,4209.743487
45,0,4237.948614,4222.051179,4226.153743,4223.58964,4222.563999,4230.256307,4230.769127,4229.743486,4228.205025,4234.358871,4217.435794,4264.10246,4217.435794,4218.461435
46,0,4230.769127,4218.974256,4221.538358,4222.563999,4218.461435,4221.538358,4228.717845,4224.102461,4224.102461,4222.051179,4203.589641,4252.820409,4210.769128,4207.692205
47,0,4220.512717,4213.33323,4215.384512,4216.922974,4215.897333,4224.102461,4229.743486,4215.384512,4217.435794,4208.717846,4194.871692,4245.128101,4209.230666,4203.589641
48,0,4224.615281,4215.897333,4218.974256,4217.435794,4223.58964,4232.307589,4229.743486,4218.461435,4218.461435,4209.230666,4198.974256,4250.256306,4207.179384,4208.205025
49,0,4221.538358,4217.435794,4219.999897,4220.512717,4227.179384,4232.307589,4227.692204,4216.410153,4219.487076,4204.615282,4198.974256,4251.281947,4199.487077,4200.512718
50,0,4215.897333,4215.384512,4216.410153,4216.922974,4219.487076,4227.692204,4222.563999,4206.153743,4215.384512,4198.461436,4197.948615,4247.179383,4206.666564,4195.384513
51,0,4225.128102,4215.897333,4220.512717,4215.384512,4215.384512,4220.512717,4218.461435,4203.589641,4215.897333,4206.666564,4204.102461,4249.743486,4225.640922,4211.794769
52,0,4238.461435,4217.948615,4229.743486,4224.102461,4214.358871,4216.410153,4219.487076,4210.769128,4219.487076,4221.538358,4213.33323,4264.10246,4235.384512,4229.230666
53,0,4245.128101,4214.871692,4232.307589,4227.692204,4210.769128,4216.922974,4224.102461,4215.384512,4217.948615,4229.230666,4226.666563,4275.384511,4241.538358,4234.871691
54,0,4246.666563,4213.33323,4231.281948,4225.640922,4213.33323,4219.487076,4229.230666,4215.897333,4219.999897,4225.128102,4231.794768,4273.846049,4246.666563,4234.358871
55,0,4247.179383,4223.58964,4230.769127,4229.743486,4221.025538,4223.58964,4231.281948,4216.410153,4225.640922,4217.435794,4221.538358,4266.666562,4241.538358,4234.358871
56,0,4245.128101,4232.307589,4230.769127,4233.33323,4222.563999,4226.666563,4229.743486,4217.948615,4226.153743,4217.948615,4216.922974,4263.589639,4237.435794,4236.410153
57,0,4242.051178,4228.717845,4229.743486,4230.256307,4216.922974,4220.512717,4231.281948,4217.948615,4226.153743,4222.051179,4218.974256,4265.640921,4233.84605,4231.281948
58,0,4241.538358,4227.179384,4229.230666,4228.717845,4214.871692,4217.948615,4230.256307,4214.358871,4225.640922,4218.461435,4210.769128,4262.051178,4222.563999,4225.128102
59,0,4248.717845,4234.358871,4231.794768,4230.769127,4216.922974,4219.999897,4223.58964,4214.871692,4221.025538,4213.846051,4199.999897,4253.333229,4213.846051,4229.230666
60,0,4247.692204,4233.84605,4227.692204,4230.256307,4217.435794,4216.410153,4221.538358,4214.871692,4217.435794,4214.358871,4198.461436,4248.205024,4215.897333,4227.692204
61,0,4230.769127,4227.179384,4222.051179,4226.666563,4216.922974,4216.410153,4217.948615,4207.179384,4219.487076,4211.794769,4205.128102,4253.84605,4224.102461,4221.025538
62,0,4229.230666,4231.794768,4226.153743,4223.07682,4215.897333,4220.512717,4214.871692,4207.179384,4225.128102,4214.871692,4224.615281,4263.589639,4234.871691,4226.153743
63,0,4240.512717,4236.410153,4228.205025,4227.692204,4217.435794,4217.948615,4224.102461,4218.461435,4228.205025,4226.153743,4235.384512,4264.10246,4237.948614,4236.922973
64,0,4234.871691,4227.692204,4218.461435,4228.717845,4222.563999,4220.512717,4228.205025,4221.538358,4228.717845,4228.205025,4223.07682,4253.333229,4231.794768,4229.743486
65,0,4223.07682,4224.102461,4213.33323,4219.999897,4222.563999,4228.205025,4218.461435,4217.948615,4228.205025,4225.128102,4215.384512,4247.692204,4229.230666,4216.410153
66,0,4230.769127,4225.128102,4218.974256,4217.948615,4215.897333,4224.102461,4221.025538,4222.051179,4227.692204,4232.307589,4220.512717,4254.871691,4232.307589,4217.948615
67,0,4234.871691,4217.435794,4217.948615,4219.487076,4213.33323,4214.871692,4230.256307,4222.051179,4222.051179,4223.07682,4217.435794,4262.051178,4224.102461,4221.538358
68,0,4228.205025,4218.461435,4216.922974,4216.922974,4216.410153,4216.410153,4228.205025,4215.384512,4216.922974,4202.564,4212.307589,4258.461434,4212.307589,4217.948615
69,0,4233.84605,4232.307589,4225.128102,4222.051179,4216.922974,4220.512717,4227.179384,4215.897333,4216.922974,4204.102461,4212.82041,4252.307588,4211.794769,4221.025538
70,0,4246.666563,4233.33323,4230.256307,4231.281948,4214.358871,4217.948615,4231.794768,4219.487076,4219.999897,4210.256307,4206.666564,4253.333229,4213.846051,4229.230666
71,0,4248.717845,4232.820409,4230.256307,4230.256307,4217.948615,4217.948615,4227.179384,4217.435794,4223.58964,4204.615282,4199.487077,4259.999896,4215.897333,4229.743486
72,0,4247.692204,4239.999896,4231.281948,4228.717845,4223.07682,4218.974256,4225.128102,4214.358871,4222.563999,4208.717846,4201.538359,4265.128101,4222.563999,4230.769127
73,0,4252.820409,4237.435794,4233.84605,4233.84605,4222.563999,4217.435794,4227.179384,4215.384512,4218.461435,4216.410153,4213.33323,4265.640921,4228.717845,4237.948614
74,0,4254.871691,4231.794768,4234.871691,4231.281948,4221.025538,4218.461435,4222.563999,4214.871692,4219.999897,4216.922974,4220.512717,4266.666562,4232.307589,4236.922973
75,0,4245.128101,4233.33323,4232.307589,4221.025538,4222.051179,4219.487076,4217.435794,4215.384512,4222.563999,4216.922974,4217.948615,4265.128101,4234.358871,4231.281948
76,0,4234.871691,4229.230666,4228.205025,4217.435794,4216.410153,4218.461435,4219.487076,4224.102461,4223.07682,4218.974256,4224.102461,4261.538357,4230.769127,4229.743486
77,0,4231.281948,4221.025538,4227.179384,4218.974256,4215.384512,4218.974256,4228.205025,4233.33323,4229.743486,4225.128102,4235.384512,4264.10246,4229.230666,4231.794768
78,0,4231.794768,4218.461435,4230.256307,4219.487076,4219.487076,4218.461435,4231.794768,4236.410153,4230.769127,4226.666563,4228.205025,4268.205024,4230.256307,4232.820409
79,0,4231.281948,4214.871692,4229.230666,4218.974256,4208.205025,4214.358871,4224.102461,4230.256307,4220.512717,4215.897333,4212.82041,4263.589639,4223.07682,4222.563999
80,0,4230.769127,4213.33323,4227.692204,4216.922974,4194.871692,4212.82041,4216.410153,4219.999897,4215.384512,4212.82041,4212.307589,4258.461434,4208.205025,4212.307589
81,0,4236.922973,4217.948615,4229.230666,4212.307589,4203.589641,4214.871692,4216.410153,4215.897333,4218.974256,4217.948615,4215.897333,4258.461434,4199.487077,4218.974256
82,0,4246.666563,4220.512717,4233.33323,4216.410153,4216.410153,4214.358871,4217.948615,4218.974256,4218.974256,4214.358871,4212.82041,4264.10246,4208.717846,4234.358871
83,0,4252.820409,4219.487076,4236.922973,4223.07682,4214.358871,4211.794769,4216.410153,4217.435794,4216.410153,4210.256307,4215.897333,4272.820408,4229.230666,4247.692204
84,0,4251.794768,4218.974256,4236.410153,4219.999897,4211.794769,4213.846051,4217.435794,4212.307589,4216.410153,4214.871692,4226.153743,4280.512716,4243.076819,4259.999896
85,0,4245.640922,4214.871692,4232.820409,4216.922974,4217.435794,4217.948615,4223.07682,4219.999897,4218.461435,4228.205025,4231.794768,4278.461434,4253.333229,4265.128101
86,0,4243.58964,4209.743487,4228.717845,4217.435794,4215.384512,4218.461435,4227.692204,4233.84605,4225.640922,4244.615281,4237.435794,4273.333229,4265.640921,4264.10246
87,0,4245.640922,4210.256307,4223.58964,4215.897333,4210.256307,4218.461435,4222.051179,4236.922973,4230.769127,4245.128101,4246.666563,4274.35887,4270.256306,4266.153742
88,0,4238.974255,4210.769128,4225.640922,4215.384512,4212.82041,4216.922974,4212.82041,4232.307589,4227.692204,4238.461435,4248.205024,4276.410152,4263.076819,4266.666562
89,0,4235.384512,4212.82041,4230.256307,4220.512717,4217.435794,4216.922974,4212.82041,4230.769127,4226.666563,4244.615281,4244.615281,4275.384511,4261.025537,4263.076819
90,0,4243.58964,4218.974256,4225.128102,4220.512717,4216.922974,4225.128102,4215.897333,4233.33323,4229.230666,4247.179383,4244.615281,4269.230665,4264.10246,4258.461434
91,0,4243.58964,4218.461435,4216.922974,4218.461435,4218.461435,4230.769127,4215.897333,4231.794768,4223.58964,4236.922973,4239.487076,4263.589639,4258.461434,4252.820409
92,0,4228.717845,4211.794769,4218.974256,4220.512717,4219.999897,4222.563999,4216.410153,4225.128102,4217.948615,4232.820409,4229.743486,4261.025537,4244.615281,4247.179383
93,0,4227.179384,4212.82041,4225.128102,4219.487076,4214.358871,4213.846051,4212.307589,4215.897333,4219.487076,4226.666563,4226.153743,4262.051178,4239.999896,4244.10246
94,0,4245.128101,4224.615281,4229.743486,4222.563999,4213.846051,4215.897333,4209.230666,4210.769128,4214.871692,4211.281948,4227.179384,4270.769126,4247.179383,4250.256306
95,0,4248.205024,4233.84605,4233.33323,4230.256307,4219.999897,4216.922974,4213.846051,4216.410153,4214.871692,4214.871692,4232.307589,4274.35887,4247.179383,4259.999896
96,0,4235.384512,4225.640922,4227.692204,4225.640922,4221.025538,4217.435794,4217.948615,4227.692204,4226.666563,4229.743486,4228.717845,4266.153742,4237.435794,4251.281947
97,0,4227.692204,4212.307589,4217.435794,4214.871692,4217.435794,4223.07682,4222.051179,4234.358871,4230.256307,4227.692204,4215.897333,4260.512716,4230.769127,4234.358871
98,0,4224.615281,4211.794769,4216.410153,4213.33323,4216.922974,4230.769127,4227.179384,4234.358871,4225.640922,4224.615281,4219.487076,4259.487075,4232.820409,4232.307589
99,0,4224.615281,4215.384512,4219.487076,4216.922974,4216.922974,4231.281948,4223.58964,4234.358871,4229.743486,4233.33323,4232.820409,4257.948614,4240.512717,4235.897332
100,0,4227.692204,4218.974256,4221.025538,4216.922974,4217.435794,4225.128102,4218.461435,4232.307589,4230.769127,4239.999896,4234.871691,4257.435793,4246.666563,4238.461435
101,0,4222.051179,4219.999897,4216.922974,4215.384512,4220.512717,4218.461435,4218.461435,4224.102461,4220.512717,4230.769127,4232.307589,4253.84605,4247.692204,4243.076819
102,0,4212.307589,4213.846051,4213.846051,4212.82041,4216.922974,4216.922974,4214.358871,4213.33323,4215.384512,4217.435794,4231.281948,4251.281947,4240.512717,4241.538358
103,0,4225.640922,4214.871692,4222.563999,4215.897333,4216.922974,4224.615281,4211.794769,4214.871692,4219.999897,4222.563999,4230.769127,4261.025537,4244.10246,4247.692204
104,0,4245.128101,4227.179384,4234.358871,4226.153743,4224.615281,4231.281948,4216.410153,4223.58964,4220.512717,4236.922973,4232.820409,4268.717844,4255.897332,4262.051178
105,0,4248.205024,4230.256307,4233.33323,4230.769127,4223.07682,4229.743486,4215.384512,4220.512717,4217.948615,4235.384512,4236.410153,4266.666562,4256.410152,4262.563998
106,0,4246.153742,4225.640922,4227.692204,4224.102461,4217.948615,4228.717845,4213.33323,4214.358871,4219.487076,4228.717845,4231.794768,4267.179383,4251.794768,4258.974255
107,0,4242.563999,4230.769127,4229.743486,4216.922974,4218.974256,4230.256307,4214.871692,4221.025538,4220.512717,4231.794768,4221.538358,4267.692203,4245.640922,4259.999896
108,0,4234.358871,4232.307589,4227.692204,4215.897333,4218.974256,4230.769127,4216.410153,4229.230666,4218.974256,4231.794768,4218.461435,4264.10246,4236.410153,4247.179383
109,0,4225.128102,4222.051179,4220.512717,4216.922974,4216.410153,4231.281948,4217.948615,4230.769127,4223.07682,4221.025538,4213.846051,4257.948614,4227.179384,4231.281948
110,0,4218.461435,4217.435794,4216.922974,4215.384512,4216.410153,4227.692204,4217.948615,4229.230666,4228.717845,4212.82041,4206.153743,4251.281947,4226.153743,4224.615281
111,0,4216.410153,4219.999897,4216.410153,4213.846051,4218.974256,4219.999897,4215.384512,4228.205025,4226.153743,4222.051179,4210.256307,4253.84605,4232.820409,4228.717845
112,0,4219.999897,4217.435794,4216.410153,4215.897333,4217.948615,4220.512717,4215.897333,4228.717845,4224.102461,4235.897332,4221.025538,4259.487075,4244.615281,4241.025537
113,0,4218.974256,4215.897333,4214.871692,4215.384512,4215.897333,4223.58964,4217.435794,4229.230666,4228.205025,4232.820409,4218.974256,4261.025537,4251.794768,4241.538358
114,0,4215.384512,4223.07682,4216.922974,4213.846051,4222.051179,4223.58964,4215.897333,4226.666563,4230.769127,4237.435794,4215.897333,4262.051178,4245.640922,4237.948614
115,0,4223.58964,4232.820409,4224.615281,4219.999897,4233.33323,4227.692204,4218.461435,4228.205025,4230.256307,4247.692204,4226.153743,4264.10246,4246.666563,4245.640922
116,0,4236.922973,4239.487076,4229.743486,4229.743486,4231.794768,4232.307589,4221.538358,4230.769127,4230.769127,4238.461435,4234.358871,4267.179383,4258.974255,4251.794768
117,0,4243.076819,4241.025537,4231.794768,4229.230666,4226.153743,4232.820409,4224.102461,4230.769127,4232.307589,4233.84605,4228.717845,4267.179383,4264.10246,4251.794768
118,0,4241.025537,4236.410153,4229.230666,4221.538358,4230.769127,4231.281948,4227.179384,4228.717845,4228.717845,4243.076819,4218.461435,4266.153742,4247.179383,4254.35887
119,0,4231.794768,4232.820409,4223.07682,4216.410153,4227.692204,4228.205025,4223.58964,4220.512717,4221.025538,4236.922973,4209.230666,4261.025537,4229.230666,4247.692204
120,0,4220.512717,4232.307589,4215.384512,4213.846051,4217.435794,4226.666563,4214.871692,4215.384512,4222.051179,4222.563999,4205.128102,4253.84605,4231.281948,4235.384512
121,0,4214.358871,4229.230666,4209.230666,4212.307589,4219.999897,4231.794768,4213.33323,4219.999897,4228.205025,4227.692204,4210.769128,4252.820409,4234.871691,4232.307589
122,0,4214.358871,4231.281948,4208.717846,4213.33323,4233.84605,4231.281948,4214.871692,4220.512717,4229.230666,4233.33323,4215.897333,4253.333229,4232.820409,4232.307589
123,0,4215.384512,4231.281948,4213.33323,4214.871692,4232.307589,4221.025538,4211.281948,4213.846051,4226.666563,4221.025538,4209.743487,4248.717845,4233.33323,4232.307589
124,0,4213.33323,4219.487076,4214.871692,4214.358871,4215.384512,4214.871692,4210.769128,4213.33323,4221.538358,4213.846051,4207.692205,4246.153742,4230.769127,4231.281948
125,0,4214.871692,4218.461435,4210.769128,4214.358871,4214.358871,4218.461435,4212.82041,4216.410153,4220.512717,4224.615281,4216.922974,4254.871691,4232.820409,4238.461435
126,0,4223.58964,4233.84605,4215.384512,4215.897333,4229.230666,4222.051179,4212.82041,4216.922974,4227.179384,4238.461435,4218.974256,4264.61528,4242.563999,4249.743486
127,0,4228.205025,4236.922973,4226.666563,4219.999897,4229.743486,4219.999897,4212.307589,4221.025538,4231.281948,4235.897332,4217.948615,4265.128101,4243.58964,4247.179383
128,0,4229.743486,4234.358871,4228.205025,4223.58964,4223.58964,4217.948615,4212.307589,4227.692204,4228.205025,4230.769127,4225.640922,4264.10246,4242.563999,4247.692204
0,0,4232.307589,4239.487076,4222.051179,4221.538358,4230.769127,4224.615281,4214.871692,4232.307589,4231.281948,4239.999896,4232.307589,4271.794767,4255.384511,4261.538357
1,0,4227.179384,4230.256307,4217.948615,4215.384512,4232.307589,4232.307589,4217.435794,4233.84605,4233.33323,4252.307588,4234.358871,4277.948613,4259.999896,4263.076819
2,0,4212.307589,4212.82041,4218.461435,4212.82041,4221.025538,4228.205025,4213.846051,4231.794768,4229.743486,4249.743486,4227.692204,4269.743485,4246.153742,4248.717845
3,0,4204.102461,4212.82041,4217.435794,4211.794769,4213.33323,4221.538358,4210.769128,4231.794768,4229.743486,4236.922973,4218.461435,4260.512716,4236.410153,4237.948614
4,0,4196.410154,4210.256307,4212.307589,4205.640923,4212.82041,4223.58964,4212.307589,4228.717845,4229.743486,4230.256307,4222.563999,4262.563998,4237.948614,4232.820409
5,0,4185.640923,4199.487077,4208.717846,4197.948615,4212.82041,4223.07682,4208.717846,4223.07682,4227.179384,4232.307589,4233.84605,4263.076819,4243.076819,4229.230666
6,0,4188.717846,4204.615282,4210.769128,4198.974256,4215.897333,4216.922974,4207.179384,4224.102461,4228.205025,4233.84605,4232.820409,4259.487075,4248.717845,4229.743486
7,0,4201.025538,4216.922974,4214.358871,4208.717846,4223.07682,4218.974256,4213.33323,4226.666563,4231.281948,4238.974255,4228.717845,4259.999896,4253.333229,4234.358871
8,0,4205.640923,4215.384512,4215.384512,4214.871692,4230.769127,4226.666563,4215.384512,4226.153743,4231.794768,4248.205024,4235.384512,4263.589639,4258.974255,4244.10246
9,0,4207.179384,4215.897333,4214.871692,4212.82041,4229.230666,4229.230666,4211.794769,4228.717845,4232.307589,4253.84605,4235.897332,4263.589639,4263.076819,4248.205024
10,0,4213.846051,4225.640922,4217.435794,4215.384512,4221.025538,4228.717845,4212.82041,4231.794768,4232.820409,4249.743486,4238.461435,4264.10246,4258.461434,4247.179383
11,0,4211.281948,4225.128102,4215.897333,4216.410153,4219.487076,4230.256307,4217.435794,4231.281948,4231.794768,4246.153742,4244.10246,4263.589639,4251.281947,4248.205024
12,0,4195.384513,4216.410153,4208.717846,4207.179384,4221.538358,4230.769127,4217.948615,4232.820409,4231.281948,4242.563999,4237.948614,4257.435793,4249.230665,4242.051178
13,0,4190.256308,4210.769128,4200.512718,4200.512718,4224.102461,4229.230666,4217.948615,4233.33323,4230.769127,4234.358871,4230.256307,4249.743486,4245.128101,4231.281948
14,0,4196.410154,4208.717846,4198.974256,4201.025538,4231.281948,4232.820409,4221.025538,4229.743486,4230.769127,4228.205025,4225.640922,4247.179383,4232.307589,4225.640922
15,0,4200.512718,4213.33323,4202.564,4201.025538,4230.769127,4237.948614,4222.563999,4230.256307,4231.794768,4228.205025,4222.563999,4246.666563,4226.153743,4225.640922
16,0,4199.487077,4218.461435,4203.07682,4201.538359,4217.435794,4233.84605,4218.974256,4228.205025,4231.794768,4231.281948,4228.717845,4249.743486,4235.897332,4226.153743
17,0,4200.512718,4211.794769,4204.615282,4201.538359,4211.281948,4226.153743,4215.384512,4223.07682,4230.769127,4237.435794,4243.58964,4252.820409,4246.153742,4233.84605
18,0,4206.666564,4212.307589,4209.743487,4202.564,4218.461435,4219.999897,4209.743487,4215.897333,4230.256307,4239.487076,4248.205024,4251.281947,4250.769127,4243.076819
19,0,4215.384512,4226.153743,4215.897333,4211.281948,4222.051179,4215.897333,4204.615282,4216.410153,4230.769127,4239.487076,4246.153742,4255.384511,4258.461434,4246.153742
20,0,4218.974256,4224.102461,4220.512717,4218.461435,4218.461435,4217.435794,4210.769128,4227.692204,4232.307589,4246.153742,4249.743486,4268.717844,4264.10246,4250.256306
21,0,4217.948615,4218.461435,4219.487076,4216.410153,4218.974256,4220.512717,4213.846051,4227.692204,4232.307589,4245.640922,4250.256306,4268.205024,4261.538357,4249.230665
22,0,4216.922974,4230.256307,4212.307589,4213.846051,4227.179384,4215.384512,4204.102461,4214.358871,4226.666563,4232.820409,4239.487076,4251.794768,4248.717845,4238.461435
23,0,4215.897333,4237.435794,4208.205025,4214.358871,4228.205025,4216.410153,4204.615282,4213.33323,4228.205025,4224.102461,4230.256307,4244.615281,4231.281948,4225.640922
24,0,4213.846051,4228.205025,4214.358871,4217.435794,4219.487076,4225.640922,4215.897333,4221.538358,4230.256307,4222.051179,4232.307589,4249.743486,4225.640922,4219.999897
25,0,4208.717846,4219.999897,4217.435794,4213.846051,4213.846051,4221.025538,4215.897333,4217.948615,4221.538358,4216.922974,4231.794768,4250.769127,4225.128102,4216.922974
26,0,4200.512718,4215.897333,4210.256307,4203.07682,4214.358871,4213.846051,4210.256307,4213.846051,4218.461435,4214.358871,4227.179384,4249.230665,4217.435794,4214.358871
27,0,4201.025538,4211.281948,4207.179384,4204.615282,4217.435794,4224.615281,4214.871692,4221.538358,4227.179384,4213.846051,4231.281948,4249.743486,4221.025538,4218.461435
28,0,4208.205025,4218.974256,4210.769128,4216.410153,4223.58964,4230.256307,4217.435794,4221.538358,4229.743486,4217.435794,4232.820409,4244.615281,4232.307589,4214.871692
29,0,4214.871692,4229.230666,4214.358871,4216.410153,4228.717845,4224.102461,4214.358871,4215.897333,4226.153743,4229.743486,4232.307589,4246.666563,4233.33323,4213.846051
30,0,4221.538358,4232.820409,4217.435794,4215.384512,4230.769127,4228.717845,4217.435794,4223.07682,4232.820409,4243.58964,4241.025537,4259.999896,4239.999896,4228.717845
31,0,4224.615281,4232.820409,4217.948615,4219.487076,4231.281948,4233.84605,4224.102461,4234.871691,4235.384512,4245.640922,4244.615281,4260.512716,4250.769127,4241.025537
32,0,4218.461435,4233.33323,4216.410153,4218.461435,4230.256307,4223.58964,4222.563999,4230.256307,4231.794768,4235.897332,4239.487076,4254.871691,4249.743486,4234.358871
33,0,4212.82041,4229.230666,4215.384512,4215.897333,4228.717845,4217.435794,4217.948615,4220.512717,4230.769127,4232.820409,4238.461435,4259.487075,4244.615281,4227.692204
34,0,4216.410153,4222.051179,4216.922974,4217.948615,4222.563999,4218.461435,4214.871692,4221.025538,4229.230666,4231.794768,4237.948614,4264.10246,4239.487076,4234.358871
35,0,4222.051179,4228.717845,4219.487076,4219.487076,4215.897333,4216.410153,4213.846051,4219.999897,4229.230666,4217.948615,4235.897332,4261.538357,4233.33323,4231.794768
36,0,4216.922974,4231.794768,4212.82041,4218.461435,4219.487076,4217.948615,4214.871692,4215.384512,4228.717845,4208.717846,4232.307589,4253.84605,4226.153743,4219.999897
37,0,4204.102461,4218.974256,4201.025538,4213.846051,4226.666563,4223.07682,4215.897333,4214.358871,4221.538358,4215.897333,4221.538358,4246.153742,4216.922974,4213.33323
38,0,4199.999897,4210.769128,4204.615282,4212.307589,4226.666563,4218.461435,4214.871692,4215.897333,4219.487076,4219.487076,4218.974256,4246.666563,4218.974256,4209.743487
39,0,4206.666564,4213.33323,4217.435794,4217.435794,4227.692204,4214.358871,4216.922974,4215.384512,4227.692204,4215.384512,4228.205025,4252.820409,4229.230666,4210.769128
40,0,4213.846051,4215.897333,4218.461435,4221.025538,4232.820409,4223.58964,4217.435794,4215.897333,4232.307589,4224.102461,4233.84605,4257.435793,4230.769127,4218.461435
41,0,4219.999897,4218.461435,4215.897333,4219.487076,4233.84605,4230.256307,4217.435794,4224.615281,4230.769127,4241.538358,4241.538358,4260.512716,4236.922973,4222.051179
42,0,4226.153743,4218.974256,4223.58964,4218.974256,4230.256307,4227.179384,4224.102461,4234.871691,4233.33323,4243.58964,4254.871691,4264.61528,4249.743486,4223.07682
43,0,4232.307589,4214.871692,4232.820409,4218.461435,4227.179384,4226.666563,4230.256307,4237.948614,4234.358871,4233.33323,4253.84605,4273.846049,4252.307588,4228.717845
44,0,4230.256307,4212.82041,4233.84605,4216.410153,4228.205025,4230.769127,4228.717845,4231.794768,4230.769127,4233.84605,4240.512717,4279.487075,4250.256306,4226.153743
45,0,4222.051179,4214.871692,4226.666563,4220.512717,4228.717845,4231.281948,4224.615281,4229.230666,4229.230666,4238.974255,4233.33323,4262.563998,4242.563999,4217.435794
46,0,4221.538358,4212.307589,4218.974256,4226.666563,4230.256307,4229.743486,4223.07682,4230.769127,4231.794768,4232.820409,4232.307589,4246.153742,4230.256307,4213.846051
47,0,4223.07682,4205.128102,4218.974256,4222.051179,4230.256307,4231.281948,4219.999897,4224.615281,4231.794768,4221.538358,4231.281948,4255.384511,4220.512717,4205.640923
48,0,4215.384512,4199.487077,4220.512717,4214.358871,4223.07682,4226.153743,4214.358871,4213.33323,4228.205025,4212.307589,4225.128102,4261.025537,4211.281948,4195.897333
49,0,4210.769128,4198.461436,4219.487076,4211.794769,4216.922974,4216.410153,4212.82041,4212.307589,4227.179384,4207.692205,4220.512717,4251.281947,4205.128102,4199.999897
50,0,4210.769128,4196.922974,4216.922974,4206.153743,4215.384512,4220.512717,4216.922974,4218.974256,4230.256307,4209.230666,4226.666563,4248.717845,4213.846051,4203.589641
51,0,4203.07682,4195.897333,4214.358871,4198.974256,4211.281948,4230.256307,4217.948615,4218.974256,4232.307589,4217.435794,4234.358871,4249.743486,4226.153743,4199.999897
52,0,4204.102461,4196.922974,4212.307589,4205.640923,4211.281948,4226.153743,4214.358871,4216.410153,4232.307589,4228.205025,4234.358871,4247.692204,4231.794768,4207.179384
53,0,4219.487076,4199.999897,4215.897333,4217.435794,4217.435794,4216.922974,4214.358871,4216.922974,4231.794768,4235.384512,4237.435794,4253.333229,4235.384512,4216.922974
54,0,4222.563999,4210.769128,4220.512717,4219.487076,4225.640922,4225.640922,4217.435794,4218.974256,4231.794768,4234.871691,4245.640922,4260.512716,4236.410153,4215.897333
55,0,4213.33323,4214.871692,4218.461435,4216.922974,4229.743486,4233.84605,4217.948615,4218.974256,4230.769127,4233.33323,4241.025537,4258.461434,4235.384512,4210.769128
56,0,4217.948615,4207.179384,4216.922974,4217.435794,4226.153743,4223.58964,4215.897333,4214.358871,4225.128102,4231.281948,4231.281948,4259.999896,4235.897332,4213.846051
57,0,4231.794768,4207.692205,4219.999897,4219.999897,4218.974256,4214.871692,4213.33323,4210.769128,4218.974256,4221.538358,4233.33323,4260.512716,4230.769127,4219.999897
58,0,4227.692204,4208.205025,4219.999897,4218.974256,4216.410153,4217.948615,4212.82041,4211.281948,4217.948615,4210.256307,4234.358871,4251.794768,4219.999897,4216.922974
59,0,4212.82041,4197.435795,4217.435794,4214.871692,4216.922974,4219.999897,4214.358871,4214.358871,4218.974256,4210.769128,4229.230666,4246.666563,4213.846051,4205.128102
60,0,4212.307589,4196.922974,4215.384512,4212.307589,4218.974256,4216.922974,4214.358871,4215.897333,4223.07682,4218.461435,4228.205025,4246.666563,4209.743487,4195.897333
61,0,4226.153743,4206.153743,4216.410153,4214.871692,4217.948615,4217.435794,4213.33323,4215.897333,4227.692204,4216.410153,4230.256307,4247.692204,4202.564,4199.487077
62,0,4235.897332,4215.384512,4224.102461,4217.435794,4212.82041,4219.487076,4214.358871,4217.435794,4229.230666,4213.846051,4232.820409,4251.281947,4207.692205,4208.205025
63,0,4237.948614,4227.692204,4224.615281,4218.974256,4219.999897,4220.512717,4215.897333,4217.948615,4230.256307,4223.58964,4233.84605,4251.281947,4217.948615,4206.666564
64,0,4232.307589,4227.692204,4216.922974,4223.07682,4232.820409,4222.563999,4215.384512,4219.487076,4231.281948,4229.230666,4232.307589,4246.153742,4211.281948,4198.461436
65,0,4234.358871,4222.051179,4222.563999,4230.256307,4234.358871,4223.07682,4214.358871,4222.051179,4231.281948,4226.666563,4231.794768,4252.307588,4206.666564,4204.102461
66,0,4244.615281,4231.794768,4230.769127,4229.230666,4231.794768,4222.051179,4213.846051,4221.025538,4228.717845,4226.153743,4232.307589,4261.025537,4215.384512,4216.922974
67,0,4242.051178,4233.33323,4222.563999,4221.025538,4229.743486,4216.922974,4211.794769,4216.410153,4223.58964,4224.102461,4233.84605,4255.897332,4210.769128,4213.33323
68,0,4229.230666,4216.410153,4214.871692,4219.487076,4220.512717,4212.307589,4211.281948,4211.281948,4217.948615,4209.743487,4228.717845,4248.205024,4196.410154,4201.025538
69,0,4226.666563,4212.82041,4218.461435,4225.640922,4216.922974,4214.871692,4212.307589,4210.256307,4217.435794,4202.051179,4222.563999,4249.743486,4198.461436,4198.974256
70,0,4235.897332,4227.179384,4219.487076,4229.743486,4229.743486,4216.922974,4211.794769,4213.33323,4225.128102,4211.281948,4221.025538,4251.281947,4201.538359,4202.564
71,0,4234.871691,4230.769127,4214.871692,4230.256307,4230.769127,4215.897333,4213.33323,4216.410153,4228.205025,4217.948615,4218.461435,4246.153742,4188.205026,4203.589641
72,0,4224.102461,4226.666563,4211.794769,4230.256307,4217.435794,4217.948615,4217.435794,4216.922974,4221.538358,4211.794769,4219.487076,4243.076819,4184.102462,4198.974256
73,0,4226.666563,4230.256307,4215.384512,4231.794768,4219.999897,4222.051179,4218.461435,4218.974256,4224.615281,4216.410153,4231.794768,4247.692204,4203.07682,4203.589641
74,0,4238.461435,4235.384512,4219.487076,4232.307589,4234.358871,4222.051179,4217.948615,4222.563999,4231.794768,4233.84605,4239.487076,4252.820409,4215.897333,4215.384512
75,0,4237.948614,4232.820409,4217.948615,4229.743486,4231.794768,4217.948615,4215.897333,4219.487076,4223.58964,4231.794768,4232.307589,4250.769127,4208.205025,4210.769128
76,0,4231.281948,4225.128102,4214.358871,4228.717845,4218.461435,4216.922974,4213.846051,4213.846051,4215.384512,4215.384512,4228.205025,4246.153742,4201.025538,4197.948615
77,0,4237.948614,4224.102461,4216.410153,4231.794768,4215.384512,4217.435794,4213.846051,4215.384512,4220.512717,4215.897333,4233.84605,4247.179383,4208.717846,4204.615282
78,0,4247.179383,4230.769127,4227.179384,4236.922973,4222.563999,4215.384512,4213.846051,4216.410153,4221.538358,4223.07682,4236.410153,4256.922973,4219.487076,4217.435794
79,0,4249.230665,4236.922973,4229.743486,4240.512717,4230.256307,4214.871692,4211.281948,4208.717846,4217.948615,4221.025538,4235.384512,4263.076819,4214.871692,4216.922974
80,0,4247.692204,4235.384512,4222.563999,4236.922973,4226.153743,4216.922974,4206.153743,4200.512718,4217.948615,4214.871692,4230.769127,4254.871691,4201.538359,4215.384512
81,0,4236.922973,4223.58964,4222.563999,4232.820409,4212.82041,4215.384512,4201.025538,4202.564,4216.922974,4212.307589,4227.692204,4247.179383,4200.512718,4214.871692
82,0,4229.230666,4213.846051,4225.640922,4232.307589,4216.410153,4212.307589,4205.128102,4205.128102,4215.384512,4212.307589,4228.717845,4251.281947,4201.025538,4210.769128
83,0,4239.999896,4226.153743,4218.461435,4234.358871,4229.230666,4214.358871,4213.846051,4201.025538,4214.871692,4207.692205,4229.743486,4253.333229,4192.82041,4210.256307
84,0,4249.743486,4242.051178,4214.358871,4239.487076,4228.205025,4214.871692,4210.769128,4197.435795,4212.82041,4200.512718,4227.692204,4247.692204,4185.640923,4203.07682
85,0,4246.666563,4237.435794,4218.974256,4246.153742,4226.153743,4214.358871,4205.128102,4203.07682,4213.33323,4207.179384,4226.666563,4246.666563,4185.128103,4200.512718
86,0,4247.179383,4232.307589,4222.051179,4246.153742,4228.205025,4217.435794,4210.769128,4207.692205,4214.871692,4216.922974,4232.307589,4252.820409,4190.256308,4211.794769
87,0,4250.256306,4240.512717,4224.615281,4242.051178,4222.051179,4219.999897,4218.974256,4205.640923,4215.384512,4215.384512,4235.384512,4258.974255,4198.461436,4217.435794
88,0,4250.769127,4245.128101,4231.794768,4246.153742,4221.025538,4217.948615,4217.435794,4207.692205,4217.948615,4214.358871,4233.33323,4262.051178,4201.538359,4217.435794
89,0,4257.435793,4245.640922,4236.410153,4252.820409,4229.743486,4217.435794,4217.435794,4215.384512,4219.999897,4221.538358,4233.84605,4264.10246,4201.025538,4219.999897
90,0,4261.538357,4243.58964,4234.358871,4247.692204,4229.743486,4217.435794,4217.435794,4214.358871,4215.897333,4217.948615,4235.384512,4263.076819,4202.564,4213.846051
91,0,4257.948614,4244.10246,4233.84605,4245.128101,4227.179384,4217.435794,4215.897333,4211.794769,4215.897333,4214.871692,4232.307589,4261.538357,4201.025538,4217.435794
92,0,4263.076819,4248.205024,4238.974255,4256.410152,4234.871691,4222.051179,4222.051179,4217.435794,4223.58964,4228.205025,4234.358871,4265.640921,4201.538359,4232.820409
93,0,4266.153742,4241.538358,4238.461435,4256.410152,4236.922973,4227.692204,4229.230666,4221.025538,4222.563999,4230.256307,4241.025537,4268.205024,4205.128102,4227.692204
94,0,4253.333229,4228.717845,4229.743486,4242.563999,4231.794768,4225.128102,4227.692204,4216.410153,4217.948615,4217.435794,4236.410153,4262.051178,4201.025538,4214.871692
95,0,4242.051178,4228.717845,4226.153743,4242.563999,4227.692204,4218.974256,4225.640922,4216.410153,4223.58964,4217.435794,4231.281948,4259.999896,4196.922974,4214.871692
96,0,4246.666563,4233.33323,4231.281948,4251.281947,4223.58964,4224.102461,4230.769127,4225.640922,4229.230666,4228.205025,4235.897332,4265.640921,4201.538359,4217.435794
97,0,4253.84605,4234.358871,4234.871691,4248.717845,4227.692204,4228.205025,4232.307589,4231.281948,4228.717845,4233.84605,4237.948614,4269.230665,4205.640923,4223.58964
98,0,4247.692204,4231.281948,4228.205025,4245.128101,4232.820409,4222.563999,4230.769127,4224.102461,4226.666563,4233.33323,4232.820409,4263.076819,4203.589641,4219.487076
99,0,4231.281948,4221.025538,4217.435794,4243.58964,4228.205025,4220.512717,4226.666563,4214.871692,4221.025538,4223.07682,4233.33323,4255.897332,4198.974256,4202.051179
100,0,4231.281948,4214.871692,4213.846051,4242.563999,4223.07682,4223.58964,4221.025538,4215.897333,4217.435794,4213.846051,4236.922973,4258.461434,4197.948615,4201.538359
101,0,4241.538358,4222.563999,4219.487076,4245.128101,4229.230666,4221.538358,4224.102461,4216.922974,4218.974256,4217.948615,4232.820409,4258.974255,4198.461436,4209.743487
102,0,4236.922973,4228.717845,4223.07682,4247.179383,4230.256307,4217.435794,4226.666563,4208.205025,4216.922974,4212.307589,4225.128102,4249.743486,4192.82041,4202.051179
103,0,4232.307589,4227.692204,4221.025538,4246.666563,4219.999897,4217.948615,4218.974256,4201.025538,4213.846051,4202.051179,4218.461435,4247.692204,4184.102462,4201.538359
104,0,4245.128101,4231.281948,4223.58964,4247.692204,4217.948615,4217.435794,4215.897333,4204.102461,4215.897333,4212.307589,4222.051179,4258.461434,4189.230667,4214.871692
105,0,4256.410152,4234.358871,4227.692204,4251.281947,4225.128102,4217.435794,4223.58964,4204.615282,4216.922974,4214.871692,4232.820409,4263.589639,4201.025538,4221.538358
106,0,4243.58964,4230.256307,4221.025538,4248.717845,4227.692204,4217.948615,4221.025538,4198.974256,4212.82041,4202.564,4232.307589,4258.461434,4198.461436,4217.435794
107,0,4230.769127,4228.205025,4215.897333,4244.615281,4228.205025,4215.897333,4216.922974,4203.07682,4212.82041,4207.179384,4226.153743,4256.922973,4194.358872,4210.256307
108,0,4241.025537,4229.743486,4222.051179,4245.640922,4226.666563,4215.897333,4224.615281,4217.948615,4219.487076,4229.230666,4230.769127,4262.563998,4206.153743,4214.871692
109,0,4252.307588,4226.666563,4224.102461,4247.692204,4221.538358,4218.974256,4227.692204,4224.102461,4222.051179,4233.33323,4238.974255,4265.640921,4216.922974,4227.179384
110,0,4242.051178,4227.692204,4216.410153,4245.640922,4223.07682,4219.487076,4219.487076,4213.846051,4216.922974,4217.948615,4233.84605,4259.487075,4205.640923,4226.666563
111,0,4232.820409,4235.384512,4214.871692,4246.666563,4225.640922,4215.897333,4213.846051,4201.025538,4214.358871,4207.179384,4222.563999,4251.281947,4189.743487,4212.82041
112,0,4245.128101,4246.153742,4217.948615,4255.384511,4225.640922,4214.358871,4216.410153,4199.487077,4216.410153,4207.692205,4215.897333,4247.179383,4187.692205,4205.128102
113,0,4252.307588,4256.410152,4217.948615,4261.538357,4230.769127,4215.384512,4216.922974,4198.461436,4214.871692,4206.153743,4215.384512,4248.205024,4185.128103,4205.640923
114,0,4246.153742,4263.076819,4214.871692,4259.487075,4232.307589,4218.461435,4215.384512,4194.358872,4211.794769,4194.871692,4214.358871,4249.743486,4170.769129,4197.948615
115,0,4248.205024,4263.589639,4215.384512,4253.333229,4229.230666,4222.051179,4216.922974,4196.410154,4213.33323,4196.410154,4207.692205,4248.205024,4161.53836,4185.128103
116,0,4248.205024,4257.948614,4214.871692,4249.230665,4230.769127,4221.538358,4220.512717,4197.948615,4213.846051,4198.974256,4200.512718,4246.153742,4158.974257,4185.128103
117,0,4235.384512,4245.128101,4212.82041,4248.205024,4226.666563,4218.461435,4225.128102,4194.358872,4211.794769,4186.666564,4201.538359,4243.58964,4153.846052,4186.666564
118,0,4230.256307,4240.512717,4214.358871,4248.717845,4221.025538,4219.999897,4227.179384,4197.435795,4213.33323,4187.692205,4206.666564,4243.58964,4158.974257,4186.153744
119,0,4237.435794,4248.205024,4214.871692,4248.717845,4228.717845,4220.512717,4225.640922,4204.102461,4216.410153,4201.025538,4204.615282,4245.128101,4171.281949,4191.281949
120,0,4235.897332,4250.256306,4213.33323,4248.205024,4231.794768,4217.435794,4221.538358,4202.051179,4213.846051,4202.051179,4202.051179,4244.615281,4171.79477,4194.358872
121,0,4232.307589,4247.692204,4214.871692,4250.769127,4227.179384,4216.922974,4218.974256,4200.512718,4211.281948,4205.640923,4205.128102,4246.153742,4169.743488,4193.846051
122,0,4241.538358,4249.743486,4218.461435,4251.281947,4229.230666,4216.922974,4219.487076,4207.179384,4216.410153,4216.922974,4205.640923,4250.256306,4174.871693,4195.897333
123,0,4248.717845,4249.743486,4218.461435,4251.281947,4229.743486,4214.871692,4220.512717,4209.743487,4215.384512,4209.743487,4203.07682,4250.769127,4175.384513,4191.281949
124,0,4246.666563,4245.128101,4218.461435,4249.230665,4222.563999,4215.384512,4219.487076,4203.07682,4205.640923,4194.358872,4202.051179,4248.205024,4169.743488,4183.589641
125,0,4244.615281,4244.10246,4215.384512,4247.179383,4216.922974,4215.897333,4220.512717,4199.487077,4205.128102,4195.384513,4195.384513,4244.615281,4167.179385,4185.128103
126,0,4246.666563,4248.717845,4213.846051,4253.333229,4216.922974,4214.871692,4224.615281,4202.564,4214.358871,4199.487077,4187.179385,4244.615281,4168.717847,4186.666564
127,0,4247.692204,4251.281947,4221.538358,4263.589639,4225.128102,4215.897333,4226.153743,4204.102461,4216.410153,4201.025538,4192.82041,4251.794768,4170.256308,4188.205026
128,0,4249.230665,4250.769127,4226.666563,4265.128101,4231.794768,4218.974256,4225.128102,4201.538359,4213.33323,4202.564,4196.410154,4254.35887,4172.30759,4198.974256
0,0,4249.230665,4248.205024,4221.538358,4260.512716,4230.769127,4219.999897,4224.615281,4202.564,4213.846051,4202.051179,4188.717846,4249.743486,4173.333231,4200.512718
1,0,4239.487076,4247.692204,4212.307589,4259.487075,4230.256307,4219.487076,4225.640922,4204.615282,4214.358871,4202.564,4185.128103,4246.666563,4168.717847,4187.692205
2,0,4228.717845,4246.666563,4208.205025,4256.410152,4232.820409,4217.948615,4225.640922,4202.051179,4209.743487,4201.025538,4186.153744,4246.153742,4168.717847,4183.076821
3,0,4231.281948,4246.666563,4210.769128,4249.743486,4230.769127,4215.897333,4224.615281,4199.487077,4209.230666,4199.487077,4186.153744,4246.666563,4179.487077,4193.846051
4,0,4242.051178,4249.743486,4216.410153,4253.333229,4226.666563,4216.922974,4225.128102,4203.07682,4214.358871,4205.640923,4189.230667,4250.256306,4188.717846,4203.07682
5,0,4246.153742,4250.769127,4215.897333,4262.051178,4228.205025,4216.410153,4221.025538,4203.589641,4215.384512,4207.692205,4188.717846,4251.281947,4185.640923,4199.999897
6,0,4246.153742,4250.256306,4216.410153,4266.666562,4229.743486,4213.846051,4216.922974,4198.461436,4211.794769,4203.589641,4182.564,4247.179383,4176.922975,4197.435795
7,0,4248.205024,4249.230665,4218.461435,4264.10246,4226.153743,4215.897333,4221.538358,4197.435795,4213.33323,4198.461436,4184.102462,4247.692204,4171.281949,4196.410154
8,0,4241.538358,4242.051178,4210.256307,4260.512716,4221.025538,4218.974256,4228.717845,4201.538359,4213.33323,4191.281949,4181.538359,4247.692204,4168.205026,4190.256308
9,0,4225.128102,4233.33323,4199.999897,4259.487075,4218.974256,4217.435794,4227.179384,4201.025538,4209.743487,4185.640923,4170.256308,4239.487076,4164.102462,4184.102462
10,0,4219.487076,4231.281948,4201.025538,4259.487075,4216.922974,4216.410153,4225.640922,4196.922974,4211.794769,4190.769128,4169.743488,4232.820409,4165.128103,4184.102462
11,0,4232.820409,4237.948614,4208.205025,4258.974255,4217.948615,4220.512717,4231.281948,4201.538359,4216.410153,4205.640923,4184.615282,4239.999896,4177.435795,4188.717846
12,0,4240.512717,4246.666563,4213.846051,4258.974255,4227.179384,4224.102461,4233.84605,4214.871692,4218.974256,4216.922974,4193.333231,4251.281947,4187.179385,4197.435795
13,0,4233.84605,4245.128101,4211.281948,4262.051178,4230.256307,4220.512717,4231.794768,4219.487076,4220.512717,4221.538358,4189.743487,4250.769127,4187.179385,4203.589641
14,0,4228.205025,4232.820409,4206.153743,4259.487075,4219.487076,4213.846051,4228.717845,4211.281948,4217.948615,4219.999897,4186.666564,4245.128101,4184.615282,4193.846051
15,0,4231.794768,4234.358871,4205.640923,4257.948614,4218.974256,4218.974256,4228.205025,4204.615282,4215.384512,4217.435794,4187.179385,4244.615281,4182.564,4185.128103
16,0,4234.358871,4251.281947,4205.128102,4262.051178,4232.307589,4227.692204,4229.230666,4203.589641,4216.922974,4216.410153,4188.717846,4245.640922,4189.743487,4197.435795
17,0,4235.384512,4255.384511,4207.692205,4265.128101,4236.922973,4223.07682,4228.205025,4202.051179,4216.410153,4216.922974,4190.256308,4246.666563,4199.999897,4207.692205
18,0,4235.384512,4248.205024,4213.846051,4264.61528,4230.769127,4220.512717,4227.179384,4201.025538,4215.897333,4217.948615,4187.692205,4247.179383,4193.846051,4201.025538
19,0,4232.307589,4247.692204,4211.794769,4264.10246,4226.666563,4227.692204,4228.717845,4201.025538,4215.897333,4209.743487,4182.564,4244.615281,4181.025539,4192.82041
20,0,4229.230666,4245.640922,4204.615282,4261.538357,4229.230666,4229.230666,4229.743486,4201.025538,4214.358871,4199.999897,4181.538359,4239.487076,4179.487077,4191.794769
21,0,4227.179384,4233.84605,4201.538359,4258.974255,4232.307589,4225.640922,4230.256307,4201.538359,4212.82041,4195.384513,4184.102462,4235.897332,4180.512718,4186.153744
22,0,4225.128102,4228.205025,4199.999897,4259.999896,4230.769127,4229.230666,4230.256307,4198.974256,4212.82041,4197.435795,4183.076821,4234.358871,4181.025539,4182.05118
23,0,4226.153743,4236.922973,4197.948615,4258.974255,4231.794768,4233.33323,4230.769127,4199.999897,4214.871692,4208.717846,4181.538359,4234.358871,4183.076821,4190.256308
24,0,4228.205025,4246.666563,4201.538359,4259.487075,4229.743486,4228.717845,4231.281948,4209.230666,4218.461435,4221.538358,4183.589641,4240.512717,4184.615282,4197.948615
25,0,4232.820409,4249.230665,4208.717846,4262.563998,4218.974256,4223.07682,4232.307589,4216.410153,4219.487076,4231.281948,4191.281949,4248.717845,4196.410154,4201.025538
26,0,4244.10246,4251.281947,4215.897333,4265.640921,4220.512717,4220.512717,4231.281948,4218.461435,4217.948615,4234.871691,4204.102461,4250.256306,4211.794769,4211.794769
27,0,4251.794768,4253.333229,4216.410153,4270.769126,4234.871691,4218.974256,4229.743486,4214.358871,4217.948615,4226.153743,4203.07682,4249.230665,4208.717846,4216.922974
28,0,4243.58964,4252.307588,4211.794769,4268.205024,4235.384512,4219.999897,4229.230666,4207.179384,4217.435794,4212.82041,4186.666564,4249.743486,4195.384513,4203.589641
29,0,4232.820409,4246.153742,4206.153743,4255.384511,4231.794768,4224.102461,4229.230666,4203.589641,4214.871692,4205.640923,4181.538359,4245.128101,4188.717846,4196.410154
30,0,4225.640922,4237.435794,4202.051179,4247.179383,4231.281948,4222.051179,4228.717845,4203.07682,4214.358871,4200.512718,4181.025539,4237.948614,4181.538359,4196.922974
31,0,4216.410153,4232.820409,4200.512718,4250.256306,4218.461435,4215.897333,4229.230666,4208.205025,4215.384512,4198.974256,4170.769129,4238.461435,4170.769129,4191.281949
32,0,4214.871692,4232.820409,4204.102461,4254.871691,4215.384512,4218.461435,4231.794768,4213.846051,4216.410153,4201.025538,4170.256308,4245.640922,4168.717847,4190.256308
33,0,4220.512717,4230.769127,4205.640923,4253.333229,4226.153743,4224.102461,4234.358871,4213.846051,4216.922974,4198.974256,4172.820411,4246.666563,4168.717847,4193.333231
34,0,4213.846051,4230.769127,4203.07682,4248.717845,4222.563999,4222.563999,4234.358871,4209.230666,4216.922974,4201.025538,4167.179385,4237.435794,4172.820411,4192.30759
35,0,4205.128102,4232.820409,4199.487077,4247.179383,4219.487076,4219.999897,4232.307589,4205.640923,4217.435794,4206.666564,4175.384513,4231.281948,4185.128103,4192.82041
36,0,4211.281948,4229.743486,4196.922974,4248.717845,4228.205025,4219.487076,4230.256307,4202.564,4215.897333,4203.589641,4184.102462,4229.743486,4189.230667,4187.179385
37,0,4215.897333,4228.717845,4195.897333,4246.666563,4225.640922,4217.948615,4229.743486,4202.051179,4214.871692,4200.512718,4172.820411,4229.743486,4186.153744,4183.589641
38,0,4214.871692,4233.84605,4198.974256,4248.205024,4216.922974,4217.435794,4229.743486,4206.666564,4216.410153,4204.102461,4173.846052,4236.410153,4192.30759,4195.897333
39,0,4217.948615,4231.281948,4203.07682,4249.743486,4218.461435,4218.461435,4229.743486,4205.640923,4215.897333,4204.615282,4183.589641,4239.487076,4191.281949,4202.051179
40,0,4220.512717,4227.179384,4202.564,4247.179383,4219.487076,4217.948615,4229.743486,4204.615282,4215.384512,4205.640923,4176.410154,4234.871691,4183.076821,4199.999897
41,0,4216.410153,4230.256307,4202.051179,4245.640922,4218.974256,4215.897333,4229.230666,4209.230666,4217.435794,4205.640923,4171.281949,4240.512717,4186.666564,4203.07682
42,0,4213.846051,4226.666563,4202.564,4247.179383,4217.435794,4213.846051,4227.179384,4206.153743,4215.384512,4200.512718,4172.820411,4249.743486,4183.589641,4202.564
43,0,4216.922974,4223.07682,4201.025538,4248.205024,4213.846051,4213.33323,4226.666563,4198.461436,4210.769128,4199.487077,4168.205026,4241.538358,4172.30759,4198.461436
44,0,4218.461435,4228.205025,4201.025538,4248.717845,4221.025538,4216.410153,4228.205025,4200.512718,4213.846051,4199.999897,4166.666565,4232.820409,4168.717847,4193.846051
45,0,4214.358871,4225.128102,4200.512718,4248.717845,4228.205025,4216.410153,4226.666563,4202.564,4217.948615,4197.435795,4168.717847,4239.999896,4168.205026,4189.743487
46,0,4210.769128,4216.922974,4198.974256,4247.692204,4227.692204,4214.358871,4226.153743,4201.025538,4216.922974,4202.051179,4173.333231,4246.153742,4174.871693,4195.897333
47,0,4212.82041,4221.025538,4205.128102,4246.153742,4228.205025,4216.410153,4229.743486,4208.717846,4216.922974,4214.358871,4184.615282,4248.205024,4193.846051,4208.717846
48,0,4214.871692,4227.179384,4215.897333,4246.666563,4231.281948,4217.948615,4230.769127,4210.769128,4217.948615,4216.922974,4191.281949,4251.281947,4205.128102,4213.33323
49,0,4218.974256,4229.743486,4217.948615,4250.256306,4234.358871,4215.897333,4229.230666,4203.07682,4217.435794,4216.922974,4193.333231,4251.281947,4211.281948,4216.410153
50,0,4229.230666,4233.84605,4214.871692,4251.281947,4227.692204,4215.897333,4230.769127,4206.153743,4218.461435,4227.179384,4198.461436,4249.230665,4221.538358,4212.82041
51,0,4233.84605,4231.281948,4216.410153,4248.205024,4215.897333,4218.974256,4232.307589,4215.384512,4221.025538,4230.256307,4196.922974,4248.717845,4214.871692,4201.538359
52,0,4226.153743,4228.205025,4220.512717,4247.179383,4220.512717,4219.999897,4231.281948,4216.922974,4221.538358,4221.538358,4189.230667,4251.794768,4201.538359,4206.666564
53,0,4218.461435,4230.256307,4220.512717,4248.205024,4233.33323,4217.948615,4230.769127,4212.307589,4218.974256,4212.82041,4187.179385,4251.794768,4202.564,4208.205025
54,0,4211.281948,4226.153743,4211.794769,4247.692204,4232.307589,4219.487076,4228.717845,4203.589641,4216.410153,4207.179384,4182.564,4240.512717,4198.461436,4186.666564
55,0,4204.102461,4217.948615,4205.128102,4246.666563,4231.281948,4227.692204,4229.230666,4197.948615,4216.922974,4202.564,4171.281949,4230.256307,4179.487077,4174.358872
56,0,4202.051179,4219.999897,4209.743487,4248.205024,4237.435794,4230.769127,4230.256307,4198.974256,4215.384512,4196.922974,4164.615283,4237.435794,4169.743488,4182.05118
57,0,4206.666564,4227.179384,4214.358871,4248.717845,4233.84605,4229.743486,4231.794768,4207.179384,4216.922974,4201.538359,4175.384513,4245.640922,4179.999898,4188.717846
58,0,4215.384512,4227.179384,4213.846051,4248.717845,4226.666563,4232.820409,4239.487076,4224.615281,4225.640922,4219.999897,4193.846051,4247.179383,4195.897333,4194.871692
59,0,4226.153743,4225.640922,4216.922974,4250.769127,4228.205025,4234.871691,4248.205024,4235.384512,4230.256307,4233.84605,4197.435795,4254.871691,4204.615282,4204.615282
60,0,4230.256307,4230.256307,4220.512717,4252.307588,4230.769127,4232.820409,4248.717845,4232.307589,4230.256307,4234.358871,4198.461436,4261.025537,4209.743487,4206.153743
61,0,4223.58964,4233.84605,4218.974256,4250.256306,4232.307589,4231.794768,4246.666563,4233.84605,4228.717845,4234.871691,4205.640923,4259.487075,4213.33323,4202.051179
62,0,4215.897333,4231.794768,4216.410153,4250.769127,4233.84605,4232.820409,4247.179383,4233.33323,4222.563999,4231.281948,4202.564,4258.974255,4208.205025,4206.666564
63,0,4215.897333,4229.743486,4216.922974,4252.820409,4234.871691,4230.256307,4245.640922,4220.512717,4216.922974,4218.461435,4193.333231,4256.922973,4198.461436,4213.846051
64,0,4218.974256,4230.256307,4217.948615,4252.820409,4234.871691,4219.999897,4238.974255,4216.410153,4217.435794,4212.82041,4194.358872,4250.769127,4199.487077,4210.769128
65,0,4218.974256,4230.256307,4217.435794,4257.435793,4233.84605,4215.897333,4233.84605,4218.461435,4216.922974,4214.358871,4192.82041,4248.717845,4203.07682,4203.07682
66,0,4223.07682,4230.769127,4215.384512,4261.025537,4229.230666,4225.640922,4235.897332,4217.435794,4214.358871,4211.794769,4184.615282,4248.717845,4195.897333,4199.487077
67,0,4232.820409,4234.871691,4218.461435,4254.35887,4221.538358,4227.692204,4244.10246,4225.640922,4218.461435,4215.384512,4189.743487,4254.35887,4190.769128,4201.538359
68,0,4232.307589,4232.820409,4221.025538,4247.179383,4215.384512,4219.487076,4247.692204,4231.281948,4218.974256,4222.563999,4199.999897,4261.025537,4199.999897,4208.205025
69,0,4221.538358,4221.538358,4216.922974,4245.640922,4214.871692,4217.948615,4241.025537,4222.051179,4217.435794,4221.025538,4205.128102,4257.435793,4208.205025,4211.794769
70,0,4215.897333,4214.871692,4213.33323,4245.640922,4215.897333,4219.999897,4234.358871,4217.435794,4218.461435,4218.461435,4203.589641,4249.743486,4207.692205,4205.128102
71,0,4215.384512,4212.82041,4214.358871,4241.025537,4217.435794,4216.410153,4231.794768,4214.871692,4216.410153,4216.410153,4192.82041,4248.205024,4203.589641,4197.435795
72,0,4210.769128,4208.717846,4215.384512,4233.33323,4225.128102,4214.358871,4229.743486,4203.07682,4212.307589,4204.615282,4182.05118,4246.666563,4191.794769,4196.922974
73,0,4209.230666,4213.33323,4209.743487,4237.435794,4231.794768,4216.922974,4228.205025,4198.974256,4211.281948,4196.410154,4184.102462,4245.128101,4189.743487,4199.999897
74,0,4214.871692,4223.58964,4206.153743,4248.205024,4223.07682,4215.384512,4227.692204,4205.640923,4212.82041,4201.538359,4189.743487,4247.179383,4198.461436,4201.538359
75,0,4216.410153,4218.461435,4211.794769,4247.692204,4212.82041,4212.307589,4227.692204,4204.102461,4212.307589,4202.564,4186.153744,4246.666563,4194.358872,4200.512718
76,0,4218.461435,4214.871692,4216.922974,4242.051178,4214.358871,4213.33323,4226.666563,4201.538359,4213.33323,4196.410154,4182.564,4247.179383,4183.076821,4201.025538
77,0,4228.205025,4223.58964,4219.487076,4245.128101,4217.435794,4216.410153,4231.794768,4208.205025,4212.82041,4197.948615,4187.692205,4256.410152,4183.589641,4203.589641
78,0,4234.871691,4224.102461,4223.58964,4247.179383,4213.846051,4215.384512,4232.307589,4212.82041,4211.794769,4200.512718,4189.743487,4258.461434,4187.692205,4204.102461
79,0,4231.281948,4220.512717,4222.563999,4244.615281,4213.846051,4213.846051,4221.538358,4212.307589,4214.871692,4200.512718,4183.076821,4249.230665,4184.102462,4204.615282
80,0,4219.487076,4226.153743,4217.435794,4244.615281,4218.461435,4217.948615,4215.384512,4214.871692,4217.435794,4201.538359,4182.564,4247.692204,4184.615282,4202.564
81,0,4215.384512,4229.743486,4216.922974,4246.153742,4219.487076,4218.974256,4217.948615,4215.897333,4214.358871,4200.512718,4190.769128,4254.871691,4191.794769,4201.538359
82,0,4223.07682,4228.717845,4218.461435,4247.179383,4223.07682,4216.922974,4217.435794,4214.358871,4214.358871,4203.589641,4197.948615,4254.871691,4201.538359,4211.281948
83,0,4226.153743,4231.281948,4216.922974,4247.179383,4231.281948,4217.948615,4213.846051,4217.435794,4217.435794,4216.410153,4199.999897,4250.256306,4206.666564,4214.358871
84,0,4216.410153,4229.230666,4213.846051,4247.692204,4231.281948,4220.512717,4212.307589,4213.846051,4216.410153,4217.948615,4192.30759,4247.692204,4204.102461,4201.025538
85,0,4210.769128,4228.205025,4212.82041,4247.692204,4226.153743,4218.461435,4211.794769,4204.615282,4212.307589,4203.07682,4185.640923,4245.640922,4203.589641,4196.410154
86,0,4218.974256,4233.84605,4217.435794,4248.205024,4229.230666,4215.384512,4219.487076,4210.256307,4213.33323,4201.538359,4195.897333,4252.820409,4207.692205,4210.256307
87,0,4229.743486,4236.410153,4219.487076,4249.743486,4229.743486,4220.512717,4234.871691,4219.487076,4217.435794,4215.897333,4205.640923,4262.563998,4214.358871,4218.974256
88,0,4231.794768,4236.410153,4219.487076,4250.769127,4221.538358,4224.615281,4248.717845,4218.974256,4217.948615,4217.435794,4201.538359,4264.61528,4217.435794,4216.922974
89,0,4227.179384,4231.794768,4223.58964,4244.615281,4216.922974,4221.025538,4259.487075,4219.999897,4216.410153,4212.82041,4197.948615,4264.61528,4209.230666,4216.922974
90,0,4224.102461,4220.512717,4222.563999,4235.897332,4215.897333,4222.051179,4267.179383,4225.640922,4217.948615,4217.435794,4200.512718,4261.025537,4201.025538,4216.410153
91,0,4220.512717,4213.846051,4216.922974,4232.820409,4217.435794,4229.230666,4273.333229,4229.230666,4218.974256,4218.974256,4199.999897,4252.820409,4207.179384,4212.82041
92,0,4212.307589,4222.563999,4218.974256,4234.871691,4226.153743,4229.743486,4278.974254,4230.769127,4219.999897,4222.051179,4199.999897,4254.35887,4217.948615,4212.307589
93,0,4213.33323,4231.794768,4221.538358,4242.051178,4235.897332,4228.717845,4279.487075,4231.281948,4224.102461,4231.281948,4203.589641,4262.563998,4220.512717,4216.922974
94,0,4217.435794,4232.307589,4217.435794,4245.640922,4233.33323,4231.794768,4280.512716,4231.281948,4224.102461,4228.205025,4202.564,4257.948614,4218.461435,4216.922974
95,0,4212.307589,4230.769127,4213.846051,4238.461435,4223.58964,4225.128102,4281.538357,4227.692204,4218.461435,4216.922974,4196.922974,4249.230665,4216.410153,4211.794769
96,0,4208.717846,4228.717845,4212.82041,4231.281948,4216.922974,4215.384512,4272.307588,4220.512717,4217.435794,4217.948615,4199.487077,4250.256306,4213.846051,4211.281948
97,0,4213.33323,4230.769127,4210.256307,4233.33323,4214.358871,4214.871692,4262.051178,4215.897333,4218.461435,4220.512717,4203.589641,4251.281947,4214.358871,4213.33323
98,0,4216.922974,4233.84605,4210.769128,4235.384512,4221.538358,4215.384512,4262.051178,4211.794769,4214.871692,4213.33323,4195.897333,4248.717845,4212.307589,4214.871692
99,0,4217.948615,4233.33323,4214.358871,4232.820409,4229.230666,4216.410153,4264.61528,4211.281948,4213.33323,4206.666564,4191.794769,4254.35887,4206.153743,4216.922974
100,0,4219.487076,4231.794768,4217.948615,4231.794768,4226.153743,4218.461435,4263.076819,4215.384512,4216.922974,4202.051179,4191.281949,4261.538357,4202.051179,4216.922974
101,0,4217.435794,4228.717845,4215.384512,4231.794768,4221.025538,4215.897333,4257.948614,4214.871692,4215.897333,4201.025538,4182.564,4255.897332,4197.435795,4216.410153
102,0,4215.897333,4231.794768,4212.82041,4235.384512,4226.666563,4217.435794,4257.435793,4212.82041,4214.871692,4210.769128,4187.692205,4247.179383,4201.538359,4218.974256
103,0,4219.999897,4241.538358,4217.948615,4238.461435,4234.871691,4222.563999,4262.563998,4218.461435,4216.410153,4219.487076,4201.025538,4248.717845,4211.281948,4217.435794
104,0,4211.794769,4239.999896,4215.384512,4233.33323,4228.717845,4218.974256,4263.076819,4214.871692,4215.897333,4212.82041,4192.30759,4246.666563,4206.153743,4204.615282
105,0,4196.922974,4228.205025,4202.564,4227.179384,4222.051179,4214.871692,4256.922973,4204.615282,4214.871692,4204.102461,4179.999898,4236.410153,4195.384513,4195.897333
106,0,4196.922974,4226.153743,4195.384513,4229.230666,4227.692204,4217.948615,4258.461434,4206.666564,4215.897333,4204.102461,4184.615282,4231.281948,4198.461436,4198.974256
107,0,4202.564,4230.769127,4201.538359,4230.769127,4233.33323,4217.948615,4263.076819,4211.794769,4215.897333,4202.051179,4187.179385,4232.820409,4199.999897,4203.07682
108,0,4207.179384,4232.820409,4212.82041,4232.307589,4229.230666,4216.410153,4262.563998,4210.769128,4214.871692,4204.615282,4181.025539,4238.461435,4197.435795,4206.666564
109,0,4216.410153,4235.897332,4220.512717,4239.487076,4225.128102,4218.974256,4262.051178,4213.846051,4216.922974,4214.871692,4186.153744,4246.153742,4199.487077,4214.871692
110,0,4221.025538,4234.358871,4217.948615,4239.487076,4228.717845,4218.974256,4261.538357,4220.512717,4218.974256,4216.922974,4192.82041,4253.84605,4193.846051,4216.922974
111,0,4211.794769,4229.743486,4215.897333,4231.281948,4229.743486,4215.384512,4259.999896,4216.922974,4215.897333,4210.769128,4188.717846,4258.461434,4185.640923,4211.281948
112,0,4213.846051,4234.358871,4223.07682,4233.33323,4231.281948,4217.948615,4261.538357,4214.871692,4213.846051,4211.281948,4189.230667,4262.051178,4195.897333,4218.461435
113,0,4226.153743,4235.384512,4224.102461,4239.999896,4234.871691,4223.07682,4263.589639,4223.58964,4216.410153,4216.410153,4194.871692,4261.538357,4208.205025,4229.743486
114,0,4223.58964,4230.256307,4218.974256,4232.820409,4235.897332,4226.153743,4261.025537,4229.743486,4217.435794,4221.538358,4195.384513,4258.461434,4207.179384,4230.256307
115,0,4216.922974,4236.922973,4221.538358,4231.281948,4232.820409,4227.179384,4265.128101,4230.256307,4216.922974,4227.692204,4196.922974,4261.538357,4208.717846,4228.717845
116,0,4224.615281,4245.128101,4226.153743,4241.538358,4231.281948,4223.58964,4274.35887,4229.743486,4218.461435,4229.230666,4203.07682,4263.076819,4214.358871,4229.743486
117,0,4235.384512,4238.461435,4230.769127,4241.538358,4233.33323,4217.948615,4277.435793,4229.743486,4219.999897,4232.307589,4205.640923,4263.076819,4219.487076,4235.384512
118,0,4229.230666,4231.281948,4232.307589,4234.358871,4232.820409,4219.999897,4277.948613,4230.769127,4218.461435,4229.743486,4202.051179,4264.10246,4219.487076,4239.999896
119,0,4217.948615,4232.307589,4222.563999,4233.33323,4228.205025,4221.538358,4278.461434,4228.717845,4216.922974,4218.974256,4202.051179,4264.10246,4210.256307,4235.384512
120,0,4221.025538,4234.358871,4214.871692,4235.897332,4228.717845,4216.922974,4277.435793,4226.153743,4216.410153,4219.487076,4202.051179,4261.538357,4207.179384,4234.358871
121,0,4234.358871,4233.84605,4224.615281,4236.410153,4236.410153,4216.410153,4278.974254,4228.205025,4217.435794,4232.307589,4202.564,4262.051178,4216.410153,4238.974255
122,0,4233.33323,4233.33323,4232.820409,4233.33323,4234.871691,4221.025538,4281.025536,4229.230666,4217.948615,4231.794768,4201.025538,4265.128101,4214.871692,4233.84605
123,0,4220.512717,4233.33323,4226.153743,4233.84605,4231.281948,4221.025538,4277.948613,4223.07682,4216.410153,4218.974256,4201.025538,4264.61528,4199.999897,4228.717845
124,0,4221.538358,4236.922973,4218.461435,4239.999896,4239.487076,4218.974256,4275.897331,4221.538358,4214.358871,4216.410153,4205.128102,4264.10246,4205.640923,4235.897332
125,0,4229.230666,4233.33323,4215.897333,4236.922973,4242.563999,4223.07682,4279.999895,4226.666563,4214.871692,4223.58964,4204.102461,4263.589639,4221.538358,4237.435794
126,0,4230.256307,4231.794768,4216.922974,4232.820409,4239.999896,4231.281948,4282.563998,4230.256307,4216.922974,4231.281948,4203.07682,4263.589639,4222.563999,4234.871691
127,0,4228.717845,4238.974255,4219.999897,4239.999896,4246.153742,4232.820409,4282.563998,4228.717845,4217.948615,4233.33323,4209.230666,4264.61528,4219.487076,4236.410153
128,0,4223.58964,4238.461435,4217.435794,4241.025537,4249.230665,4226.153743,4279.487075,4228.717845,4216.922974,4232.307589,4209.230666,4263.076819,4219.487076,4233.33323
0,0,4215.897333,4231.794768,4212.82041,4234.358871,4244.10246,4222.051179,4277.435793,4228.205025,4217.948615,4233.84605,4201.025538,4261.538357,4219.487076,4230.256307
1,0,4215.384512,4232.820409,4212.82041,4235.384512,4241.025537,4221.025538,4277.948613,4224.102461,4217.435794,4231.794768,4202.564,4259.487075,4216.410153,4229.743486
2,0,4223.07682,4232.307589,4216.922974,4235.897332,4235.897332,4217.435794,4273.333229,4213.33323,4213.846051,4216.410153,4198.974256,4256.410152,4208.205025,4229.743486
3,0,4228.717845,4231.281948,4218.461435,4232.820409,4228.717845,4213.846051,4266.666562,4204.102461,4212.82041,4199.487077,4185.128103,4255.384511,4195.384513,4226.153743
4,0,4228.717845,4239.999896,4216.410153,4234.358871,4233.84605,4214.358871,4266.666562,4206.666564,4215.384512,4205.128102,4187.692205,4259.487075,4195.384513,4224.102461
5,0,4226.666563,4242.051178,4212.307589,4234.358871,4242.051178,4215.897333,4266.153742,4207.692205,4213.846051,4218.461435,4201.025538,4262.563998,4209.230666,4237.948614
6,0,4224.102461,4231.794768,4211.794769,4230.769127,4237.948614,4213.846051,4262.051178,4207.179384,4213.33323,4216.410153,4199.999897,4261.538357,4216.410153,4250.256306
7,0,4222.051179,4229.743486,4217.948615,4233.33323,4231.794768,4214.358871,4267.692203,4214.871692,4216.922974,4214.358871,4197.435795,4262.051178,4213.33323,4239.999896
8,0,4218.974256,4233.33323,4216.410153,4234.358871,4235.384512,4217.948615,4275.897331,4217.948615,4217.435794,4219.999897,4201.538359,4262.051178,4206.153743,4229.230666
9,0,4217.435794,4229.743486,4204.615282,4229.743486,4234.358871,4217.948615,4267.179383,4208.205025,4212.82041,4216.410153,4197.948615,4258.461434,4199.487077,4231.281948
10,0,4217.435794,4227.692204,4204.102461,4226.666563,4228.205025,4215.384512,4260.512716,4207.692205,4213.846051,4213.846051,4196.410154,4257.948614,4205.640923,4234.871691
11,0,4219.487076,4232.307589,4213.846051,4230.769127,4231.281948,4216.922974,4271.281947,4219.487076,4217.435794,4225.128102,4205.128102,4263.589639,4217.435794,4243.58964
12,0,4221.538358,4234.871691,4217.948615,4234.871691,4237.948614,4219.487076,4279.487075,4221.025538,4217.435794,4232.307589,4206.666564,4265.128101,4210.769128,4249.743486
13,0,4222.051179,4233.33323,4213.846051,4231.281948,4235.897332,4219.487076,4273.333229,4217.435794,4215.897333,4226.153743,4202.051179,4261.025537,4187.692205,4237.948614
14,0,4219.999897,4233.33323,4208.205025,4227.692204,4235.384512,4218.974256,4270.769126,4217.948615,4215.384512,4219.487076,4203.07682,4262.563998,4182.05118,4227.179384
15,0,4217.435794,4236.922973,4207.692205,4229.743486,4232.820409,4218.461435,4271.281947,4217.435794,4216.410153,4216.410153,4198.974256,4262.051178,4185.128103,4231.794768
16,0,4225.640922,4241.538358,4213.33323,4233.33323,4233.84605,4218.461435,4269.230665,4215.384512,4216.922974,4212.307589,4189.743487,4256.410152,4179.999898,4238.461435
17,0,4234.358871,4245.640922,4215.384512,4235.384512,4240.512717,4217.948615,4268.205024,4215.897333,4215.897333,4215.384512,4192.30759,4257.435793,4177.948616,4234.871691
18,0,4225.128102,4239.999896,4213.33323,4233.33323,4239.487076,4215.897333,4265.640921,4218.974256,4216.410153,4226.666563,4199.999897,4263.589639,4181.025539,4230.256307
19,0,4215.384512,4230.769127,4211.281948,4228.717845,4233.33323,4216.410153,4262.563998,4218.461435,4219.487076,4232.820409,4201.538359,4262.051178,4186.666564,4233.84605
20,0,4217.435794,4231.281948,4206.153743,4227.179384,4233.33323,4222.563999,4268.717844,4220.512717,4219.487076,4229.230666,4202.051179,4254.35887,4187.179385,4234.871691
21,0,4215.897333,4236.410153,4201.025538,4228.205025,4238.974255,4228.717845,4277.948613,4228.205025,4218.461435,4233.33323,4203.589641,4254.871691,4187.692205,4232.307589
22,0,4211.794769,4235.897332,4202.051179,4228.205025,4245.128101,4231.281948,4278.974254,4233.84605,4225.640922,4244.10246,4203.07682,4261.538357,4192.30759,4235.897332
23,0,4216.922974,4234.871691,4206.153743,4227.692204,4246.153742,4231.794768,4277.435793,4233.33323,4229.743486,4244.10246,4204.102461,4263.076819,4193.846051,4238.461435
24,0,4220.512717,4235.897332,4206.153743,4229.743486,4242.051178,4230.769127,4277.435793,4232.307589,4222.563999,4235.384512,4202.051179,4259.999896,4188.205026,4233.33323
25,0,4213.846051,4234.358871,4203.589641,4229.743486,4239.999896,4229.230666,4276.922972,4227.692204,4215.897333,4222.051179,4189.743487,4257.948614,4177.435795,4231.281948
26,0,4215.384512,4233.84605,4208.717846,4230.256307,4243.076819,4227.692204,4273.846049,4219.487076,4213.33323,4214.358871,4182.564,4260.512716,4171.281949,4230.769127
27,0,4224.615281,4234.871691,4216.410153,4231.794768,4244.10246,4226.153743,4275.897331,4217.435794,4213.33323,4216.922974,4188.205026,4264.10246,4170.769129,4232.307589
28,0,4223.58964,4235.897332,4217.435794,4233.33323,4241.025537,4225.640922,4275.384511,4217.948615,4214.358871,4216.922974,4193.333231,4264.61528,4173.333231,4240.512717
29,0,4215.384512,4235.384512,4212.307589,4232.820409,4241.538358,4229.230666,4269.743485,4213.33323,4214.871692,4209.230666,4180.512718,4262.563998,4170.769129,4241.025537
30,0,4213.33323,4233.33323,4208.205025,4231.281948,4245.640922,4229.743486,4270.256306,4212.82041,4213.846051,4213.846051,4167.179385,4261.025537,4165.128103,4233.84605
31,0,4218.461435,4231.281948,4208.717846,4230.256307,4239.999896,4223.58964,4277.435793,4225.128102,4219.999897,4227.692204,4176.922975,4263.076819,4174.358872,4230.256307
32,0,4226.666563,4237.948614,4210.769128,4230.769127,4235.897332,4216.922974,4275.897331,4234.871691,4225.128102,4234.358871,4189.743487,4268.717844,4186.666564,4232.820409
33,0,4231.794768,4249.230665,4210.769128,4232.307589,4244.10246,4216.410153,4269.230665,4232.820409,4223.07682,4240.512717,4187.179385,4269.743485,4189.230667,4242.563999
34,0,4229.230666,4247.179383,4211.794769,4233.33323,4241.538358,4219.487076,4270.256306,4231.794768,4218.974256,4240.512717,4185.128103,4267.692203,4182.564,4248.205024
35,0,4230.256307,4236.410153,4217.435794,4234.871691,4231.794768,4218.974256,4270.256306,4235.897332,4218.974256,4227.179384,4183.589641,4267.179383,4173.333231,4240.512717
36,0,4229.743486,4232.307589,4214.871692,4232.307589,4232.307589,4215.897333,4263.589639,4229.743486,4219.487076,4216.410153,4171.79477,4264.10246,4161.025539,4229.743486
37,0,4216.922974,4232.307589,4204.615282,4229.230666,4231.794768,4213.33323,4259.999896,4216.410153,4216.922974,4215.384512,4163.589642,4256.410152,4153.846052,4226.666563
38,0,4214.871692,4231.794768,4204.615282,4229.230666,4230.769127,4215.384512,4262.563998,4213.33323,4216.410153,4216.410153,4170.769129,4255.897332,4154.358873,4230.256307
39,0,4222.051179,4232.820409,4211.794769,4231.281948,4240.512717,4220.512717,4265.640921,4217.435794,4219.487076,4214.871692,4177.435795,4261.538357,4151.28195,4239.999896
40,0,4220.512717,4234.871691,4212.82041,4232.820409,4246.666563,4221.025538,4262.563998,4223.07682,4219.487076,4214.871692,4177.948616,4263.076819,4157.948616,4247.692204
41,0,4220.512717,4236.410153,4211.794769,4234.358871,4245.128101,4224.102461,4263.589639,4230.769127,4217.948615,4223.07682,4181.538359,4263.076819,4171.281949,4243.076819
42,0,4227.692204,4235.384512,4212.307589,4232.820409,4241.025537,4227.179384,4267.179383,4234.871691,4219.999897,4235.897332,4185.128103,4264.10246,4171.281949,4236.922973
43,0,4228.205025,4233.84605,4211.281948,4232.820409,4234.358871,4222.563999,4267.692203,4234.358871,4221.538358,4239.487076,4186.153744,4263.589639,4167.692206,4241.538358
44,0,4221.025538,4233.33323,4206.666564,4232.307589,4233.33323,4217.948615,4265.640921,4235.897332,4218.461435,4233.84605,4185.128103,4262.563998,4172.30759,4244.10246
45,0,4213.33323,4230.256307,4202.564,4221.538358,4234.358871,4218.974256,4264.10246,4236.922973,4217.948615,4230.769127,4185.640923,4262.051178,4168.205026,4235.384512
46,0,4214.871692,4226.666563,4206.153743,4219.999897,4231.794768,4218.461435,4263.076819,4233.84605,4219.999897,4230.256307,4185.128103,4262.563998,4165.640924,4235.384512
47,0,4226.666563,4230.769127,4214.871692,4231.794768,4231.794768,4214.871692,4261.538357,4226.666563,4217.948615,4223.58964,4181.538359,4263.589639,4171.79477,4242.563999
48,0,4231.281948,4234.871691,4215.384512,4234.358871,4233.84605,4214.871692,4259.487075,4215.384512,4213.33323,4209.743487,4177.435795,4263.589639,4161.53836,4238.974255
49,0,4227.692204,4232.820409,4211.281948,4229.230666,4231.794768,4216.410153,4259.487075,4213.33323,4214.358871,4209.743487,4179.999898,4263.589639,4148.717847,4237.435794
50,0,4227.692204,4233.84605,4213.846051,4230.256307,4233.33323,4219.999897,4262.563998,4223.07682,4218.461435,4225.128102,4185.128103,4264.10246,4154.358873,4243.58964
51,0,4230.769127,4236.410153,4216.922974,4233.84605,4235.897332,4221.538358,4264.61528,4227.692204,4219.487076,4223.58964,4184.615282,4264.10246,4157.948616,4237.948614
52,0,4229.230666,4233.33323,4215.897333,4234.871691,4233.33323,4218.974256,4261.025537,4227.692204,4216.410153,4214.358871,4188.717846,4267.179383,4153.846052,4228.205025
53,0,4224.102461,4231.281948,4210.256307,4233.84605,4233.84605,4216.410153,4260.512716,4231.281948,4215.897333,4224.615281,4198.461436,4268.205024,4155.897334,4233.33323
54,0,4225.128102,4234.358871,4203.589641,4230.769127,4237.435794,4217.435794,4262.051178,4236.410153,4222.051179,4237.948614,4198.461436,4265.640921,4156.922975,4237.948614
55,0,4226.666563,4232.820409,4201.025538,4231.281948,4236.410153,4226.666563,4262.563998,4239.487076,4232.820409,4237.948614,4194.871692,4264.10246,4148.205027,4230.256307
56,0,4221.538358,4227.179384,4202.051179,4232.307589,4232.820409,4228.717845,4263.076819,4238.461435,4233.84605,4230.769127,4201.025538,4262.563998,4139.999899,4219.999897
57,0,4216.410153,4228.717845,4207.179384,4230.256307,4232.307589,4217.948615,4262.051178,4232.307589,4222.563999,4219.999897,4199.999897,4258.974255,4135.897335,4213.846051
58,0,4217.948615,4230.769127,4213.33323,4230.256307,4232.307589,4221.025538,4261.538357,4227.179384,4216.410153,4214.871692,4187.179385,4256.922973,4130.76913,4216.922974
59,0,4219.999897,4228.717845,4214.871692,4230.256307,4232.820409,4232.307589,4261.538357,4225.640922,4218.461435,4215.897333,4188.717846,4263.076819,4129.230668,4225.128102
60,0,4226.666563,4232.820409,4213.846051,4231.281948,4236.410153,4231.281948,4262.051178,4227.692204,4218.974256,4215.384512,4201.025538,4271.281947,4131.28195,4225.128102
61,0,4237.948614,4233.84605,4216.922974,4233.84605,4236.922973,4229.230666,4262.051178,4230.769127,4217.435794,4218.461435,4201.538359,4269.743485,4128.205027,4216.922974
62,0,4232.307589,4220.512717,4215.384512,4229.230666,4230.769127,4227.179384,4259.487075,4226.153743,4217.435794,4217.948615,4196.922974,4263.076819,4119.487079,4215.384512
63,0,4219.487076,4213.33323,4205.128102,4222.563999,4229.230666,4217.948615,4257.435793,4223.07682,4218.974256,4210.769128,4199.999897,4261.025537,4118.461438,4216.922974
64,0,4223.07682,4225.128102,4198.974256,4226.153743,4234.358871,4220.512717,4259.999896,4230.769127,4221.538358,4219.999897,4200.512718,4262.563998,4122.564002,4215.384512
65,0,4234.871691,4234.871691,4204.615282,4232.307589,4236.922973,4232.307589,4264.61528,4235.384512,4225.128102,4235.897332,4198.461436,4263.076819,4122.564002,4217.948615
66,0,4235.384512,4232.307589,4212.82041,4231.281948,4234.358871,4234.358871,4264.61528,4233.33323,4229.743486,4231.794768,4199.999897,4263.076819,4121.538361,4217.948615
67,0,4231.281948,4227.692204,4215.897333,4229.743486,4231.281948,4229.230666,4263.076819,4234.358871,4228.717845,4221.538358,4202.051179,4258.974255,4122.051181,4212.82041
68,0,4231.794768,4229.230666,4216.922974,4232.307589,4231.794768,4222.563999,4261.025537,4230.256307,4218.974256,4214.871692,4201.538359,4258.461434,4126.666566,4215.897333
69,0,4231.794768,4234.358871,4217.435794,4232.307589,4232.307589,4218.461435,4254.35887,4215.897333,4214.871692,4206.666564,4198.461436,4263.076819,4124.102463,4219.487076
70,0,4232.820409,4228.205025,4218.461435,4230.769127,4228.205025,4218.974256,4247.179383,4210.769128,4216.410153,4204.615282,4199.999897,4265.128101,4118.461438,4216.922974
71,0,4235.384512,4218.461435,4219.487076,4230.769127,4225.640922,4221.538358,4251.281947,4223.07682,4214.871692,4209.230666,4204.102461,4266.666562,4126.153745,4214.871692
72,0,4235.384512,4225.128102,4220.512717,4230.769127,4230.256307,4223.07682,4259.487075,4231.794768,4221.538358,4215.897333,4209.230666,4267.692203,4139.999899,4216.410153
73,0,4234.871691,4229.230666,4217.948615,4233.33323,4231.794768,4221.025538,4255.897332,4229.743486,4228.717845,4226.666563,4216.410153,4265.128101,4141.53836,4218.461435
74,0,4232.820409,4222.051179,4213.33323,4230.769127,4227.179384,4217.948615,4252.820409,4236.410153,4225.128102,4234.871691,4216.410153,4262.563998,4136.410155,4218.461435
75,0,4230.769127,4221.025538,4214.358871,4223.07682,4227.179384,4220.512717,4261.538357,4248.205024,4227.692204,4235.384512,4211.794769,4263.589639,4141.02554,4215.384512
76,0,4231.281948,4223.07682,4216.410153,4218.461435,4230.769127,4221.538358,4262.563998,4242.051178,4230.256307,4233.33323,4214.871692,4264.61528,4148.717847,4213.846051
77,0,4231.281948,4217.435794,4211.794769,4218.461435,4229.743486,4217.948615,4252.307588,4231.281948,4222.563999,4229.230666,4220.512717,4262.051178,4145.128104,4214.871692
78,0,4229.230666,4213.846051,4211.281948,4222.051179,4223.07682,4216.410153,4246.666563,4231.281948,4219.487076,4219.999897,4215.897333,4259.487075,4145.128104,4213.33323
79,0,4236.410153,4219.487076,4217.435794,4229.743486,4222.563999,4217.948615,4247.179383,4225.128102,4221.538358,4214.871692,4211.281948,4261.025537,4152.820411,4214.358871
80,0,4240.512717,4222.051179,4219.999897,4232.307589,4229.743486,4220.512717,4247.692204,4212.307589,4215.384512,4213.33323,4214.358871,4263.076819,4154.871693,4218.461435
81,0,4235.384512,4224.615281,4223.58964,4229.743486,4235.384512,4221.538358,4251.281947,4215.384512,4216.410153,4216.922974,4218.974256,4264.61528,4160.512719,4225.128102
82,0,4241.025537,4236.410153,4230.769127,4238.461435,4235.384512,4218.461435,4250.256306,4227.692204,4225.640922,4222.563999,4221.538358,4267.692203,4170.256308,4233.84605
83,0,4253.333229,4250.256306,4229.230666,4246.666563,4233.33323,4215.897333,4247.692204,4230.769127,4223.58964,4219.999897,4222.563999,4268.205024,4163.589642,4232.820409
84,0,4252.820409,4249.230665,4221.025538,4239.487076,4231.794768,4218.461435,4247.692204,4229.743486,4215.897333,4216.410153,4221.538358,4265.128101,4152.820411,4219.487076
85,0,4239.487076,4235.384512,4215.384512,4230.256307,4230.256307,4219.487076,4248.717845,4230.769127,4216.922974,4214.358871,4219.999897,4258.974255,4148.205027,4211.281948
86,0,4232.820409,4230.256307,4212.82041,4227.179384,4228.717845,4217.435794,4247.179383,4230.256307,4218.974256,4210.256307,4215.384512,4255.384511,4138.461437,4210.769128
87,0,4239.999896,4233.33323,4216.410153,4230.769127,4228.205025,4223.58964,4247.179383,4230.256307,4215.897333,4211.281948,4216.410153,4258.461434,4143.076822,4207.179384
88,0,4245.640922,4232.307589,4219.487076,4234.871691,4232.307589,4229.743486,4250.256306,4232.820409,4217.948615,4213.33323,4222.563999,4259.487075,4155.384514,4205.640923
89,0,4237.948614,4230.256307,4215.384512,4231.794768,4235.897332,4223.07682,4249.743486,4229.230666,4220.512717,4207.179384,4223.07682,4258.974255,4147.179386,4210.256307
90,0,4230.256307,4229.743486,4214.871692,4227.692204,4233.84605,4216.922974,4247.179383,4219.487076,4217.435794,4208.205025,4217.435794,4259.999896,4144.615283,4212.82041
91,0,4233.84605,4230.256307,4216.922974,4230.256307,4231.281948,4219.999897,4247.692204,4218.461435,4216.410153,4215.384512,4213.846051,4259.999896,4154.358873,4211.281948
92,0,4234.358871,4226.153743,4212.307589,4232.820409,4230.256307,4218.974256,4248.205024,4223.58964,4218.974256,4214.871692,4219.487076,4259.999896,4153.846052,4204.102461
93,0,4229.743486,4222.051179,4207.179384,4225.128102,4227.692204,4216.410153,4245.128101,4227.692204,4220.512717,4215.384512,4228.717845,4263.076819,4153.846052,4198.461436
94,0,4230.769127,4226.666563,4211.794769,4219.487076,4227.179384,4218.461435,4244.615281,4231.281948,4220.512717,4216.410153,4232.820409,4262.563998,4166.153744,4209.230666
95,0,4234.871691,4231.281948,4214.871692,4226.153743,4232.820409,4219.999897,4248.717845,4234.358871,4217.948615,4217.948615,4231.281948,4261.025537,4179.487077,4221.538358
96,0,4233.84605,4229.743486,4213.846051,4233.84605,4237.948614,4221.538358,4249.743486,4233.33323,4218.974256,4220.512717,4231.281948,4261.538357,4189.230667,4215.897333
97,0,4231.794768,4229.230666,4214.358871,4230.769127,4236.410153,4222.563999,4246.666563,4233.84605,4225.128102,4218.461435,4233.33323,4262.051178,4187.692205,4210.256307
98,0,4231.281948,4231.281948,4214.871692,4228.205025,4233.33323,4219.487076,4245.128101,4235.897332,4225.128102,4222.563999,4232.820409,4262.563998,4184.615282,4211.794769
99,0,4233.84605,4233.33323,4216.922974,4233.84605,4233.84605,4218.974256,4246.666563,4233.33323,4217.948615,4231.281948,4232.307589,4255.384511,4194.358872,4212.307589
100,0,4236.410153,4229.743486,4217.948615,4229.743486,4233.33323,4221.025538,4247.692204,4229.230666,4216.410153,4218.461435,4230.256307,4248.205024,4196.922974,4211.281948
101,0,4228.205025,4219.487076,4210.256307,4218.461435,4229.230666,4220.512717,4247.179383,4227.179384,4218.461435,4197.435795,4227.179384,4247.179383,4181.538359,4207.692205
102,0,4218.974256,4214.358871,4202.051179,4216.922974,4227.692204,4219.999897,4247.179383,4226.153743,4214.871692,4200.512718,4220.512717,4246.666563,4172.30759,4198.974256
103,0,4226.666563,4219.487076,4208.205025,4218.974256,4230.769127,4220.512717,4247.692204,4227.692204,4215.384512,4216.410153,4216.410153,4252.820409,4182.564,4199.487077
104,0,4235.384512,4221.538358,4214.358871,4217.435794,4228.717845,4218.974256,4247.179383,4233.33323,4225.128102,4221.538358,4226.153743,4263.589639,4190.256308,4212.82041
105,0,4229.743486,4216.410153,4208.717846,4214.871692,4222.563999,4216.922974,4245.128101,4236.922973,4230.769127,4220.512717,4235.897332,4261.538357,4187.692205,4215.897333
106,0,4226.666563,4216.410153,4205.640923,4216.922974,4224.615281,4216.410153,4244.615281,4237.435794,4228.205025,4218.461435,4233.33323,4251.281947,4192.30759,4204.615282
107,0,4230.769127,4225.128102,4210.769128,4220.512717,4230.769127,4222.051179,4247.692204,4236.922973,4227.692204,4218.974256,4226.666563,4248.717845,4198.461436,4198.461436
108,0,4228.717845,4230.256307,4212.82041,4221.538358,4233.84605,4229.230666,4248.717845,4234.871691,4229.230666,4222.051179,4222.563999,4249.743486,4191.281949,4199.487077
109,0,4221.538358,4225.640922,4207.179384,4219.999897,4235.384512,4226.153743,4245.640922,4234.358871,4223.58964,4218.974256,4219.999897,4246.666563,4183.076821,4194.358872
110,0,4213.33323,4218.461435,4202.051179,4219.487076,4233.84605,4216.410153,4244.10246,4230.769127,4216.922974,4210.256307,4217.435794,4237.948614,4178.974257,4183.589641
111,0,4212.82041,4211.281948,4201.538359,4219.487076,4230.256307,4214.358871,4242.563999,4222.051179,4216.922974,4203.589641,4214.871692,4230.256307,4172.820411,4180.512718
112,0,4216.410153,4207.692205,4201.538359,4217.435794,4228.717845,4215.897333,4234.871691,4214.358871,4215.897333,4198.974256,4214.358871,4233.84605,4172.30759,4183.076821
113,0,4219.999897,4214.871692,4203.07682,4212.307589,4223.07682,4214.871692,4229.743486,4214.358871,4213.846051,4194.871692,4216.410153,4243.076819,4176.410154,4186.153744
114,0,4222.051179,4220.512717,4207.179384,4208.205025,4214.871692,4215.384512,4232.307589,4223.07682,4216.410153,4197.948615,4215.384512,4248.205024,4175.384513,4190.769128
115,0,4221.025538,4215.897333,4206.153743,4211.281948,4221.025538,4216.922974,4234.871691,4229.743486,4219.999897,4210.769128,4216.410153,4249.230665,4184.102462,4195.384513
116,0,4226.153743,4213.846051,4206.153743,4216.410153,4233.84605,4218.974256,4234.871691,4229.230666,4221.025538,4219.487076,4218.461435,4247.692204,4196.410154,4198.461436
117,0,4228.205025,4215.897333,4212.307589,4217.435794,4230.256307,4221.538358,4239.487076,4228.717845,4218.974256,4212.82041,4217.948615,4247.179383,4192.30759,4199.487077
118,0,4221.025538,4212.307589,4215.897333,4215.384512,4221.538358,4219.999897,4244.10246,4232.307589,4218.974256,4207.179384,4223.07682,4250.256306,4190.256308,4199.999897
119,0,4224.615281,4206.153743,4215.384512,4210.769128,4229.230666,4218.461435,4247.179383,4235.384512,4221.025538,4214.871692,4227.692204,4251.281947,4199.487077,4196.410154
120,0,4230.769127,4201.538359,4208.717846,4203.589641,4231.281948,4221.025538,4246.153742,4231.281948,4218.974256,4219.487076,4218.974256,4249.743486,4194.871692,4190.769128
121,0,4218.461435,4199.487077,4198.461436,4203.07682,4215.384512,4214.358871,4235.384512,4220.512717,4214.871692,4209.743487,4211.281948,4243.58964,4180.512718,4187.179385
122,0,4211.281948,4200.512718,4196.922974,4203.589641,4211.794769,4205.640923,4227.692204,4212.307589,4213.846051,4194.358872,4213.846051,4235.897332,4179.487077,4181.025539
123,0,4216.922974,4200.512718,4201.538359,4200.512718,4221.538358,4211.281948,4231.281948,4213.846051,4214.358871,4189.230667,4214.871692,4237.948614,4186.153744,4173.333231
124,0,4213.33323,4195.384513,4201.025538,4198.461436,4217.435794,4218.461435,4232.820409,4216.410153,4215.384512,4198.974256,4211.281948,4245.128101,4182.05118,4171.79477
125,0,4217.435794,4197.948615,4206.666564,4202.051179,4217.948615,4214.871692,4230.769127,4217.435794,4216.922974,4206.666564,4212.82041,4245.640922,4183.076821,4181.538359
126,0,4232.820409,4210.256307,4211.794769,4204.615282,4233.84605,4214.358871,4233.84605,4219.487076,4214.871692,4202.564,4214.871692,4245.128101,4194.871692,4195.384513
127,0,4237.948614,4215.384512,4210.256307,4204.102461,4230.769127,4218.461435,4235.384512,4219.999897,4214.871692,4198.974256,4213.33323,4249.230665,4201.025538,4198.461436
128,0,4235.384512,4212.82041,4211.794769,4203.589641,4215.384512,4215.897333,4230.769127,4218.461435,4216.922974,4200.512718,4214.871692,4250.769127,4202.051179,4195.897333
0,0,4235.897332,4214.358871,4210.769128,4202.564,4221.538358,4213.33323,4229.743486,4214.871692,4215.897333,4202.051179,4213.846051,4247.692204,4201.538359,4199.999897
1,0,4234.871691,4213.846051,4203.07682,4199.999897,4233.33323,4215.897333,4230.256307,4213.846051,4213.846051,4202.051179,4204.615282,4246.153742,4201.538359,4197.948615
2,0,4232.820409,4210.769128,4201.538359,4197.948615,4234.358871,4219.999897,4231.281948,4216.922974,4216.410153,4202.564,4205.128102,4246.153742,4208.205025,4193.846051
3,0,4233.84605,4214.871692,4208.717846,4197.948615,4232.820409,4221.538358,4233.33323,4218.461435,4217.948615,4206.153743,4216.410153,4248.717845,4213.846051,4197.948615
4,0,4231.281948,4214.358871,4206.666564,4198.461436,4229.743486,4219.999897,4232.820409,4219.487076,4216.922974,4207.692205,4208.205025,4245.128101,4207.179384,4194.358872
5,0,4226.153743,4205.640923,4201.025538,4196.922974,4228.205025,4218.461435,4231.281948,4221.538358,4216.922974,4198.974256,4187.692205,4241.025537,4197.948615,4183.589641
6,0,4229.230666,4200.512718,4201.025538,4195.897333,4226.666563,4212.82041,4226.666563,4213.846051,4214.871692,4189.230667,4189.743487,4243.58964,4198.974256,4181.538359
7,0,4233.84605,4202.564,4204.615282,4198.974256,4219.999897,4207.692205,4218.461435,4204.615282,4212.307589,4195.384513,4201.538359,4245.640922,4208.717846,4187.179385
8,0,4233.84605,4209.230666,4208.717846,4201.025538,4215.384512,4211.794769,4217.948615,4211.281948,4216.410153,4210.256307,4201.025538,4245.128101,4217.948615,4196.410154
9,0,4239.487076,4216.922974,4213.33323,4200.512718,4219.999897,4217.948615,4221.025538,4218.974256,4218.461435,4207.692205,4202.051179,4247.692204,4221.538358,4206.666564
10,0,4248.717845,4220.512717,4214.871692,4203.07682,4225.640922,4215.384512,4219.487076,4213.33323,4215.897333,4199.487077,4205.128102,4249.230665,4217.948615,4206.666564
11,0,4246.153742,4221.025538,4213.33323,4205.640923,4228.205025,4214.871692,4223.58964,4214.871692,4216.922974,4206.666564,4203.589641,4249.230665,4221.538358,4208.717846
12,0,4242.051178,4220.512717,4214.358871,4204.102461,4229.230666,4219.999897,4232.307589,4225.640922,4219.487076,4217.948615,4201.538359,4250.769127,4228.205025,4213.33323
13,0,4245.640922,4216.922974,4211.794769,4201.538359,4229.230666,4221.025538,4230.256307,4221.025538,4216.922974,4213.33323,4202.564,4248.717845,4226.153743,4207.692205
14,0,4239.999896,4210.769128,4211.794769,4197.948615,4231.281948,4218.461435,4227.179384,4218.974256,4215.897333,4203.589641,4200.512718,4247.179383,4223.58964,4201.025538
15,0,4230.256307,4208.717846,4214.871692,4193.846051,4231.794768,4218.461435,4232.307589,4229.230666,4218.974256,4207.692205,4196.410154,4251.281947,4221.025538,4195.897333
16,0,4237.435794,4213.33323,4216.410153,4198.461436,4228.717845,4223.58964,4235.384512,4235.384512,4220.512717,4218.461435,4199.487077,4259.999896,4218.461435,4197.948615
17,0,4250.256306,4219.999897,4217.435794,4200.512718,4230.256307,4225.640922,4233.33323,4233.84605,4220.512717,4221.538358,4200.512718,4261.538357,4222.051179,4212.82041
18,0,4250.256306,4217.435794,4215.897333,4191.281949,4231.794768,4219.999897,4231.281948,4227.692204,4218.974256,4211.281948,4190.769128,4252.820409,4229.743486,4216.410153
19,0,4246.153742,4210.256307,4213.33323,4190.769128,4222.563999,4215.897333,4229.743486,4224.102461,4216.922974,4198.974256,4186.666564,4250.769127,4229.743486,4205.640923
20,0,4246.153742,4211.794769,4216.410153,4196.922974,4212.82041,4218.461435,4229.230666,4227.179384,4218.974256,4205.128102,4196.922974,4262.563998,4228.717845,4208.205025
21,0,4248.717845,4215.897333,4221.025538,4192.30759,4221.538358,4221.025538,4229.230666,4233.33323,4221.025538,4213.846051,4206.153743,4267.692203,4233.84605,4222.051179
22,0,4251.281947,4214.358871,4219.487076,4186.153744,4234.358871,4219.999897,4230.769127,4229.230666,4218.461435,4205.128102,4199.999897,4256.410152,4234.871691,4217.435794
23,0,4246.666563,4208.717846,4211.794769,4188.205026,4228.717845,4217.948615,4232.820409,4223.58964,4215.897333,4202.564,4187.692205,4246.153742,4227.179384,4203.589641
24,0,4236.922973,4205.128102,4206.153743,4185.640923,4218.974256,4216.410153,4230.769127,4226.153743,4217.948615,4218.461435,4184.102462,4246.666563,4218.974256,4202.564
25,0,4233.33323,4204.615282,4204.102461,4180.512718,4225.128102,4219.487076,4231.794768,4232.307589,4218.974256,4216.410153,4187.692205,4248.717845,4217.948615,4205.128102
26,0,4231.794768,4204.102461,4202.051179,4181.538359,4225.640922,4222.051179,4240.512717,4234.871691,4216.410153,4199.999897,4186.153744,4247.179383,4219.487076,4198.461436
27,0,4230.256307,4201.025538,4205.640923,4180.512718,4215.897333,4219.487076,4242.563999,4233.84605,4216.922974,4202.051179,4179.999898,4244.10246,4216.922974,4200.512718
28,0,4238.974255,4199.487077,4214.871692,4179.487077,4221.025538,4218.974256,4234.871691,4233.33323,4219.999897,4208.205025,4182.05118,4248.717845,4218.974256,4212.82041
29,0,4247.692204,4205.128102,4218.974256,4182.564,4232.820409,4224.615281,4231.794768,4232.820409,4219.487076,4203.07682,4183.076821,4252.307588,4217.948615,4214.358871
30,0,4246.153742,4206.153743,4217.435794,4182.05118,4227.179384,4223.58964,4232.307589,4230.769127,4216.922974,4198.974256,4181.538359,4250.256306,4213.846051,4208.205025
31,0,4244.10246,4203.07682,4215.384512,4179.487077,4215.897333,4215.897333,4227.179384,4225.128102,4217.435794,4203.589641,4182.564,4249.230665,4221.025538,4207.692205
32,0,4248.717845,4205.128102,4215.384512,4185.128103,4217.948615,4216.410153,4226.153743,4224.102461,4219.999897,4215.897333,4180.512718,4250.769127,4229.743486,4210.256307
33,0,4245.128101,4207.179384,4216.410153,4185.128103,4219.999897,4221.538358,4231.281948,4229.743486,4220.512717,4217.435794,4176.410154,4251.281947,4221.538358,4212.307589
34,0,4233.33323,4204.102461,4217.435794,4174.358872,4217.435794,4221.538358,4231.794768,4231.281948,4218.461435,4207.692205,4171.79477,4250.769127,4215.897333,4214.871692
35,0,4226.666563,4198.461436,4215.897333,4170.256308,4223.58964,4217.948615,4230.256307,4229.230666,4217.948615,4206.153743,4171.281949,4250.769127,4222.051179,4213.33323
36,0,4228.717845,4197.948615,4216.922974,4172.820411,4232.307589,4215.897333,4230.256307,4231.281948,4218.461435,4213.846051,4179.999898,4250.769127,4221.025538,4206.153743
37,0,4234.871691,4202.051179,4219.487076,4171.79477,4226.153743,4216.410153,4229.743486,4231.281948,4216.410153,4216.410153,4183.589641,4250.769127,4216.410153,4199.999897
38,0,4233.33323,4203.07682,4218.461435,4171.281949,4214.871692,4215.384512,4225.640922,4223.07682,4215.384512,4207.179384,4174.358872,4250.256306,4218.461435,4203.07682
39,0,4229.743486,4200.512718,4217.435794,4171.79477,4214.871692,4211.794769,4221.025538,4216.922974,4215.897333,4194.871692,4167.692206,4249.743486,4219.487076,4211.794769
40,0,4230.769127,4203.07682,4219.999897,4171.281949,4218.461435,4211.794769,4216.410153,4215.897333,4214.358871,4190.256308,4168.717847,4250.256306,4215.384512,4211.281948
41,0,4231.794768,4205.128102,4221.025538,4170.769129,4223.58964,4214.871692,4217.948615,4217.435794,4213.846051,4197.948615,4165.640924,4248.205024,4210.256307,4204.615282
42,0,4229.230666,4201.538359,4217.435794,4170.769129,4225.128102,4215.384512,4226.153743,4219.487076,4218.974256,4210.769128,4162.05118,4247.692204,4216.922974,4206.666564
43,0,4230.769127,4207.179384,4216.410153,4173.333231,4221.538358,4211.794769,4226.153743,4222.051179,4222.563999,4217.435794,4173.846052,4256.922973,4232.820409,4215.384512
44,0,4235.384512,4221.025538,4219.999897,4173.333231,4220.512717,4209.230666,4217.435794,4222.051179,4219.999897,4217.435794,4183.076821,4262.051178,4236.922973,4219.487076
45,0,4233.84605,4216.922974,4217.948615,4169.230667,4218.461435,4210.256307,4212.82041,4215.897333,4216.410153,4214.871692,4174.871693,4253.333229,4230.769127,4215.897333
46,0,4229.230666,4205.640923,4213.846051,4167.692206,4217.435794,4213.33323,4216.922974,4216.922974,4217.948615,4216.922974,4166.666565,4245.128101,4232.307589,4213.33323
47,0,4230.769127,4208.205025,4214.871692,4171.281949,4223.07682,4214.358871,4219.487076,4224.102461,4220.512717,4219.487076,4171.79477,4248.205024,4237.435794,4217.435794
48,0,4231.794768,4207.179384,4215.897333,4169.230667,4221.025538,4215.897333,4218.461435,4219.999897,4218.974256,4216.410153,4172.820411,4250.769127,4230.769127,4217.948615
49,0,4229.230666,4198.974256,4213.846051,4161.025539,4214.871692,4217.948615,4217.948615,4214.871692,4218.461435,4215.897333,4168.717847,4249.743486,4231.794768,4212.82041
50,0,4229.230666,4199.999897,4213.33323,4162.05118,4224.102461,4215.897333,4218.974256,4224.615281,4220.512717,4219.487076,4171.281949,4250.256306,4243.58964,4210.256307
51,0,4224.615281,4202.051179,4211.794769,4168.205026,4229.743486,4214.871692,4222.051179,4227.692204,4220.512717,4213.846051,4165.128103,4249.230665,4237.435794,4213.33323
52,0,4214.358871,4197.948615,4208.717846,4166.153744,4221.025538,4216.410153,4221.538358,4216.410153,4218.974256,4212.307589,4158.974257,4247.179383,4227.692204,4215.384512
53,0,4219.999897,4198.461436,4210.256307,4165.128103,4217.948615,4217.435794,4218.974256,4218.974256,4218.974256,4224.615281,4165.640924,4248.205024,4241.025537,4216.922974
54,0,4230.256307,4203.07682,4214.871692,4165.640924,4218.974256,4217.435794,4217.435794,4228.205025,4217.948615,4225.128102,4171.281949,4250.256306,4256.922973,4219.487076
55,0,4224.102461,4195.897333,4214.871692,4157.435796,4218.974256,4218.461435,4218.974256,4226.153743,4217.948615,4218.461435,4173.333231,4252.307588,4249.230665,4219.487076
56,0,4215.384512,4184.615282,4211.281948,4152.307591,4217.435794,4216.410153,4217.948615,4220.512717,4218.974256,4220.512717,4172.30759,4250.256306,4234.871691,4213.33323
57,0,4213.33323,4188.717846,4205.640923,4156.410155,4215.897333,4214.871692,4212.82041,4212.307589,4214.871692,4214.358871,4158.461437,4242.051178,4228.717845,4203.07682
58,0,4211.281948,4200.512718,4202.564,4161.53836,4222.051179,4217.435794,4213.33323,4207.692205,4212.307589,4203.589641,4153.333232,4241.025537,4226.153743,4198.974256
59,0,4218.461435,4202.564,4207.692205,4167.692206,4232.307589,4216.922974,4218.461435,4213.33323,4216.922974,4211.281948,4170.256308,4250.256306,4232.307589,4207.692205
60,0,4228.205025,4200.512718,4214.871692,4165.640924,4234.358871,4213.846051,4218.974256,4220.512717,4218.461435,4218.461435,4175.897334,4251.794768,4239.487076,4217.948615
61,0,4228.205025,4202.564,4214.871692,4159.999898,4231.794768,4222.563999,4225.128102,4226.153743,4217.948615,4214.358871,4165.128103,4245.128101,4242.563999,4224.102461
62,0,4229.230666,4203.07682,4213.33323,4165.640924,4233.84605,4231.794768,4229.743486,4233.33323,4223.58964,4223.07682,4166.153744,4248.717845,4246.153742,4230.256307
63,0,4235.384512,4203.07682,4215.897333,4168.717847,4232.307589,4225.128102,4223.58964,4234.871691,4232.307589,4236.922973,4174.871693,4254.871691,4251.281947,4231.281948
64,0,4233.33323,4202.051179,4214.871692,4158.974257,4227.179384,4217.948615,4217.948615,4232.820409,4232.820409,4233.84605,4170.769129,4251.281947,4250.769127,4228.717845
65,0,4229.230666,4196.922974,4215.897333,4154.358873,4227.692204,4218.461435,4220.512717,4232.820409,4225.128102,4220.512717,4166.666565,4250.769127,4248.717845,4231.794768
66,0,4233.84605,4198.461436,4223.58964,4157.948616,4229.743486,4218.461435,4220.512717,4233.33323,4223.58964,4216.410153,4173.333231,4257.435793,4248.717845,4232.307589
67,0,4236.922973,4201.538359,4225.128102,4159.999898,4231.281948,4218.974256,4219.487076,4229.230666,4226.153743,4218.974256,4170.769129,4258.461434,4239.487076,4223.58964
68,0,4233.84605,4191.281949,4218.461435,4157.948616,4227.692204,4222.051179,4217.948615,4219.999897,4223.07682,4220.512717,4156.922975,4254.35887,4234.358871,4215.384512
69,0,4225.640922,4179.999898,4214.358871,4153.846052,4215.897333,4216.922974,4214.871692,4213.846051,4216.410153,4211.794769,4152.820411,4252.820409,4230.256307,4206.666564
70,0,4218.974256,4181.538359,4213.33323,4150.256309,4213.33323,4214.358871,4214.871692,4213.846051,4216.410153,4199.999897,4154.358873,4247.692204,4213.846051,4199.487077
71,0,4222.563999,4184.102462,4214.358871,4151.79477,4225.640922,4227.179384,4218.461435,4218.461435,4219.487076,4207.179384,4151.28195,4247.179383,4214.358871,4207.692205
72,0,4230.769127,4187.692205,4219.999897,4157.435796,4232.307589,4232.820409,4219.487076,4224.615281,4219.999897,4221.538358,4155.897334,4255.897332,4235.384512,4216.410153
73,0,4233.84605,4197.435795,4222.051179,4158.461437,4230.256307,4221.025538,4217.948615,4224.102461,4219.487076,4218.974256,4159.999898,4255.897332,4238.461435,4209.743487
74,0,4229.743486,4192.30759,4217.435794,4154.358873,4229.743486,4213.846051,4214.871692,4218.461435,4217.948615,4211.281948,4154.871693,4247.692204,4224.615281,4201.538359
75,0,4227.692204,4185.128103,4217.435794,4154.358873,4229.743486,4222.051179,4215.897333,4219.999897,4217.948615,4212.82041,4152.307591,4249.230665,4231.794768,4203.07682
76,0,4231.794768,4193.333231,4217.948615,4156.410155,4225.640922,4225.640922,4216.410153,4223.07682,4218.461435,4214.871692,4156.410155,4253.84605,4245.128101,4212.82041
77,0,4232.820409,4193.846051,4215.384512,4152.820411,4223.58964,4216.922974,4213.846051,4222.563999,4222.563999,4224.102461,4162.05118,4255.384511,4253.333229,4227.179384
78,0,4226.666563,4181.025539,4215.897333,4150.769129,4226.666563,4223.07682,4215.897333,4226.666563,4229.743486,4232.307589,4166.153744,4260.512716,4265.128101,4233.33323
79,0,4218.461435,4174.871693,4218.461435,4154.358873,4230.769127,4232.307589,4217.435794,4231.794768,4229.743486,4235.384512,4174.871693,4266.666562,4278.461434,4236.410153
80,0,4218.974256,4168.205026,4217.948615,4151.28195,4228.717845,4223.58964,4216.922974,4233.84605,4228.205025,4241.538358,4184.102462,4264.61528,4290.769126,4250.256306
81,0,4216.410153,4154.871693,4221.538358,4143.076822,4221.538358,4219.999897,4222.563999,4233.84605,4230.256307,4236.410153,4185.128103,4264.10246,4281.025536,4258.461434
82,0,4204.615282,4147.179386,4226.153743,4139.487078,4218.461435,4228.717845,4224.102461,4234.358871,4231.281948,4232.307589,4182.05118,4271.281947,4271.281947,4242.563999
83,0,4199.999897,4144.615283,4224.615281,4138.461437,4218.974256,4226.666563,4221.025538,4240.512717,4230.769127,4251.281947,4185.128103,4276.410152,4302.051177,4245.640922
84,0,4209.230666,4143.076822,4225.128102,4137.435796,4218.461435,4222.051179,4226.153743,4250.256306,4232.820409,4273.846049,4182.564,4272.820408,4334.358868,4275.384511
85,0,4213.846051,4134.871694,4227.179384,4136.410155,4214.871692,4226.153743,4231.281948,4253.333229,4234.358871,4263.589639,4175.897334,4275.384511,4316.410151,4270.256306
86,0,4205.128102,4123.589643,4229.743486,4135.384514,4212.82041,4222.563999,4226.666563,4252.820409,4230.256307,4246.153742,4173.846052,4284.102459,4288.717844,4242.563999
87,0,4195.384513,4119.999899,4229.743486,4135.897335,4212.82041,4215.897333,4225.128102,4253.333229,4228.717845,4250.769127,4163.589642,4275.384511,4294.87169,4254.35887
88,0,4192.30759,4123.076822,4223.58964,4137.435796,4211.281948,4221.025538,4228.717845,4251.794768,4232.307589,4261.538357,4154.871693,4261.538357,4301.025536,4282.563998
89,0,4197.948615,4130.256309,4221.025538,4137.948617,4212.82041,4229.230666,4229.743486,4253.84605,4233.84605,4267.692203,4165.640924,4268.717844,4299.487074,4273.846049
90,0,4202.564,4137.948617,4230.769127,4140.512719,4218.974256,4228.205025,4231.281948,4262.563998,4233.33323,4268.717844,4174.871693,4283.589639,4307.692202,4264.10246
91,0,4199.999897,4137.948617,4230.256307,4142.564001,4217.948615,4220.512717,4231.281948,4257.948614,4233.84605,4267.179383,4169.743488,4276.410152,4309.743484,4274.35887
92,0,4198.461436,4136.922976,4219.999897,4142.564001,4212.307589,4218.461435,4228.205025,4246.153742,4233.84605,4262.051178,4167.179385,4262.051178,4297.435792,4270.769126
93,0,4204.102461,4144.615283,4221.538358,4144.102463,4214.871692,4226.666563,4229.230666,4251.794768,4232.820409,4263.589639,4171.281949,4268.717844,4296.410151,4264.10246
94,0,4203.07682,4141.53836,4224.102461,4141.53836,4217.948615,4231.794768,4229.743486,4259.999896,4233.33323,4267.692203,4170.769129,4277.948613,4305.1281,4276.922972
95,0,4193.846051,4134.358873,4219.487076,4136.410155,4216.410153,4225.640922,4222.563999,4252.307588,4233.33323,4262.563998,4169.743488,4271.281947,4300.512715,4282.051177
96,0,4190.769128,4144.102463,4217.435794,4141.02554,4213.846051,4217.435794,4216.410153,4245.128101,4232.307589,4257.948614,4169.230667,4264.10246,4290.769126,4265.640921
97,0,4193.333231,4152.820411,4217.948615,4143.076822,4213.33323,4216.410153,4215.384512,4245.128101,4229.743486,4257.948614,4164.102462,4262.563998,4288.205023,4258.461434
98,0,4193.846051,4149.743488,4214.871692,4137.948617,4214.871692,4221.538358,4216.922974,4247.179383,4231.281948,4261.025537,4160.512719,4263.589639,4289.230664,4266.666562
99,0,4194.358872,4144.102463,4215.384512,4135.897335,4213.846051,4225.640922,4223.07682,4253.84605,4234.871691,4263.589639,4164.615283,4271.281947,4287.692203,4272.307588
100,0,4203.07682,4145.128104,4228.717845,4141.02554,4214.871692,4227.179384,4226.666563,4261.025537,4234.358871,4264.10246,4170.769129,4276.922972,4290.256305,4278.461434
101,0,4210.769128,4152.820411,4234.871691,4144.102463,4218.461435,4224.102461,4222.563999,4260.512716,4232.307589,4267.179383,4172.30759,4269.743485,4300.512715,4281.025536
102,0,4205.128102,4155.384514,4223.07682,4139.999899,4213.33323,4219.999897,4216.922974,4253.333229,4232.307589,4261.538357,4166.153744,4262.563998,4300.512715,4272.820408
103,0,4195.897333,4144.615283,4218.461435,4135.384514,4210.256307,4218.461435,4217.948615,4249.230665,4232.820409,4253.84605,4161.025539,4268.205024,4289.743485,4261.538357
104,0,4191.794769,4136.922976,4227.179384,4136.922976,4212.307589,4217.948615,4219.487076,4249.230665,4231.281948,4254.871691,4168.205026,4276.922972,4292.820408,4264.61528
105,0,4189.230667,4141.53836,4224.615281,4136.922976,4203.589641,4217.948615,4217.435794,4248.717845,4230.256307,4251.281947,4167.179385,4272.307588,4289.743485,4265.640921
106,0,4184.102462,4138.461437,4215.384512,4134.358873,4197.948615,4217.948615,4214.871692,4247.179383,4232.307589,4249.230665,4152.307591,4260.512716,4275.897331,4253.84605
107,0,4182.564,4135.897335,4215.897333,4136.922976,4212.307589,4222.563999,4217.435794,4246.666563,4233.84605,4257.948614,4156.410155,4261.025537,4283.589639,4252.820409
108,0,4183.076821,4145.640924,4215.897333,4138.461437,4219.999897,4230.256307,4219.999897,4247.179383,4231.281948,4263.076819,4172.30759,4270.769126,4294.358869,4260.512716
109,0,4183.589641,4153.333232,4214.358871,4135.897335,4214.358871,4231.281948,4218.461435,4254.871691,4236.410153,4261.538357,4170.256308,4275.897331,4284.61528,4261.538357
110,0,4186.666564,4153.333232,4217.948615,4136.922976,4215.384512,4228.717845,4224.615281,4265.640921,4247.692204,4267.179383,4166.153744,4275.384511,4291.281946,4259.999896
111,0,4189.230667,4153.333232,4218.974256,4136.922976,4221.025538,4231.794768,4232.820409,4265.640921,4241.025537,4273.846049,4169.743488,4269.743485,4311.794766,4264.61528
112,0,4191.794769,4154.358873,4217.948615,4141.02554,4218.461435,4236.410153,4230.256307,4261.538357,4233.33323,4272.820408,4172.30759,4268.205024,4312.820407,4269.230665
113,0,4197.435795,4155.384514,4221.025538,4151.79477,4213.846051,4231.794768,4225.128102,4259.487075,4239.487076,4269.230665,4175.897334,4278.974254,4308.205023,4274.87169
114,0,4197.948615,4156.410155,4223.07682,4151.28195,4218.461435,4229.743486,4228.205025,4251.794768,4240.512717,4264.10246,4174.871693,4281.025536,4309.230664,4274.87169
115,0,4194.358872,4154.871693,4219.999897,4140.512719,4231.281948,4239.999896,4230.769127,4246.666563,4236.410153,4265.128101,4170.256308,4268.205024,4304.615279,4266.153742
116,0,4197.435795,4156.922975,4218.461435,4144.615283,4233.84605,4244.615281,4229.230666,4251.281947,4244.10246,4266.153742,4170.256308,4262.563998,4296.922972,4263.589639
117,0,4195.384513,4159.487078,4219.487076,4154.358873,4222.563999,4235.384512,4228.717845,4252.307588,4246.666563,4262.563998,4169.230667,4266.153742,4295.38451,4262.563998
118,0,4185.128103,4155.897334,4216.410153,4147.179386,4213.846051,4229.743486,4229.230666,4246.666563,4235.384512,4262.051178,4166.153744,4263.589639,4295.897331,4258.461434
119,0,4187.179385,4158.974257,4215.897333,4142.051181,4217.435794,4232.820409,4228.717845,4244.615281,4231.281948,4256.922973,4170.256308,4259.999896,4293.846049,4259.487075
120,0,4198.974256,4165.640924,4224.615281,4150.769129,4223.07682,4235.384512,4230.769127,4246.666563,4234.358871,4251.281947,4172.820411,4264.10246,4294.358869,4267.179383
121,0,4202.564,4167.179385,4231.794768,4155.897334,4219.999897,4232.820409,4229.743486,4247.179383,4233.84605,4249.743486,4164.615283,4272.307588,4295.897331,4273.333229
122,0,4200.512718,4170.769129,4230.256307,4153.333232,4216.922974,4229.743486,4223.58964,4245.128101,4232.307589,4249.743486,4170.256308,4277.948613,4298.461433,4276.410152
123,0,4196.410154,4165.128103,4229.743486,4150.256309,4218.461435,4228.717845,4221.538358,4245.128101,4233.33323,4253.84605,4185.128103,4280.512716,4305.64092,4277.948613
124,0,4199.487077,4161.53836,4230.256307,4153.333232,4218.974256,4230.256307,4222.051179,4246.666563,4234.358871,4261.025537,4185.640923,4279.487075,4309.230664,4277.435793
125,0,4219.487076,4179.487077,4231.794768,4163.076821,4215.384512,4231.281948,4218.974256,4243.58964,4234.358871,4257.435793,4181.025539,4279.999895,4309.230664,4289.230664
126,0,4233.33323,4193.333231,4235.897332,4169.743488,4217.435794,4232.820409,4217.948615,4236.410153,4232.820409,4247.179383,4188.205026,4281.025536,4310.769125,4308.717843
127,0,4235.897332,4190.256308,4234.358871,4169.743488,4225.128102,4232.307589,4219.487076,4231.281948,4230.256307,4245.128101,4185.640923,4277.948613,4310.256305,4311.794766
128,0,4252.307588,4195.384513,4229.743486,4170.769129,4223.58964,4227.692204,4216.410153,4232.820409,4230.256307,4247.179383,4170.256308,4277.435793,4299.487074,4306.666561
0,0,4273.333229,4202.051179,4236.922973,4170.256308,4215.384512,4228.717845,4214.871692,4234.871691,4230.769127,4247.179383,4170.256308,4281.025536,4293.333228,4322.563997
1,0,4287.692203,4203.07682,4247.692204,4167.179385,4213.846051,4230.256307,4215.897333,4233.33323,4229.743486,4243.58964,4177.435795,4281.538357,4301.538356,4346.15374
2,0,4299.999895,4212.82041,4247.692204,4174.358872,4211.794769,4220.512717,4213.846051,4231.794768,4228.717845,4234.358871,4177.435795,4280.512716,4310.256305,4352.820406
3,0,4306.153741,4226.666563,4247.692204,4182.564,4208.205025,4212.82041,4212.307589,4232.307589,4229.230666,4228.717845,4181.025539,4287.179382,4307.179382,4350.256304
4,0,4311.794766,4231.281948,4251.794768,4185.128103,4214.358871,4215.897333,4213.846051,4234.358871,4231.794768,4231.281948,4184.615282,4296.410151,4302.051177,4346.15374
5,0,4313.333228,4228.717845,4251.281947,4182.564,4221.538358,4219.999897,4215.384512,4235.897332,4231.281948,4233.33323,4178.461436,4295.38451,4300.512715,4344.102458
6,0,4303.076818,4227.692204,4247.692204,4173.333231,4216.922974,4218.461435,4213.33323,4232.820409,4223.07682,4232.820409,4168.205026,4283.589639,4288.717844,4342.563996
7,0,4298.461433,4233.84605,4246.666563,4174.358872,4213.33323,4217.435794,4212.82041,4227.179384,4217.435794,4227.179384,4166.153744,4273.333229,4274.35887,4330.769125
8,0,4300.512715,4236.410153,4241.538358,4184.102462,4218.974256,4217.435794,4214.358871,4223.58964,4219.487076,4219.999897,4165.128103,4275.897331,4271.794767,4315.38451
9,0,4298.974254,4233.33323,4235.897332,4181.538359,4218.461435,4216.410153,4211.281948,4222.051179,4218.461435,4215.384512,4159.487078,4277.435793,4269.230665,4308.205023
10,0,4291.794767,4233.84605,4233.84605,4168.717847,4205.128102,4213.33323,4205.128102,4215.897333,4214.871692,4204.615282,4151.79477,4268.205024,4256.922973,4301.538356
11,0,4282.051177,4232.307589,4232.307589,4167.692206,4197.948615,4205.640923,4201.025538,4203.589641,4214.871692,4186.153744,4149.230668,4266.153742,4238.974255,4291.794767
12,0,4279.487075,4227.692204,4231.794768,4171.281949,4204.102461,4202.051179,4198.461436,4198.461436,4214.871692,4182.05118,4150.769129,4277.948613,4229.743486,4284.102459
13,0,4288.205023,4236.410153,4233.33323,4172.30759,4205.640923,4206.153743,4196.922974,4206.153743,4215.384512,4194.871692,4151.28195,4278.974254,4231.281948,4279.999895
14,0,4287.692203,4244.615281,4234.871691,4177.948616,4200.512718,4208.205025,4199.487077,4214.358871,4217.435794,4200.512718,4152.307591,4269.743485,4235.897332,4278.974254
15,0,4276.922972,4235.897332,4233.33323,4180.512718,4201.538359,4202.051179,4198.974256,4214.871692,4216.922974,4198.461436,4155.897334,4268.205024,4232.820409,4276.410152
16,0,4279.487075,4235.384512,4232.820409,4180.512718,4203.07682,4199.999897,4199.487077,4213.846051,4216.410153,4203.07682,4158.461437,4270.769126,4232.820409,4269.743485
17,0,4279.487075,4243.58964,4234.358871,4183.076821,4202.564,4209.230666,4203.589641,4214.871692,4216.922974,4204.615282,4153.846052,4266.153742,4238.974255,4259.999896
18,0,4264.61528,4236.410153,4234.358871,4184.102462,4209.230666,4216.410153,4204.102461,4216.922974,4217.435794,4201.538359,4154.358873,4263.076819,4235.897332,4252.820409
19,0,4255.897332,4230.769127,4234.358871,4184.102462,4217.948615,4214.358871,4206.666564,4220.512717,4218.974256,4206.153743,4161.53836,4266.153742,4231.281948,4251.794768
20,0,4257.435793,4236.410153,4233.33323,4184.615282,4218.974256,4212.82041,4212.82041,4221.025538,4217.948615,4207.179384,4159.999898,4267.179383,4232.307589,4250.256306
21,0,4257.435793,4232.307589,4230.256307,4183.589641,4214.871692,4213.33323,4213.33323,4222.563999,4216.410153,4199.999897,4157.948616,4264.10246,4231.794768,4249.230665
22,0,4258.974255,4233.84605,4232.307589,4186.666564,4216.410153,4215.384512,4212.82041,4228.205025,4219.999897,4198.461436,4167.179385,4268.717844,4229.743486,4259.999896
23,0,4265.128101,4249.743486,4240.512717,4192.82041,4218.461435,4216.410153,4215.897333,4232.820409,4223.07682,4201.538359,4171.79477,4277.435793,4232.307589,4267.692203
24,0,4264.61528,4248.205024,4246.666563,4189.743487,4213.33323,4213.33323,4214.358871,4233.33323,4221.025538,4207.179384,4166.666565,4275.384511,4243.58964,4254.35887
25,0,4258.461434,4231.794768,4243.58964,4182.564,4210.769128,4211.281948,4214.358871,4234.358871,4219.487076,4215.384512,4165.640924,4266.666562,4248.717845,4246.153742
26,0,4252.820409,4230.769127,4236.922973,4183.589641,4215.897333,4215.384512,4214.358871,4234.358871,4219.999897,4214.871692,4168.205026,4266.153742,4240.512717,4257.435793
27,0,4250.256306,4237.435794,4232.307589,4187.692205,4218.974256,4216.410153,4206.666564,4223.07682,4217.435794,4196.922974,4170.256308,4267.179383,4233.33323,4258.461434
28,0,4252.820409,4236.922973,4232.820409,4188.717846,4216.410153,4213.846051,4201.025538,4212.307589,4217.435794,4186.153744,4168.205026,4262.563998,4233.84605,4244.10246
29,0,4248.205024,4229.743486,4230.256307,4184.615282,4214.358871,4212.82041,4203.07682,4212.307589,4216.922974,4192.30759,4158.461437,4259.487075,4230.769127,4234.871691
30,0,4233.84605,4221.025538,4219.487076,4176.922975,4215.897333,4212.82041,4204.615282,4212.82041,4214.358871,4196.922974,4152.820411,4257.435793,4227.692204,4234.358871
31,0,4226.153743,4216.922974,4213.33323,4175.897334,4210.769128,4213.846051,4204.102461,4209.743487,4214.358871,4189.230667,4154.871693,4252.820409,4230.769127,4229.743486
32,0,4228.717845,4217.435794,4224.102461,4183.076821,4202.051179,4214.871692,4203.07682,4212.307589,4215.384512,4182.564,4154.871693,4254.871691,4226.666563,4225.640922
33,0,4232.820409,4217.435794,4232.307589,4184.615282,4202.051179,4209.743487,4203.589641,4214.871692,4214.871692,4184.102462,4152.820411,4263.076819,4220.512717,4229.743486
34,0,4229.743486,4217.435794,4223.07682,4174.871693,4202.564,4204.615282,4203.589641,4213.33323,4214.871692,4185.640923,4154.358873,4260.512716,4215.897333,4232.307589
35,0,4223.58964,4214.871692,4213.846051,4168.205026,4196.922974,4202.564,4203.07682,4213.846051,4214.358871,4186.153744,4154.871693,4250.256306,4213.846051,4228.717845
36,0,4226.153743,4213.33323,4216.410153,4176.410154,4203.589641,4202.051179,4201.538359,4215.384512,4213.33323,4186.666564,4155.384514,4252.307588,4224.615281,4227.692204
37,0,4230.769127,4222.051179,4218.974256,4182.05118,4215.897333,4205.640923,4200.512718,4212.82041,4215.384512,4188.717846,4161.53836,4261.025537,4232.820409,4233.33323
38,0,4233.33323,4232.820409,4224.615281,4183.076821,4216.922974,4214.358871,4203.07682,4215.897333,4217.948615,4194.871692,4168.717847,4263.076819,4233.84605,4239.487076
39,0,4236.922973,4234.358871,4233.84605,4192.82041,4214.358871,4217.435794,4206.666564,4225.128102,4218.974256,4200.512718,4171.281949,4263.076819,4239.999896,4244.10246
40,0,4239.487076,4233.33323,4231.794768,4197.948615,4214.358871,4214.871692,4205.128102,4223.58964,4219.487076,4203.07682,4171.281949,4265.640921,4244.615281,4247.179383
41,0,4238.461435,4233.33323,4229.230666,4189.230667,4214.358871,4214.871692,4201.025538,4216.410153,4218.461435,4204.102461,4172.820411,4266.153742,4244.615281,4249.230665
42,0,4236.410153,4229.230666,4234.358871,4185.640923,4216.922974,4215.897333,4201.538359,4214.871692,4216.410153,4201.538359,4172.30759,4264.61528,4245.128101,4246.153742
43,0,4232.307589,4230.256307,4229.743486,4192.30759,4216.410153,4214.871692,4203.589641,4216.922974,4216.410153,4199.487077,4172.30759,4262.563998,4242.563999,4238.974255
44,0,4226.666563,4231.281948,4221.025538,4196.410154,4209.743487,4208.205025,4201.538359,4213.33323,4217.435794,4197.948615,4174.871693,4257.435793,4233.84605,4228.717845
45,0,4225.640922,4225.128102,4225.128102,4198.461436,4211.281948,4203.07682,4199.999897,4207.179384,4217.435794,4194.871692,4173.333231,4256.410152,4232.307589,4222.051179
46,0,4233.33323,4232.307589,4231.281948,4201.025538,4223.07682,4208.717846,4200.512718,4204.615282,4217.435794,4195.897333,4170.769129,4259.487075,4234.358871,4229.743486
47,0,4233.84605,4248.717845,4222.563999,4200.512718,4228.205025,4217.435794,4201.025538,4206.153743,4217.435794,4195.897333,4170.256308,4254.871691,4233.33323,4232.820409
48,0,4221.025538,4249.230665,4214.871692,4203.07682,4228.205025,4219.487076,4204.102461,4211.794769,4217.435794,4196.922974,4172.820411,4246.666563,4231.281948,4218.974256
49,0,4215.384512,4238.461435,4215.897333,4199.999897,4226.666563,4219.487076,4210.769128,4216.922974,4219.999897,4209.743487,4181.025539,4246.666563,4232.820409,4213.846051
50,0,4216.410153,4233.84605,4216.922974,4188.717846,4218.461435,4218.461435,4214.871692,4218.974256,4221.025538,4213.846051,4184.615282,4250.769127,4234.358871,4218.461435
51,0,4207.179384,4235.384512,4215.897333,4188.717846,4214.358871,4217.948615,4212.307589,4217.948615,4219.487076,4201.538359,4174.871693,4245.640922,4224.615281,4208.205025
52,0,4198.461436,4234.871691,4210.256307,4197.948615,4225.128102,4219.999897,4207.179384,4217.948615,4218.974256,4193.333231,4166.153744,4235.384512,4212.82041,4195.384513
53,0,4199.999897,4233.84605,4205.640923,4198.461436,4235.384512,4221.025538,4205.640923,4216.922974,4218.974256,4197.435795,4174.358872,4235.897332,4215.384512,4199.487077
54,0,4204.615282,4238.974255,4213.846051,4196.410154,4227.179384,4217.435794,4204.615282,4213.846051,4218.461435,4207.179384,4186.666564,4248.205024,4227.692204,4209.230666
55,0,4206.153743,4250.256306,4215.897333,4202.051179,4216.410153,4214.871692,4201.025538,4211.794769,4217.435794,4209.743487,4186.153744,4251.794768,4236.922973,4214.871692
56,0,4201.538359,4246.666563,4203.589641,4201.538359,4214.871692,4214.358871,4198.974256,4211.281948,4216.922974,4201.538359,4182.05118,4244.10246,4232.307589,4218.974256
57,0,4199.487077,4233.33323,4206.153743,4195.897333,4218.974256,4214.358871,4202.051179,4212.307589,4217.948615,4195.384513,4191.794769,4246.153742,4228.717845,4224.102461
58,0,4204.102461,4233.33323,4216.410153,4197.435795,4225.640922,4217.435794,4205.128102,4215.384512,4219.999897,4199.487077,4205.128102,4251.794768,4241.538358,4224.615281
59,0,4203.07682,4236.410153,4208.717846,4199.487077,4225.640922,4218.974256,4203.589641,4216.410153,4218.974256,4206.153743,4197.435795,4248.717845,4246.153742,4218.974256
60,0,4198.461436,4234.871691,4204.102461,4197.435795,4224.102461,4217.948615,4207.692205,4217.435794,4219.487076,4213.846051,4185.640923,4246.153742,4230.769127,4215.384512
61,0,4198.461436,4234.358871,4214.358871,4199.487077,4223.07682,4222.051179,4213.846051,4226.153743,4219.999897,4211.794769,4189.230667,4247.179383,4220.512717,4215.384512
62,0,4201.025538,4231.281948,4215.384512,4200.512718,4216.922974,4223.07682,4214.358871,4230.256307,4219.999897,4200.512718,4189.743487,4245.640922,4219.999897,4215.384512
63,0,4196.922974,4228.205025,4205.128102,4192.82041,4212.82041,4217.948615,4214.871692,4228.205025,4223.07682,4203.589641,4188.717846,4247.692204,4218.461435,4217.435794
64,0,4190.769128,4231.794768,4202.051179,4185.640923,4216.410153,4222.563999,4213.846051,4228.205025,4229.230666,4214.358871,4198.461436,4250.256306,4223.07682,4218.974256
65,0,4187.179385,4233.84605,4202.564,4186.666564,4219.999897,4231.281948,4208.205025,4224.102461,4230.256307,4209.743487,4203.589641,4242.051178,4228.717845,4211.281948
66,0,4186.153744,4230.769127,4198.974256,4187.179385,4224.102461,4230.769127,4201.025538,4211.794769,4221.025538,4197.435795,4197.948615,4232.820409,4224.102461,4201.538359
67,0,4185.128103,4231.794768,4197.948615,4189.230667,4233.84605,4227.692204,4202.564,4206.666564,4217.435794,4196.922974,4198.461436,4231.794768,4224.615281,4197.435795
68,0,4183.076821,4232.307589,4200.512718,4195.384513,4235.897332,4229.743486,4207.179384,4211.794769,4224.102461,4205.128102,4202.564,4234.871691,4232.820409,4201.538359
69,0,4183.589641,4231.281948,4202.051179,4197.948615,4229.743486,4230.256307,4207.179384,4213.846051,4226.666563,4213.33323,4201.538359,4241.025537,4233.84605,4209.743487
70,0,4191.794769,4232.820409,4200.512718,4195.897333,4226.153743,4228.205025,4206.666564,4214.871692,4224.615281,4215.897333,4209.230666,4247.692204,4233.33323,4217.435794
71,0,4199.487077,4233.84605,4199.487077,4192.30759,4226.153743,4230.256307,4211.281948,4218.461435,4228.205025,4213.33323,4219.999897,4247.179383,4238.974255,4221.025538
72,0,4197.435795,4235.384512,4197.948615,4189.743487,4226.666563,4230.769127,4215.384512,4221.025538,4232.820409,4216.922974,4217.948615,4244.10246,4238.974255,4215.897333
73,0,4196.410154,4235.897332,4198.461436,4193.333231,4224.615281,4224.102461,4208.205025,4219.487076,4229.743486,4216.922974,4209.743487,4246.153742,4230.256307,4203.07682
74,0,4199.487077,4231.794768,4197.948615,4201.538359,4222.563999,4221.025538,4199.999897,4216.410153,4226.666563,4205.128102,4211.281948,4246.666563,4227.179384,4201.538359
75,0,4199.999897,4231.281948,4201.025538,4203.589641,4230.256307,4227.179384,4207.692205,4217.948615,4229.743486,4203.589641,4216.922974,4246.666563,4237.948614,4218.974256
76,0,4208.205025,4240.512717,4209.743487,4201.538359,4235.897332,4231.281948,4216.922974,4223.58964,4231.794768,4214.871692,4219.487076,4252.307588,4246.153742,4231.281948
77,0,4225.128102,4252.820409,4215.384512,4206.153743,4233.84605,4229.743486,4215.384512,4229.743486,4228.717845,4218.461435,4227.179384,4259.487075,4247.179383,4235.897332
