title:V                                                                               , recorded:07.07.20 10.54.22, sampling:128, subject:B                                                                               , labels:COUNTER INTERPOLATED AF3 F7 F3 FC5 T7 P7 O1 O2 P8 T8 FC6 F4 F8 AF4,, units:emotiv,,,,,,,,,
93,0,4190.769128,4182.05118,4205.640923,4183.076821,4213.846051,4214.358871,4213.33323,4198.461436,4218.974256,4194.358872,4200.512718,4243.076819,4202.564,4203.589641
94,0,4185.640923,4183.589641,4205.640923,4190.256308,4208.205025,4215.384512,4208.717846,4198.461436,4217.948615,4200.512718,4209.743487,4239.487076,4198.974256,4195.897333
95,0,4192.82041,4190.769128,4213.33323,4199.487077,4207.692205,4211.281948,4205.640923,4197.948615,4221.025538,4203.589641,4217.948615,4242.051178,4208.717846,4204.615282
96,0,4203.589641,4200.512718,4217.948615,4202.051179,4214.871692,4206.666564,4204.102461,4195.384513,4217.948615,4204.615282,4215.384512,4248.205024,4216.922974,4217.948615
97,0,4206.153743,4203.07682,4215.897333,4203.07682,4216.410153,4210.256307,4202.564,4201.025538,4220.512717,4211.281948,4215.384512,4251.281947,4215.384512,4216.922974
98,0,4206.666564,4200.512718,4214.358871,4204.102461,4210.256307,4216.410153,4207.692205,4207.692205,4232.307589,4216.410153,4219.487076,4249.230665,4217.435794,4213.846051
99,0,4207.692205,4199.999897,4214.871692,4201.025538,4212.307589,4217.435794,4212.307589,4206.153743,4232.820409,4212.307589,4222.563999,4248.205024,4221.025538,4218.461435
100,0,4205.128102,4199.999897,4214.871692,4198.461436,4214.871692,4214.358871,4205.128102,4201.538359,4219.487076,4202.051179,4217.435794,4247.692204,4216.922974,4215.384512
101,0,4201.025538,4198.974256,4212.82041,4197.948615,4213.846051,4211.281948,4199.487077,4194.871692,4216.410153,4197.435795,4207.692205,4245.640922,4211.794769,4211.281948
102,0,4208.717846,4199.487077,4212.82041,4194.871692,4215.384512,4212.82041,4204.102461,4191.281949,4223.07682,4205.640923,4208.717846,4243.58964,4212.82041,4216.410153
103,0,4214.871692,4199.487077,4217.948615,4194.871692,4216.922974,4214.871692,4207.179384,4191.281949,4223.07682,4212.307589,4215.897333,4245.128101,4215.384512,4211.794769
104,0,4206.666564,4197.435795,4217.435794,4199.999897,4214.358871,4208.717846,4203.07682,4190.769128,4218.974256,4207.692205,4215.384512,4245.640922,4217.435794,4203.589641
105,0,4201.538359,4201.538359,4212.82041,4199.999897,4213.846051,4205.640923,4202.564,4190.769128,4215.384512,4198.974256,4212.307589,4242.563999,4215.897333,4211.794769
106,0,4205.640923,4200.512718,4213.846051,4191.794769,4214.871692,4212.307589,4208.717846,4197.948615,4215.384512,4200.512718,4215.897333,4244.615281,4214.358871,4219.487076
107,0,4201.538359,4187.692205,4216.410153,4183.589641,4205.128102,4213.846051,4216.410153,4211.281948,4225.128102,4213.33323,4221.025538,4250.769127,4216.922974,4213.846051
108,0,4198.974256,4189.230667,4214.358871,4186.153744,4196.410154,4209.743487,4214.871692,4214.358871,4231.794768,4217.435794,4221.025538,4250.769127,4219.487076,4211.794769
109,0,4213.846051,4207.692205,4215.384512,4190.769128,4207.692205,4209.743487,4211.281948,4205.640923,4222.563999,4208.205025,4214.871692,4246.666563,4216.410153,4222.051179
110,0,4226.153743,4212.82041,4215.384512,4186.666564,4216.922974,4209.743487,4212.82041,4199.999897,4214.358871,4198.974256,4212.82041,4247.179383,4205.640923,4227.179384
111,0,4232.820409,4211.281948,4214.358871,4189.230667,4211.794769,4210.256307,4210.256307,4203.589641,4216.922974,4202.051179,4215.384512,4255.897332,4203.07682,4232.307589
112,0,4244.615281,4222.563999,4223.07682,4200.512718,4213.33323,4210.769128,4207.692205,4205.640923,4219.999897,4205.640923,4214.871692,4260.512716,4214.871692,4243.58964
113,0,4249.743486,4225.640922,4230.769127,4202.051179,4216.410153,4205.128102,4210.256307,4201.025538,4218.461435,4198.974256,4213.846051,4253.84605,4218.461435,4241.538358
114,0,4247.692204,4218.461435,4229.743486,4197.948615,4208.717846,4205.128102,4211.281948,4198.461436,4215.897333,4195.897333,4213.846051,4247.692204,4205.128102,4229.743486
115,0,4245.640922,4215.897333,4231.794768,4199.999897,4201.538359,4214.358871,4210.256307,4198.461436,4214.871692,4197.948615,4214.871692,4254.35887,4203.589641,4229.230666
116,0,4239.487076,4213.33323,4234.871691,4196.922974,4203.07682,4214.358871,4211.794769,4202.051179,4219.487076,4200.512718,4216.410153,4260.512716,4216.410153,4232.820409
117,0,4232.307589,4213.33323,4232.307589,4191.281949,4199.487077,4205.640923,4213.33323,4205.128102,4221.025538,4201.025538,4218.974256,4257.948614,4215.384512,4223.58964
118,0,4227.179384,4212.82041,4228.205025,4192.82041,4197.435795,4208.717846,4211.794769,4203.07682,4216.922974,4201.025538,4218.974256,4255.384511,4202.564,4210.256307
119,0,4225.640922,4206.666564,4228.717845,4193.846051,4208.205025,4215.897333,4210.769128,4207.179384,4216.410153,4198.974256,4216.922974,4254.35887,4199.487077,4201.538359
120,0,4226.666563,4204.102461,4230.769127,4193.333231,4215.384512,4217.435794,4211.281948,4213.33323,4217.948615,4199.487077,4214.871692,4252.307588,4205.128102,4198.461436
121,0,4224.102461,4211.794769,4227.692204,4192.30759,4208.205025,4211.794769,4212.307589,4207.179384,4219.999897,4204.102461,4215.897333,4248.205024,4204.102461,4198.974256
122,0,4214.871692,4216.410153,4219.487076,4187.692205,4200.512718,4204.615282,4208.205025,4198.974256,4219.487076,4196.410154,4216.922974,4245.640922,4197.435795,4191.794769
123,0,4213.33323,4210.769128,4216.922974,4184.615282,4202.051179,4205.640923,4202.564,4198.461436,4215.897333,4183.589641,4211.794769,4244.10246,4195.384513,4184.102462
124,0,4218.974256,4204.615282,4223.58964,4186.153744,4204.615282,4212.307589,4206.666564,4197.948615,4214.358871,4184.615282,4205.128102,4245.640922,4198.461436,4187.179385
125,0,4218.974256,4204.102461,4230.769127,4185.640923,4201.025538,4213.33323,4213.846051,4196.922974,4216.410153,4191.281949,4209.230666,4249.230665,4196.922974,4193.333231
126,0,4215.384512,4204.615282,4230.769127,4186.666564,4195.384513,4208.717846,4212.307589,4198.974256,4216.410153,4187.692205,4215.384512,4248.205024,4196.410154,4193.846051
127,0,4213.33323,4201.025538,4224.615281,4187.692205,4198.461436,4206.153743,4206.153743,4200.512718,4214.358871,4180.512718,4207.692205,4244.615281,4194.358872,4186.666564
128,0,4212.307589,4201.538359,4223.07682,4184.102462,4208.717846,4204.102461,4201.538359,4199.487077,4212.307589,4182.564,4203.07682,4244.10246,4189.743487,4176.410154
0,0,4213.846051,4213.846051,4227.692204,4188.717846,4212.307589,4207.179384,4199.999897,4199.487077,4214.358871,4192.30759,4212.82041,4246.153742,4192.30759,4179.999898
1,0,4217.435794,4221.538358,4229.230666,4198.974256,4212.82041,4214.358871,4207.179384,4204.615282,4226.666563,4202.564,4217.948615,4247.692204,4200.512718,4195.384513
2,0,4219.487076,4220.512717,4226.666563,4197.435795,4215.897333,4217.435794,4212.82041,4212.82041,4232.307589,4208.205025,4217.435794,4250.256306,4203.07682,4201.538359
3,0,4219.999897,4221.538358,4227.179384,4191.281949,4216.922974,4216.922974,4209.230666,4212.307589,4222.051179,4206.666564,4218.461435,4251.281947,4208.717846,4198.461436
4,0,4226.153743,4227.179384,4229.743486,4195.897333,4212.82041,4215.897333,4203.07682,4204.615282,4216.410153,4201.025538,4218.974256,4250.256306,4212.82041,4198.461436
5,0,4231.281948,4229.743486,4230.256307,4202.051179,4203.589641,4216.410153,4202.564,4202.051179,4220.512717,4199.487077,4224.102461,4252.307588,4204.615282,4197.948615
6,0,4230.256307,4232.307589,4233.84605,4203.07682,4203.589641,4218.461435,4211.281948,4208.717846,4221.538358,4202.564,4229.230666,4259.487075,4206.153743,4199.999897
7,0,4228.717845,4231.794768,4233.84605,4202.051179,4215.384512,4218.461435,4212.307589,4207.692205,4219.487076,4201.538359,4222.563999,4261.538357,4216.922974,4203.589641
8,0,4222.051179,4221.025538,4229.743486,4198.461436,4216.922974,4215.897333,4204.615282,4199.999897,4217.948615,4199.487077,4215.897333,4253.333229,4213.846051,4194.358872
9,0,4216.410153,4212.82041,4229.743486,4196.922974,4207.692205,4214.358871,4207.179384,4204.102461,4219.487076,4203.07682,4219.999897,4247.692204,4207.179384,4186.666564
10,0,4222.563999,4218.461435,4233.33323,4199.487077,4205.128102,4214.358871,4212.307589,4216.410153,4227.692204,4207.692205,4224.615281,4250.769127,4212.307589,4197.948615
11,0,4225.128102,4222.563999,4233.33323,4197.948615,4203.07682,4214.358871,4211.281948,4218.974256,4231.281948,4206.666564,4226.153743,4251.794768,4214.871692,4207.179384
12,0,4215.384512,4217.435794,4229.230666,4193.846051,4199.487077,4214.871692,4210.769128,4214.871692,4222.051179,4203.589641,4230.769127,4249.230665,4211.281948,4195.384513
13,0,4212.307589,4213.846051,4230.256307,4190.769128,4201.025538,4213.33323,4207.179384,4212.82041,4215.384512,4200.512718,4229.230666,4249.230665,4211.794769,4188.717846
14,0,4217.948615,4214.358871,4233.33323,4189.743487,4196.410154,4210.769128,4200.512718,4212.307589,4220.512717,4203.07682,4222.051179,4252.820409,4213.846051,4202.051179
15,0,4217.948615,4214.871692,4232.820409,4190.769128,4197.948615,4213.33323,4208.205025,4216.410153,4230.256307,4213.33323,4223.58964,4251.794768,4215.897333,4202.564
16,0,4213.846051,4213.33323,4232.307589,4195.897333,4210.256307,4218.974256,4213.846051,4216.922974,4229.743486,4215.384512,4228.717845,4250.769127,4211.281948,4184.615282
17,0,4215.897333,4214.871692,4234.871691,4197.948615,4209.230666,4216.410153,4203.589641,4205.128102,4217.948615,4204.102461,4225.640922,4252.307588,4204.102461,4186.153744
18,0,4219.487076,4214.871692,4234.871691,4192.30759,4201.025538,4210.769128,4199.999897,4196.922974,4213.33323,4192.82041,4218.461435,4253.333229,4202.564,4204.615282
19,0,4215.384512,4209.743487,4231.794768,4186.666564,4201.538359,4211.794769,4204.615282,4199.487077,4216.410153,4186.153744,4217.435794,4251.794768,4198.461436,4201.538359
20,0,4208.205025,4208.717846,4232.820409,4187.692205,4204.102461,4213.33323,4204.615282,4202.051179,4216.410153,4187.179385,4221.538358,4251.794768,4194.871692,4193.333231
21,0,4214.358871,4213.846051,4233.33323,4192.30759,4199.999897,4212.307589,4205.128102,4207.692205,4221.538358,4202.564,4230.769127,4258.461434,4212.82041,4207.179384
22,0,4227.692204,4214.358871,4231.794768,4196.922974,4197.948615,4212.82041,4207.179384,4217.435794,4231.794768,4218.461435,4236.410153,4266.153742,4233.84605,4222.563999
23,0,4228.717845,4213.33323,4234.871691,4199.999897,4199.999897,4211.794769,4204.615282,4221.025538,4232.307589,4217.435794,4233.84605,4264.61528,4227.692204,4221.025538
24,0,4217.948615,4215.897333,4235.384512,4196.922974,4200.512718,4211.281948,4205.640923,4219.487076,4231.281948,4212.82041,4234.871691,4261.538357,4215.897333,4209.230666
25,0,4210.769128,4215.897333,4231.794768,4193.333231,4197.435795,4214.358871,4208.205025,4217.435794,4232.307589,4213.846051,4234.358871,4259.999896,4216.410153,4200.512718
26,0,4212.82041,4211.794769,4229.230666,4196.922974,4196.922974,4215.384512,4203.07682,4213.846051,4228.205025,4213.846051,4230.256307,4252.820409,4215.384512,4202.051179
27,0,4216.922974,4212.82041,4230.256307,4201.025538,4209.743487,4215.384512,4201.538359,4211.281948,4228.205025,4211.794769,4231.794768,4251.281947,4215.897333,4204.615282
28,0,4218.461435,4216.410153,4230.769127,4200.512718,4214.358871,4217.948615,4206.666564,4208.717846,4229.743486,4206.666564,4234.358871,4257.435793,4218.974256,4202.564
29,0,4217.435794,4214.358871,4231.794768,4198.974256,4203.07682,4214.358871,4203.589641,4201.538359,4221.025538,4199.487077,4230.769127,4252.307588,4214.358871,4202.564
30,0,4211.794769,4211.281948,4230.256307,4198.974256,4196.410154,4209.743487,4199.487077,4197.948615,4215.897333,4199.999897,4227.179384,4249.743486,4210.769128,4205.128102
31,0,4216.410153,4213.846051,4231.794768,4199.999897,4198.461436,4209.743487,4203.07682,4206.153743,4221.538358,4200.512718,4235.384512,4261.538357,4215.897333,4206.666564
32,0,4228.717845,4218.461435,4243.076819,4202.051179,4199.999897,4210.769128,4204.102461,4216.410153,4226.666563,4200.512718,4247.692204,4268.205024,4220.512717,4211.794769
33,0,4226.153743,4220.512717,4248.205024,4202.051179,4202.051179,4211.794769,4203.589641,4221.025538,4231.281948,4211.794769,4247.692204,4267.692203,4222.051179,4209.743487
34,0,4214.358871,4214.358871,4236.922973,4201.538359,4204.102461,4212.307589,4205.128102,4218.461435,4229.230666,4215.384512,4235.897332,4264.10246,4214.871692,4195.384513
35,0,4213.33323,4201.025538,4228.717845,4195.897333,4201.025538,4210.769128,4204.615282,4214.358871,4223.58964,4199.487077,4230.256307,4252.820409,4203.589641,4187.692205
36,0,4214.871692,4198.974256,4230.769127,4189.743487,4198.974256,4213.33323,4207.179384,4212.307589,4226.666563,4197.948615,4234.871691,4248.205024,4206.153743,4199.487077
37,0,4210.769128,4208.717846,4232.307589,4195.897333,4202.564,4214.871692,4213.846051,4216.410153,4232.820409,4211.794769,4235.897332,4257.435793,4216.922974,4210.769128
38,0,4211.794769,4206.153743,4232.820409,4196.922974,4201.025538,4207.692205,4212.307589,4216.410153,4230.256307,4208.205025,4233.33323,4261.538357,4217.948615,4204.102461
39,0,4215.384512,4197.948615,4235.384512,4188.205026,4191.281949,4202.051179,4208.205025,4206.153743,4227.692204,4197.948615,4233.33323,4261.025537,4214.358871,4202.051179
40,0,4213.33323,4206.153743,4234.871691,4191.281949,4191.281949,4203.589641,4209.230666,4199.487077,4225.640922,4197.435795,4233.84605,4263.076819,4214.871692,4214.358871
41,0,4213.846051,4217.435794,4233.84605,4201.538359,4204.615282,4208.205025,4208.205025,4201.025538,4225.640922,4201.025538,4234.871691,4256.922973,4218.974256,4213.33323
42,0,4214.871692,4215.384512,4229.230666,4198.461436,4208.205025,4213.33323,4203.07682,4202.564,4226.153743,4206.153743,4233.33323,4247.692204,4221.025538,4201.538359
43,0,4213.846051,4211.281948,4225.128102,4194.358872,4202.564,4213.846051,4201.025538,4199.999897,4222.051179,4207.179384,4232.307589,4249.230665,4216.922974,4206.153743
44,0,4215.897333,4214.358871,4227.179384,4198.974256,4201.538359,4212.307589,4201.025538,4200.512718,4217.435794,4206.666564,4237.948614,4250.256306,4214.871692,4214.871692
45,0,4226.666563,4221.538358,4230.256307,4200.512718,4203.589641,4213.846051,4202.051179,4206.153743,4224.102461,4208.717846,4243.58964,4249.230665,4223.07682,4218.461435
46,0,4244.10246,4229.743486,4235.897332,4201.025538,4203.589641,4213.33323,4204.615282,4212.307589,4230.256307,4210.256307,4243.58964,4255.897332,4230.769127,4230.769127
47,0,4256.410152,4230.769127,4244.615281,4205.640923,4199.999897,4214.358871,4204.615282,4215.384512,4222.563999,4204.102461,4243.58964,4263.589639,4227.692204,4244.615281
48,0,4270.256306,4231.794768,4248.717845,4212.307589,4189.230667,4213.33323,4203.589641,4212.82041,4216.410153,4198.461436,4245.128101,4267.179383,4222.563999,4251.281947
49,0,4290.769126,4241.025537,4246.666563,4213.33323,4184.615282,4203.589641,4202.564,4207.692205,4218.974256,4197.435795,4246.666563,4269.230665,4229.743486,4269.743485
50,0,4298.461433,4239.487076,4245.128101,4204.615282,4191.794769,4198.974256,4199.487077,4201.025538,4216.922974,4198.461436,4246.666563,4267.179383,4244.10246,4288.205023
51,0,4294.358869,4232.820409,4242.563999,4201.025538,4198.461436,4202.051179,4197.435795,4198.461436,4212.82041,4200.512718,4244.615281,4264.61528,4248.205024,4287.179382
52,0,4296.410151,4240.512717,4240.512717,4207.179384,4199.999897,4206.666564,4197.948615,4197.948615,4212.307589,4198.461436,4245.128101,4267.179383,4245.640922,4287.692203
53,0,4289.743485,4241.025537,4243.076819,4207.692205,4203.589641,4213.846051,4199.999897,4198.974256,4215.384512,4199.487077,4249.230665,4265.128101,4249.230665,4292.820408
54,0,4268.717844,4230.256307,4245.128101,4201.025538,4205.640923,4217.435794,4206.153743,4209.230666,4221.025538,4210.256307,4250.256306,4264.10246,4252.820409,4285.640921
55,0,4260.512716,4230.256307,4239.999896,4201.538359,4205.640923,4216.922974,4212.307589,4218.974256,4229.743486,4219.999897,4249.743486,4270.769126,4247.179383,4271.794767
56,0,4258.461434,4228.717845,4233.84605,4203.07682,4205.640923,4219.487076,4214.358871,4220.512717,4232.307589,4216.922974,4250.256306,4276.922972,4242.563999,4266.666562
57,0,4247.692204,4215.384512,4237.948614,4198.974256,4194.871692,4213.33323,4213.33323,4219.999897,4231.281948,4210.769128,4250.256306,4278.461434,4245.128101,4261.538357
58,0,4238.974255,4211.281948,4240.512717,4198.461436,4181.538359,4206.153743,4213.846051,4220.512717,4229.743486,4215.897333,4249.230665,4273.333229,4243.076819,4253.333229
59,0,4234.871691,4211.281948,4235.384512,4198.974256,4184.102462,4207.692205,4215.384512,4218.974256,4231.794768,4221.025538,4250.769127,4266.153742,4234.358871,4242.051178
60,0,4227.692204,4204.615282,4231.794768,4196.922974,4193.333231,4207.692205,4213.846051,4219.487076,4229.743486,4216.922974,4251.281947,4263.589639,4230.256307,4232.307589
61,0,4220.512717,4205.128102,4233.33323,4197.435795,4196.410154,4205.640923,4208.205025,4215.384512,4221.538358,4213.846051,4247.692204,4265.640921,4233.33323,4235.384512
62,0,4218.974256,4213.33323,4227.692204,4199.999897,4201.025538,4207.692205,4202.051179,4204.615282,4218.974256,4213.846051,4245.640922,4262.563998,4235.897332,4231.794768
63,0,4217.435794,4213.846051,4222.051179,4198.461436,4203.589641,4203.589641,4199.487077,4198.461436,4217.948615,4205.128102,4246.153742,4256.410152,4228.205025,4218.974256
64,0,4214.871692,4211.794769,4226.153743,4198.461436,4202.051179,4201.025538,4200.512718,4204.102461,4214.358871,4196.922974,4245.128101,4257.948614,4219.999897,4220.512717
65,0,4218.974256,4214.871692,4231.281948,4202.564,4203.07682,4211.794769,4205.640923,4212.82041,4221.025538,4201.538359,4245.640922,4264.61528,4221.025538,4233.33323
66,0,4223.07682,4219.487076,4232.307589,4202.564,4203.589641,4215.384512,4206.666564,4217.435794,4229.743486,4204.102461,4248.717845,4268.205024,4223.58964,4232.820409
67,0,4212.82041,4215.897333,4227.179384,4199.999897,4202.564,4205.640923,4203.07682,4215.384512,4227.179384,4199.487077,4249.743486,4262.563998,4220.512717,4219.999897
68,0,4205.640923,4206.666564,4219.999897,4198.461436,4198.974256,4201.025538,4204.615282,4207.179384,4226.153743,4204.102461,4246.153742,4254.35887,4218.461435,4213.33323
69,0,4211.281948,4203.589641,4216.410153,4196.922974,4192.82041,4204.615282,4208.205025,4204.615282,4231.794768,4214.871692,4242.563999,4249.743486,4218.461435,4213.33323
70,0,4212.82041,4210.769128,4217.948615,4198.974256,4198.461436,4213.33323,4210.256307,4212.82041,4232.820409,4215.897333,4242.051178,4249.743486,4215.384512,4212.307589
71,0,4204.615282,4214.358871,4217.948615,4201.538359,4212.82041,4215.384512,4212.82041,4214.358871,4227.179384,4207.692205,4237.948614,4248.717845,4214.871692,4206.666564
72,0,4201.025538,4207.179384,4216.922974,4199.999897,4212.307589,4208.205025,4209.743487,4205.128102,4220.512717,4200.512718,4232.307589,4244.615281,4210.769128,4198.974256
73,0,4201.538359,4199.999897,4215.384512,4196.922974,4201.538359,4200.512718,4201.025538,4199.487077,4217.435794,4195.897333,4235.897332,4244.615281,4204.102461,4202.564
74,0,4204.615282,4201.538359,4214.358871,4196.410154,4201.025538,4200.512718,4199.999897,4198.974256,4215.897333,4194.358872,4240.512717,4247.692204,4206.153743,4212.82041
75,0,4215.897333,4210.256307,4223.58964,4198.974256,4197.948615,4202.564,4202.051179,4199.487077,4216.410153,4196.410154,4240.512717,4255.897332,4216.410153,4220.512717
76,0,4224.615281,4213.846051,4232.820409,4200.512718,4188.717846,4203.589641,4201.025538,4201.025538,4223.07682,4201.538359,4245.128101,4262.563998,4226.666563,4219.999897
77,0,4222.563999,4214.358871,4232.307589,4201.538359,4194.871692,4206.666564,4206.153743,4204.102461,4229.230666,4206.666564,4250.769127,4262.563998,4232.307589,4219.487076
78,0,4219.487076,4215.384512,4225.640922,4203.07682,4205.640923,4213.33323,4213.846051,4212.307589,4232.820409,4211.794769,4250.769127,4262.051178,4229.743486,4225.128102
79,0,4212.82041,4206.666564,4217.948615,4200.512718,4199.487077,4217.948615,4210.769128,4216.922974,4234.871691,4215.384512,4246.666563,4256.922973,4218.974256,4217.435794
80,0,4204.102461,4199.999897,4213.846051,4197.435795,4202.564,4217.948615,4209.230666,4215.897333,4232.820409,4214.871692,4248.717845,4248.205024,4214.871692,4201.025538
81,0,4201.538359,4208.205025,4215.384512,4200.512718,4219.487076,4217.435794,4214.358871,4211.281948,4230.256307,4207.692205,4247.179383,4245.640922,4209.230666,4195.897333
82,0,4202.564,4215.384512,4214.871692,4202.051179,4217.948615,4217.435794,4210.256307,4203.589641,4227.179384,4199.487077,4236.922973,4245.128101,4199.487077,4203.07682
83,0,4210.769128,4213.846051,4214.871692,4198.974256,4202.051179,4215.897333,4204.615282,4206.666564,4226.666563,4203.589641,4236.410153,4245.128101,4203.589641,4210.256307
84,0,4219.999897,4216.922974,4223.58964,4197.435795,4196.410154,4214.871692,4211.794769,4215.897333,4228.717845,4213.33323,4247.692204,4252.307588,4215.897333,4213.846051
85,0,4218.974256,4218.974256,4227.179384,4196.410154,4203.589641,4215.384512,4215.384512,4217.435794,4230.256307,4218.461435,4250.769127,4259.999896,4220.512717,4223.07682
86,0,4215.897333,4217.435794,4225.128102,4195.897333,4214.871692,4215.384512,4212.82041,4217.948615,4235.897332,4218.974256,4251.794768,4261.538357,4225.640922,4225.640922
87,0,4223.58964,4216.410153,4229.230666,4199.487077,4216.410153,4214.358871,4214.358871,4222.051179,4244.615281,4214.358871,4259.999896,4265.128101,4232.820409,4221.538358
88,0,4230.256307,4217.948615,4232.307589,4200.512718,4207.692205,4213.33323,4214.871692,4223.07682,4245.128101,4220.512717,4262.563998,4267.179383,4231.794768,4225.128102
89,0,4233.84605,4223.58964,4232.307589,4199.487077,4208.717846,4214.871692,4213.33323,4228.205025,4243.076819,4232.820409,4259.487075,4267.179383,4228.717845,4236.922973
90,0,4237.948614,4224.615281,4233.33323,4202.564,4218.461435,4217.435794,4214.871692,4229.743486,4243.076819,4225.128102,4254.871691,4263.076819,4223.58964,4236.922973
91,0,4229.743486,4216.922974,4227.179384,4201.025538,4212.307589,4217.948615,4215.384512,4218.974256,4236.410153,4210.256307,4249.743486,4258.461434,4216.922974,4221.025538
92,0,4217.948615,4215.384512,4219.487076,4192.82041,4200.512718,4216.922974,4214.871692,4214.358871,4230.256307,4213.33323,4249.230665,4256.922973,4214.871692,4217.435794
93,0,4212.307589,4216.410153,4222.051179,4190.769128,4199.999897,4214.871692,4212.82041,4213.846051,4231.281948,4213.33323,4248.717845,4254.35887,4211.794769,4218.461435
94,0,4212.82041,4211.794769,4226.153743,4196.922974,4204.615282,4212.82041,4211.281948,4211.794769,4231.281948,4207.179384,4254.35887,4249.743486,4215.384512,4213.33323
95,0,4223.58964,4216.410153,4227.692204,4199.999897,4205.640923,4216.410153,4212.82041,4214.871692,4232.820409,4213.33323,4259.999896,4250.256306,4226.153743,4217.948615
96,0,4231.281948,4220.512717,4229.743486,4191.794769,4201.538359,4216.922974,4212.82041,4217.948615,4235.384512,4220.512717,4252.820409,4248.717845,4223.58964,4229.743486
97,0,4219.999897,4204.615282,4228.205025,4182.05118,4195.897333,4212.307589,4211.794769,4218.461435,4233.84605,4219.999897,4246.666563,4245.640922,4212.82041,4230.769127
98,0,4216.922974,4202.051179,4226.153743,4187.179385,4202.564,4213.33323,4214.871692,4221.025538,4233.33323,4220.512717,4250.256306,4253.84605,4215.897333,4225.128102
99,0,4234.358871,4226.666563,4230.769127,4199.999897,4215.897333,4216.410153,4214.358871,4217.948615,4232.307589,4213.846051,4250.769127,4261.025537,4222.563999,4232.820409
100,0,4238.974255,4240.512717,4235.384512,4204.615282,4213.33323,4205.128102,4204.615282,4206.666564,4225.640922,4202.564,4249.230665,4254.871691,4219.487076,4233.33323
101,0,4232.820409,4234.358871,4230.769127,4204.615282,4201.025538,4196.922974,4199.487077,4202.051179,4224.615281,4201.538359,4250.769127,4248.717845,4214.358871,4221.025538
102,0,4230.769127,4233.33323,4219.999897,4199.999897,4201.538359,4208.205025,4202.564,4204.102461,4227.179384,4204.615282,4249.230665,4243.58964,4206.153743,4213.33323
103,0,4220.512717,4232.307589,4213.33323,4190.256308,4203.589641,4216.922974,4203.589641,4204.102461,4222.051179,4197.948615,4245.128101,4237.948614,4197.435795,4205.128102
104,0,4211.281948,4222.051179,4215.897333,4191.794769,4200.512718,4213.846051,4201.025538,4200.512718,4215.897333,4193.333231,4244.10246,4237.435794,4195.897333,4198.974256
105,0,4214.871692,4217.435794,4216.410153,4201.025538,4206.153743,4216.922974,4205.640923,4201.025538,4221.538358,4197.435795,4244.10246,4237.435794,4195.384513,4205.128102
106,0,4212.82041,4219.999897,4208.205025,4195.897333,4216.922974,4220.512717,4210.769128,4209.230666,4231.281948,4207.692205,4244.10246,4231.794768,4197.948615,4214.871692
107,0,4208.717846,4219.487076,4205.640923,4186.153744,4215.897333,4217.435794,4207.179384,4212.82041,4232.307589,4216.922974,4245.128101,4230.769127,4211.281948,4214.358871
108,0,4212.82041,4216.922974,4210.769128,4190.256308,4210.256307,4215.384512,4201.538359,4205.128102,4230.769127,4211.281948,4245.128101,4238.974255,4221.538358,4213.33323
109,0,4219.999897,4223.58964,4217.435794,4199.487077,4211.794769,4214.358871,4201.538359,4203.07682,4231.794768,4200.512718,4247.179383,4245.640922,4215.897333,4218.461435
110,0,4229.230666,4235.897332,4224.615281,4204.102461,4216.410153,4214.358871,4210.769128,4216.922974,4236.922973,4214.871692,4249.743486,4249.230665,4212.307589,4219.999897
111,0,4234.871691,4237.948614,4226.666563,4203.07682,4216.922974,4217.948615,4217.435794,4225.128102,4241.025537,4229.230666,4248.205024,4249.230665,4217.948615,4218.974256
112,0,4232.820409,4234.871691,4227.179384,4202.051179,4214.358871,4216.922974,4214.871692,4222.563999,4243.076819,4221.025538,4254.871691,4249.230665,4219.487076,4226.153743
113,0,4231.281948,4233.84605,4231.281948,4203.589641,4212.82041,4213.846051,4212.82041,4224.615281,4243.58964,4217.435794,4261.538357,4250.769127,4216.410153,4238.461435
114,0,4230.769127,4231.794768,4229.743486,4202.564,4214.871692,4216.922974,4214.358871,4223.58964,4237.435794,4222.563999,4252.307588,4250.256306,4217.948615,4233.84605
115,0,4224.102461,4231.281948,4218.974256,4200.512718,4219.999897,4220.512717,4213.846051,4218.974256,4230.256307,4217.948615,4243.58964,4244.615281,4216.922974,4217.435794
116,0,4217.435794,4225.640922,4214.358871,4198.461436,4220.512717,4219.999897,4212.307589,4216.410153,4229.230666,4209.743487,4246.666563,4233.33323,4205.128102,4213.846051
117,0,4213.846051,4216.922974,4215.897333,4198.974256,4213.846051,4219.487076,4213.846051,4215.897333,4231.794768,4209.230666,4247.692204,4230.256307,4199.487077,4215.384512
118,0,4213.846051,4221.538358,4212.307589,4198.974256,4211.794769,4217.948615,4214.358871,4214.358871,4231.281948,4212.307589,4244.615281,4236.922973,4209.230666,4213.846051
119,0,4221.538358,4233.33323,4214.871692,4201.025538,4215.897333,4218.974256,4213.33323,4215.384512,4231.794768,4215.384512,4246.153742,4243.076819,4216.922974,4220.512717
120,0,4235.384512,4238.974255,4227.179384,4209.230666,4217.948615,4218.461435,4212.82041,4217.948615,4237.435794,4218.974256,4253.84605,4249.743486,4222.563999,4232.820409
121,0,4244.615281,4244.615281,4234.871691,4216.922974,4224.102461,4217.948615,4214.871692,4217.948615,4244.615281,4223.58964,4263.076819,4258.461434,4230.769127,4236.410153
122,0,4248.717845,4253.333229,4231.281948,4218.974256,4230.769127,4226.153743,4216.922974,4224.102461,4248.205024,4232.820409,4263.076819,4263.076819,4235.384512,4235.897332
123,0,4248.717845,4250.256306,4229.230666,4216.922974,4225.128102,4231.794768,4216.410153,4228.205025,4244.10246,4229.743486,4258.974255,4264.10246,4228.205025,4235.897332
124,0,4241.538358,4235.897332,4232.820409,4215.384512,4216.922974,4224.102461,4217.435794,4224.102461,4238.974255,4219.999897,4257.435793,4263.589639,4219.999897,4231.281948
125,0,4236.410153,4230.769127,4236.922973,4215.897333,4215.897333,4216.410153,4215.384512,4214.871692,4231.281948,4217.435794,4252.820409,4261.025537,4219.487076,4232.820409
126,0,4233.84605,4234.358871,4231.794768,4211.281948,4214.358871,4215.897333,4206.153743,4205.128102,4219.999897,4211.794769,4247.692204,4259.999896,4215.384512,4231.281948
127,0,4228.205025,4231.794768,4218.974256,4202.564,4212.82041,4215.897333,4204.615282,4202.564,4220.512717,4206.153743,4247.179383,4257.435793,4204.615282,4220.512717
128,0,4228.717845,4230.769127,4218.974256,4203.589641,4217.435794,4217.435794,4210.256307,4209.230666,4230.256307,4213.33323,4245.640922,4254.35887,4207.692205,4210.769128
0,0,4230.256307,4238.461435,4230.256307,4214.358871,4221.025538,4221.538358,4210.256307,4213.33323,4232.307589,4220.512717,4246.153742,4255.384511,4218.461435,4208.717846
1,0,4221.025538,4236.922973,4226.666563,4213.846051,4217.435794,4216.922974,4209.230666,4209.743487,4229.230666,4215.897333,4247.179383,4253.84605,4210.256307,4200.512718
2,0,4214.358871,4230.256307,4215.384512,4211.794769,4214.358871,4216.410153,4212.307589,4211.281948,4233.33323,4212.82041,4247.692204,4247.692204,4198.974256,4187.692205
3,0,4220.512717,4234.358871,4218.461435,4216.410153,4217.948615,4227.692204,4215.384512,4215.897333,4235.897332,4216.922974,4246.666563,4248.205024,4204.615282,4190.256308
4,0,4221.538358,4232.307589,4220.512717,4207.692205,4220.512717,4229.743486,4215.384512,4216.922974,4233.33323,4217.435794,4247.692204,4250.256306,4204.615282,4196.410154
5,0,4214.358871,4225.640922,4214.358871,4197.435795,4215.384512,4222.563999,4213.33323,4217.948615,4237.948614,4218.461435,4250.769127,4247.692204,4202.564,4195.384513
6,0,4216.410153,4229.230666,4215.897333,4206.666564,4210.769128,4225.128102,4212.307589,4218.461435,4245.640922,4223.58964,4249.743486,4247.179383,4211.794769,4195.384513
7,0,4227.692204,4235.897332,4221.025538,4218.461435,4216.410153,4233.84605,4216.922974,4219.487076,4248.717845,4227.179384,4246.666563,4248.205024,4212.307589,4199.999897
8,0,4230.256307,4235.897332,4220.512717,4216.410153,4225.640922,4233.84605,4221.025538,4222.051179,4246.153742,4223.07682,4248.717845,4248.717845,4203.07682,4199.999897
9,0,4218.974256,4232.820409,4217.435794,4210.769128,4223.58964,4229.230666,4218.461435,4219.999897,4238.461435,4213.846051,4248.205024,4246.153742,4201.025538,4183.589641
10,0,4210.256307,4229.743486,4213.846051,4204.615282,4214.871692,4228.717845,4216.922974,4215.384512,4231.794768,4210.256307,4242.563999,4242.051178,4203.589641,4170.256308
11,0,4212.82041,4228.205025,4213.846051,4200.512718,4214.358871,4225.128102,4219.999897,4217.948615,4233.33323,4214.871692,4245.640922,4242.563999,4203.589641,4181.025539
12,0,4219.487076,4231.794768,4217.435794,4208.717846,4220.512717,4226.153743,4219.999897,4223.07682,4236.922973,4219.487076,4246.666563,4246.666563,4211.281948,4202.051179
13,0,4221.538358,4234.358871,4219.999897,4216.922974,4218.461435,4227.179384,4214.871692,4219.487076,4234.358871,4219.487076,4234.358871,4246.666563,4217.948615,4200.512718
14,0,4215.897333,4230.256307,4218.461435,4211.794769,4209.230666,4220.512717,4212.307589,4213.33323,4232.820409,4217.435794,4227.692204,4244.615281,4209.230666,4183.589641
15,0,4212.307589,4227.179384,4218.974256,4208.205025,4211.794769,4220.512717,4215.384512,4213.846051,4235.384512,4213.846051,4232.820409,4247.179383,4200.512718,4183.589641
16,0,4216.410153,4230.769127,4218.461435,4212.82041,4220.512717,4229.230666,4216.922974,4214.358871,4235.384512,4212.307589,4235.384512,4246.666563,4206.153743,4194.358872
17,0,4218.461435,4231.281948,4214.358871,4212.82041,4221.025538,4232.307589,4213.846051,4213.33323,4232.820409,4213.33323,4230.256307,4246.666563,4213.846051,4197.435795
18,0,4223.07682,4231.794768,4220.512717,4212.82041,4222.563999,4231.281948,4216.922974,4220.512717,4237.948614,4217.435794,4234.871691,4255.384511,4215.384512,4198.461436
19,0,4231.794768,4236.410153,4231.794768,4217.435794,4227.179384,4235.384512,4228.717845,4229.230666,4246.153742,4225.128102,4243.076819,4263.589639,4221.538358,4205.640923
20,0,4234.871691,4235.897332,4232.307589,4218.461435,4223.07682,4233.84605,4231.281948,4229.743486,4242.563999,4231.281948,4238.461435,4259.999896,4229.743486,4213.846051
21,0,4239.487076,4236.410153,4230.769127,4217.948615,4216.410153,4227.692204,4227.179384,4231.281948,4239.487076,4229.743486,4236.410153,4261.538357,4230.256307,4223.58964
22,0,4250.769127,4245.128101,4237.435794,4219.999897,4215.897333,4227.692204,4228.717845,4235.384512,4245.640922,4232.820409,4248.205024,4276.410152,4235.384512,4234.358871
23,0,4251.281947,4245.128101,4238.974255,4218.974256,4212.307589,4228.205025,4229.743486,4235.897332,4247.692204,4242.051178,4252.307588,4283.076818,4245.640922,4230.256307
24,0,4239.487076,4233.84605,4231.794768,4217.435794,4215.897333,4229.743486,4228.205025,4233.84605,4244.615281,4237.435794,4241.025537,4271.281947,4239.487076,4216.922974
25,0,4230.256307,4230.256307,4230.256307,4216.922974,4228.205025,4231.794768,4229.230666,4235.384512,4246.666563,4229.230666,4238.461435,4263.076819,4226.666563,4216.922974
26,0,4229.743486,4230.769127,4232.307589,4215.384512,4231.794768,4232.820409,4231.281948,4240.512717,4249.743486,4238.461435,4248.717845,4273.333229,4235.384512,4225.640922
27,0,4239.487076,4232.820409,4234.871691,4216.922974,4229.743486,4233.33323,4230.769127,4244.10246,4249.743486,4244.10246,4249.743486,4283.589639,4249.230665,4225.128102
28,0,4243.58964,4242.051178,4231.281948,4219.999897,4233.84605,4232.307589,4226.666563,4236.922973,4250.256306,4234.358871,4239.487076,4269.230665,4238.461435,4214.358871
29,0,4234.358871,4248.205024,4219.999897,4217.948615,4234.358871,4229.743486,4218.461435,4221.538358,4245.640922,4227.179384,4228.717845,4248.205024,4219.487076,4197.948615
30,0,4229.743486,4246.153742,4219.487076,4215.897333,4225.640922,4228.205025,4215.384512,4216.410153,4236.922973,4228.717845,4226.666563,4249.743486,4212.307589,4188.205026
31,0,4236.410153,4247.179383,4230.256307,4217.435794,4223.58964,4228.717845,4221.025538,4221.538358,4233.33323,4229.230666,4229.230666,4263.076819,4210.256307,4194.871692
32,0,4245.128101,4249.743486,4233.84605,4219.999897,4232.307589,4229.743486,4227.692204,4220.512717,4235.384512,4222.563999,4230.769127,4265.640921,4209.743487,4202.051179
33,0,4247.692204,4248.205024,4229.230666,4219.999897,4233.84605,4231.281948,4227.692204,4214.871692,4234.358871,4215.897333,4231.281948,4256.922973,4214.871692,4199.487077
34,0,4243.58964,4248.717845,4231.794768,4219.999897,4222.051179,4230.256307,4222.051179,4217.948615,4233.84605,4221.025538,4229.230666,4252.307588,4217.948615,4199.487077
35,0,4231.794768,4247.692204,4227.692204,4218.461435,4215.897333,4223.07682,4214.358871,4214.871692,4235.384512,4224.102461,4222.051179,4250.769127,4209.230666,4197.948615
36,0,4228.717845,4246.153742,4218.974256,4216.410153,4223.58964,4217.435794,4213.33323,4204.102461,4233.33323,4213.846051,4218.974256,4249.743486,4202.564,4187.179385
37,0,4233.84605,4247.179383,4220.512717,4216.410153,4226.666563,4217.948615,4215.384512,4206.153743,4230.769127,4210.769128,4219.487076,4248.717845,4201.025538,4183.076821
38,0,4230.769127,4239.999896,4221.538358,4216.410153,4220.512717,4218.461435,4214.358871,4213.33323,4232.307589,4215.384512,4217.435794,4246.153742,4198.974256,4185.640923
39,0,4224.102461,4232.307589,4217.948615,4214.871692,4219.999897,4217.948615,4217.948615,4216.410153,4238.974255,4213.33323,4220.512717,4245.640922,4197.948615,4185.640923
40,0,4222.051179,4231.794768,4217.435794,4213.33323,4221.538358,4219.487076,4225.128102,4222.563999,4241.538358,4213.846051,4226.153743,4249.230665,4203.07682,4186.666564
41,0,4222.563999,4233.33323,4220.512717,4214.358871,4219.487076,4221.025538,4223.58964,4225.640922,4237.435794,4221.025538,4222.563999,4251.281947,4205.128102,4187.692205
42,0,4219.487076,4232.307589,4218.974256,4215.384512,4217.435794,4219.999897,4217.948615,4218.974256,4233.84605,4218.974256,4216.410153,4248.205024,4196.922974,4184.615282
43,0,4217.435794,4233.33323,4216.410153,4213.846051,4214.358871,4217.435794,4217.948615,4212.307589,4234.358871,4212.82041,4215.897333,4246.153742,4192.30759,4182.564
44,0,4217.435794,4234.871691,4215.897333,4213.33323,4215.897333,4217.948615,4218.461435,4215.384512,4235.384512,4216.410153,4217.435794,4247.692204,4198.461436,4187.179385
45,0,4215.897333,4233.33323,4215.384512,4214.871692,4219.999897,4219.999897,4215.384512,4216.922974,4233.84605,4216.922974,4219.999897,4249.743486,4200.512718,4185.128103
46,0,4212.82041,4229.743486,4213.846051,4210.769128,4219.487076,4217.948615,4213.33323,4209.230666,4230.256307,4207.179384,4216.410153,4245.640922,4196.922974,4168.717847
47,0,4212.307589,4229.230666,4213.33323,4205.128102,4217.435794,4215.897333,4210.769128,4205.640923,4230.256307,4207.179384,4216.410153,4241.025537,4199.487077,4166.153744
48,0,4219.487076,4231.281948,4216.922974,4209.743487,4218.974256,4215.897333,4211.281948,4216.410153,4237.948614,4218.461435,4229.230666,4246.153742,4206.666564,4186.666564
49,0,4216.410153,4224.102461,4217.948615,4208.717846,4211.794769,4214.871692,4215.897333,4219.999897,4235.384512,4218.974256,4227.692204,4249.743486,4202.051179,4189.230667
50,0,4203.589641,4214.358871,4213.33323,4200.512718,4202.051179,4214.871692,4215.897333,4213.846051,4230.769127,4214.358871,4215.384512,4244.10246,4195.384513,4170.769129
51,0,4205.640923,4222.051179,4214.358871,4207.179384,4207.692205,4217.435794,4218.974256,4222.051179,4240.512717,4217.948615,4222.051179,4244.10246,4202.564,4172.30759
52,0,4217.948615,4233.84605,4217.948615,4217.948615,4215.384512,4221.025538,4226.666563,4230.769127,4245.640922,4219.999897,4232.307589,4250.769127,4205.640923,4186.153744
53,0,4218.461435,4233.33323,4216.922974,4214.871692,4218.461435,4221.538358,4225.640922,4223.58964,4236.410153,4218.461435,4227.179384,4251.794768,4198.974256,4186.153744
54,0,4212.307589,4229.743486,4214.871692,4212.307589,4223.07682,4218.461435,4217.948615,4217.948615,4232.307589,4217.948615,4227.692204,4247.179383,4206.666564,4188.717846
55,0,4213.33323,4229.743486,4216.922974,4215.384512,4221.538358,4216.410153,4216.410153,4219.487076,4236.410153,4219.487076,4233.84605,4246.153742,4219.999897,4197.948615
56,0,4215.897333,4227.179384,4218.461435,4214.871692,4215.897333,4218.461435,4218.461435,4218.461435,4234.358871,4216.410153,4231.794768,4249.230665,4217.435794,4204.102461
57,0,4218.461435,4222.563999,4217.435794,4215.897333,4212.307589,4216.922974,4218.461435,4218.461435,4231.281948,4214.358871,4229.743486,4250.256306,4209.230666,4201.025538
58,0,4214.358871,4215.897333,4217.435794,4211.794769,4204.102461,4214.358871,4218.461435,4219.999897,4233.84605,4217.948615,4230.769127,4248.205024,4206.666564,4187.692205
59,0,4205.128102,4212.82041,4215.897333,4202.564,4199.487077,4214.871692,4215.897333,4216.410153,4232.307589,4215.897333,4229.230666,4245.128101,4203.589641,4178.974257
60,0,4208.717846,4222.563999,4214.358871,4207.179384,4209.743487,4215.384512,4213.846051,4213.33323,4231.281948,4209.230666,4231.794768,4245.640922,4203.589641,4186.666564
61,0,4216.410153,4231.281948,4215.897333,4216.922974,4219.487076,4215.384512,4215.384512,4216.410153,4235.384512,4215.384512,4229.230666,4246.153742,4206.666564,4192.30759
62,0,4212.82041,4227.692204,4216.922974,4214.358871,4217.435794,4215.384512,4213.846051,4214.871692,4233.33323,4216.410153,4221.025538,4236.922973,4198.974256,4184.102462
63,0,4209.743487,4225.128102,4214.358871,4211.281948,4217.948615,4214.871692,4211.281948,4209.743487,4227.692204,4204.102461,4223.07682,4229.230666,4195.897333,4182.05118
64,0,4214.358871,4231.281948,4216.410153,4217.435794,4225.128102,4216.410153,4216.410153,4215.384512,4239.487076,4215.897333,4234.358871,4238.974255,4210.256307,4192.82041
65,0,4220.512717,4235.384512,4225.128102,4220.512717,4224.615281,4218.461435,4219.487076,4222.563999,4250.256306,4236.410153,4234.871691,4250.769127,4221.538358,4203.07682
66,0,4223.58964,4233.84605,4227.179384,4218.974256,4214.358871,4217.435794,4215.384512,4216.922974,4235.897332,4222.051179,4227.692204,4248.717845,4216.410153,4204.615282
67,0,4222.563999,4231.281948,4223.58964,4217.948615,4215.384512,4216.410153,4213.846051,4213.33323,4228.205025,4209.230666,4229.743486,4247.179383,4212.307589,4200.512718
68,0,4220.512717,4229.230666,4226.666563,4214.871692,4222.563999,4217.948615,4217.948615,4219.999897,4241.538358,4226.153743,4236.410153,4253.333229,4218.974256,4201.538359
69,0,4216.410153,4225.640922,4228.205025,4213.33323,4218.461435,4218.461435,4221.025538,4220.512717,4241.025537,4228.717845,4233.84605,4252.820409,4219.487076,4204.102461
70,0,4211.794769,4222.051179,4226.666563,4216.410153,4220.512717,4217.948615,4219.999897,4214.871692,4228.205025,4212.82041,4227.179384,4245.640922,4211.281948,4196.410154
71,0,4212.82041,4226.153743,4230.256307,4217.948615,4227.692204,4216.922974,4216.410153,4214.358871,4227.692204,4212.82041,4227.179384,4243.58964,4208.717846,4188.205026
72,0,4215.384512,4232.820409,4235.384512,4216.922974,4224.102461,4216.922974,4215.384512,4214.871692,4231.794768,4221.025538,4234.358871,4249.230665,4215.897333,4195.384513
73,0,4212.82041,4231.281948,4238.461435,4216.410153,4218.461435,4216.410153,4216.410153,4215.897333,4231.281948,4218.461435,4235.897332,4254.35887,4222.563999,4206.666564
74,0,4213.33323,4228.205025,4242.563999,4216.922974,4213.846051,4208.717846,4213.846051,4215.897333,4229.230666,4215.384512,4232.820409,4251.281947,4220.512717,4204.615282
75,0,4216.410153,4229.230666,4243.58964,4216.922974,4209.230666,4202.051179,4212.82041,4213.846051,4228.205025,4214.871692,4231.794768,4244.10246,4212.82041,4198.974256
76,0,4217.948615,4234.358871,4244.10246,4216.410153,4214.358871,4208.205025,4217.948615,4214.358871,4229.743486,4215.384512,4234.871691,4250.769127,4214.358871,4200.512718
77,0,4222.051179,4233.84605,4249.743486,4217.948615,4222.051179,4216.922974,4221.025538,4218.461435,4232.820409,4216.410153,4236.922973,4264.61528,4223.07682,4202.564
78,0,4217.435794,4219.999897,4247.179383,4215.384512,4216.410153,4215.897333,4218.974256,4219.999897,4231.281948,4214.358871,4230.769127,4256.410152,4214.358871,4198.461436
79,0,4204.102461,4204.615282,4235.897332,4206.153743,4215.384512,4213.33323,4217.948615,4217.948615,4231.281948,4212.307589,4225.640922,4233.84605,4198.974256,4190.256308
80,0,4192.82041,4199.999897,4230.769127,4199.999897,4214.871692,4214.358871,4219.487076,4220.512717,4235.897332,4215.384512,4229.743486,4231.794768,4201.538359,4186.153744
81,0,4187.692205,4198.974256,4230.769127,4201.025538,4204.102461,4213.846051,4220.512717,4224.615281,4236.922973,4219.999897,4233.33323,4241.025537,4207.692205,4187.692205
82,0,4190.769128,4199.487077,4230.256307,4207.692205,4205.128102,4213.33323,4216.410153,4221.025538,4233.33323,4216.410153,4226.666563,4236.410153,4202.564,4181.538359
83,0,4195.384513,4208.717846,4229.743486,4215.384512,4218.461435,4214.358871,4212.307589,4211.281948,4229.743486,4204.102461,4218.974256,4225.640922,4195.897333,4168.205026
84,0,4193.846051,4216.922974,4229.743486,4216.410153,4217.948615,4213.846051,4213.846051,4207.179384,4226.153743,4196.410154,4217.435794,4222.563999,4189.743487,4167.692206
85,0,4195.384513,4216.410153,4228.717845,4213.33323,4211.794769,4213.846051,4214.358871,4211.281948,4228.717845,4207.179384,4221.025538,4231.794768,4192.82041,4181.025539
86,0,4209.743487,4218.461435,4231.794768,4214.871692,4216.922974,4213.846051,4213.846051,4217.435794,4238.461435,4226.153743,4232.307589,4246.666563,4212.82041,4193.846051
87,0,4215.897333,4221.025538,4236.410153,4216.410153,4215.897333,4210.256307,4215.897333,4218.461435,4239.999896,4227.692204,4238.461435,4251.281947,4217.435794,4199.999897
88,0,4209.230666,4217.435794,4236.922973,4214.871692,4206.153743,4210.256307,4213.846051,4211.281948,4230.256307,4212.82041,4230.256307,4245.128101,4203.07682,4199.999897
89,0,4211.281948,4214.871692,4235.897332,4214.358871,4208.717846,4214.871692,4210.769128,4209.743487,4228.717845,4216.410153,4228.717845,4243.58964,4211.794769,4201.025538
90,0,4213.33323,4215.384512,4233.33323,4217.435794,4213.33323,4215.897333,4213.846051,4216.410153,4235.384512,4234.358871,4242.563999,4248.205024,4232.307589,4206.153743
91,0,4204.102461,4212.307589,4230.256307,4213.846051,4212.82041,4213.846051,4214.871692,4217.948615,4234.358871,4228.717845,4244.615281,4245.128101,4226.153743,4204.615282
92,0,4195.384513,4210.769128,4227.179384,4204.615282,4214.871692,4214.358871,4211.794769,4212.82041,4228.717845,4211.281948,4232.820409,4237.435794,4209.230666,4195.897333
93,0,4198.461436,4213.33323,4228.205025,4206.666564,4215.384512,4213.846051,4213.846051,4213.33323,4229.743486,4214.871692,4227.179384,4233.33323,4211.794769,4198.974256
94,0,4202.564,4215.897333,4232.307589,4216.410153,4213.846051,4210.769128,4214.871692,4218.461435,4232.820409,4226.666563,4230.256307,4234.358871,4216.922974,4201.025538
95,0,4204.102461,4217.435794,4230.256307,4216.922974,4211.794769,4211.281948,4211.281948,4213.846051,4230.769127,4223.07682,4231.794768,4238.461435,4215.384512,4190.256308
96,0,4204.102461,4218.461435,4226.153743,4214.871692,4208.205025,4214.358871,4209.743487,4206.666564,4227.692204,4216.922974,4230.256307,4243.58964,4213.846051,4191.281949
97,0,4203.589641,4220.512717,4228.717845,4217.435794,4208.205025,4215.384512,4212.82041,4211.281948,4230.769127,4222.051179,4235.897332,4246.666563,4215.384512,4205.640923
98,0,4207.692205,4219.487076,4231.281948,4213.846051,4213.846051,4213.33323,4214.871692,4218.461435,4235.384512,4229.230666,4245.640922,4247.179383,4223.07682,4211.794769
99,0,4213.846051,4216.410153,4228.717845,4211.794769,4217.948615,4212.82041,4215.897333,4213.846051,4232.307589,4229.743486,4243.58964,4248.205024,4230.769127,4210.769128
100,0,4217.435794,4222.051179,4232.820409,4216.922974,4217.948615,4216.922974,4216.410153,4211.794769,4230.256307,4227.179384,4239.487076,4248.717845,4230.769127,4213.846051
101,0,4219.999897,4232.820409,4246.666563,4220.512717,4218.974256,4217.948615,4219.999897,4225.640922,4240.512717,4230.769127,4245.640922,4249.743486,4231.794768,4217.435794
102,0,4218.974256,4234.871691,4246.153742,4218.461435,4217.948615,4214.358871,4222.051179,4234.871691,4248.717845,4234.871691,4248.717845,4250.769127,4233.33323,4216.410153
103,0,4213.846051,4229.743486,4234.871691,4216.410153,4215.897333,4214.358871,4217.435794,4229.230666,4245.640922,4234.358871,4241.538358,4249.230665,4227.179384,4212.82041
104,0,4218.974256,4231.281948,4237.948614,4218.461435,4216.922974,4216.922974,4218.461435,4226.153743,4243.076819,4231.794768,4243.076819,4249.230665,4224.102461,4212.82041
105,0,4232.307589,4236.410153,4246.153742,4222.051179,4219.487076,4218.461435,4226.153743,4233.33323,4248.205024,4232.307589,4254.35887,4250.769127,4233.84605,4224.102461
106,0,4234.358871,4234.871691,4242.051178,4219.487076,4219.999897,4216.922974,4222.051179,4227.692204,4247.179383,4235.384512,4253.84605,4249.230665,4234.871691,4229.230666
107,0,4233.84605,4230.256307,4237.435794,4218.461435,4214.358871,4217.435794,4216.410153,4214.871692,4242.563999,4237.435794,4247.692204,4250.769127,4233.33323,4225.640922
108,0,4254.35887,4239.487076,4246.666563,4226.153743,4214.871692,4222.051179,4223.58964,4222.051179,4246.666563,4243.076819,4255.897332,4262.563998,4249.743486,4244.615281
109,0,4287.179382,4258.461434,4258.461434,4236.410153,4225.640922,4223.07682,4226.153743,4229.743486,4248.205024,4248.717845,4267.179383,4277.435793,4264.10246,4279.999895
110,0,4311.281946,4267.179383,4264.10246,4243.58964,4224.615281,4218.461435,4219.487076,4219.999897,4239.487076,4245.640922,4265.128101,4278.974254,4264.61528,4298.461433
111,0,4323.589638,4267.179383,4263.076819,4243.58964,4214.871692,4216.410153,4215.384512,4213.33323,4231.281948,4231.794768,4261.538357,4273.846049,4262.563998,4298.461433
112,0,4329.230663,4268.717844,4262.563998,4238.461435,4215.384512,4213.33323,4214.358871,4217.948615,4228.717845,4216.922974,4263.076819,4275.897331,4252.820409,4305.1281
113,0,4332.820407,4269.230665,4266.666562,4242.051178,4214.358871,4203.07682,4213.33323,4217.948615,4226.666563,4212.307589,4262.051178,4279.487075,4246.666563,4320.512715
114,0,4334.871689,4263.589639,4266.666562,4248.205024,4206.666564,4197.948615,4213.33323,4216.410153,4227.179384,4218.974256,4263.076819,4281.025536,4256.410152,4325.128099
115,0,4325.64092,4251.794768,4264.10246,4239.999896,4208.717846,4200.512718,4212.82041,4216.922974,4228.205025,4219.999897,4262.051178,4277.948613,4257.948614,4313.333228
116,0,4307.692202,4235.897332,4261.025537,4228.717845,4215.897333,4202.051179,4213.33323,4214.871692,4221.538358,4207.179384,4253.333229,4270.256306,4239.999896,4293.846049
117,0,4288.717844,4228.717845,4254.35887,4230.769127,4211.281948,4206.153743,4214.871692,4211.794769,4216.410153,4201.025538,4248.205024,4262.563998,4228.205025,4281.025536
118,0,4277.948613,4229.230666,4248.205024,4231.794768,4203.07682,4213.33323,4216.410153,4213.33323,4223.07682,4209.743487,4254.35887,4258.974255,4231.281948,4276.922972
119,0,4277.435793,4228.717845,4247.692204,4227.179384,4202.051179,4210.769128,4217.435794,4215.897333,4231.281948,4222.051179,4264.10246,4262.051178,4242.051178,4276.410152
120,0,4281.538357,4229.230666,4249.743486,4229.230666,4204.102461,4203.07682,4215.384512,4218.974256,4234.358871,4231.794768,4265.128101,4272.820408,4251.794768,4279.487075
121,0,4279.487075,4228.205025,4255.384511,4231.794768,4202.051179,4201.538359,4214.871692,4225.640922,4234.358871,4232.307589,4262.563998,4281.025536,4252.307588,4285.640921
122,0,4271.281947,4220.512717,4261.538357,4227.179384,4196.922974,4202.051179,4217.435794,4229.743486,4232.820409,4227.179384,4263.589639,4278.974254,4246.666563,4278.461434
123,0,4267.179383,4217.948615,4264.10246,4230.769127,4201.538359,4202.564,4217.948615,4230.256307,4231.794768,4226.666563,4266.153742,4281.025536,4244.615281,4266.153742
124,0,4261.538357,4218.461435,4261.025537,4234.871691,4207.179384,4201.025538,4216.922974,4232.307589,4231.794768,4225.640922,4265.128101,4283.076818,4244.10246,4265.128101
125,0,4249.743486,4212.307589,4252.307588,4223.58964,4198.974256,4201.025538,4223.07682,4234.358871,4232.307589,4219.487076,4262.563998,4271.794767,4233.84605,4261.538357
126,0,4243.076819,4206.666564,4246.153742,4214.358871,4198.974256,4206.666564,4230.256307,4235.384512,4230.256307,4225.640922,4259.999896,4264.10246,4219.487076,4241.538358
127,0,4236.922973,4204.615282,4243.076819,4216.410153,4211.281948,4210.256307,4225.128102,4232.307589,4232.820409,4232.307589,4251.794768,4259.999896,4214.871692,4227.692204
128,0,4221.025538,4200.512718,4235.897332,4216.410153,4210.256307,4203.07682,4214.871692,4222.051179,4230.769127,4218.461435,4243.58964,4249.743486,4213.33323,4225.128102
0,0,4210.256307,4198.461436,4229.743486,4213.33323,4196.410154,4199.999897,4213.33323,4213.33323,4220.512717,4212.307589,4246.666563,4243.58964,4211.794769,4218.974256
1,0,4222.563999,4201.538359,4233.84605,4215.897333,4205.640923,4208.717846,4216.410153,4215.897333,4220.512717,4223.58964,4257.435793,4248.717845,4220.512717,4221.538358
2,0,4234.358871,4207.179384,4238.461435,4217.435794,4222.563999,4213.846051,4217.948615,4218.461435,4229.743486,4224.615281,4262.563998,4254.35887,4228.717845,4232.307589
3,0,4229.230666,4213.33323,4238.461435,4218.974256,4215.897333,4211.794769,4216.922974,4216.922974,4232.307589,4217.435794,4261.025537,4259.487075,4228.717845,4235.384512
4,0,4230.256307,4216.410153,4242.051178,4222.563999,4208.205025,4210.256307,4216.922974,4218.974256,4230.256307,4226.666563,4259.999896,4263.589639,4232.820409,4242.051178
5,0,4245.128101,4216.922974,4247.179383,4222.563999,4217.948615,4213.33323,4218.974256,4221.025538,4232.307589,4237.435794,4265.640921,4262.051178,4238.974255,4250.256306
6,0,4246.666563,4217.435794,4248.205024,4219.999897,4221.538358,4211.794769,4217.435794,4216.922974,4231.794768,4231.794768,4261.538357,4261.538357,4234.871691,4241.025537
7,0,4232.820409,4216.410153,4242.051178,4218.974256,4214.358871,4204.615282,4213.33323,4214.358871,4230.256307,4227.179384,4251.794768,4260.512716,4230.769127,4229.743486
8,0,4228.717845,4212.307589,4235.384512,4216.922974,4215.384512,4207.179384,4212.82041,4215.384512,4232.307589,4230.256307,4252.820409,4252.307588,4231.281948,4229.230666
9,0,4228.717845,4211.281948,4233.84605,4215.897333,4218.461435,4213.846051,4212.307589,4213.846051,4231.281948,4226.666563,4256.922973,4245.128101,4231.281948,4221.538358
10,0,4222.563999,4213.33323,4234.358871,4218.974256,4216.922974,4214.871692,4213.846051,4212.82041,4230.256307,4218.974256,4257.435793,4249.743486,4230.769127,4213.846051
11,0,4221.538358,4207.692205,4232.307589,4217.948615,4222.051179,4213.846051,4218.461435,4212.82041,4228.205025,4215.384512,4257.435793,4256.410152,4227.179384,4217.435794
12,0,4220.512717,4201.538359,4230.769127,4214.871692,4229.230666,4216.410153,4217.948615,4212.82041,4227.179384,4216.922974,4258.974255,4251.281947,4225.640922,4220.512717
13,0,4217.435794,4206.666564,4230.769127,4216.922974,4227.692204,4216.922974,4217.435794,4214.358871,4230.256307,4222.051179,4253.84605,4245.128101,4227.692204,4217.948615
14,0,4223.07682,4211.281948,4232.820409,4218.974256,4226.153743,4216.922974,4224.615281,4216.410153,4235.384512,4226.153743,4250.769127,4250.769127,4227.692204,4212.82041
15,0,4232.307589,4213.33323,4243.076819,4222.563999,4230.256307,4219.487076,4233.33323,4225.128102,4241.025537,4231.794768,4261.025537,4262.563998,4231.281948,4214.358871
16,0,4235.384512,4215.384512,4250.256306,4229.230666,4223.07682,4218.461435,4231.281948,4230.769127,4241.538358,4232.307589,4266.153742,4264.61528,4233.84605,4217.435794
17,0,4228.717845,4209.743487,4240.512717,4227.179384,4209.743487,4214.871692,4222.051179,4221.538358,4232.820409,4220.512717,4255.897332,4253.333229,4224.102461,4206.153743
18,0,4217.948615,4200.512718,4230.256307,4219.999897,4215.897333,4215.384512,4218.974256,4212.307589,4227.692204,4213.846051,4245.128101,4244.615281,4214.358871,4178.974257
19,0,4212.82041,4199.999897,4230.256307,4218.461435,4228.717845,4218.461435,4220.512717,4217.948615,4232.307589,4221.538358,4249.230665,4247.179383,4211.281948,4165.128103
20,0,4214.358871,4204.102461,4231.281948,4219.999897,4226.153743,4217.948615,4218.974256,4217.948615,4233.84605,4221.538358,4249.230665,4249.230665,4208.717846,4173.333231
21,0,4216.410153,4201.538359,4231.281948,4217.948615,4217.435794,4215.384512,4214.358871,4205.640923,4227.179384,4207.692205,4244.615281,4246.153742,4208.717846,4184.615282
22,0,4221.025538,4199.999897,4233.84605,4217.948615,4218.461435,4216.410153,4214.358871,4201.025538,4225.128102,4205.128102,4244.615281,4244.10246,4211.794769,4182.564
23,0,4226.153743,4207.179384,4233.84605,4221.025538,4219.999897,4218.974256,4219.999897,4206.153743,4228.205025,4213.846051,4250.256306,4246.666563,4213.33323,4179.999898
24,0,4229.230666,4211.794769,4233.33323,4219.999897,4213.846051,4219.487076,4219.487076,4213.33323,4233.33323,4215.384512,4258.461434,4255.897332,4217.948615,4192.30759
25,0,4232.820409,4210.769128,4234.358871,4217.435794,4211.794769,4217.948615,4217.435794,4216.410153,4234.871691,4215.384512,4261.538357,4264.61528,4227.179384,4195.897333
26,0,4232.307589,4211.794769,4237.435794,4222.563999,4223.07682,4217.948615,4223.07682,4217.948615,4235.384512,4224.102461,4259.999896,4262.563998,4230.769127,4187.692205
27,0,4232.820409,4217.948615,4240.512717,4228.205025,4231.794768,4220.512717,4225.128102,4218.461435,4235.897332,4233.84605,4260.512716,4261.538357,4231.281948,4189.230667
28,0,4235.384512,4217.948615,4238.974255,4224.102461,4223.07682,4217.435794,4217.435794,4216.922974,4233.84605,4229.743486,4263.076819,4262.051178,4229.743486,4196.922974
29,0,4225.640922,4210.256307,4234.358871,4216.410153,4215.384512,4212.307589,4216.410153,4216.410153,4233.84605,4217.948615,4261.025537,4254.871691,4222.563999,4189.743487
30,0,4209.743487,4199.999897,4229.230666,4213.33323,4214.871692,4214.358871,4221.025538,4213.846051,4232.820409,4211.794769,4252.307588,4247.692204,4212.307589,4169.230667
31,0,4209.230666,4196.922974,4224.615281,4214.358871,4214.871692,4217.948615,4216.410153,4207.692205,4230.769127,4212.82041,4246.153742,4247.179383,4211.794769,4170.256308
32,0,4215.897333,4209.230666,4226.666563,4216.410153,4221.538358,4217.948615,4213.846051,4208.205025,4231.281948,4218.974256,4251.794768,4251.794768,4221.025538,4194.358872
33,0,4220.512717,4218.461435,4232.820409,4219.999897,4225.128102,4216.922974,4216.410153,4214.358871,4231.281948,4219.487076,4260.512716,4259.999896,4226.666563,4207.692205
34,0,4224.102461,4215.384512,4234.871691,4223.07682,4215.384512,4217.435794,4215.897333,4213.33323,4228.205025,4215.384512,4263.076819,4263.076819,4229.743486,4204.615282
35,0,4232.307589,4215.384512,4237.948614,4225.640922,4212.307589,4218.974256,4216.922974,4213.846051,4230.769127,4225.128102,4262.563998,4264.61528,4233.84605,4207.692205
36,0,4242.563999,4220.512717,4245.128101,4230.769127,4223.58964,4219.999897,4219.487076,4217.948615,4234.871691,4235.384512,4264.10246,4271.281947,4233.33323,4217.435794
37,0,4244.615281,4221.538358,4247.692204,4231.794768,4226.153743,4218.461435,4217.948615,4217.948615,4233.84605,4228.205025,4266.153742,4272.307588,4235.384512,4222.051179
38,0,4239.487076,4217.948615,4248.205024,4223.58964,4219.487076,4217.948615,4217.435794,4222.563999,4237.435794,4229.230666,4266.666562,4264.61528,4241.025537,4217.948615
39,0,4229.230666,4213.33323,4244.10246,4216.410153,4216.922974,4217.948615,4221.025538,4231.794768,4245.128101,4241.538358,4264.61528,4264.10246,4239.487076,4205.640923
40,0,4217.948615,4207.692205,4232.820409,4217.948615,4217.948615,4214.358871,4220.512717,4228.205025,4243.076819,4238.974255,4263.076819,4262.563998,4233.33323,4201.025538
41,0,4214.358871,4203.07682,4228.205025,4217.435794,4215.897333,4213.33323,4215.384512,4219.487076,4235.897332,4227.692204,4261.538357,4254.35887,4228.205025,4203.07682
42,0,4216.922974,4201.025538,4231.794768,4214.358871,4212.82041,4216.922974,4213.846051,4216.922974,4232.820409,4226.666563,4259.487075,4253.84605,4219.999897,4197.948615
43,0,4214.871692,4206.153743,4231.281948,4218.461435,4218.461435,4216.922974,4217.435794,4217.435794,4231.794768,4229.743486,4259.487075,4258.974255,4216.922974,4199.999897
44,0,4215.384512,4210.256307,4230.769127,4219.487076,4224.102461,4218.461435,4219.999897,4222.051179,4232.820409,4231.281948,4264.61528,4261.025537,4226.666563,4203.07682
45,0,4226.153743,4207.179384,4234.871691,4218.461435,4220.512717,4223.58964,4219.999897,4229.743486,4236.410153,4232.820409,4265.128101,4262.051178,4235.384512,4198.461436
46,0,4225.128102,4203.07682,4234.358871,4218.974256,4216.410153,4222.051179,4220.512717,4229.743486,4235.384512,4231.281948,4256.410152,4261.538357,4228.205025,4206.666564
47,0,4220.512717,4202.564,4233.33323,4216.922974,4217.948615,4217.435794,4221.025538,4227.179384,4235.897332,4228.205025,4251.281947,4260.512716,4217.948615,4218.461435
48,0,4226.153743,4201.025538,4238.461435,4216.410153,4217.948615,4219.999897,4221.538358,4232.307589,4246.153742,4231.794768,4257.435793,4262.563998,4221.538358,4207.692205
49,0,4223.58964,4201.025538,4237.948614,4218.974256,4213.33323,4222.563999,4221.025538,4235.897332,4248.717845,4231.794768,4266.153742,4263.076819,4227.692204,4195.384513
50,0,4211.794769,4201.025538,4231.794768,4219.487076,4214.358871,4217.435794,4218.461435,4229.743486,4235.384512,4219.487076,4262.051178,4261.025537,4219.487076,4198.974256
51,0,4210.256307,4198.461436,4232.307589,4217.435794,4218.461435,4213.846051,4215.384512,4219.999897,4227.692204,4215.897333,4252.307588,4260.512716,4209.743487,4199.999897
52,0,4214.358871,4198.461436,4234.871691,4216.410153,4217.435794,4215.384512,4214.358871,4216.410153,4231.281948,4225.640922,4254.35887,4258.974255,4215.384512,4194.871692
53,0,4212.307589,4200.512718,4233.84605,4216.410153,4214.871692,4215.897333,4215.384512,4220.512717,4233.33323,4226.666563,4264.10246,4259.487075,4222.051179,4197.435795
54,0,4213.846051,4200.512718,4232.307589,4217.435794,4214.871692,4215.384512,4215.897333,4221.025538,4231.794768,4218.974256,4264.61528,4265.128101,4217.948615,4201.538359
55,0,4216.410153,4198.974256,4231.794768,4218.461435,4214.358871,4215.897333,4214.358871,4216.410153,4226.153743,4214.871692,4251.794768,4260.512716,4214.358871,4201.538359
56,0,4215.897333,4198.974256,4229.230666,4215.897333,4212.82041,4216.922974,4211.281948,4213.33323,4223.58964,4210.769128,4244.10246,4247.692204,4211.281948,4197.435795
57,0,4222.051179,4207.179384,4230.256307,4215.897333,4218.461435,4217.948615,4213.33323,4215.384512,4230.256307,4213.33323,4249.743486,4250.769127,4216.922974,4197.435795
58,0,4232.820409,4218.461435,4239.487076,4226.153743,4221.025538,4217.435794,4214.358871,4217.948615,4232.307589,4223.58964,4259.999896,4266.153742,4227.692204,4209.230666
59,0,4234.358871,4221.025538,4247.179383,4234.358871,4214.871692,4214.871692,4208.717846,4215.384512,4225.128102,4223.07682,4261.025537,4268.717844,4226.666563,4214.358871
60,0,4229.743486,4215.897333,4244.10246,4227.692204,4219.487076,4214.871692,4207.692205,4213.846051,4227.692204,4216.410153,4261.538357,4263.076819,4217.435794,4204.102461
61,0,4228.205025,4209.230666,4238.974255,4216.922974,4230.256307,4216.922974,4215.384512,4218.974256,4234.358871,4218.974256,4259.487075,4265.128101,4217.435794,4199.999897
62,0,4222.051179,4202.564,4236.410153,4215.384512,4225.640922,4215.384512,4218.461435,4221.538358,4232.820409,4222.051179,4252.820409,4263.076819,4218.461435,4206.153743
63,0,4211.794769,4199.999897,4226.666563,4216.922974,4212.307589,4213.33323,4213.846051,4216.922974,4229.230666,4218.461435,4254.35887,4249.743486,4212.307589,4201.538359
64,0,4210.769128,4200.512718,4218.461435,4215.897333,4212.307589,4214.871692,4211.794769,4213.846051,4229.230666,4215.897333,4255.384511,4245.640922,4214.871692,4192.30759
65,0,4216.922974,4201.538359,4221.538358,4215.384512,4221.025538,4218.461435,4215.897333,4216.922974,4231.794768,4218.461435,4251.281947,4253.333229,4221.538358,4198.461436
66,0,4213.33323,4201.538359,4222.051179,4215.897333,4213.846051,4213.33323,4213.33323,4215.897333,4229.230666,4219.487076,4249.230665,4255.384511,4213.846051,4203.589641
67,0,4205.640923,4201.538359,4216.922974,4215.897333,4203.07682,4204.102461,4203.07682,4205.640923,4218.974256,4212.82041,4250.769127,4247.692204,4206.666564,4199.999897
68,0,4208.717846,4202.051179,4216.922974,4216.410153,4210.256307,4208.717846,4199.999897,4200.512718,4214.871692,4208.717846,4247.179383,4244.10246,4210.769128,4194.358872
69,0,4216.410153,4202.564,4223.58964,4216.410153,4221.025538,4217.948615,4206.666564,4208.717846,4223.07682,4214.871692,4247.179383,4251.794768,4215.897333,4198.461436
70,0,4220.512717,4206.666564,4230.769127,4215.897333,4217.435794,4215.897333,4207.179384,4215.384512,4229.743486,4218.974256,4257.435793,4262.563998,4221.025538,4211.794769
71,0,4229.230666,4212.307589,4236.410153,4217.435794,4212.307589,4211.794769,4202.051179,4213.33323,4229.743486,4217.435794,4264.10246,4268.717844,4232.820409,4219.999897
72,0,4231.281948,4207.692205,4236.410153,4218.974256,4215.384512,4214.871692,4207.692205,4214.358871,4230.256307,4219.487076,4259.999896,4265.640921,4233.84605,4218.974256
73,0,4216.922974,4201.538359,4231.794768,4218.974256,4212.82041,4218.461435,4212.307589,4217.948615,4227.692204,4222.051179,4252.307588,4259.999896,4221.025538,4215.897333
74,0,4205.640923,4202.051179,4226.153743,4213.846051,4210.769128,4213.846051,4206.153743,4209.230666,4222.051179,4218.461435,4250.256306,4258.461434,4216.410153,4212.307589
75,0,4203.589641,4195.384513,4219.999897,4208.717846,4213.846051,4206.666564,4201.025538,4202.051179,4218.974256,4214.871692,4246.666563,4252.820409,4216.922974,4203.589641
76,0,4204.615282,4190.256308,4218.461435,4211.281948,4214.358871,4205.128102,4202.051179,4210.256307,4224.102461,4215.897333,4248.205024,4250.256306,4215.897333,4200.512718
77,0,4211.281948,4199.999897,4220.512717,4216.410153,4211.794769,4206.666564,4201.538359,4218.461435,4229.743486,4222.563999,4261.025537,4256.410152,4225.640922,4214.871692
78,0,4211.281948,4206.666564,4220.512717,4217.435794,4209.743487,4207.179384,4201.538359,4216.922974,4226.153743,4223.07682,4263.589639,4256.922973,4230.256307,4217.435794
79,0,4205.640923,4202.564,4216.410153,4217.948615,4204.102461,4209.230666,4203.07682,4214.358871,4219.487076,4214.358871,4253.333229,4248.205024,4217.435794,4202.051179
80,0,4213.33323,4206.153743,4217.948615,4217.948615,4204.102461,4212.82041,4204.615282,4216.410153,4222.563999,4213.846051,4248.717845,4246.666563,4215.384512,4202.564
81,0,4223.07682,4214.358871,4225.128102,4218.461435,4210.256307,4213.33323,4205.640923,4217.435794,4229.743486,4222.563999,4250.769127,4251.794768,4224.615281,4222.051179
82,0,4220.512717,4215.384512,4230.256307,4224.615281,4208.205025,4212.82041,4202.564,4214.871692,4228.717845,4219.999897,4247.692204,4255.384511,4219.487076,4226.153743
83,0,4226.666563,4215.897333,4232.820409,4231.281948,4207.692205,4213.846051,4206.153743,4215.384512,4228.717845,4214.358871,4252.820409,4261.025537,4221.025538,4212.82041
84,0,4237.948614,4219.999897,4236.922973,4233.84605,4219.487076,4215.897333,4214.871692,4224.102461,4232.820409,4223.58964,4262.051178,4266.666562,4233.33323,4214.871692
85,0,4228.717845,4221.538358,4234.871691,4231.281948,4223.58964,4216.922974,4210.769128,4225.128102,4226.666563,4223.07682,4255.897332,4259.999896,4220.512717,4218.461435
86,0,4213.33323,4214.871692,4223.07682,4223.07682,4211.794769,4212.82041,4200.512718,4209.230666,4213.846051,4202.051179,4243.58964,4246.666563,4198.461436,4198.974256
87,0,4209.230666,4204.102461,4216.410153,4216.922974,4206.153743,4212.307589,4199.999897,4206.153743,4212.82041,4201.025538,4244.10246,4244.10246,4204.615282,4187.692205
88,0,4209.230666,4201.025538,4217.435794,4217.435794,4214.358871,4215.897333,4203.07682,4216.922974,4218.461435,4217.948615,4249.230665,4249.743486,4218.974256,4204.615282
89,0,4211.794769,4208.205025,4216.410153,4217.435794,4220.512717,4215.897333,4199.999897,4210.256307,4215.897333,4211.794769,4248.205024,4247.692204,4214.358871,4212.307589
90,0,4215.384512,4210.256307,4219.999897,4218.461435,4215.384512,4212.82041,4196.410154,4199.999897,4213.846051,4202.051179,4246.666563,4244.615281,4209.230666,4203.07682
91,0,4218.974256,4207.692205,4230.256307,4222.563999,4208.205025,4213.33323,4198.461436,4209.743487,4217.948615,4215.384512,4249.230665,4253.84605,4216.922974,4213.33323
92,0,4226.153743,4213.846051,4234.358871,4220.512717,4216.922974,4215.384512,4202.564,4219.487076,4220.512717,4222.563999,4252.307588,4262.051178,4224.615281,4233.84605
93,0,4232.820409,4225.640922,4231.281948,4222.051179,4227.179384,4214.871692,4201.025538,4214.871692,4218.974256,4216.410153,4249.743486,4258.974255,4218.974256,4230.769127
94,0,4231.281948,4233.33323,4229.743486,4232.307589,4227.692204,4215.384512,4198.974256,4208.205025,4217.948615,4215.384512,4245.128101,4252.820409,4213.846051,4217.435794
95,0,4229.230666,4232.307589,4231.281948,4232.307589,4225.640922,4216.410153,4203.589641,4209.743487,4217.435794,4218.461435,4246.153742,4250.256306,4218.461435,4215.897333
96,0,4229.743486,4224.615281,4228.717845,4220.512717,4222.563999,4214.871692,4206.666564,4214.871692,4217.435794,4218.461435,4249.743486,4249.743486,4213.846051,4211.281948
97,0,4216.922974,4215.897333,4219.487076,4215.384512,4215.384512,4213.846051,4202.564,4215.897333,4218.974256,4214.871692,4243.076819,4245.128101,4201.538359,4193.846051
98,0,4201.538359,4213.33323,4213.33323,4217.435794,4212.82041,4215.897333,4198.974256,4210.769128,4218.461435,4212.307589,4233.84605,4241.025537,4197.435795,4191.281949
99,0,4203.589641,4215.384512,4214.871692,4217.435794,4218.461435,4213.846051,4200.512718,4208.205025,4216.410153,4215.384512,4237.948614,4243.076819,4200.512718,4203.07682
100,0,4214.358871,4216.922974,4216.922974,4218.461435,4218.461435,4212.307589,4201.025538,4211.794769,4216.922974,4215.897333,4247.692204,4248.205024,4207.692205,4201.025538
101,0,4217.948615,4216.922974,4215.897333,4218.974256,4214.871692,4213.33323,4202.564,4214.358871,4218.974256,4214.871692,4248.717845,4248.205024,4213.846051,4205.640923
102,0,4215.897333,4216.410153,4218.461435,4217.435794,4217.948615,4208.205025,4202.564,4215.384512,4218.461435,4217.948615,4245.640922,4246.666563,4213.33323,4216.410153
103,0,4217.435794,4217.435794,4218.974256,4222.563999,4213.33323,4203.07682,4201.538359,4211.794769,4215.384512,4217.435794,4245.128101,4248.717845,4211.794769,4212.307589
104,0,4226.153743,4223.58964,4218.974256,4231.281948,4209.743487,4211.794769,4207.179384,4215.897333,4219.999897,4216.922974,4247.692204,4251.281947,4214.358871,4211.281948
105,0,4235.384512,4231.281948,4225.128102,4231.794768,4225.640922,4222.051179,4217.435794,4225.128102,4229.743486,4226.666563,4249.743486,4251.281947,4217.948615,4220.512717
106,0,4230.769127,4228.205025,4226.666563,4229.743486,4234.871691,4219.999897,4215.384512,4222.051179,4229.743486,4228.717845,4248.205024,4248.717845,4219.487076,4220.512717
107,0,4218.461435,4216.922974,4221.025538,4228.205025,4222.563999,4214.871692,4204.615282,4215.384512,4220.512717,4217.435794,4245.640922,4245.128101,4217.435794,4217.948615
108,0,4217.435794,4214.358871,4217.435794,4222.563999,4215.897333,4215.384512,4204.102461,4216.922974,4216.410153,4213.846051,4245.640922,4246.153742,4212.82041,4213.846051
109,0,4218.974256,4216.410153,4214.871692,4217.948615,4216.922974,4215.384512,4206.666564,4217.948615,4218.974256,4216.922974,4244.615281,4246.153742,4210.769128,4204.102461
110,0,4213.846051,4212.307589,4211.794769,4216.922974,4213.846051,4213.33323,4203.589641,4217.948615,4222.051179,4216.410153,4244.615281,4236.922973,4203.589641,4208.205025
111,0,4211.281948,4211.281948,4212.82041,4216.922974,4218.461435,4212.307589,4207.692205,4219.999897,4222.051179,4222.563999,4246.153742,4233.84605,4201.025538,4221.538358
112,0,4213.33323,4214.871692,4217.435794,4220.512717,4217.948615,4214.871692,4215.384512,4220.512717,4218.974256,4228.717845,4245.128101,4245.640922,4209.230666,4221.538358
113,0,4214.871692,4216.922974,4217.435794,4222.051179,4211.794769,4214.871692,4212.82041,4223.07682,4218.974256,4219.999897,4242.563999,4250.256306,4208.205025,4213.33323
114,0,4214.871692,4216.410153,4214.871692,4218.461435,4221.538358,4212.82041,4207.692205,4224.102461,4219.487076,4214.358871,4238.974255,4243.076819,4200.512718,4212.82041
115,0,4212.307589,4217.435794,4214.871692,4221.538358,4229.230666,4214.358871,4212.307589,4219.487076,4216.922974,4215.897333,4233.84605,4243.58964,4197.435795,4211.281948
116,0,4211.794769,4217.948615,4216.410153,4224.615281,4220.512717,4214.358871,4211.794769,4220.512717,4217.948615,4215.897333,4235.897332,4246.666563,4197.948615,4205.640923
117,0,4213.846051,4217.435794,4215.897333,4220.512717,4214.358871,4212.307589,4205.128102,4223.58964,4222.563999,4224.102461,4246.153742,4242.563999,4208.717846,4214.871692
118,0,4214.358871,4217.435794,4215.384512,4215.897333,4217.948615,4210.769128,4204.615282,4216.922974,4219.999897,4228.717845,4250.256306,4244.10246,4223.58964,4226.666563
119,0,4211.794769,4215.384512,4216.922974,4217.435794,4218.974256,4213.846051,4205.128102,4213.846051,4216.410153,4217.948615,4247.179383,4250.769127,4219.487076,4222.051179
120,0,4213.33323,4218.461435,4218.974256,4227.179384,4219.487076,4219.487076,4208.717846,4226.666563,4224.102461,4222.051179,4248.717845,4251.794768,4219.487076,4223.58964
121,0,4215.384512,4224.615281,4217.948615,4232.820409,4219.487076,4219.487076,4212.82041,4232.307589,4232.307589,4236.410153,4251.281947,4248.205024,4232.307589,4236.922973
122,0,4208.717846,4221.025538,4213.33323,4223.58964,4217.435794,4214.358871,4207.179384,4220.512717,4232.307589,4233.84605,4250.256306,4246.153742,4227.692204,4235.897332
123,0,4201.025538,4214.871692,4213.33323,4215.897333,4214.871692,4212.307589,4200.512718,4214.871692,4229.743486,4226.153743,4249.230665,4247.179383,4216.410153,4226.153743
124,0,4198.461436,4214.358871,4214.358871,4217.948615,4213.846051,4214.871692,4203.07682,4215.384512,4223.58964,4222.051179,4245.640922,4246.666563,4217.435794,4219.999897
125,0,4198.974256,4214.871692,4206.666564,4217.948615,4222.563999,4214.871692,4205.640923,4205.640923,4213.846051,4214.871692,4242.051178,4240.512717,4215.897333,4215.897333
126,0,4199.487077,4214.871692,4204.102461,4216.410153,4230.256307,4212.307589,4205.128102,4202.051179,4211.794769,4212.82041,4244.615281,4237.948614,4212.307589,4217.435794
127,0,4199.999897,4216.922974,4212.307589,4216.410153,4224.615281,4211.281948,4205.640923,4211.794769,4214.358871,4214.871692,4247.692204,4244.10246,4216.922974,4220.512717
128,0,4200.512718,4215.384512,4214.871692,4217.435794,4216.410153,4213.846051,4203.589641,4214.871692,4215.897333,4213.846051,4246.666563,4246.666563,4218.974256,4217.948615
0,0,4207.179384,4217.948615,4213.846051,4221.025538,4216.922974,4216.922974,4208.205025,4215.384512,4221.025538,4217.435794,4245.128101,4244.10246,4216.410153,4222.051179
1,0,4213.846051,4220.512717,4216.410153,4222.051179,4217.948615,4216.410153,4216.410153,4219.487076,4221.538358,4221.025538,4249.743486,4243.58964,4216.922974,4228.717845
2,0,4210.256307,4218.461435,4215.384512,4222.051179,4215.384512,4211.794769,4208.717846,4214.871692,4216.922974,4216.922974,4247.179383,4245.640922,4217.948615,4230.256307
3,0,4209.743487,4223.07682,4215.897333,4226.153743,4221.538358,4210.769128,4199.487077,4207.692205,4216.922974,4214.871692,4236.410153,4247.692204,4217.435794,4233.84605
4,0,4217.435794,4230.769127,4218.974256,4231.281948,4230.256307,4216.410153,4208.205025,4210.769128,4222.051179,4215.897333,4236.922973,4247.179383,4215.384512,4236.410153
5,0,4219.999897,4232.307589,4217.435794,4231.794768,4229.743486,4222.051179,4215.897333,4214.871692,4229.743486,4219.487076,4246.666563,4244.615281,4217.948615,4229.743486
6,0,4216.410153,4232.820409,4215.384512,4231.794768,4229.230666,4220.512717,4209.230666,4208.205025,4227.692204,4228.717845,4247.692204,4244.10246,4226.153743,4228.205025
7,0,4219.999897,4235.897332,4217.948615,4232.820409,4236.410153,4218.461435,4209.230666,4202.564,4220.512717,4233.84605,4245.128101,4248.205024,4233.84605,4234.358871
8,0,4222.051179,4236.410153,4215.897333,4229.743486,4234.358871,4216.922974,4214.358871,4205.640923,4218.461435,4225.640922,4249.743486,4248.717845,4232.820409,4236.410153
9,0,4210.256307,4228.717845,4207.179384,4221.538358,4220.512717,4210.256307,4206.153743,4198.461436,4212.307589,4209.230666,4245.640922,4240.512717,4223.07682,4231.794768
10,0,4195.897333,4218.461435,4199.999897,4214.358871,4213.846051,4204.102461,4196.410154,4185.640923,4205.128102,4204.102461,4232.820409,4230.256307,4212.82041,4221.025538
11,0,4195.897333,4215.384512,4198.974256,4216.922974,4215.897333,4199.999897,4196.410154,4184.102462,4210.256307,4212.307589,4231.281948,4231.281948,4210.769128,4215.897333
12,0,4208.205025,4218.974256,4206.153743,4218.974256,4217.435794,4198.974256,4199.487077,4190.256308,4217.435794,4218.461435,4239.999896,4242.563999,4217.948615,4225.128102
13,0,4215.384512,4221.538358,4213.846051,4218.974256,4216.410153,4204.615282,4201.538359,4194.358872,4223.07682,4217.435794,4246.666563,4248.205024,4224.102461,4233.84605
14,0,4210.256307,4224.615281,4214.871692,4224.615281,4216.410153,4211.281948,4201.538359,4195.897333,4228.717845,4220.512717,4247.179383,4247.179383,4221.538358,4228.717845
15,0,4211.794769,4229.743486,4214.358871,4227.692204,4222.563999,4212.307589,4205.640923,4198.461436,4229.230666,4227.179384,4247.179383,4246.666563,4222.051179,4227.692204
16,0,4218.974256,4231.794768,4216.410153,4221.538358,4228.717845,4214.871692,4213.33323,4199.487077,4230.769127,4232.307589,4248.205024,4248.717845,4231.794768,4236.922973
17,0,4214.871692,4225.640922,4213.846051,4217.948615,4225.640922,4216.922974,4212.307589,4192.82041,4230.769127,4233.84605,4244.615281,4248.717845,4232.820409,4237.435794
18,0,4199.999897,4213.846051,4205.128102,4217.435794,4210.769128,4207.179384,4202.564,4183.076821,4219.487076,4224.102461,4237.948614,4239.999896,4219.999897,4222.563999
19,0,4193.846051,4208.717846,4199.999897,4212.82041,4202.564,4201.025538,4198.974256,4179.999898,4214.871692,4214.871692,4234.871691,4231.794768,4213.33323,4211.281948
20,0,4196.922974,4214.871692,4201.025538,4215.384512,4213.33323,4210.769128,4202.051179,4183.589641,4219.487076,4216.410153,4234.871691,4233.33323,4216.922974,4217.948615
21,0,4193.846051,4215.384512,4201.538359,4216.410153,4223.58964,4213.846051,4202.564,4183.589641,4216.922974,4218.461435,4235.897332,4236.410153,4220.512717,4221.538358
22,0,4181.538359,4203.07682,4195.897333,4205.640923,4215.897333,4201.025538,4197.435795,4174.358872,4213.846051,4217.948615,4235.897332,4230.769127,4217.948615,4215.384512
23,0,4183.076821,4197.948615,4192.82041,4206.666564,4208.205025,4200.512718,4196.410154,4169.230667,4213.846051,4215.897333,4230.769127,4227.692204,4210.256307,4220.512717
24,0,4201.538359,4210.769128,4198.461436,4217.948615,4216.410153,4213.846051,4202.051179,4178.974257,4217.948615,4216.922974,4231.281948,4234.358871,4209.743487,4228.205025
25,0,4207.692205,4219.487076,4208.717846,4221.025538,4221.538358,4215.897333,4206.153743,4187.179385,4219.487076,4217.435794,4244.615281,4243.58964,4217.435794,4228.205025
26,0,4203.589641,4216.922974,4214.358871,4219.999897,4217.435794,4211.794769,4208.717846,4188.205026,4219.999897,4215.384512,4249.743486,4247.692204,4222.051179,4232.307589
27,0,4205.128102,4216.410153,4213.33323,4222.051179,4215.384512,4215.384512,4213.33323,4193.333231,4226.153743,4218.974256,4242.563999,4247.179383,4216.410153,4229.230666
28,0,4205.128102,4217.948615,4207.692205,4219.487076,4217.948615,4216.922974,4214.871692,4195.384513,4227.179384,4221.538358,4242.563999,4247.692204,4212.82041,4213.846051
29,0,4201.538359,4213.33323,4204.615282,4216.410153,4222.563999,4214.871692,4212.82041,4191.281949,4221.538358,4220.512717,4245.128101,4246.153742,4214.871692,4214.871692
30,0,4195.384513,4203.589641,4204.615282,4215.897333,4222.051179,4215.897333,4207.179384,4188.205026,4219.999897,4219.487076,4239.487076,4239.487076,4210.769128,4220.512717
31,0,4187.692205,4198.974256,4203.07682,4214.358871,4217.435794,4215.897333,4201.538359,4184.615282,4216.922974,4216.922974,4231.794768,4236.922973,4198.974256,4205.128102
32,0,4190.769128,4199.487077,4201.538359,4213.846051,4217.948615,4215.384512,4205.640923,4185.640923,4214.871692,4212.82041,4232.307589,4242.051178,4199.487077,4196.410154
33,0,4201.538359,4199.487077,4201.538359,4213.33323,4220.512717,4216.922974,4213.33323,4193.846051,4223.07682,4216.410153,4234.871691,4245.640922,4207.692205,4206.153743
34,0,4202.564,4199.487077,4207.692205,4211.281948,4216.410153,4217.435794,4213.846051,4196.922974,4225.640922,4221.538358,4232.820409,4245.640922,4203.589641,4204.102461
35,0,4196.922974,4199.487077,4210.256307,4206.153743,4214.358871,4216.922974,4206.153743,4193.846051,4217.948615,4220.512717,4230.769127,4247.692204,4199.999897,4196.922974
36,0,4197.435795,4197.948615,4204.615282,4204.615282,4216.410153,4216.922974,4201.025538,4195.384513,4217.435794,4214.871692,4236.922973,4249.743486,4208.717846,4202.564
37,0,4203.07682,4199.999897,4206.666564,4209.230666,4212.82041,4215.897333,4208.717846,4199.487077,4222.051179,4215.897333,4245.640922,4251.794768,4214.358871,4204.102461
38,0,4204.102461,4200.512718,4215.384512,4209.743487,4211.281948,4215.384512,4211.281948,4194.358872,4220.512717,4226.153743,4246.153742,4253.333229,4214.358871,4198.461436
39,0,4199.999897,4199.487077,4215.897333,4208.205025,4215.384512,4217.948615,4206.666564,4189.743487,4217.948615,4226.666563,4235.897332,4248.205024,4215.384512,4205.640923
40,0,4206.153743,4207.692205,4212.82041,4214.358871,4219.999897,4221.538358,4210.256307,4197.948615,4223.58964,4220.512717,4230.256307,4249.743486,4215.897333,4215.897333
41,0,4218.461435,4213.33323,4217.435794,4221.025538,4219.999897,4221.025538,4218.974256,4205.640923,4233.84605,4229.743486,4241.538358,4262.051178,4217.948615,4214.358871
42,0,4212.82041,4204.102461,4218.461435,4212.307589,4217.435794,4217.948615,4215.897333,4203.07682,4232.307589,4233.84605,4246.666563,4261.025537,4211.281948,4204.102461
43,0,4199.487077,4195.384513,4213.846051,4204.102461,4214.871692,4216.922974,4208.205025,4197.435795,4219.999897,4216.922974,4232.820409,4247.179383,4198.974256,4195.384513
44,0,4208.717846,4199.487077,4215.384512,4211.794769,4212.307589,4215.897333,4208.717846,4196.410154,4219.487076,4214.871692,4229.743486,4251.794768,4204.615282,4204.102461
45,0,4222.051179,4203.07682,4221.025538,4217.435794,4211.281948,4215.897333,4214.871692,4200.512718,4230.769127,4233.84605,4243.076819,4266.666562,4218.974256,4219.487076
46,0,4216.410153,4205.128102,4219.999897,4215.384512,4211.794769,4216.922974,4215.897333,4204.102461,4233.84605,4238.974255,4247.692204,4266.666562,4223.07682,4216.922974
47,0,4218.974256,4211.794769,4217.435794,4214.871692,4214.358871,4217.948615,4212.307589,4203.589641,4230.256307,4232.820409,4244.615281,4262.051178,4226.153743,4217.435794
48,0,4232.307589,4217.435794,4221.538358,4219.999897,4216.922974,4217.435794,4214.358871,4202.564,4231.281948,4234.871691,4248.717845,4265.640921,4233.33323,4232.820409
49,0,4227.692204,4210.769128,4222.563999,4217.948615,4215.384512,4213.846051,4213.33323,4201.025538,4230.769127,4231.794768,4252.307588,4267.692203,4232.307589,4234.358871
50,0,4211.794769,4199.487077,4214.358871,4208.717846,4215.384512,4213.846051,4205.640923,4196.922974,4226.153743,4221.538358,4243.076819,4262.563998,4221.538358,4222.051179
51,0,4214.871692,4203.07682,4213.33323,4208.717846,4217.435794,4217.435794,4206.666564,4197.435795,4228.717845,4226.666563,4237.948614,4258.974255,4217.435794,4214.871692
52,0,4228.205025,4217.435794,4219.487076,4215.897333,4215.897333,4217.948615,4213.846051,4198.461436,4230.769127,4238.461435,4244.10246,4263.076819,4225.128102,4214.358871
53,0,4226.153743,4221.025538,4218.974256,4218.974256,4215.384512,4218.461435,4213.33323,4196.410154,4222.563999,4233.84605,4240.512717,4263.589639,4226.666563,4216.410153
54,0,4212.82041,4215.897333,4214.871692,4216.410153,4218.461435,4219.487076,4210.256307,4194.871692,4216.410153,4217.435794,4235.897332,4256.410152,4217.435794,4215.384512
55,0,4215.897333,4216.410153,4216.410153,4215.384512,4217.948615,4217.948615,4207.692205,4193.846051,4224.102461,4213.846051,4241.025537,4255.384511,4214.358871,4213.33323
56,0,4228.717845,4218.974256,4219.487076,4215.384512,4217.435794,4217.948615,4205.640923,4189.743487,4226.666563,4224.615281,4238.974255,4256.922973,4215.384512,4219.487076
57,0,4222.051179,4215.897333,4217.948615,4214.358871,4218.974256,4216.922974,4207.179384,4188.205026,4217.435794,4227.692204,4230.769127,4251.281947,4214.358871,4214.871692
58,0,4211.794769,4213.33323,4215.384512,4213.846051,4219.487076,4216.922974,4210.769128,4194.358872,4218.974256,4222.563999,4236.410153,4248.717845,4213.846051,4206.153743
59,0,4219.487076,4214.871692,4215.897333,4212.307589,4218.974256,4223.07682,4214.358871,4203.589641,4229.743486,4229.230666,4245.128101,4256.410152,4214.358871,4214.358871
60,0,4223.07682,4216.922974,4217.435794,4214.358871,4216.410153,4223.58964,4215.384512,4205.640923,4232.820409,4238.974255,4247.179383,4261.538357,4215.384512,4222.563999
61,0,4216.922974,4217.435794,4219.999897,4217.435794,4212.82041,4217.948615,4214.871692,4204.615282,4228.205025,4232.820409,4246.666563,4261.538357,4219.999897,4223.58964
62,0,4220.512717,4216.922974,4220.512717,4217.435794,4212.82041,4217.948615,4215.384512,4209.230666,4229.230666,4224.102461,4242.563999,4262.563998,4223.58964,4229.230666
63,0,4229.743486,4217.435794,4217.435794,4216.410153,4218.461435,4218.974256,4214.358871,4211.794769,4232.307589,4229.743486,4243.58964,4262.563998,4221.025538,4232.307589
64,0,4228.717845,4218.461435,4217.948615,4217.948615,4223.58964,4215.897333,4214.358871,4206.153743,4226.153743,4235.897332,4246.153742,4265.128101,4218.974256,4223.07682
65,0,4219.487076,4216.410153,4219.999897,4217.948615,4221.025538,4214.358871,4213.846051,4198.974256,4215.897333,4227.692204,4241.538358,4264.10246,4217.435794,4216.410153
66,0,4219.487076,4214.871692,4218.974256,4214.871692,4215.897333,4215.384512,4209.230666,4198.461436,4218.461435,4221.025538,4239.487076,4261.025537,4215.897333,4221.025538
67,0,4230.256307,4222.051179,4221.538358,4219.999897,4216.922974,4215.897333,4208.205025,4201.025538,4227.692204,4228.717845,4246.666563,4269.743485,4224.615281,4233.33323
68,0,4236.410153,4229.743486,4230.256307,4230.256307,4216.922974,4216.922974,4213.33323,4201.538359,4227.179384,4231.281948,4247.692204,4278.974254,4237.435794,4238.974255
69,0,4232.820409,4227.179384,4230.769127,4229.230666,4213.846051,4215.897333,4214.871692,4202.564,4219.999897,4230.256307,4244.615281,4272.307588,4233.84605,4233.33323
70,0,4230.769127,4221.538358,4222.563999,4219.999897,4218.461435,4215.384512,4213.33323,4203.07682,4218.461435,4232.307589,4245.640922,4263.589639,4223.07682,4233.84605
71,0,4227.692204,4215.384512,4215.897333,4215.897333,4221.025538,4217.435794,4213.33323,4201.025538,4217.435794,4223.07682,4243.076819,4263.589639,4218.974256,4232.307589
72,0,4226.666563,4211.794769,4217.435794,4215.897333,4211.794769,4216.922974,4213.33323,4199.487077,4217.435794,4214.871692,4241.025537,4263.076819,4216.922974,4229.230666
73,0,4238.461435,4221.025538,4225.640922,4217.435794,4210.769128,4216.410153,4215.897333,4201.025538,4218.974256,4220.512717,4244.615281,4264.61528,4225.640922,4242.051178
74,0,4248.717845,4228.205025,4226.153743,4221.538358,4214.358871,4217.435794,4218.461435,4201.025538,4216.410153,4215.384512,4238.461435,4265.128101,4226.153743,4247.692204
75,0,4256.922973,4226.666563,4221.025538,4225.640922,4214.871692,4215.384512,4214.358871,4199.999897,4210.769128,4205.640923,4230.256307,4264.10246,4216.922974,4244.615281
76,0,4280.512716,4235.384512,4229.743486,4229.743486,4212.82041,4208.205025,4206.666564,4201.025538,4213.33323,4212.307589,4240.512717,4274.35887,4230.256307,4271.794767
77,0,4308.205023,4248.717845,4238.974255,4233.33323,4204.615282,4203.589641,4204.615282,4201.538359,4217.948615,4219.999897,4251.281947,4283.076818,4250.256306,4305.64092
78,0,4320.512715,4250.256306,4236.410153,4234.358871,4203.07682,4210.256307,4207.692205,4200.512718,4214.871692,4222.563999,4248.717845,4281.025536,4250.256306,4308.717843
79,0,4320.512715,4243.58964,4232.820409,4233.33323,4214.871692,4216.410153,4205.640923,4200.512718,4211.281948,4227.692204,4249.743486,4284.102459,4252.820409,4314.358869
80,0,4313.333228,4238.461435,4233.84605,4233.33323,4219.999897,4214.871692,4206.153743,4204.615282,4217.948615,4234.358871,4258.461434,4287.692203,4267.692203,4332.820407
81,0,4302.563997,4230.256307,4232.307589,4228.717845,4213.846051,4214.358871,4213.846051,4209.230666,4225.640922,4237.948614,4259.487075,4282.051177,4272.307588,4327.179381
82,0,4298.461433,4220.512717,4230.769127,4221.538358,4210.256307,4218.461435,4214.871692,4204.615282,4221.025538,4232.307589,4255.897332,4278.461434,4273.333229,4310.256305
83,0,4294.87169,4217.435794,4229.743486,4218.461435,4216.922974,4219.999897,4210.769128,4204.615282,4218.974256,4230.769127,4260.512716,4287.179382,4281.538357,4312.307587
84,0,4283.589639,4215.897333,4230.256307,4218.974256,4216.922974,4217.948615,4213.846051,4217.435794,4230.769127,4247.692204,4264.10246,4291.794767,4282.051177,4317.435792
85,0,4272.820408,4207.179384,4231.281948,4216.410153,4204.615282,4216.922974,4217.948615,4219.999897,4230.769127,4251.281947,4254.35887,4284.61528,4268.717844,4302.563997
86,0,4273.846049,4198.974256,4229.743486,4213.846051,4203.589641,4216.410153,4215.897333,4211.281948,4217.435794,4233.84605,4245.128101,4277.948613,4258.461434,4278.974254
87,0,4275.384511,4200.512718,4229.230666,4215.384512,4216.922974,4216.410153,4216.410153,4212.307589,4219.487076,4229.743486,4252.307588,4279.487075,4264.10246,4276.922972
88,0,4267.179383,4201.025538,4228.205025,4215.384512,4217.948615,4215.897333,4215.384512,4218.461435,4222.563999,4232.820409,4255.897332,4280.512716,4261.538357,4282.051177
89,0,4266.666562,4198.461436,4225.640922,4216.410153,4212.307589,4217.948615,4215.897333,4217.435794,4220.512717,4232.307589,4250.256306,4277.948613,4249.230665,4272.307588
90,0,4275.384511,4201.538359,4228.717845,4219.487076,4219.487076,4224.615281,4219.999897,4216.922974,4225.640922,4234.871691,4247.692204,4279.999895,4253.84605,4266.153742
91,0,4276.410152,4203.589641,4229.230666,4217.435794,4222.563999,4222.563999,4219.999897,4217.948615,4226.666563,4233.84605,4248.717845,4276.922972,4258.974255,4267.179383
92,0,4274.87169,4202.564,4222.051179,4217.948615,4217.948615,4215.897333,4216.922974,4217.435794,4223.58964,4234.358871,4247.692204,4275.384511,4252.820409,4264.10246
93,0,4275.897331,4203.589641,4218.461435,4221.538358,4213.846051,4223.07682,4216.922974,4217.948615,4230.769127,4245.640922,4247.179383,4277.435793,4249.230665,4263.076819
94,0,4267.692203,4201.538359,4218.974256,4217.435794,4210.256307,4228.717845,4217.435794,4216.922974,4231.281948,4244.615281,4247.179383,4270.769126,4249.230665,4255.384511
95,0,4255.897332,4196.922974,4214.871692,4212.82041,4213.33323,4218.461435,4213.846051,4214.358871,4217.948615,4233.84605,4244.615281,4262.563998,4245.640922,4244.615281
96,0,4258.974255,4197.948615,4213.846051,4216.410153,4218.461435,4215.897333,4214.358871,4213.846051,4219.487076,4237.435794,4245.640922,4265.128101,4247.692204,4255.384511
97,0,4266.153742,4202.051179,4215.384512,4212.307589,4218.974256,4227.179384,4220.512717,4215.384512,4231.794768,4243.58964,4248.205024,4268.717844,4249.743486,4266.666562
98,0,4262.051178,4196.922974,4212.307589,4202.564,4219.999897,4229.230666,4222.051179,4215.897333,4227.692204,4239.999896,4247.179383,4263.076819,4244.615281,4250.256306
99,0,4257.948614,4194.871692,4211.281948,4209.743487,4221.025538,4225.128102,4223.07682,4215.384512,4218.974256,4237.948614,4246.666563,4262.563998,4245.128101,4238.461435
100,0,4258.974255,4198.461436,4212.307589,4217.948615,4213.846051,4223.58964,4226.153743,4215.897333,4224.102461,4237.435794,4248.205024,4267.179383,4247.692204,4247.692204
101,0,4261.025537,4197.435795,4212.307589,4213.33323,4210.256307,4222.051179,4224.102461,4215.897333,4227.179384,4232.820409,4249.230665,4265.128101,4243.58964,4247.179383
102,0,4256.410152,4195.897333,4213.33323,4208.717846,4215.897333,4221.025538,4218.461435,4215.897333,4218.974256,4230.769127,4246.153742,4263.589639,4241.025537,4241.538358
103,0,4253.333229,4199.487077,4211.281948,4207.692205,4217.948615,4219.487076,4216.922974,4215.384512,4217.435794,4233.84605,4242.051178,4265.640921,4243.58964,4246.153742
104,0,4255.897332,4200.512718,4208.717846,4210.256307,4214.871692,4217.435794,4215.384512,4215.384512,4222.051179,4236.922973,4244.10246,4267.179383,4243.58964,4247.179383
105,0,4254.871691,4198.974256,4212.307589,4211.794769,4214.358871,4217.948615,4212.307589,4214.871692,4221.025538,4235.897332,4248.205024,4266.153742,4238.974255,4242.563999
106,0,4250.256306,4198.461436,4216.410153,4205.640923,4217.435794,4217.435794,4213.846051,4212.82041,4215.897333,4228.717845,4244.615281,4265.128101,4232.820409,4244.615281
107,0,4253.333229,4199.999897,4215.384512,4204.615282,4216.922974,4216.410153,4217.948615,4213.33323,4214.871692,4228.717845,4239.487076,4266.666562,4230.769127,4246.666563
108,0,4260.512716,4207.179384,4215.897333,4215.897333,4215.384512,4223.58964,4219.487076,4218.461435,4224.615281,4233.84605,4244.10246,4274.35887,4241.025537,4243.58964
109,0,4262.051178,4209.230666,4217.948615,4218.974256,4220.512717,4229.743486,4219.487076,4221.025538,4231.794768,4234.871691,4246.666563,4275.897331,4249.743486,4243.076819
110,0,4262.051178,4201.025538,4218.974256,4212.82041,4227.692204,4226.153743,4222.563999,4218.974256,4222.563999,4237.435794,4239.487076,4267.179383,4237.948614,4243.58964
111,0,4263.076819,4198.461436,4219.999897,4215.384512,4229.230666,4226.666563,4230.769127,4223.07682,4219.487076,4243.58964,4237.948614,4268.717844,4232.820409,4247.692204
112,0,4264.10246,4200.512718,4218.461435,4217.435794,4227.179384,4228.717845,4229.743486,4231.281948,4233.33323,4245.128101,4246.666563,4277.435793,4246.666563,4252.307588
113,0,4262.563998,4192.82041,4217.948615,4213.846051,4224.102461,4223.58964,4219.999897,4233.84605,4233.84605,4236.922973,4249.230665,4276.922972,4246.666563,4248.205024
114,0,4252.307588,4182.564,4217.435794,4213.33323,4214.871692,4216.922974,4221.538358,4226.666563,4219.999897,4227.179384,4242.051178,4271.794767,4232.307589,4241.538358
115,0,4245.128101,4183.589641,4217.435794,4217.435794,4215.384512,4218.974256,4227.692204,4221.538358,4221.025538,4229.230666,4243.076819,4270.256306,4231.281948,4248.205024
116,0,4247.179383,4186.153744,4217.948615,4219.999897,4225.640922,4227.179384,4223.58964,4224.615281,4226.666563,4236.922973,4246.153742,4268.717844,4233.84605,4252.820409
117,0,4255.897332,4186.666564,4217.948615,4217.435794,4224.102461,4226.666563,4217.435794,4223.58964,4224.102461,4243.58964,4238.974255,4270.256306,4235.897332,4241.538358
118,0,4264.10246,4190.769128,4219.999897,4217.435794,4225.128102,4224.615281,4218.974256,4219.999897,4227.692204,4246.666563,4233.84605,4273.846049,4244.10246,4239.487076
119,0,4258.974255,4190.256308,4219.487076,4218.461435,4230.769127,4229.230666,4219.487076,4221.538358,4231.794768,4237.435794,4234.358871,4269.230665,4242.051178,4242.563999
120,0,4245.128101,4183.589641,4213.33323,4215.384512,4224.102461,4228.717845,4215.897333,4219.999897,4222.051179,4228.717845,4231.281948,4258.461434,4228.717845,4236.922973
121,0,4241.538358,4178.974257,4208.205025,4211.794769,4214.871692,4218.974256,4212.82041,4213.33323,4212.82041,4230.256307,4227.179384,4256.410152,4222.563999,4231.281948
122,0,4242.563999,4175.384513,4209.743487,4209.743487,4217.435794,4216.410153,4211.794769,4211.281948,4214.358871,4221.538358,4230.256307,4260.512716,4219.487076,4231.281948
123,0,4238.461435,4171.281949,4210.256307,4208.205025,4217.435794,4223.58964,4212.82041,4213.846051,4215.897333,4212.307589,4229.230666,4256.922973,4215.384512,4229.230666
124,0,4242.563999,4173.846052,4212.307589,4211.281948,4213.846051,4229.230666,4215.897333,4215.897333,4217.435794,4225.128102,4226.153743,4254.35887,4217.435794,4226.666563
125,0,4246.153742,4172.820411,4214.871692,4211.281948,4216.922974,4230.769127,4218.461435,4217.948615,4218.461435,4233.84605,4228.717845,4258.974255,4215.384512,4225.128102
126,0,4245.128101,4168.717847,4213.846051,4206.153743,4217.948615,4224.102461,4215.384512,4216.922974,4217.435794,4226.153743,4229.743486,4263.589639,4214.358871,4226.153743
127,0,4254.35887,4176.410154,4215.897333,4210.256307,4217.948615,4224.615281,4214.358871,4223.07682,4222.051179,4230.769127,4232.307589,4269.230665,4227.179384,4244.615281
128,0,4264.61528,4185.128103,4221.025538,4219.487076,4221.025538,4230.256307,4217.948615,4231.794768,4228.205025,4237.948614,4235.384512,4270.256306,4235.897332,4255.384511
0,0,4257.948614,4183.589641,4221.025538,4217.435794,4217.435794,4224.615281,4218.461435,4230.769127,4229.743486,4232.820409,4234.358871,4264.10246,4229.743486,4243.58964
1,0,4249.743486,4182.05118,4217.948615,4212.82041,4212.82041,4221.025538,4217.948615,4229.230666,4229.743486,4231.794768,4233.84605,4264.61528,4227.179384,4239.999896
2,0,4250.769127,4184.615282,4218.461435,4215.384512,4224.102461,4230.256307,4221.538358,4233.84605,4232.307589,4234.358871,4236.410153,4268.205024,4231.794768,4250.256306
3,0,4248.205024,4184.615282,4217.435794,4215.897333,4231.281948,4233.33323,4219.487076,4232.307589,4231.794768,4232.820409,4233.33323,4264.10246,4230.256307,4247.692204
4,0,4247.692204,4183.076821,4216.922974,4216.410153,4224.102461,4228.717845,4215.897333,4229.230666,4230.256307,4238.974255,4230.256307,4268.717844,4229.743486,4238.974255
5,0,4258.974255,4183.589641,4219.487076,4217.948615,4228.205025,4231.281948,4223.58964,4231.794768,4231.281948,4248.717845,4239.999896,4279.999895,4239.999896,4245.640922
6,0,4261.025537,4184.615282,4218.974256,4218.461435,4238.461435,4233.84605,4228.205025,4232.820409,4230.256307,4247.692204,4247.179383,4277.948613,4247.692204,4260.512716
7,0,4251.281947,4186.666564,4216.922974,4219.487076,4230.769127,4232.820409,4222.051179,4231.281948,4231.281948,4242.563999,4247.692204,4274.87169,4248.205024,4264.61528
8,0,4246.666563,4185.128103,4216.922974,4219.487076,4218.461435,4231.281948,4216.922974,4230.769127,4234.871691,4245.640922,4246.153742,4274.35887,4243.076819,4251.281947
9,0,4250.769127,4184.615282,4216.410153,4217.435794,4221.538358,4228.717845,4218.461435,4231.794768,4232.820409,4246.666563,4237.435794,4271.281947,4235.897332,4243.58964
10,0,4254.871691,4187.179385,4218.974256,4216.922974,4224.615281,4229.743486,4219.487076,4232.820409,4231.281948,4244.615281,4227.692204,4270.769126,4233.33323,4248.717845
11,0,4253.84605,4183.589641,4218.461435,4214.358871,4215.897333,4228.205025,4218.461435,4230.256307,4229.230666,4241.538358,4229.743486,4268.717844,4232.820409,4245.128101
12,0,4248.205024,4179.487077,4213.33323,4213.33323,4212.82041,4226.666563,4217.948615,4227.692204,4222.051179,4237.435794,4232.820409,4262.563998,4225.640922,4234.871691
13,0,4246.666563,4180.512718,4215.897333,4215.897333,4222.051179,4230.256307,4220.512717,4230.256307,4217.948615,4230.256307,4229.230666,4262.051178,4216.922974,4234.871691
14,0,4244.615281,4174.871693,4215.897333,4212.307589,4221.538358,4231.281948,4219.999897,4230.769127,4218.974256,4220.512717,4230.256307,4265.640921,4213.846051,4232.307589
15,0,4234.871691,4166.666565,4207.692205,4203.07682,4213.33323,4226.666563,4216.410153,4225.640922,4216.922974,4216.410153,4229.230666,4261.538357,4210.256307,4219.487076
16,0,4230.256307,4168.205026,4205.640923,4203.07682,4216.410153,4226.666563,4216.410153,4227.692204,4217.435794,4219.487076,4220.512717,4254.871691,4205.128102,4216.410153
17,0,4230.256307,4170.769129,4206.666564,4204.102461,4218.974256,4228.205025,4216.922974,4227.179384,4219.487076,4218.461435,4212.82041,4248.205024,4197.948615,4221.025538
18,0,4231.281948,4168.205026,4206.153743,4199.487077,4214.871692,4227.179384,4215.384512,4216.922974,4215.897333,4213.33323,4214.358871,4247.179383,4196.410154,4211.281948
19,0,4239.999896,4174.871693,4211.281948,4206.153743,4214.358871,4224.615281,4218.461435,4219.487076,4216.922974,4219.487076,4224.102461,4257.948614,4208.205025,4208.205025
20,0,4246.153742,4182.564,4216.922974,4216.922974,4213.33323,4217.435794,4216.922974,4227.179384,4221.025538,4227.692204,4230.769127,4265.128101,4216.410153,4226.153743
21,0,4245.128101,4185.128103,4214.871692,4217.948615,4213.33323,4213.846051,4210.256307,4218.974256,4216.922974,4222.563999,4230.256307,4264.61528,4216.410153,4238.974255
22,0,4243.58964,4183.589641,4214.871692,4211.794769,4219.999897,4218.974256,4213.33323,4214.871692,4215.897333,4216.922974,4228.205025,4264.61528,4216.922974,4232.307589
23,0,4241.538358,4177.948616,4217.435794,4205.128102,4221.538358,4219.999897,4219.999897,4227.179384,4219.999897,4223.58964,4229.230666,4265.640921,4217.435794,4227.179384
24,0,4245.128101,4180.512718,4216.922974,4207.179384,4217.948615,4217.948615,4216.410153,4233.33323,4220.512717,4231.794768,4231.794768,4265.128101,4222.563999,4237.948614
25,0,4262.563998,4192.30759,4216.922974,4214.871692,4214.358871,4217.435794,4211.281948,4225.128102,4218.974256,4230.256307,4230.256307,4263.076819,4229.230666,4245.640922
26,0,4276.410152,4200.512718,4217.948615,4218.461435,4216.922974,4217.435794,4212.307589,4220.512717,4218.974256,4228.205025,4228.717845,4265.640921,4229.743486,4250.256306
27,0,4278.974254,4199.999897,4223.07682,4214.358871,4216.922974,4217.435794,4212.82041,4217.948615,4217.435794,4228.205025,4230.769127,4272.820408,4230.256307,4262.563998
28,0,4288.717844,4200.512718,4228.717845,4216.410153,4208.205025,4215.897333,4211.794769,4215.384512,4216.922974,4223.07682,4232.307589,4278.461434,4230.256307,4276.922972
29,0,4299.999895,4205.128102,4232.307589,4222.563999,4207.692205,4215.897333,4212.307589,4220.512717,4216.410153,4217.435794,4230.256307,4278.461434,4222.563999,4279.999895
30,0,4288.205023,4204.102461,4227.179384,4215.897333,4217.948615,4216.410153,4212.82041,4229.743486,4216.922974,4218.461435,4233.33323,4277.948613,4217.435794,4267.179383
31,0,4265.128101,4189.230667,4217.435794,4204.102461,4217.948615,4214.871692,4211.281948,4230.769127,4223.07682,4221.538358,4231.281948,4278.461434,4216.410153,4251.794768
32,0,4265.640921,4182.564,4215.384512,4210.256307,4212.307589,4216.410153,4213.846051,4229.743486,4223.58964,4219.487076,4219.999897,4275.384511,4214.358871,4242.051178
33,0,4276.922972,4192.82041,4221.025538,4221.025538,4217.948615,4219.999897,4218.974256,4233.33323,4218.461435,4219.487076,4224.615281,4268.717844,4215.897333,4247.179383
34,0,4268.717844,4193.333231,4219.487076,4215.897333,4219.487076,4216.922974,4218.974256,4233.84605,4216.922974,4225.128102,4231.281948,4263.589639,4214.871692,4248.717845
35,0,4256.410152,4183.589641,4212.307589,4210.769128,4211.794769,4211.794769,4216.410153,4230.256307,4215.897333,4224.615281,4220.512717,4262.051178,4210.256307,4231.794768
36,0,4258.974255,4189.230667,4213.846051,4214.358871,4208.717846,4214.871692,4216.410153,4230.256307,4214.871692,4217.435794,4220.512717,4263.076819,4213.33323,4227.179384
37,0,4263.076819,4199.999897,4216.922974,4213.846051,4211.281948,4216.410153,4216.410153,4228.717845,4217.435794,4215.384512,4229.230666,4263.076819,4217.948615,4241.025537
38,0,4262.563998,4197.435795,4216.410153,4214.871692,4216.922974,4213.33323,4214.358871,4221.538358,4217.435794,4218.461435,4220.512717,4262.051178,4211.281948,4246.153742
39,0,4258.974255,4190.769128,4216.410153,4212.82041,4217.435794,4212.307589,4213.33323,4217.435794,4213.33323,4216.410153,4212.307589,4262.051178,4203.589641,4230.769127
40,0,4256.922973,4186.153744,4216.410153,4204.615282,4212.82041,4215.384512,4215.384512,4219.999897,4215.897333,4212.82041,4219.487076,4261.025537,4204.102461,4218.974256
41,0,4258.461434,4190.769128,4215.384512,4206.666564,4213.33323,4215.897333,4215.897333,4218.461435,4219.999897,4216.922974,4221.538358,4261.538357,4206.666564,4223.07682
42,0,4261.025537,4199.999897,4215.384512,4216.410153,4219.999897,4215.384512,4210.769128,4214.358871,4218.461435,4218.461435,4217.948615,4262.563998,4211.794769,4229.230666
43,0,4258.461434,4199.487077,4218.974256,4216.410153,4214.871692,4215.384512,4208.205025,4214.871692,4214.358871,4215.384512,4221.538358,4262.563998,4215.384512,4221.538358
44,0,4257.948614,4195.897333,4219.999897,4211.794769,4201.538359,4213.33323,4209.743487,4215.897333,4214.871692,4217.435794,4224.615281,4266.666562,4209.743487,4208.717846
45,0,4261.538357,4195.384513,4217.948615,4214.871692,4200.512718,4210.256307,4210.256307,4214.871692,4216.410153,4212.307589,4223.58964,4271.281947,4202.051179,4213.846051
46,0,4260.512716,4193.333231,4221.538358,4217.435794,4212.307589,4211.281948,4211.281948,4215.897333,4214.871692,4200.512718,4223.07682,4273.333229,4201.538359,4216.410153
47,0,4259.487075,4194.358872,4229.743486,4215.384512,4217.435794,4215.384512,4214.358871,4217.948615,4214.358871,4204.615282,4220.512717,4274.35887,4201.025538,4190.769128
48,0,4263.076819,4199.999897,4227.692204,4216.922974,4217.435794,4217.435794,4214.871692,4218.974256,4214.871692,4213.846051,4219.999897,4273.333229,4205.128102,4178.461436
49,0,4261.538357,4195.384513,4219.487076,4215.897333,4214.871692,4216.922974,4213.846051,4218.974256,4213.33323,4214.358871,4223.07682,4271.281947,4212.82041,4184.102462
50,0,4258.461434,4189.743487,4219.999897,4211.794769,4207.179384,4215.897333,4213.846051,4219.999897,4215.897333,4213.33323,4223.07682,4274.87169,4210.256307,4175.897334
51,0,4259.487075,4193.846051,4222.051179,4213.33323,4202.564,4214.358871,4211.281948,4221.538358,4216.410153,4209.743487,4217.435794,4276.410152,4202.051179,4171.281949
52,0,4259.487075,4198.461436,4217.435794,4214.871692,4200.512718,4212.82041,4209.230666,4217.948615,4206.666564,4200.512718,4216.410153,4269.230665,4200.512718,4184.615282
53,0,4261.025537,4198.974256,4215.384512,4211.281948,4198.974256,4212.307589,4209.743487,4215.897333,4204.615282,4197.948615,4218.974256,4264.10246,4204.102461,4189.743487
54,0,4256.922973,4194.358872,4217.948615,4210.256307,4206.153743,4215.384512,4212.82041,4223.07682,4214.871692,4203.07682,4216.410153,4264.61528,4199.999897,4181.538359
55,0,4245.128101,4190.256308,4216.410153,4213.33323,4215.384512,4216.922974,4214.871692,4224.615281,4216.410153,4206.153743,4215.897333,4262.051178,4188.717846,4173.333231
56,0,4250.256306,4196.410154,4214.871692,4215.897333,4218.461435,4215.384512,4214.358871,4217.435794,4212.307589,4206.666564,4217.948615,4261.025537,4191.794769,4165.640924
57,0,4265.640921,4203.07682,4219.487076,4216.922974,4214.871692,4215.384512,4214.358871,4215.384512,4212.307589,4203.07682,4218.974256,4264.61528,4204.615282,4175.897334
58,0,4263.076819,4198.974256,4221.025538,4215.897333,4207.692205,4215.384512,4213.33323,4216.410153,4206.666564,4202.051179,4219.487076,4263.589639,4198.974256,4187.692205
59,0,4258.461434,4200.512718,4218.974256,4215.897333,4210.769128,4212.82041,4212.307589,4213.846051,4202.051179,4203.589641,4216.922974,4259.487075,4189.743487,4174.871693
60,0,4264.10246,4209.230666,4218.974256,4217.435794,4216.410153,4208.717846,4210.769128,4211.794769,4208.717846,4199.999897,4214.871692,4259.999896,4194.358872,4168.717847
61,0,4264.10246,4206.153743,4218.974256,4216.410153,4206.153743,4209.230666,4208.717846,4212.82041,4215.897333,4205.128102,4220.512717,4264.10246,4204.615282,4183.589641
62,0,4263.589639,4202.564,4219.487076,4214.871692,4202.051179,4213.33323,4211.794769,4215.384512,4218.461435,4216.410153,4222.051179,4267.692203,4210.769128,4195.897333
63,0,4262.051178,4201.538359,4219.999897,4215.897333,4214.358871,4216.922974,4214.358871,4218.461435,4216.922974,4210.769128,4201.538359,4266.666562,4209.743487,4183.589641
64,0,4260.512716,4202.051179,4217.435794,4216.922974,4217.435794,4214.871692,4207.692205,4213.33323,4213.846051,4197.948615,4178.461436,4262.051178,4198.461436,4167.179385
65,0,4260.512716,4204.102461,4219.487076,4217.435794,4215.897333,4212.307589,4206.153743,4210.256307,4213.846051,4202.564,4179.999898,4263.076819,4196.410154,4177.948616
66,0,4251.794768,4194.871692,4220.512717,4211.794769,4215.384512,4215.897333,4213.33323,4215.384512,4216.410153,4209.230666,4189.230667,4270.256306,4203.07682,4188.717846
67,0,4242.051178,4186.153744,4214.358871,4206.666564,4206.153743,4216.922974,4213.33323,4214.358871,4214.358871,4201.538359,4179.999898,4269.230665,4197.435795,4174.358872
68,0,4244.615281,4193.846051,4213.33323,4210.769128,4204.102461,4211.794769,4209.743487,4209.743487,4208.717846,4195.384513,4171.79477,4262.563998,4185.640923,4169.743488
69,0,4255.384511,4210.256307,4217.948615,4216.922974,4212.307589,4210.769128,4213.846051,4212.307589,4209.743487,4197.948615,4179.487077,4266.666562,4182.564,4184.102462
70,0,4270.256306,4222.051179,4220.512717,4216.922974,4213.846051,4215.384512,4214.871692,4218.461435,4215.384512,4203.07682,4186.153744,4276.922972,4185.128103,4185.128103
71,0,4279.999895,4231.281948,4219.487076,4216.922974,4215.897333,4214.358871,4211.794769,4218.461435,4216.410153,4204.615282,4184.102462,4278.461434,4185.128103,4178.974257
72,0,4269.230665,4231.281948,4217.948615,4219.487076,4216.922974,4212.82041,4213.33323,4216.922974,4213.33323,4199.487077,4183.076821,4272.820408,4181.025539,4183.076821
73,0,4259.487075,4227.179384,4223.07682,4221.025538,4208.205025,4214.358871,4213.846051,4218.461435,4213.846051,4201.025538,4183.589641,4266.666562,4174.871693,4179.487077
74,0,4268.717844,4234.871691,4226.666563,4218.974256,4206.153743,4207.692205,4206.666564,4215.384512,4210.769128,4200.512718,4181.538359,4264.61528,4167.692206,4166.666565
75,0,4275.384511,4243.076819,4223.07682,4223.07682,4216.410153,4205.128102,4201.025538,4212.307589,4204.615282,4192.30759,4182.05118,4266.153742,4171.281949,4169.743488
76,0,4269.230665,4241.025537,4218.974256,4232.307589,4222.563999,4215.897333,4203.589641,4212.82041,4204.615282,4193.333231,4179.999898,4266.153742,4178.974257,4182.564
77,0,4260.512716,4233.84605,4216.922974,4227.179384,4217.948615,4215.897333,4207.692205,4211.281948,4204.102461,4199.487077,4175.384513,4262.051178,4174.871693,4179.487077
78,0,4259.999896,4229.743486,4215.897333,4216.922974,4213.33323,4204.102461,4207.692205,4210.256307,4205.640923,4197.435795,4178.461436,4261.538357,4171.79477,4168.205026
79,0,4262.051178,4233.33323,4218.461435,4227.179384,4212.82041,4203.589641,4207.692205,4214.871692,4214.358871,4198.974256,4186.153744,4266.153742,4183.589641,4170.256308
80,0,4253.84605,4234.871691,4216.922974,4233.33323,4215.384512,4208.717846,4210.256307,4218.461435,4213.846051,4204.615282,4187.692205,4266.666562,4191.281949,4175.897334
81,0,4245.128101,4230.769127,4212.307589,4222.051179,4217.435794,4205.640923,4214.358871,4217.948615,4202.051179,4196.922974,4186.666564,4264.10246,4178.461436,4172.30759
82,0,4247.179383,4231.281948,4215.384512,4222.051179,4213.33323,4208.205025,4215.897333,4220.512717,4200.512718,4200.512718,4185.640923,4263.076819,4171.79477,4175.384513
83,0,4252.307588,4241.025537,4221.538358,4233.84605,4214.871692,4215.897333,4216.410153,4222.051179,4205.640923,4214.871692,4185.640923,4266.666562,4183.589641,4183.076821
84,0,4252.307588,4245.128101,4221.538358,4233.33323,4225.640922,4217.948615,4218.461435,4221.025538,4204.102461,4209.743487,4185.640923,4270.256306,4187.179385,4183.589641
85,0,4249.743486,4236.410153,4218.974256,4224.615281,4223.58964,4216.410153,4217.948615,4219.487076,4202.564,4197.948615,4177.948616,4266.153742,4172.820411,4182.564
86,0,4248.205024,4231.281948,4215.897333,4218.461435,4211.281948,4211.794769,4210.769128,4212.82041,4198.461436,4196.410154,4172.30759,4260.512716,4167.692206,4180.512718
87,0,4245.640922,4230.256307,4214.871692,4214.871692,4210.769128,4203.589641,4207.179384,4203.07682,4190.256308,4191.794769,4181.025539,4259.999896,4171.79477,4175.384513
88,0,4243.58964,4227.179384,4215.384512,4215.384512,4209.743487,4204.102461,4210.256307,4202.051179,4190.769128,4183.076821,4185.640923,4262.051178,4166.666565,4166.666565
89,0,4242.051178,4228.717845,4213.846051,4217.948615,4206.153743,4213.846051,4214.358871,4209.743487,4198.461436,4193.333231,4181.538359,4259.999896,4168.205026,4165.640924
90,0,4243.58964,4233.33323,4215.384512,4218.461435,4217.435794,4216.410153,4214.358871,4218.461435,4202.051179,4210.256307,4184.102462,4262.051178,4183.589641,4179.999898
91,0,4251.281947,4237.435794,4222.563999,4222.563999,4222.051179,4215.384512,4218.461435,4225.640922,4202.564,4216.922974,4189.230667,4271.794767,4192.30759,4193.333231
92,0,4259.999896,4243.076819,4228.205025,4229.230666,4214.358871,4219.487076,4225.128102,4229.743486,4204.102461,4217.435794,4190.256308,4278.461434,4189.230667,4189.743487
93,0,4262.563998,4248.205024,4228.717845,4233.84605,4223.07682,4221.025538,4223.07682,4228.205025,4205.128102,4209.743487,4197.435795,4278.461434,4189.230667,4187.692205
94,0,4264.61528,4251.794768,4230.769127,4232.820409,4234.871691,4217.435794,4217.435794,4222.563999,4205.128102,4205.640923,4202.051179,4277.948613,4193.846051,4201.025538
95,0,4265.640921,4252.307588,4233.33323,4230.769127,4228.205025,4214.871692,4213.846051,4217.948615,4203.589641,4215.384512,4194.358872,4279.999895,4193.333231,4205.640923
96,0,4257.435793,4247.692204,4227.179384,4227.179384,4222.563999,4216.410153,4208.205025,4211.281948,4201.538359,4215.897333,4186.153744,4271.794767,4185.640923,4202.051179
97,0,4248.205024,4244.615281,4217.435794,4221.025538,4225.640922,4217.948615,4203.07682,4203.07682,4203.07682,4199.487077,4183.589641,4260.512716,4173.846052,4196.410154
98,0,4248.205024,4244.615281,4216.922974,4218.461435,4219.999897,4215.384512,4203.589641,4198.461436,4203.07682,4196.410154,4182.05118,4261.025537,4170.769129,4187.692205
99,0,4248.717845,4239.999896,4219.999897,4217.435794,4212.82041,4211.794769,4203.589641,4198.974256,4200.512718,4205.128102,4183.076821,4264.61528,4181.538359,4186.153744
100,0,4237.948614,4231.281948,4215.897333,4214.871692,4214.871692,4212.82041,4199.999897,4202.051179,4204.102461,4202.051179,4187.179385,4262.563998,4183.076821,4186.153744
101,0,4228.205025,4227.692204,4212.307589,4214.358871,4216.922974,4215.384512,4203.589641,4204.102461,4211.794769,4196.410154,4189.230667,4262.563998,4171.79477,4185.128103
102,0,4229.230666,4233.33323,4211.281948,4217.948615,4217.948615,4215.384512,4209.743487,4204.102461,4210.256307,4200.512718,4189.743487,4264.61528,4176.410154,4195.384513
103,0,4225.640922,4234.358871,4205.640923,4217.948615,4218.974256,4213.846051,4206.153743,4199.999897,4201.025538,4203.589641,4188.717846,4256.922973,4189.743487,4195.897333
104,0,4212.82041,4227.692204,4201.538359,4212.307589,4216.410153,4213.33323,4201.538359,4197.435795,4204.102461,4201.538359,4183.076821,4247.692204,4186.153744,4177.435795
105,0,4206.666564,4227.179384,4202.564,4214.358871,4218.974256,4214.358871,4206.666564,4199.999897,4215.897333,4202.051179,4183.076821,4250.769127,4180.512718,4177.948616
106,0,4206.153743,4232.820409,4203.07682,4215.897333,4221.538358,4215.384512,4209.743487,4203.589641,4216.922974,4204.615282,4187.179385,4260.512716,4183.589641,4182.564
107,0,4201.538359,4226.666563,4199.487077,4207.179384,4212.82041,4214.358871,4203.589641,4201.538359,4213.33323,4201.538359,4187.179385,4262.563998,4183.076821,4167.179385
108,0,4198.461436,4215.384512,4198.461436,4205.640923,4206.666564,4213.33323,4203.589641,4199.999897,4212.307589,4199.487077,4190.769128,4260.512716,4182.05118,4170.769129
109,0,4201.025538,4217.948615,4202.051179,4214.358871,4213.33323,4214.358871,4212.307589,4207.179384,4214.871692,4207.179384,4199.999897,4262.051178,4191.281949,4190.769128
110,0,4208.205025,4228.205025,4203.589641,4215.897333,4221.025538,4217.948615,4216.410153,4218.461435,4222.563999,4218.461435,4201.025538,4264.61528,4200.512718,4190.256308
111,0,4215.384512,4230.256307,4203.589641,4212.82041,4227.692204,4219.487076,4215.897333,4223.58964,4231.281948,4222.051179,4195.384513,4264.10246,4200.512718,4185.640923
112,0,4213.846051,4229.230666,4205.128102,4212.82041,4234.358871,4217.435794,4213.33323,4217.435794,4229.743486,4219.999897,4196.410154,4258.974255,4197.948615,4198.461436
113,0,4212.82041,4231.794768,4212.82041,4214.358871,4229.743486,4218.461435,4214.871692,4216.410153,4226.153743,4217.435794,4200.512718,4264.61528,4202.051179,4203.589641
114,0,4222.563999,4234.871691,4223.07682,4217.948615,4221.538358,4221.025538,4218.461435,4223.58964,4228.717845,4215.897333,4202.564,4276.410152,4203.07682,4198.974256
115,0,4230.769127,4241.025537,4224.615281,4220.512717,4226.153743,4218.461435,4216.922974,4224.102461,4231.794768,4216.922974,4203.589641,4273.846049,4201.025538,4209.230666
116,0,4225.640922,4244.615281,4216.922974,4219.999897,4230.769127,4215.384512,4213.846051,4219.999897,4230.256307,4219.487076,4201.025538,4260.512716,4200.512718,4217.435794
117,0,4214.871692,4238.461435,4208.205025,4218.461435,4222.051179,4216.410153,4214.358871,4219.487076,4223.58964,4218.461435,4196.922974,4257.948614,4194.871692,4208.205025
118,0,4204.615282,4226.666563,4203.07682,4211.281948,4211.794769,4214.358871,4213.33323,4217.435794,4216.922974,4213.33323,4194.358872,4259.487075,4185.128103,4193.333231
119,0,4202.564,4219.487076,4203.589641,4209.743487,4213.846051,4211.794769,4209.743487,4213.846051,4217.435794,4211.794769,4198.461436,4253.333229,4182.05118,4185.640923
120,0,4206.666564,4218.974256,4205.128102,4211.281948,4217.435794,4213.33323,4213.846051,4215.897333,4219.487076,4211.281948,4197.948615,4249.230665,4183.589641,4184.102462
121,0,4203.07682,4217.435794,4202.564,4203.589641,4214.358871,4214.871692,4214.358871,4216.410153,4217.435794,4205.640923,4191.281949,4248.205024,4184.102462,4185.640923
122,0,4197.435795,4216.410153,4199.487077,4201.538359,4210.769128,4212.82041,4207.179384,4211.794769,4215.384512,4202.051179,4187.179385,4245.640922,4184.102462,4190.769128
123,0,4205.128102,4224.102461,4207.692205,4213.846051,4210.769128,4212.82041,4205.128102,4211.794769,4215.897333,4201.025538,4187.179385,4251.281947,4182.564,4195.897333
124,0,4217.948615,4236.922973,4213.846051,4220.512717,4212.82041,4213.846051,4208.205025,4210.769128,4216.922974,4197.948615,4189.743487,4259.487075,4182.564,4203.07682
125,0,4219.999897,4237.948614,4207.179384,4214.871692,4218.974256,4213.33323,4204.615282,4205.640923,4220.512717,4202.564,4191.281949,4256.410152,4186.153744,4205.128102
126,0,4214.358871,4233.84605,4201.025538,4214.358871,4222.563999,4213.846051,4201.025538,4207.179384,4226.666563,4213.846051,4188.717846,4249.230665,4187.179385,4199.487077
127,0,4208.205025,4233.33323,4202.564,4214.358871,4218.974256,4216.410153,4204.615282,4213.33323,4227.692204,4214.358871,4192.82041,4250.769127,4185.128103,4197.948615
128,0,4202.051179,4227.179384,4203.589641,4206.666564,4215.384512,4215.897333,4207.179384,4212.82041,4221.025538,4208.717846,4199.487077,4252.307588,4185.640923,4197.435795
0,0,4196.922974,4218.461435,4200.512718,4202.051179,4217.435794,4213.33323,4204.615282,4210.256307,4215.897333,4214.871692,4196.922974,4245.128101,4192.82041,4191.794769
1,0,4189.230667,4217.435794,4192.82041,4204.102461,4221.025538,4213.33323,4204.102461,4213.846051,4218.461435,4217.948615,4196.410154,4235.897332,4195.897333,4185.640923
2,0,4183.589641,4218.974256,4184.102462,4204.102461,4220.512717,4215.384512,4203.589641,4212.307589,4221.025538,4207.179384,4198.461436,4236.410153,4192.30759,4187.692205
3,0,4188.205026,4217.435794,4186.153744,4200.512718,4218.974256,4213.33323,4202.564,4207.692205,4217.948615,4202.051179,4190.256308,4242.051178,4186.666564,4186.666564
4,0,4195.384513,4222.563999,4195.897333,4204.615282,4217.435794,4209.230666,4201.538359,4212.82041,4220.512717,4212.82041,4189.743487,4245.640922,4185.128103,4179.999898
5,0,4201.538359,4232.820409,4202.051179,4213.33323,4216.410153,4211.794769,4204.615282,4220.512717,4228.717845,4221.025538,4199.999897,4247.179383,4190.256308,4194.358872
6,0,4208.205025,4235.897332,4203.589641,4215.897333,4217.948615,4217.435794,4210.256307,4221.538358,4233.33323,4219.487076,4201.538359,4249.743486,4197.435795,4218.461435
7,0,4208.205025,4232.820409,4207.692205,4213.846051,4217.948615,4216.922974,4210.256307,4218.461435,4232.820409,4216.410153,4201.538359,4255.897332,4201.025538,4215.384512
8,0,4203.589641,4231.794768,4214.358871,4214.358871,4217.948615,4213.33323,4207.692205,4215.897333,4225.640922,4211.794769,4203.589641,4263.076819,4199.999897,4202.564
9,0,4204.615282,4234.358871,4216.410153,4216.922974,4226.666563,4215.897333,4211.794769,4217.435794,4219.487076,4214.358871,4202.564,4264.10246,4202.564,4214.358871
10,0,4207.692205,4234.871691,4215.384512,4215.897333,4233.84605,4218.461435,4216.410153,4219.999897,4218.974256,4218.974256,4203.589641,4261.538357,4205.640923,4226.666563
11,0,4204.102461,4231.281948,4214.871692,4213.33323,4227.179384,4216.922974,4215.384512,4217.435794,4216.922974,4206.666564,4204.615282,4261.025537,4201.538359,4212.307589
12,0,4197.948615,4227.179384,4210.256307,4213.33323,4223.58964,4216.410153,4214.358871,4214.358871,4211.281948,4199.487077,4201.538359,4259.999896,4197.435795,4198.974256
13,0,4196.410154,4228.717845,4206.153743,4214.358871,4228.717845,4217.948615,4215.384512,4217.435794,4211.281948,4210.769128,4200.512718,4258.461434,4196.410154,4207.179384
14,0,4199.487077,4230.769127,4205.128102,4213.33323,4221.025538,4217.435794,4213.846051,4218.974256,4215.384512,4213.846051,4202.564,4255.897332,4197.948615,4215.897333
15,0,4199.999897,4231.281948,4201.538359,4212.82041,4213.33323,4214.358871,4211.281948,4217.435794,4215.897333,4207.692205,4207.692205,4248.717845,4198.974256,4210.256307
