title:V                                                                               , recorded:07.07.20 11.03.41, sampling:128, subject:B                                                                               , labels:COUNTER INTERPOLATED AF3 F7 F3 FC5 T7 P7 O1 O2 P8 T8 FC6 F4 F8 AF4 ,, units:emotiv,,,,,,,,,
22,0,4211.794769,4213.846051,4229.230666,4216.922974,4211.794769,4214.358871,4212.307589,4206.666564,4407.179379,4209.230666,4239.999896,4242.563999,4223.07682,4225.640922
23,0,4213.33323,4216.922974,4230.769127,4221.025538,4216.410153,4215.897333,4212.82041,4205.640923,4411.281943,4212.82041,4246.666563,4249.230665,4225.640922,4229.743486
24,0,4217.948615,4216.922974,4232.307589,4225.640922,4213.846051,4218.974256,4216.922974,4206.666564,4412.820405,4214.871692,4254.871691,4251.794768,4231.794768,4233.84605
25,0,4213.33323,4212.82041,4229.743486,4217.435794,4209.743487,4218.974256,4217.435794,4209.743487,4412.820405,4216.410153,4250.256306,4247.179383,4230.769127,4231.281948
26,0,4210.256307,4209.230666,4229.743486,4214.358871,4214.358871,4215.897333,4215.897333,4214.871692,4418.46143,4224.102461,4247.692204,4248.205024,4228.205025,4230.769127
27,0,4212.307589,4210.256307,4232.307589,4219.999897,4217.948615,4215.897333,4215.384512,4217.948615,4426.666558,4228.205025,4254.871691,4248.717845,4232.307589,4233.33323
28,0,4217.948615,4218.974256,4232.820409,4220.512717,4218.974256,4221.538358,4218.461435,4223.58964,4431.281943,4233.33323,4261.538357,4248.717845,4241.538358,4235.384512
29,0,4218.461435,4218.974256,4231.794768,4215.897333,4219.999897,4224.102461,4219.999897,4224.102461,4428.71784,4232.307589,4253.333229,4249.743486,4240.512717,4234.871691
30,0,4215.897333,4213.846051,4228.717845,4217.435794,4218.974256,4224.102461,4216.922974,4214.358871,4424.615276,4215.897333,4244.10246,4247.179383,4226.153743,4228.717845
31,0,4225.128102,4225.640922,4231.794768,4228.205025,4229.743486,4230.256307,4226.666563,4220.512717,4434.871686,4216.922974,4257.435793,4247.692204,4234.358871,4233.33323
32,0,4228.205025,4228.205025,4236.410153,4236.410153,4236.410153,4237.435794,4233.84605,4236.410153,4446.666558,4233.84605,4264.61528,4249.743486,4242.051178,4234.871691
33,0,4213.846051,4211.281948,4231.281948,4229.230666,4221.538358,4233.33323,4222.051179,4225.640922,4439.999891,4231.281948,4248.717845,4247.179383,4222.051179,4217.435794
34,0,4208.717846,4206.153743,4225.128102,4224.102461,4213.846051,4227.692204,4218.974256,4212.82041,4433.333225,4226.666563,4247.692204,4244.615281,4223.58964,4215.384512
35,0,4215.897333,4208.717846,4226.153743,4219.487076,4217.435794,4228.717845,4228.717845,4222.051179,4441.538353,4235.384512,4262.563998,4245.640922,4247.179383,4232.307589
36,0,4214.358871,4206.666564,4229.743486,4214.871692,4221.025538,4232.307589,4228.205025,4230.769127,4445.640917,4235.384512,4264.61528,4249.230665,4249.230665,4236.922973
37,0,4214.358871,4213.33323,4233.33323,4224.102461,4229.230666,4235.897332,4228.205025,4232.307589,4443.076814,4232.820409,4262.051178,4258.461434,4241.538358,4232.820409
38,0,4216.922974,4209.743487,4234.358871,4226.666563,4226.666563,4231.794768,4229.743486,4229.743486,4443.076814,4231.794768,4264.10246,4259.999896,4238.974255,4233.84605
39,0,4212.307589,4196.410154,4233.84605,4213.846051,4211.794769,4228.717845,4222.051179,4227.179384,4443.076814,4222.051179,4261.538357,4256.410152,4233.84605,4237.435794
40,0,4217.435794,4207.692205,4236.410153,4217.948615,4216.922974,4233.84605,4222.051179,4228.205025,4446.666558,4217.948615,4264.10246,4260.512716,4235.384512,4246.666563
41,0,4215.897333,4211.794769,4235.384512,4226.153743,4219.999897,4229.230666,4223.07682,4221.538358,4446.666558,4218.974256,4261.538357,4256.410152,4233.33323,4243.076819
42,0,4203.589641,4196.922974,4228.205025,4214.358871,4203.589641,4214.871692,4213.33323,4208.205025,4439.999891,4212.82041,4247.179383,4245.128101,4220.512717,4226.666563
43,0,4205.640923,4204.102461,4229.743486,4210.769128,4213.846051,4222.051179,4219.487076,4219.487076,4449.743481,4221.025538,4252.307588,4250.256306,4227.179384,4229.743486
44,0,4211.794769,4214.358871,4231.794768,4220.512717,4234.358871,4237.435794,4231.794768,4238.461435,4461.538352,4234.871691,4268.205024,4255.897332,4240.512717,4237.948614
45,0,4200.512718,4199.999897,4220.512717,4213.846051,4222.051179,4230.256307,4222.051179,4223.58964,4449.23066,4222.051179,4261.538357,4243.58964,4232.820409,4226.666563
46,0,4191.794769,4197.948615,4215.384512,4206.666564,4208.717846,4223.07682,4214.358871,4210.256307,4442.563994,4208.717846,4252.820409,4241.025537,4226.153743,4222.051179
47,0,4207.692205,4216.410153,4227.692204,4217.948615,4219.999897,4235.384512,4230.769127,4228.717845,4461.538352,4225.128102,4266.153742,4250.769127,4236.922973,4236.922973
48,0,4218.974256,4215.384512,4235.384512,4227.179384,4225.640922,4234.871691,4233.84605,4234.871691,4464.615275,4227.179384,4266.153742,4250.769127,4234.871691,4236.410153
49,0,4206.153743,4196.922974,4225.640922,4215.384512,4211.281948,4217.948615,4217.948615,4212.82041,4443.076814,4198.461436,4245.128101,4242.051178,4214.871692,4215.384512
50,0,4203.07682,4203.589641,4223.07682,4209.230666,4212.307589,4219.999897,4218.461435,4208.717846,4441.538353,4199.999897,4247.692204,4244.615281,4221.025538,4218.974256
51,0,4226.153743,4228.717845,4234.358871,4227.179384,4228.205025,4233.84605,4233.84605,4228.717845,4460.512711,4233.84605,4270.256306,4259.999896,4247.692204,4246.666563
52,0,4229.743486,4229.230666,4237.435794,4229.230666,4226.666563,4228.205025,4232.820409,4230.256307,4462.051173,4235.384512,4270.256306,4264.10246,4252.820409,4251.794768
53,0,4211.794769,4213.33323,4229.743486,4213.846051,4213.33323,4214.358871,4222.563999,4217.435794,4452.307583,4213.846051,4261.538357,4257.948614,4242.051178,4242.051178
54,0,4219.999897,4214.358871,4230.769127,4224.615281,4215.384512,4219.487076,4226.153743,4223.07682,4455.384506,4221.538358,4273.846049,4259.487075,4245.128101,4245.640922
55,0,4233.33323,4222.051179,4235.897332,4235.384512,4222.051179,4232.307589,4232.307589,4233.84605,4461.538352,4237.948614,4277.948613,4263.589639,4250.256306,4249.230665
56,0,4224.102461,4218.974256,4233.33323,4221.538358,4217.435794,4227.692204,4225.128102,4226.153743,4458.461429,4231.794768,4266.153742,4263.076819,4245.640922,4245.640922
57,0,4214.871692,4213.33323,4229.743486,4217.948615,4213.33323,4214.358871,4215.897333,4214.871692,4456.410147,4221.538358,4262.051178,4259.487075,4238.461435,4241.538358
58,0,4217.435794,4215.384512,4231.794768,4226.666563,4218.461435,4220.512717,4217.948615,4218.461435,4459.999891,4225.640922,4264.61528,4259.487075,4233.84605,4235.897332
59,0,4220.512717,4221.025538,4233.84605,4222.563999,4223.07682,4232.820409,4224.102461,4222.563999,4462.051173,4234.358871,4264.10246,4258.974255,4235.897332,4233.33323
60,0,4212.82041,4213.33323,4228.717845,4215.897333,4209.743487,4219.487076,4217.948615,4212.307589,4458.461429,4222.051179,4259.999896,4249.230665,4231.794768,4228.717845
61,0,4210.256307,4208.717846,4226.153743,4218.461435,4204.102461,4210.256307,4211.794769,4204.615282,4457.948609,4209.230666,4259.487075,4250.256306,4227.692204,4230.256307
62,0,4228.717845,4227.692204,4235.897332,4231.794768,4223.58964,4224.615281,4217.948615,4213.33323,4461.025532,4221.025538,4264.61528,4262.563998,4239.487076,4243.58964
63,0,4235.897332,4231.794768,4237.435794,4235.897332,4222.563999,4224.615281,4218.974256,4217.948615,4459.999891,4224.615281,4264.61528,4257.435793,4242.051178,4243.076819
64,0,4221.538358,4215.897333,4231.281948,4222.563999,4209.230666,4214.871692,4215.384512,4214.358871,4463.589634,4216.922974,4258.974255,4249.743486,4230.256307,4235.897332
65,0,4223.07682,4221.538358,4241.025537,4219.487076,4223.07682,4224.102461,4224.102461,4224.102461,4476.410147,4228.717845,4265.128101,4262.563998,4236.410153,4245.128101
66,0,4236.922973,4239.487076,4248.717845,4232.820409,4231.281948,4233.33323,4232.820409,4236.922973,4480.512711,4241.025537,4275.897331,4270.256306,4254.35887,4253.84605
67,0,4235.897332,4236.922973,4238.461435,4237.435794,4217.948615,4228.717845,4229.743486,4234.871691,4474.871685,4234.358871,4274.87169,4265.128101,4251.281947,4247.692204
68,0,4224.102461,4217.948615,4230.769127,4225.128102,4213.846051,4226.666563,4228.205025,4226.153743,4473.333224,4227.179384,4268.717844,4260.512716,4230.769127,4236.922973
69,0,4216.410153,4211.281948,4231.281948,4216.410153,4219.999897,4230.769127,4228.717845,4218.461435,4473.846044,4222.563999,4258.974255,4250.769127,4224.102461,4230.769127
70,0,4218.461435,4225.128102,4230.769127,4224.615281,4223.58964,4228.717845,4221.538358,4213.846051,4473.846044,4215.897333,4248.205024,4246.666563,4228.205025,4233.33323
71,0,4228.717845,4236.922973,4229.230666,4233.33323,4219.999897,4219.999897,4214.358871,4213.33323,4473.846044,4208.717846,4243.076819,4249.743486,4221.538358,4235.384512
72,0,4234.358871,4232.820409,4230.769127,4230.256307,4214.358871,4217.948615,4216.410153,4211.281948,4471.794762,4204.615282,4242.051178,4246.153742,4210.769128,4231.281948
73,0,4235.384512,4232.820409,4233.33323,4229.230666,4218.974256,4221.025538,4220.512717,4215.897333,4475.384506,4213.846051,4245.128101,4246.153742,4215.384512,4227.692204
74,0,4235.384512,4238.974255,4234.358871,4232.820409,4220.512717,4219.487076,4219.487076,4217.435794,4478.974249,4217.948615,4243.076819,4249.230665,4215.897333,4221.538358
75,0,4234.358871,4234.871691,4231.794768,4231.794768,4214.358871,4214.871692,4214.871692,4207.179384,4475.897326,4202.051179,4238.974255,4249.230665,4202.564,4216.410153
76,0,4233.33323,4225.640922,4228.717845,4229.743486,4211.794769,4215.384512,4212.307589,4206.153743,4474.358865,4196.410154,4240.512717,4247.692204,4200.512718,4215.897333
77,0,4236.410153,4226.666563,4229.743486,4225.128102,4215.897333,4222.051179,4219.999897,4216.922974,4477.948608,4210.769128,4239.487076,4247.179383,4206.666564,4216.922974
78,0,4248.205024,4244.10246,4233.84605,4230.256307,4224.615281,4227.692204,4225.640922,4222.051179,4481.538352,4212.307589,4232.820409,4248.717845,4206.666564,4216.922974
79,0,4251.281947,4251.281947,4231.281948,4237.948614,4224.615281,4223.07682,4219.999897,4215.384512,4477.948608,4201.025538,4229.230666,4246.666563,4195.384513,4208.205025
80,0,4235.897332,4239.487076,4222.563999,4226.153743,4216.410153,4215.384512,4215.897333,4206.666564,4474.358865,4196.410154,4227.179384,4235.384512,4185.640923,4196.410154
81,0,4226.153743,4230.256307,4216.410153,4218.974256,4216.922974,4219.487076,4217.948615,4201.025538,4476.410147,4193.333231,4219.487076,4230.769127,4185.128103,4195.897333
82,0,4233.33323,4232.307589,4215.897333,4226.666563,4216.922974,4221.538358,4215.384512,4198.974256,4474.871685,4186.153744,4218.974256,4239.487076,4184.102462,4198.974256
83,0,4246.666563,4239.487076,4226.153743,4233.33323,4216.410153,4220.512717,4214.358871,4209.743487,4480.512711,4194.358872,4232.820409,4250.256306,4189.743487,4202.564
84,0,4248.717845,4240.512717,4232.820409,4231.281948,4218.974256,4219.999897,4216.922974,4216.922974,4489.74348,4203.589641,4236.410153,4246.666563,4199.487077,4204.615282
85,0,4234.358871,4228.717845,4222.051179,4221.538358,4212.307589,4215.384512,4213.846051,4209.230666,4483.076813,4193.333231,4219.999897,4235.897332,4198.461436,4198.974256
86,0,4235.897332,4234.358871,4218.461435,4221.538358,4217.948615,4222.051179,4219.487076,4209.230666,4478.461429,4192.82041,4217.948615,4243.076819,4196.410154,4202.564
87,0,4254.35887,4259.487075,4233.33323,4236.922973,4235.897332,4237.435794,4233.84605,4223.58964,4493.846044,4208.717846,4233.84605,4259.487075,4204.615282,4215.384512
88,0,4248.717845,4255.897332,4234.358871,4235.897332,4225.128102,4231.794768,4227.692204,4217.948615,4494.358864,4209.230666,4229.230666,4256.922973,4205.640923,4210.769128
89,0,4231.794768,4233.84605,4217.948615,4219.487076,4210.256307,4215.897333,4211.794769,4198.461436,4475.384506,4195.897333,4213.846051,4245.128101,4195.897333,4199.999897
90,0,4233.84605,4233.84605,4215.897333,4223.07682,4218.461435,4215.897333,4213.33323,4198.461436,4476.410147,4195.897333,4216.410153,4247.179383,4188.205026,4198.974256
91,0,4234.358871,4235.384512,4217.948615,4228.205025,4213.33323,4214.358871,4212.82041,4200.512718,4488.205018,4199.999897,4217.948615,4248.717845,4183.589641,4196.922974
92,0,4230.256307,4229.743486,4217.435794,4222.563999,4205.128102,4208.205025,4206.666564,4199.999897,4491.794762,4199.487077,4217.435794,4247.692204,4191.794769,4196.922974
93,0,4237.435794,4233.33323,4220.512717,4225.640922,4214.871692,4212.307589,4213.33323,4204.102461,4489.74348,4202.051179,4223.07682,4250.256306,4199.999897,4202.564
94,0,4245.128101,4236.922973,4220.512717,4227.179384,4218.974256,4217.435794,4219.999897,4209.743487,4487.179377,4202.564,4223.58964,4248.717845,4196.410154,4202.564
95,0,4244.10246,4232.820409,4220.512717,4218.461435,4215.897333,4217.435794,4216.922974,4213.846051,4489.230659,4200.512718,4226.153743,4247.692204,4194.871692,4202.564
96,0,4238.461435,4231.281948,4222.051179,4213.846051,4212.82041,4215.897333,4214.358871,4207.179384,4491.281941,4199.487077,4227.692204,4244.615281,4198.974256,4204.102461
97,0,4241.538358,4234.358871,4221.025538,4225.128102,4211.794769,4214.871692,4215.384512,4201.025538,4491.281941,4204.615282,4226.153743,4241.538358,4202.564,4202.564
98,0,4244.615281,4234.871691,4217.948615,4229.230666,4215.897333,4212.82041,4213.33323,4205.640923,4491.794762,4212.82041,4228.717845,4240.512717,4198.974256,4201.538359
99,0,4241.025537,4233.84605,4218.974256,4223.07682,4214.871692,4213.846051,4213.33323,4207.179384,4494.358864,4215.897333,4228.717845,4237.948614,4201.025538,4208.205025
100,0,4237.948614,4233.33323,4219.487076,4219.487076,4210.256307,4213.33323,4215.384512,4206.153743,4493.846044,4215.897333,4223.07682,4236.922973,4207.179384,4215.384512
101,0,4241.025537,4233.84605,4218.974256,4222.051179,4212.82041,4212.82041,4214.358871,4211.281948,4491.794762,4215.384512,4223.07682,4241.025537,4207.179384,4214.871692
102,0,4241.025537,4232.307589,4223.58964,4224.615281,4215.384512,4214.871692,4212.82041,4214.871692,4491.281941,4215.384512,4232.307589,4245.640922,4209.743487,4215.384512
103,0,4235.384512,4230.769127,4223.58964,4223.58964,4216.410153,4215.897333,4214.871692,4211.794769,4491.281941,4214.871692,4232.307589,4243.58964,4215.897333,4213.846051
104,0,4234.358871,4229.743486,4219.487076,4221.538358,4216.922974,4217.435794,4219.487076,4216.922974,4493.846044,4213.846051,4226.153743,4239.999896,4210.769128,4208.717846
105,0,4228.717845,4217.948615,4215.384512,4215.384512,4205.128102,4215.384512,4214.871692,4214.871692,4492.820403,4204.102461,4215.897333,4231.794768,4195.384513,4201.538359
106,0,4225.128102,4213.33323,4217.948615,4213.33323,4201.538359,4213.33323,4210.769128,4208.205025,4492.307582,4199.999897,4214.358871,4231.794768,4195.384513,4201.538359
107,0,4232.820409,4223.58964,4224.615281,4218.974256,4209.230666,4216.410153,4215.897333,4214.871692,4499.99989,4208.205025,4224.615281,4243.076819,4204.615282,4209.230666
108,0,4233.33323,4219.999897,4221.025538,4217.435794,4202.051179,4216.410153,4215.384512,4215.897333,4505.640915,4214.358871,4225.128102,4238.974255,4203.07682,4209.743487
109,0,4227.692204,4214.358871,4217.435794,4217.948615,4201.025538,4216.410153,4213.846051,4214.358871,4504.102454,4215.897333,4224.102461,4230.769127,4203.589641,4208.717846
110,0,4236.410153,4230.256307,4224.102461,4225.128102,4216.922974,4224.615281,4218.974256,4221.025538,4504.102454,4218.974256,4230.769127,4241.025537,4208.717846,4214.871692
111,0,4248.717845,4234.358871,4225.640922,4223.58964,4220.512717,4225.128102,4219.999897,4224.615281,4508.205018,4220.512717,4234.358871,4248.717845,4214.871692,4217.948615
112,0,4243.076819,4216.922974,4215.897333,4218.461435,4210.256307,4215.897333,4212.82041,4213.846051,4507.692197,4215.384512,4228.205025,4239.487076,4213.33323,4213.33323
113,0,4238.974255,4219.999897,4214.358871,4225.128102,4213.846051,4221.025538,4214.358871,4211.281948,4505.128095,4214.871692,4226.666563,4240.512717,4206.153743,4214.358871
114,0,4249.230665,4235.897332,4222.051179,4231.281948,4225.128102,4233.84605,4221.025538,4218.461435,4506.666556,4217.948615,4232.307589,4248.717845,4207.179384,4217.948615
115,0,4250.256306,4231.794768,4221.538358,4228.205025,4223.58964,4230.769127,4219.487076,4216.922974,4506.666556,4218.461435,4226.666563,4244.615281,4212.307589,4215.384512
116,0,4238.974255,4227.692204,4216.922974,4228.717845,4213.846051,4226.153743,4217.435794,4214.871692,4505.640915,4215.384512,4221.538358,4240.512717,4213.33323,4215.897333
117,0,4237.435794,4232.307589,4217.948615,4230.256307,4214.871692,4231.794768,4223.07682,4218.974256,4506.666556,4213.33323,4227.179384,4244.10246,4210.769128,4217.435794
118,0,4245.640922,4231.281948,4223.07682,4229.230666,4227.179384,4232.820409,4226.666563,4220.512717,4507.692197,4216.410153,4231.281948,4246.153742,4213.33323,4215.897333
119,0,4245.640922,4231.794768,4223.07682,4229.743486,4226.666563,4228.205025,4224.102461,4217.948615,4505.640915,4217.948615,4229.743486,4247.179383,4216.922974,4217.948615
120,0,4236.922973,4230.769127,4216.922974,4228.717845,4214.358871,4227.692204,4221.025538,4216.410153,4504.102454,4214.871692,4231.281948,4246.666563,4214.358871,4217.948615
121,0,4231.281948,4217.948615,4215.897333,4225.128102,4211.794769,4227.179384,4220.512717,4217.435794,4505.640915,4213.846051,4232.820409,4246.153742,4214.358871,4214.871692
122,0,4232.307589,4214.358871,4216.922974,4220.512717,4217.435794,4225.640922,4222.051179,4215.897333,4505.640915,4214.871692,4229.230666,4246.153742,4212.82041,4214.871692
123,0,4235.384512,4226.153743,4215.897333,4219.487076,4217.948615,4229.230666,4226.666563,4215.897333,4504.102454,4216.922974,4229.743486,4244.10246,4209.230666,4218.461435
124,0,4244.10246,4235.384512,4223.58964,4229.230666,4222.051179,4233.84605,4231.281948,4225.128102,4509.230659,4223.58964,4239.487076,4247.179383,4218.461435,4226.666563
125,0,4251.794768,4236.922973,4229.230666,4236.922973,4232.307589,4234.358871,4230.769127,4233.84605,4516.410146,4231.281948,4246.153742,4252.307588,4230.256307,4233.33323
126,0,4245.640922,4235.897332,4218.974256,4234.871691,4235.897332,4235.897332,4229.743486,4231.794768,4513.846043,4231.794768,4242.051178,4249.230665,4225.128102,4232.307589
127,0,4233.84605,4229.230666,4210.769128,4230.256307,4228.717845,4235.384512,4228.205025,4226.153743,4508.205018,4228.717845,4239.999896,4245.640922,4215.897333,4228.205025
128,0,4226.666563,4218.974256,4212.82041,4226.153743,4210.769128,4229.743486,4219.999897,4218.461435,4508.205018,4222.051179,4237.435794,4244.615281,4214.358871,4221.538358
0,0,4229.743486,4217.435794,4215.384512,4228.205025,4204.102461,4229.230666,4216.922974,4215.897333,4508.717838,4214.871692,4235.384512,4246.666563,4216.410153,4219.999897
1,0,4236.922973,4226.153743,4217.435794,4231.281948,4216.922974,4231.794768,4223.07682,4222.563999,4509.743479,4219.487076,4239.487076,4252.307588,4222.051179,4228.205025
2,0,4237.435794,4229.743486,4218.974256,4222.051179,4217.948615,4227.179384,4220.512717,4222.563999,4511.281941,4226.666563,4238.974255,4255.384511,4222.051179,4236.410153
3,0,4234.358871,4224.102461,4218.974256,4215.384512,4207.692205,4226.153743,4219.487076,4223.07682,4511.281941,4225.128102,4234.358871,4251.794768,4216.410153,4230.256307
4,0,4233.84605,4218.974256,4220.512717,4226.153743,4211.794769,4231.281948,4229.230666,4226.666563,4509.230659,4219.487076,4230.256307,4249.743486,4213.846051,4219.999897
5,0,4232.307589,4222.563999,4221.025538,4235.384512,4223.07682,4232.307589,4226.666563,4223.07682,4507.692197,4216.410153,4224.102461,4249.230665,4206.666564,4216.922974
6,0,4226.666563,4219.999897,4215.897333,4223.58964,4214.358871,4227.179384,4213.846051,4213.33323,4508.205018,4212.82041,4223.58964,4244.615281,4196.410154,4213.33323
7,0,4228.717845,4217.948615,4214.871692,4221.025538,4206.153743,4228.717845,4215.384512,4216.410153,4516.410146,4215.384512,4233.33323,4245.128101,4206.666564,4216.410153
8,0,4239.487076,4231.281948,4218.974256,4233.84605,4215.897333,4228.205025,4223.07682,4227.692204,4520.51271,4225.128102,4238.974255,4250.769127,4222.051179,4229.743486
9,0,4233.84605,4230.256307,4215.897333,4225.128102,4213.846051,4217.435794,4217.948615,4222.051179,4511.794761,4219.999897,4229.743486,4247.179383,4213.846051,4229.230666
10,0,4229.743486,4222.563999,4214.358871,4211.794769,4208.717846,4219.999897,4214.871692,4216.410153,4512.307582,4215.897333,4230.256307,4246.666563,4210.256307,4224.615281
11,0,4243.58964,4234.871691,4221.025538,4225.640922,4220.512717,4234.358871,4224.615281,4225.128102,4521.538351,4229.743486,4243.076819,4253.333229,4223.07682,4237.948614
12,0,4248.205024,4246.153742,4223.07682,4241.538358,4230.769127,4236.922973,4234.358871,4235.384512,4526.666556,4236.922973,4244.10246,4255.384511,4225.128102,4248.205024
13,0,4233.33323,4233.33323,4215.897333,4229.743486,4219.999897,4230.256307,4228.717845,4226.666563,4519.487069,4221.538358,4231.794768,4247.692204,4214.358871,4232.820409
14,0,4223.07682,4217.435794,4211.794769,4213.846051,4203.07682,4227.692204,4217.435794,4215.384512,4510.2563,4210.769128,4227.692204,4236.922973,4211.794769,4216.922974
15,0,4226.666563,4217.435794,4213.33323,4219.999897,4206.666564,4230.769127,4219.487076,4222.563999,4514.871684,4219.999897,4230.769127,4237.435794,4211.794769,4222.051179
16,0,4231.281948,4224.615281,4213.846051,4229.230666,4218.974256,4232.820409,4231.281948,4233.33323,4525.128094,4231.281948,4232.307589,4245.128101,4216.410153,4231.794768
17,0,4231.794768,4225.640922,4213.33323,4219.487076,4216.922974,4228.717845,4229.230666,4232.820409,4525.128094,4233.84605,4238.974255,4248.205024,4231.281948,4236.410153
18,0,4229.743486,4217.435794,4212.307589,4211.794769,4204.615282,4223.58964,4216.410153,4225.128102,4518.461428,4230.769127,4244.10246,4244.615281,4236.410153,4237.435794
19,0,4229.743486,4222.051179,4214.358871,4226.153743,4216.922974,4229.743486,4221.538358,4227.179384,4519.487069,4231.281948,4244.615281,4246.666563,4233.33323,4241.538358
20,0,4231.281948,4236.410153,4218.461435,4235.897332,4233.33323,4236.922973,4234.358871,4234.871691,4522.563992,4232.307589,4247.179383,4250.769127,4232.307589,4246.666563
21,0,4228.205025,4231.794768,4215.897333,4231.794768,4220.512717,4235.384512,4231.794768,4231.794768,4519.999889,4226.666563,4247.692204,4248.205024,4229.230666,4244.10246
22,0,4230.256307,4222.563999,4215.897333,4229.230666,4213.33323,4235.384512,4228.717845,4231.794768,4522.051171,4230.769127,4245.640922,4251.281947,4233.33323,4238.974255
23,0,4228.717845,4222.563999,4213.846051,4222.051179,4219.999897,4236.410153,4228.205025,4231.281948,4523.589633,4232.820409,4237.435794,4246.153742,4230.769127,4231.794768
24,0,4214.871692,4216.410153,4204.615282,4216.410153,4216.922974,4232.820409,4219.487076,4221.538358,4522.051171,4221.025538,4228.717845,4234.358871,4214.871692,4227.179384
25,0,4211.794769,4213.33323,4204.615282,4219.999897,4212.82041,4231.794768,4218.974256,4221.025538,4520.51271,4220.512717,4231.281948,4237.948614,4218.461435,4229.230666
26,0,4223.07682,4226.666563,4214.358871,4222.051179,4219.487076,4235.897332,4231.794768,4233.33323,4529.230658,4234.871691,4236.922973,4247.692204,4234.871691,4234.358871
27,0,4227.179384,4234.358871,4212.307589,4215.897333,4221.025538,4235.897332,4231.281948,4236.922973,4535.897325,4237.948614,4235.897332,4247.692204,4233.84605,4236.922973
28,0,4224.102461,4222.051179,4205.128102,4215.897333,4215.384512,4231.794768,4218.461435,4228.717845,4528.717838,4231.281948,4235.384512,4244.10246,4228.717845,4236.410153
29,0,4226.666563,4218.461435,4212.82041,4222.563999,4216.922974,4231.794768,4220.512717,4224.615281,4522.051171,4227.692204,4236.922973,4248.205024,4231.281948,4232.820409
30,0,4228.205025,4230.256307,4218.974256,4227.179384,4218.461435,4234.358871,4230.256307,4229.230666,4525.640915,4229.743486,4236.922973,4251.281947,4231.281948,4233.33323
31,0,4223.07682,4230.256307,4208.717846,4221.538358,4213.846051,4233.33323,4224.102461,4229.230666,4526.153735,4233.84605,4234.871691,4245.640922,4230.769127,4239.487076
32,0,4219.487076,4219.999897,4200.512718,4219.487076,4212.82041,4229.743486,4211.281948,4219.487076,4523.076812,4229.743486,4233.84605,4238.461435,4229.230666,4239.999896
33,0,4218.461435,4219.487076,4203.589641,4223.58964,4214.871692,4230.256307,4212.307589,4218.461435,4525.640915,4221.025538,4232.307589,4238.974255,4224.102461,4232.307589
34,0,4217.948615,4217.948615,4208.205025,4219.999897,4214.358871,4234.871691,4223.58964,4229.743486,4526.666556,4225.128102,4230.769127,4245.128101,4221.538358,4227.179384
35,0,4223.58964,4215.384512,4210.256307,4219.999897,4216.922974,4235.384512,4226.666563,4231.281948,4523.076812,4229.230666,4237.948614,4245.640922,4224.102461,4233.33323
36,0,4233.33323,4228.205025,4214.871692,4227.179384,4218.974256,4233.33323,4227.179384,4231.281948,4527.692197,4228.205025,4249.743486,4247.692204,4232.307589,4243.58964
37,0,4235.384512,4235.384512,4219.999897,4221.025538,4214.358871,4233.33323,4231.281948,4237.435794,4528.717838,4231.794768,4247.692204,4250.256306,4236.410153,4242.563999
38,0,4223.58964,4221.538358,4211.794769,4214.871692,4211.794769,4232.307589,4227.179384,4232.307589,4522.051171,4233.33323,4237.948614,4244.10246,4227.179384,4229.743486
39,0,4217.435794,4218.461435,4202.564,4229.230666,4217.948615,4231.281948,4221.025538,4227.692204,4527.179376,4233.33323,4243.58964,4242.563999,4226.153743,4228.717845
40,0,4222.051179,4230.256307,4205.640923,4232.820409,4223.07682,4234.358871,4223.07682,4234.871691,4534.871684,4237.435794,4252.307588,4249.230665,4233.33323,4241.025537
41,0,4216.410153,4218.974256,4205.128102,4210.769128,4209.743487,4232.307589,4221.538358,4231.281948,4524.102453,4232.820409,4245.640922,4243.076819,4224.615281,4232.820409
42,0,4216.922974,4209.743487,4204.102461,4216.922974,4204.102461,4230.769127,4221.025538,4233.33323,4522.563992,4227.179384,4242.051178,4241.538358,4219.999897,4224.615281
43,0,4231.281948,4230.769127,4215.384512,4239.487076,4222.563999,4241.025537,4232.820409,4248.205024,4536.922966,4235.384512,4250.769127,4256.410152,4235.384512,4240.512717
44,0,4236.922973,4242.051178,4217.948615,4229.743486,4228.717845,4247.179383,4234.871691,4243.58964,4532.820402,4238.461435,4252.307588,4259.999896,4241.025537,4251.281947
45,0,4229.230666,4231.281948,4203.07682,4213.33323,4212.82041,4239.487076,4226.153743,4226.666563,4518.974248,4229.230666,4244.615281,4246.153742,4230.769127,4245.128101
46,0,4231.281948,4230.769127,4204.615282,4224.615281,4213.33323,4236.922973,4223.58964,4227.179384,4523.589633,4228.717845,4245.128101,4246.666563,4232.307589,4245.640922
47,0,4241.025537,4242.563999,4218.461435,4237.435794,4229.230666,4243.58964,4222.051179,4233.33323,4530.256299,4234.358871,4247.692204,4255.384511,4238.461435,4252.307588
48,0,4231.794768,4232.307589,4209.743487,4228.205025,4224.102461,4237.435794,4214.358871,4219.487076,4517.948607,4213.846051,4236.410153,4241.538358,4218.461435,4237.948614
49,0,4214.358871,4213.846051,4192.30759,4215.897333,4212.307589,4229.743486,4208.717846,4208.205025,4510.76912,4192.30759,4223.07682,4228.717845,4197.435795,4222.563999
50,0,4220.512717,4223.58964,4198.461436,4218.461435,4215.384512,4237.948614,4216.410153,4221.025538,4522.051171,4212.307589,4232.307589,4244.615281,4215.897333,4234.871691
51,0,4236.922973,4239.487076,4214.358871,4233.84605,4221.025538,4241.538358,4227.179384,4238.461435,4528.205017,4241.538358,4250.769127,4259.487075,4246.153742,4255.384511
52,0,4236.922973,4234.871691,4210.769128,4234.871691,4217.435794,4233.84605,4224.615281,4234.358871,4523.589633,4233.33323,4248.205024,4250.769127,4241.025537,4252.307588
53,0,4224.615281,4227.692204,4199.999897,4218.974256,4213.33323,4229.743486,4215.384512,4216.410153,4515.897325,4212.307589,4230.769127,4238.461435,4218.461435,4231.281948
54,0,4219.999897,4229.743486,4202.564,4216.410153,4213.33323,4232.307589,4216.410153,4213.33323,4513.846043,4210.769128,4226.153743,4241.538358,4212.307589,4228.205025
55,0,4223.07682,4230.256307,4206.153743,4222.563999,4214.358871,4232.820409,4219.999897,4227.179384,4519.999889,4217.948615,4236.922973,4249.230665,4219.487076,4245.640922
56,0,4223.07682,4225.640922,4201.025538,4217.435794,4212.307589,4229.230666,4215.897333,4227.692204,4524.102453,4215.384512,4239.487076,4243.58964,4225.128102,4253.333229
57,0,4223.07682,4227.179384,4203.589641,4218.461435,4213.33323,4228.717845,4214.871692,4215.897333,4520.51271,4210.256307,4232.307589,4231.794768,4226.666563,4245.128101
58,0,4226.153743,4230.769127,4210.256307,4228.205025,4215.897333,4229.743486,4217.948615,4219.487076,4519.999889,4218.461435,4229.743486,4236.410153,4227.179384,4242.563999
59,0,4230.256307,4232.307589,4209.743487,4232.307589,4214.871692,4233.84605,4222.563999,4232.820409,4524.102453,4230.769127,4238.461435,4248.717845,4228.205025,4252.820409
60,0,4233.33323,4237.435794,4211.794769,4232.307589,4224.615281,4236.922973,4226.666563,4235.897332,4531.794761,4234.871691,4246.153742,4243.58964,4232.820409,4257.435793
61,0,4233.84605,4242.051178,4212.82041,4231.794768,4233.84605,4239.487076,4232.307589,4236.922973,4539.487068,4236.922973,4245.640922,4233.84605,4235.384512,4253.84605
62,0,4223.07682,4233.33323,4205.640923,4221.538358,4219.999897,4238.974255,4229.743486,4235.897332,4530.256299,4233.84605,4245.128101,4229.743486,4224.102461,4244.10246
63,0,4213.33323,4226.666563,4199.487077,4215.897333,4212.82041,4236.410153,4222.563999,4230.769127,4519.999889,4226.153743,4242.563999,4227.179384,4213.33323,4232.820409
64,0,4220.512717,4237.435794,4203.07682,4223.07682,4230.769127,4237.435794,4224.615281,4234.358871,4527.179376,4231.281948,4237.948614,4228.717845,4223.58964,4237.435794
65,0,4217.435794,4230.769127,4202.564,4217.948615,4224.615281,4233.84605,4222.563999,4227.692204,4528.205017,4229.743486,4230.769127,4220.512717,4224.102461,4241.025537
66,0,4211.794769,4213.846051,4199.999897,4211.794769,4206.666564,4231.281948,4216.922974,4217.948615,4519.487069,4216.410153,4230.769127,4211.794769,4211.794769,4231.794768
67,0,4224.102461,4224.615281,4207.692205,4224.102461,4219.999897,4241.025537,4223.07682,4228.205025,4522.051171,4221.538358,4236.922973,4223.07682,4218.974256,4233.33323
68,0,4236.410153,4242.051178,4215.384512,4233.84605,4235.897332,4245.128101,4228.205025,4233.33323,4526.666556,4227.692204,4239.487076,4230.769127,4226.153743,4247.692204
69,0,4233.33323,4242.051178,4215.897333,4226.666563,4230.769127,4236.410153,4219.999897,4225.128102,4524.102453,4216.410153,4241.025537,4222.563999,4218.974256,4251.281947
70,0,4222.563999,4227.692204,4212.307589,4220.512717,4216.410153,4227.179384,4213.33323,4223.58964,4521.02553,4209.743487,4237.948614,4216.410153,4215.897333,4239.999896
71,0,4215.384512,4219.487076,4206.153743,4219.487076,4207.692205,4231.794768,4216.922974,4228.717845,4523.589633,4219.487076,4231.281948,4217.435794,4218.461435,4232.820409
72,0,4212.307589,4223.58964,4199.487077,4212.82041,4207.692205,4238.461435,4223.58964,4230.256307,4527.179376,4226.666563,4228.717845,4215.897333,4216.410153,4229.230666
73,0,4218.974256,4229.743486,4202.051179,4213.33323,4219.487076,4238.461435,4227.692204,4231.794768,4526.666556,4231.281948,4235.897332,4216.410153,4216.922974,4232.307589
74,0,4223.58964,4229.743486,4205.640923,4222.051179,4228.717845,4234.871691,4222.051179,4234.358871,4525.128094,4233.33323,4239.487076,4216.410153,4219.999897,4233.33323
75,0,4218.461435,4227.692204,4199.487077,4220.512717,4224.102461,4234.358871,4216.410153,4232.307589,4524.615274,4224.102461,4235.384512,4212.307589,4216.922974,4219.999897
76,0,4218.974256,4232.307589,4203.07682,4216.922974,4222.051179,4235.897332,4224.615281,4229.230666,4525.128094,4216.410153,4235.384512,4212.307589,4214.358871,4212.307589
77,0,4229.743486,4235.384512,4215.897333,4221.025538,4227.692204,4233.33323,4230.769127,4231.794768,4525.128094,4216.922974,4232.307589,4217.435794,4219.487076,4226.153743
78,0,4232.820409,4229.230666,4212.82041,4222.051179,4225.128102,4231.794768,4222.563999,4231.281948,4524.102453,4218.461435,4229.230666,4217.435794,4222.051179,4232.307589
79,0,4227.692204,4224.102461,4201.025538,4217.948615,4210.256307,4232.307589,4212.82041,4220.512717,4520.51271,4216.922974,4231.281948,4212.82041,4217.948615,4222.051179
80,0,4230.769127,4227.692204,4201.538359,4217.435794,4212.307589,4231.281948,4218.461435,4221.025538,4521.538351,4223.07682,4232.307589,4212.307589,4221.025538,4223.07682
81,0,4233.84605,4233.84605,4204.615282,4218.974256,4228.717845,4233.84605,4229.230666,4233.84605,4524.615274,4232.307589,4231.794768,4216.922974,4228.205025,4231.281948
82,0,4228.717845,4232.307589,4203.589641,4219.999897,4234.358871,4238.974255,4230.256307,4237.948614,4527.692197,4232.307589,4236.922973,4216.922974,4226.666563,4226.666563
83,0,4228.717845,4234.358871,4206.666564,4221.025538,4234.871691,4244.615281,4229.743486,4243.076819,4531.794761,4233.84605,4245.640922,4215.897333,4227.692204,4226.153743
84,0,4234.358871,4237.435794,4206.666564,4217.948615,4232.820409,4246.153742,4231.281948,4246.153742,4529.230658,4236.410153,4244.10246,4220.512717,4232.820409,4234.358871
85,0,4233.33323,4231.281948,4201.025538,4223.07682,4225.128102,4235.897332,4230.769127,4235.384512,4521.538351,4231.794768,4236.410153,4221.025538,4231.281948,4232.820409
86,0,4228.205025,4225.640922,4202.564,4228.717845,4225.128102,4231.794768,4230.256307,4234.871691,4523.076812,4229.743486,4236.922973,4217.948615,4227.179384,4227.179384
87,0,4232.307589,4231.281948,4213.846051,4221.025538,4234.358871,4242.563999,4235.384512,4249.743486,4529.743479,4240.512717,4247.692204,4225.640922,4231.794768,4231.281948
88,0,4235.897332,4236.922973,4215.897333,4220.512717,4226.153743,4239.999896,4233.33323,4249.743486,4528.205017,4243.076819,4250.769127,4233.84605,4235.384512,4235.897332
89,0,4230.769127,4229.230666,4205.128102,4229.743486,4215.897333,4229.743486,4230.769127,4241.538358,4521.02553,4232.820409,4244.10246,4229.230666,4231.281948,4231.794768
90,0,4229.230666,4223.58964,4205.640923,4226.666563,4231.794768,4238.974255,4237.948614,4249.230665,4523.076812,4236.410153,4243.076819,4221.538358,4230.769127,4231.794768
91,0,4232.307589,4227.179384,4215.384512,4215.384512,4238.461435,4248.205024,4238.974255,4253.333229,4527.179376,4242.563999,4245.128101,4221.025538,4232.820409,4232.820409
92,0,4228.717845,4221.025538,4210.769128,4215.897333,4218.461435,4234.871691,4229.230666,4235.897332,4517.948607,4224.615281,4234.358871,4219.999897,4219.487076,4222.563999
93,0,4225.640922,4213.33323,4203.589641,4220.512717,4209.743487,4227.179384,4225.640922,4228.717845,4510.2563,4208.205025,4226.153743,4214.358871,4209.743487,4217.948615
94,0,4229.743486,4221.025538,4210.769128,4217.435794,4224.615281,4237.948614,4232.307589,4245.128101,4521.02553,4222.051179,4235.897332,4216.410153,4223.07682,4228.205025
95,0,4236.410153,4237.435794,4217.435794,4223.58964,4240.512717,4249.230665,4237.435794,4255.384511,4530.76912,4244.615281,4253.333229,4227.179384,4236.922973,4237.435794
96,0,4236.922973,4237.948614,4212.82041,4230.769127,4234.871691,4245.128101,4236.922973,4248.717845,4525.128094,4245.640922,4248.717845,4225.640922,4236.410153,4235.897332
97,0,4230.256307,4219.999897,4206.666564,4222.051179,4216.922974,4231.794768,4230.256307,4242.051178,4521.02553,4232.820409,4231.794768,4212.82041,4228.717845,4228.717845
98,0,4235.897332,4222.051179,4214.358871,4222.563999,4229.230666,4236.410153,4232.307589,4248.205024,4525.640915,4237.948614,4238.461435,4221.538358,4228.717845,4230.256307
99,0,4249.230665,4238.461435,4219.999897,4241.538358,4251.281947,4247.692204,4242.563999,4257.948614,4527.692197,4252.307588,4251.794768,4234.871691,4237.435794,4239.999896
100,0,4235.384512,4228.205025,4204.615282,4234.358871,4232.820409,4236.922973,4237.948614,4248.717845,4517.948607,4236.410153,4234.871691,4215.384512,4226.666563,4228.205025
101,0,4216.410153,4215.384512,4197.948615,4209.743487,4216.410153,4230.769127,4229.743486,4237.435794,4513.333223,4217.435794,4219.999897,4202.564,4208.205025,4207.692205
102,0,4232.307589,4233.84605,4216.922974,4224.102461,4245.128101,4247.179383,4234.358871,4248.717845,4523.589633,4230.256307,4238.974255,4223.58964,4222.051179,4221.538358
103,0,4242.563999,4241.538358,4218.461435,4242.563999,4248.717845,4248.205024,4235.384512,4253.84605,4527.179376,4239.487076,4242.563999,4229.743486,4233.33323,4234.871691
104,0,4216.922974,4218.461435,4197.948615,4223.58964,4214.871692,4230.769127,4227.692204,4241.538358,4519.999889,4227.179384,4217.435794,4210.769128,4211.281948,4213.33323
105,0,4210.256307,4214.871692,4200.512718,4213.846051,4220.512717,4230.256307,4228.717845,4244.10246,4522.051171,4228.205025,4217.435794,4209.230666,4210.256307,4210.769128
106,0,4229.743486,4227.692204,4216.410153,4232.307589,4243.58964,4237.948614,4234.871691,4255.897332,4528.717838,4239.999896,4233.84605,4221.025538,4234.358871,4235.384512
107,0,4226.666563,4222.563999,4210.769128,4231.794768,4227.692204,4231.794768,4230.256307,4246.666563,4522.051171,4229.230666,4231.794768,4218.461435,4229.743486,4232.820409
108,0,4211.794769,4213.846051,4201.538359,4215.384512,4215.897333,4229.230666,4226.153743,4239.487076,4517.435787,4219.999897,4227.179384,4214.871692,4219.487076,4215.897333
109,0,4217.948615,4219.487076,4207.179384,4219.999897,4235.384512,4238.461435,4232.820409,4249.230665,4524.615274,4231.281948,4228.205025,4218.974256,4228.205025,4218.461435
110,0,4222.051179,4222.051179,4205.640923,4225.128102,4232.820409,4239.999896,4231.794768,4247.179383,4522.051171,4232.307589,4219.999897,4216.922974,4226.153743,4218.974256
111,0,4208.717846,4211.794769,4195.384513,4212.307589,4214.871692,4231.281948,4218.974256,4230.769127,4508.205018,4221.538358,4217.948615,4212.82041,4216.922974,4212.82041
112,0,4210.769128,4216.922974,4199.999897,4216.410153,4228.205025,4231.281948,4220.512717,4230.256307,4508.717838,4228.205025,4228.205025,4215.384512,4226.153743,4218.461435
113,0,4223.07682,4226.153743,4209.743487,4231.281948,4239.999896,4236.922973,4231.281948,4244.10246,4521.538351,4237.948614,4234.358871,4217.435794,4235.897332,4228.205025
114,0,4218.461435,4217.435794,4204.102461,4223.58964,4223.07682,4233.33323,4229.230666,4246.153742,4522.051171,4232.820409,4235.897332,4214.871692,4227.692204,4227.692204
115,0,4217.948615,4218.974256,4203.07682,4218.974256,4218.461435,4230.256307,4224.615281,4245.128101,4520.51271,4232.307589,4234.871691,4215.897333,4228.205025,4229.230666
116,0,4228.205025,4231.794768,4210.256307,4229.230666,4232.820409,4232.307589,4227.179384,4247.179383,4524.102453,4234.871691,4231.794768,4218.461435,4236.410153,4228.205025
117,0,4225.640922,4227.179384,4209.743487,4228.205025,4237.948614,4230.769127,4227.692204,4242.051178,4518.461428,4232.820409,4232.820409,4217.948615,4234.871691,4219.999897
118,0,4213.846051,4212.307589,4199.487077,4216.922974,4226.666563,4228.717845,4227.179384,4232.307589,4512.307582,4229.743486,4231.794768,4215.897333,4228.205025,4216.922974
119,0,4217.435794,4212.82041,4196.922974,4213.846051,4217.435794,4228.205025,4228.717845,4233.33323,4517.435787,4227.692204,4230.769127,4214.358871,4226.666563,4223.58964
120,0,4238.461435,4225.128102,4208.717846,4222.051179,4224.615281,4230.769127,4230.769127,4243.58964,4523.076812,4232.307589,4239.487076,4223.07682,4239.487076,4244.10246
121,0,4261.025537,4234.871691,4222.051179,4231.281948,4232.307589,4232.307589,4231.794768,4249.743486,4521.02553,4235.897332,4248.205024,4232.820409,4246.153742,4268.205024
122,0,4280.512716,4244.615281,4229.230666,4236.410153,4230.256307,4231.281948,4232.307589,4250.769127,4522.051171,4233.84605,4248.205024,4235.897332,4244.615281,4287.179382
123,0,4303.076818,4257.948614,4233.84605,4241.538358,4231.281948,4231.794768,4235.384512,4250.769127,4517.948607,4232.307589,4246.666563,4240.512717,4257.948614,4305.1281
124,0,4318.461433,4267.179383,4235.384512,4250.256306,4232.307589,4233.33323,4234.871691,4249.230665,4508.717838,4233.84605,4246.153742,4241.538358,4265.640921,4319.999894
125,0,4317.435792,4262.563998,4232.820409,4252.307588,4227.692204,4232.820409,4230.769127,4247.179383,4514.358864,4229.230666,4245.128101,4236.410153,4253.84605,4327.692202
126,0,4312.820407,4262.051178,4228.717845,4247.179383,4234.358871,4235.384512,4232.307589,4248.205024,4523.589633,4226.666563,4248.717845,4236.410153,4255.897332,4328.717843
127,0,4307.179382,4263.589639,4220.512717,4238.974255,4235.384512,4236.410153,4234.871691,4250.256306,4520.51271,4230.256307,4249.743486,4235.897332,4266.153742,4316.410151
128,0,4295.38451,4251.281947,4215.897333,4232.820409,4222.563999,4231.794768,4231.794768,4247.179383,4516.922966,4229.743486,4245.640922,4230.769127,4252.820409,4298.461433
0,0,4286.666562,4243.076819,4225.640922,4234.358871,4223.58964,4230.769127,4230.769127,4246.666563,4521.02553,4228.205025,4251.794768,4238.974255,4246.666563,4301.025536
1,0,4285.1281,4248.717845,4235.384512,4236.410153,4233.33323,4232.820409,4232.820409,4253.84605,4522.051171,4236.410153,4263.589639,4248.717845,4265.640921,4309.230664
2,0,4279.487075,4249.743486,4231.794768,4234.871691,4234.871691,4232.820409,4233.84605,4258.461434,4524.615274,4245.640922,4263.076819,4241.025537,4268.205024,4296.922972
3,0,4263.076819,4238.974255,4221.538358,4231.794768,4231.281948,4232.307589,4232.820409,4252.307588,4523.076812,4239.487076,4247.179383,4231.281948,4248.205024,4274.35887
4,0,4247.692204,4228.205025,4215.897333,4226.153743,4226.666563,4231.281948,4229.230666,4242.563999,4509.743479,4228.205025,4231.794768,4228.717845,4237.435794,4259.999896
5,0,4246.153742,4230.256307,4217.948615,4227.179384,4230.769127,4233.33323,4229.230666,4244.10246,4512.820402,4230.256307,4236.410153,4230.769127,4245.128101,4261.025537
6,0,4243.58964,4234.871691,4220.512717,4231.281948,4234.358871,4236.922973,4231.281948,4251.281947,4522.563992,4234.871691,4247.179383,4231.281948,4248.717845,4261.025537
7,0,4228.717845,4224.615281,4211.794769,4219.999897,4221.025538,4230.769127,4228.205025,4248.205024,4512.307582,4226.153743,4237.948614,4222.051179,4236.410153,4239.999896
8,0,4223.07682,4218.974256,4207.179384,4211.794769,4215.897333,4225.128102,4225.128102,4241.025537,4506.666556,4223.07682,4224.615281,4217.435794,4228.717845,4228.205025
9,0,4232.307589,4231.281948,4213.33323,4223.58964,4233.84605,4233.84605,4231.794768,4246.666563,4522.051171,4236.922973,4231.794768,4228.205025,4234.871691,4239.999896
10,0,4231.794768,4227.692204,4216.922974,4227.179384,4233.33323,4233.84605,4232.820409,4248.717845,4521.538351,4238.461435,4237.948614,4229.743486,4238.461435,4242.051178
11,0,4219.487076,4207.692205,4213.33323,4210.256307,4214.358871,4217.948615,4221.538358,4232.820409,4503.589633,4218.974256,4228.205025,4223.07682,4227.692204,4227.692204
12,0,4222.563999,4217.948615,4215.384512,4212.307589,4221.538358,4222.563999,4223.07682,4233.84605,4504.102454,4221.538358,4231.281948,4230.769127,4229.230666,4232.307589
13,0,4229.743486,4237.435794,4222.051179,4230.769127,4235.384512,4234.358871,4230.769127,4249.743486,4512.820402,4237.435794,4244.10246,4236.922973,4244.10246,4245.128101
14,0,4210.769128,4216.410153,4211.794769,4218.974256,4216.922974,4221.538358,4222.051179,4238.974255,4507.179377,4224.102461,4235.897332,4224.102461,4239.999896,4227.692204
15,0,4198.974256,4200.512718,4202.051179,4202.051179,4209.230666,4216.410153,4217.948615,4230.256307,4504.615274,4214.871692,4224.102461,4215.384512,4227.179384,4211.281948
16,0,4213.846051,4217.435794,4206.666564,4213.846051,4231.281948,4233.84605,4232.307589,4246.153742,4513.333223,4233.33323,4229.230666,4217.948615,4230.256307,4219.999897
17,0,4210.769128,4224.102461,4206.153743,4221.025538,4235.897332,4237.435794,4234.871691,4248.205024,4513.333223,4239.999896,4234.358871,4217.435794,4233.84605,4223.07682
18,0,4191.281949,4211.281948,4197.948615,4210.256307,4218.974256,4227.179384,4224.102461,4234.871691,4503.589633,4226.153743,4229.230666,4214.871692,4226.666563,4212.82041
19,0,4198.974256,4213.846051,4208.205025,4211.794769,4225.128102,4231.281948,4226.153743,4241.025537,4510.2563,4232.307589,4230.256307,4218.461435,4230.256307,4216.410153
20,0,4214.358871,4228.717845,4216.410153,4221.538358,4236.922973,4238.461435,4232.307589,4253.333229,4525.128094,4245.128101,4235.384512,4222.051179,4241.025537,4228.205025
21,0,4206.153743,4229.743486,4204.102461,4215.384512,4223.58964,4231.281948,4227.179384,4246.666563,4517.948607,4237.948614,4232.820409,4217.948615,4234.871691,4221.025538
22,0,4204.102461,4228.205025,4206.666564,4212.82041,4218.461435,4224.102461,4224.102461,4238.974255,4503.589633,4227.692204,4228.717845,4220.512717,4232.307589,4217.948615
23,0,4227.179384,4239.487076,4223.58964,4229.743486,4237.435794,4230.769127,4229.743486,4246.666563,4507.692197,4231.281948,4234.358871,4233.33323,4240.512717,4232.307589
24,0,4237.948614,4247.179383,4224.102461,4238.461435,4243.58964,4239.999896,4233.84605,4254.35887,4516.922966,4238.461435,4242.563999,4233.33323,4238.461435,4237.948614
25,0,4221.538358,4234.871691,4213.33323,4224.102461,4229.743486,4239.487076,4231.281948,4247.692204,4514.358864,4231.281948,4231.794768,4217.948615,4226.153743,4221.025538
26,0,4212.82041,4226.666563,4212.82041,4221.538358,4232.307589,4242.051178,4231.281948,4251.281947,4515.384505,4232.307589,4227.692204,4219.487076,4230.769127,4213.846051
27,0,4218.974256,4235.897332,4216.410153,4228.205025,4238.461435,4244.10246,4233.33323,4262.563998,4520.51271,4248.205024,4241.538358,4229.743486,4239.999896,4222.051179
28,0,4216.410153,4235.897332,4214.358871,4218.974256,4232.820409,4236.922973,4232.307589,4254.35887,4515.384505,4245.640922,4242.563999,4226.666563,4235.897332,4220.512717
29,0,4214.358871,4230.256307,4214.358871,4219.999897,4241.538358,4234.871691,4230.769127,4246.153742,4508.717838,4231.794768,4233.33323,4226.153743,4234.871691,4215.897333
30,0,4214.358871,4230.256307,4214.358871,4229.230666,4243.58964,4234.871691,4231.281948,4248.717845,4509.230659,4228.717845,4235.384512,4228.205025,4233.84605,4215.897333
31,0,4212.307589,4231.281948,4212.82041,4222.563999,4230.769127,4230.769127,4229.743486,4246.666563,4510.76912,4230.256307,4237.435794,4221.538358,4228.717845,4212.82041
32,0,4211.794769,4227.179384,4214.358871,4216.410153,4232.307589,4230.769127,4228.717845,4245.128101,4511.281941,4228.205025,4231.794768,4218.974256,4232.307589,4208.717846
33,0,4208.205025,4218.974256,4212.307589,4217.948615,4233.33323,4231.794768,4230.256307,4247.692204,4511.281941,4230.256307,4234.358871,4222.563999,4229.230666,4207.179384
34,0,4198.974256,4214.871692,4206.666564,4214.358871,4218.974256,4227.692204,4227.179384,4237.435794,4505.128095,4229.743486,4233.84605,4216.410153,4219.487076,4201.538359
35,0,4201.538359,4215.384512,4211.794769,4214.358871,4213.846051,4226.153743,4218.461435,4227.692204,4503.076813,4227.179384,4227.179384,4213.846051,4223.07682,4201.025538
36,0,4214.358871,4223.07682,4217.948615,4217.435794,4230.256307,4229.230666,4222.051179,4238.974255,4507.692197,4230.769127,4234.871691,4228.205025,4233.33323,4210.256307
37,0,4216.922974,4231.794768,4213.33323,4218.974256,4245.640922,4231.281948,4232.307589,4251.281947,4508.717838,4235.384512,4246.153742,4233.33323,4233.84605,4216.410153
38,0,4211.281948,4231.281948,4211.794769,4221.025538,4244.10246,4234.871691,4231.281948,4246.666563,4507.179377,4235.384512,4239.487076,4222.051179,4234.358871,4215.384512
39,0,4212.307589,4231.794768,4217.435794,4221.025538,4236.410153,4237.435794,4230.256307,4245.128101,4508.205018,4234.871691,4229.230666,4217.435794,4232.307589,4216.922974
40,0,4216.922974,4235.384512,4218.974256,4223.58964,4234.358871,4233.33323,4230.769127,4249.230665,4507.692197,4233.33323,4230.256307,4219.999897,4223.58964,4216.922974
41,0,4213.33323,4229.743486,4214.871692,4229.230666,4228.205025,4228.205025,4223.07682,4241.538358,4506.153736,4230.769127,4228.717845,4218.461435,4231.281948,4213.33323
42,0,4214.358871,4233.33323,4215.897333,4232.307589,4229.743486,4230.256307,4221.538358,4237.948614,4510.2563,4238.974255,4230.256307,4224.102461,4256.410152,4216.922974
43,0,4224.615281,4248.717845,4221.025538,4231.281948,4242.563999,4234.358871,4231.281948,4247.179383,4511.794761,4249.230665,4238.461435,4234.358871,4268.717844,4223.07682
44,0,4215.897333,4238.461435,4217.948615,4221.025538,4236.922973,4233.84605,4231.281948,4245.640922,4506.666556,4244.615281,4233.84605,4231.794768,4261.025537,4219.487076
45,0,4197.948615,4216.410153,4214.358871,4213.846051,4226.666563,4238.974255,4230.256307,4242.051178,4510.2563,4238.461435,4229.743486,4228.717845,4257.948614,4211.794769
46,0,4206.666564,4227.179384,4218.461435,4226.153743,4243.076819,4247.692204,4241.025537,4258.461434,4518.461428,4251.281947,4242.051178,4234.358871,4264.61528,4215.897333
47,0,4222.563999,4247.179383,4221.025538,4231.794768,4249.230665,4239.999896,4239.999896,4263.589639,4511.794761,4252.307588,4241.538358,4231.281948,4252.820409,4220.512717
48,0,4217.435794,4238.461435,4222.563999,4221.538358,4231.281948,4229.743486,4229.230666,4250.769127,4505.128095,4235.897332,4227.692204,4225.128102,4226.666563,4214.871692
49,0,4213.33323,4226.666563,4228.717845,4224.615281,4225.128102,4232.820409,4231.794768,4254.35887,4508.717838,4236.410153,4228.717845,4229.230666,4222.563999,4211.794769
50,0,4226.666563,4239.999896,4234.871691,4237.948614,4237.948614,4236.410153,4238.461435,4267.692203,4510.76912,4248.205024,4238.461435,4236.922973,4238.461435,4221.025538
51,0,4230.256307,4249.743486,4233.33323,4232.820409,4243.076819,4232.820409,4234.871691,4262.563998,4508.205018,4248.717845,4236.410153,4235.384512,4239.999896,4226.666563
52,0,4215.897333,4237.948614,4223.58964,4217.948615,4233.84605,4231.794768,4230.769127,4247.692204,4508.205018,4242.051178,4230.256307,4227.692204,4229.743486,4219.487076
53,0,4208.717846,4230.769127,4218.974256,4221.538358,4231.281948,4234.871691,4231.281948,4244.615281,4508.205018,4238.461435,4230.769127,4227.692204,4231.281948,4212.82041
54,0,4214.871692,4231.794768,4224.102461,4228.717845,4237.435794,4234.871691,4230.769127,4242.563999,4505.640915,4229.743486,4230.769127,4230.256307,4228.717845,4210.769128
55,0,4217.435794,4231.281948,4227.692204,4224.615281,4236.922973,4231.794768,4230.256307,4239.999896,4504.102454,4226.666563,4229.743486,4230.256307,4221.538358,4210.769128
56,0,4209.743487,4229.230666,4229.230666,4220.512717,4231.794768,4232.307589,4231.281948,4244.615281,4505.128095,4234.358871,4228.717845,4230.256307,4225.128102,4213.33323
57,0,4206.153743,4226.666563,4229.743486,4223.58964,4235.897332,4236.410153,4233.84605,4251.794768,4507.692197,4237.948614,4229.743486,4231.794768,4230.256307,4214.358871
58,0,4201.025538,4218.974256,4221.538358,4217.435794,4233.33323,4233.33323,4234.358871,4249.743486,4506.153736,4230.256307,4229.743486,4229.230666,4219.999897,4204.615282
59,0,4194.871692,4212.82041,4213.846051,4209.743487,4226.153743,4230.256307,4232.307589,4245.640922,4504.102454,4228.717845,4226.666563,4225.640922,4212.307589,4197.435795
60,0,4199.487077,4221.538358,4224.102461,4214.871692,4232.820409,4234.871691,4232.307589,4252.307588,4506.666556,4232.820409,4228.717845,4229.743486,4218.461435,4205.640923
61,0,4204.102461,4227.179384,4232.307589,4219.999897,4236.410153,4233.33323,4231.794768,4247.179383,4499.99989,4219.487076,4225.128102,4230.256307,4216.410153,4206.153743
62,0,4203.07682,4219.487076,4225.640922,4220.512717,4232.820409,4227.179384,4228.205025,4236.922973,4489.74348,4208.205025,4214.871692,4225.640922,4210.256307,4197.948615
63,0,4201.538359,4217.435794,4221.025538,4217.435794,4233.33323,4229.230666,4228.205025,4243.58964,4495.897326,4224.102461,4218.461435,4228.205025,4218.974256,4206.153743
64,0,4200.512718,4219.999897,4223.07682,4212.307589,4230.769127,4233.33323,4231.794768,4252.820409,4507.179377,4238.461435,4230.256307,4234.871691,4230.769127,4218.461435
65,0,4206.666564,4219.487076,4229.230666,4215.384512,4225.640922,4231.794768,4232.307589,4249.743486,4504.615274,4232.307589,4230.769127,4235.384512,4231.794768,4217.435794
66,0,4212.82041,4224.615281,4230.256307,4221.025538,4232.820409,4231.281948,4231.281948,4247.179383,4502.051172,4231.281948,4229.230666,4235.384512,4233.84605,4218.974256
67,0,4203.589641,4227.692204,4223.07682,4215.897333,4231.281948,4230.256307,4231.794768,4248.205024,4505.128095,4237.435794,4233.84605,4234.871691,4236.410153,4221.538358
68,0,4196.410154,4219.999897,4220.512717,4208.717846,4214.358871,4228.717845,4228.717845,4243.076819,4502.563992,4229.743486,4231.794768,4231.794768,4227.179384,4212.82041
69,0,4212.82041,4229.230666,4231.281948,4219.999897,4226.153743,4231.281948,4229.743486,4244.615281,4502.563992,4230.769127,4230.256307,4237.435794,4231.794768,4218.461435
70,0,4223.58964,4246.666563,4238.461435,4234.358871,4252.820409,4233.33323,4232.820409,4250.256306,4508.717838,4246.666563,4234.871691,4249.743486,4245.128101,4230.256307
71,0,4216.410153,4239.999896,4232.820409,4231.794768,4251.281947,4232.307589,4233.33323,4250.256306,4509.743479,4247.692204,4234.358871,4246.666563,4240.512717,4224.102461
72,0,4212.82041,4221.538358,4229.230666,4218.461435,4233.84605,4232.820409,4231.281948,4245.128101,4502.563992,4232.820409,4228.717845,4234.871691,4229.743486,4216.922974
73,0,4211.794769,4218.461435,4228.717845,4212.82041,4231.281948,4231.794768,4229.743486,4237.435794,4493.846044,4228.205025,4223.58964,4236.922973,4227.179384,4215.384512
74,0,4214.358871,4229.230666,4231.794768,4223.07682,4232.820409,4229.230666,4230.256307,4239.487076,4491.794762,4232.820409,4225.640922,4248.717845,4231.794768,4216.410153
75,0,4224.615281,4236.410153,4241.025537,4234.358871,4231.794768,4230.256307,4232.307589,4247.179383,4493.846044,4234.871691,4233.33323,4251.794768,4235.897332,4225.640922
76,0,4233.33323,4240.512717,4243.58964,4234.358871,4240.512717,4233.33323,4235.897332,4250.256306,4495.897326,4238.974255,4231.794768,4248.205024,4234.358871,4232.820409
77,0,4230.256307,4243.076819,4237.948614,4225.640922,4248.205024,4233.84605,4236.922973,4248.205024,4495.384505,4239.999896,4222.051179,4249.230665,4233.84605,4225.128102
78,0,4219.999897,4236.410153,4232.820409,4222.563999,4240.512717,4229.743486,4230.769127,4244.10246,4491.281941,4232.307589,4215.384512,4249.743486,4230.769127,4214.358871
79,0,4214.871692,4229.230666,4233.33323,4230.256307,4234.358871,4230.769127,4227.692204,4243.076819,4493.333223,4229.230666,4216.410153,4246.153742,4219.487076,4212.82041
80,0,4212.82041,4232.307589,4234.358871,4232.820409,4237.435794,4237.948614,4231.794768,4244.10246,4493.333223,4230.769127,4216.922974,4247.692204,4216.410153,4214.358871
81,0,4203.07682,4228.205025,4231.281948,4218.461435,4232.307589,4229.743486,4225.640922,4234.871691,4478.461429,4218.974256,4211.794769,4249.743486,4218.974256,4207.692205
82,0,4204.102461,4223.07682,4230.769127,4213.846051,4224.615281,4217.948615,4216.922974,4226.153743,4475.897326,4210.256307,4212.307589,4253.333229,4216.922974,4207.179384
83,0,4226.666563,4232.307589,4240.512717,4228.717845,4231.794768,4221.538358,4223.58964,4239.487076,4492.820403,4225.640922,4221.025538,4262.563998,4225.128102,4222.563999
84,0,4235.897332,4234.871691,4245.640922,4229.743486,4234.358871,4225.128102,4232.820409,4248.205024,4495.897326,4238.461435,4222.051179,4268.205024,4236.922973,4229.230666
85,0,4221.025538,4226.153743,4236.410153,4222.563999,4225.640922,4217.435794,4229.743486,4236.410153,4486.153736,4229.230666,4214.871692,4261.025537,4229.230666,4214.871692
86,0,4216.410153,4226.666563,4231.794768,4227.692204,4227.179384,4216.410153,4225.640922,4231.281948,4489.230659,4223.58964,4217.435794,4257.435793,4219.487076,4205.128102
87,0,4223.58964,4236.922973,4232.820409,4226.153743,4236.922973,4228.717845,4228.717845,4237.948614,4496.410146,4228.205025,4223.07682,4260.512716,4223.58964,4206.153743
88,0,4214.358871,4231.281948,4222.051179,4211.794769,4230.256307,4233.84605,4229.743486,4232.307589,4484.615275,4220.512717,4208.205025,4252.820409,4216.922974,4192.82041
89,0,4208.717846,4221.538358,4217.435794,4214.358871,4225.128102,4230.256307,4228.205025,4225.640922,4478.974249,4213.846051,4202.564,4246.153742,4206.153743,4180.512718
90,0,4225.640922,4230.769127,4229.230666,4226.153743,4241.025537,4230.769127,4226.666563,4233.84605,4490.2563,4219.487076,4218.974256,4254.35887,4216.410153,4189.230667
91,0,4226.153743,4238.461435,4231.281948,4219.487076,4242.563999,4233.84605,4224.615281,4232.820409,4489.74348,4215.897333,4215.897333,4259.999896,4218.974256,4189.230667
92,0,4213.846051,4229.743486,4226.666563,4220.512717,4230.769127,4231.794768,4227.692204,4227.179384,4481.538352,4213.33323,4200.512718,4258.974255,4204.102461,4179.999898
93,0,4226.153743,4229.743486,4234.358871,4230.769127,4234.358871,4226.666563,4231.794768,4235.384512,4487.692198,4225.128102,4209.743487,4266.153742,4206.153743,4188.205026
94,0,4235.384512,4236.922973,4237.948614,4223.07682,4229.743486,4220.512717,4224.615281,4236.922973,4487.179377,4225.128102,4216.922974,4268.205024,4219.999897,4195.897333
95,0,4225.640922,4234.871691,4231.794768,4215.384512,4215.384512,4213.846051,4215.897333,4225.128102,4471.794762,4212.307589,4208.205025,4261.538357,4216.922974,4190.769128
96,0,4231.794768,4239.487076,4234.358871,4229.230666,4226.153743,4220.512717,4221.538358,4227.692204,4472.820403,4222.563999,4215.384512,4268.205024,4214.358871,4199.999897
97,0,4242.563999,4251.794768,4238.461435,4237.948614,4241.538358,4234.358871,4231.281948,4235.384512,4479.99989,4232.307589,4224.615281,4272.307588,4221.025538,4208.717846
98,0,4233.84605,4249.743486,4233.84605,4224.615281,4233.84605,4232.307589,4227.179384,4228.717845,4475.897326,4218.974256,4217.435794,4261.538357,4220.512717,4199.487077
99,0,4229.230666,4239.999896,4230.256307,4225.640922,4231.794768,4221.025538,4217.948615,4223.58964,4474.871685,4217.435794,4214.871692,4262.563998,4217.435794,4195.897333
100,0,4234.358871,4240.512717,4231.794768,4230.769127,4239.999896,4222.563999,4217.435794,4228.717845,4477.435788,4232.307589,4217.948615,4272.820408,4218.461435,4198.974256
101,0,4228.205025,4242.051178,4231.281948,4219.999897,4235.384512,4226.153743,4224.102461,4231.794768,4477.948608,4235.384512,4217.435794,4271.281947,4219.999897,4197.435795
102,0,4225.640922,4237.948614,4232.307589,4221.538358,4229.230666,4224.615281,4228.717845,4232.820409,4478.461429,4230.256307,4216.410153,4270.769126,4222.051179,4199.999897
103,0,4230.256307,4233.84605,4237.948614,4231.281948,4229.230666,4220.512717,4227.179384,4234.871691,4476.922967,4229.230666,4212.82041,4278.461434,4221.025538,4206.666564
104,0,4236.922973,4240.512717,4242.563999,4226.153743,4233.33323,4217.435794,4227.179384,4241.025537,4477.435788,4232.307589,4222.051179,4279.999895,4224.102461,4212.82041
105,0,4244.10246,4250.769127,4245.128101,4225.128102,4239.487076,4223.07682,4230.256307,4247.692204,4479.99989,4234.871691,4231.281948,4279.487075,4233.84605,4212.307589
106,0,4241.538358,4246.153742,4242.563999,4234.871691,4237.435794,4228.205025,4230.769127,4242.051178,4477.948608,4230.256307,4215.897333,4276.922972,4230.769127,4203.07682
107,0,4235.384512,4236.410153,4234.871691,4227.692204,4231.794768,4221.025538,4224.102461,4232.307589,4474.358865,4226.153743,4203.07682,4267.179383,4218.461435,4197.435795
108,0,4227.692204,4231.794768,4229.230666,4215.384512,4227.179384,4212.82041,4216.410153,4229.230666,4474.871685,4230.769127,4208.717846,4263.076819,4215.897333,4198.461436
109,0,4221.025538,4230.769127,4230.769127,4217.948615,4225.640922,4221.025538,4220.512717,4232.820409,4474.358865,4231.794768,4212.307589,4272.820408,4220.512717,4200.512718
110,0,4224.615281,4233.33323,4233.33323,4218.974256,4227.179384,4230.769127,4231.281948,4232.820409,4472.820403,4227.179384,4209.230666,4276.922972,4215.384512,4198.461436
111,0,4234.358871,4236.922973,4233.84605,4218.974256,4233.84605,4229.230666,4230.256307,4233.84605,4474.358865,4225.128102,4212.82041,4272.307588,4210.256307,4195.384513
112,0,4232.820409,4235.897332,4234.871691,4228.205025,4236.410153,4230.256307,4226.666563,4242.051178,4476.922967,4228.717845,4215.897333,4274.87169,4215.384512,4196.922974
113,0,4230.769127,4233.84605,4236.410153,4231.281948,4232.820409,4231.794768,4231.281948,4241.538358,4478.974249,4235.384512,4210.256307,4278.461434,4219.487076,4201.538359
114,0,4228.205025,4233.33323,4233.84605,4217.435794,4229.230666,4223.07682,4229.230666,4231.794768,4472.820403,4230.769127,4201.025538,4267.692203,4215.384512,4200.512718
115,0,4217.435794,4228.205025,4232.307589,4217.948615,4228.205025,4214.358871,4218.974256,4226.666563,4461.025532,4216.410153,4194.358872,4258.974255,4209.743487,4193.846051
116,0,4224.615281,4231.281948,4240.512717,4233.84605,4232.820409,4218.461435,4225.640922,4231.794768,4467.179378,4221.025538,4201.538359,4273.333229,4214.871692,4203.589641
117,0,4238.974255,4237.948614,4240.512717,4229.230666,4230.256307,4221.538358,4231.794768,4234.871691,4474.871685,4233.33323,4210.256307,4281.538357,4219.999897,4213.846051
118,0,4231.794768,4232.820409,4231.794768,4218.974256,4227.692204,4215.384512,4219.487076,4230.256307,4464.615275,4231.281948,4203.589641,4267.692203,4217.435794,4207.179384
119,0,4225.640922,4227.692204,4234.871691,4228.717845,4230.256307,4215.897333,4216.922974,4228.205025,4460.512711,4226.666563,4198.974256,4266.153742,4216.410153,4207.692205
120,0,4234.871691,4237.435794,4246.153742,4235.384512,4235.384512,4226.666563,4229.230666,4231.794768,4474.871685,4232.820409,4213.846051,4279.999895,4219.487076,4218.461435
121,0,4238.974255,4247.179383,4244.10246,4227.692204,4238.974255,4230.256307,4230.256307,4237.435794,4477.948608,4237.435794,4217.948615,4278.461434,4221.538358,4220.512717
122,0,4232.820409,4238.461435,4235.897332,4224.615281,4228.205025,4219.487076,4219.999897,4231.281948,4463.589634,4226.666563,4200.512718,4264.10246,4217.435794,4213.33323
123,0,4234.358871,4234.358871,4239.487076,4230.256307,4223.58964,4218.461435,4217.435794,4225.128102,4461.538352,4219.487076,4200.512718,4261.538357,4215.384512,4212.82041
124,0,4243.076819,4248.717845,4248.205024,4235.384512,4239.999896,4228.717845,4219.999897,4231.281948,4472.307583,4228.717845,4212.82041,4269.743485,4220.512717,4213.33323
125,0,4247.692204,4252.307588,4248.717845,4233.84605,4244.615281,4225.640922,4220.512717,4236.922973,4476.410147,4232.820409,4207.179384,4273.333229,4223.58964,4207.692205
126,0,4243.58964,4238.974255,4243.076819,4231.281948,4227.692204,4215.897333,4219.487076,4232.820409,4470.256301,4226.666563,4199.487077,4267.692203,4217.435794,4205.128102
127,0,4238.461435,4233.84605,4243.076819,4234.358871,4227.692204,4215.897333,4217.435794,4230.256307,4463.076814,4226.666563,4203.07682,4264.10246,4214.358871,4210.256307
128,0,4234.358871,4236.410153,4248.717845,4235.897332,4238.461435,4217.435794,4216.922974,4233.84605,4462.051173,4229.230666,4208.717846,4272.820408,4215.384512,4213.33323
0,0,4228.717845,4230.769127,4244.10246,4225.640922,4227.179384,4214.871692,4216.410153,4231.281948,4460.512711,4225.640922,4211.281948,4275.384511,4216.410153,4209.743487
1,0,4228.205025,4225.640922,4236.922973,4217.948615,4216.922974,4214.358871,4217.435794,4228.717845,4457.948609,4228.717845,4213.846051,4268.717844,4222.051179,4212.307589
2,0,4228.717845,4229.743486,4241.025537,4222.051179,4227.692204,4215.384512,4218.461435,4232.307589,4458.97425,4232.307589,4214.871692,4268.717844,4228.205025,4214.358871
3,0,4224.102461,4230.769127,4243.58964,4223.58964,4237.435794,4216.922974,4219.999897,4235.384512,4464.615275,4231.794768,4214.871692,4271.281947,4225.640922,4206.666564
4,0,4216.922974,4221.538358,4236.410153,4219.487076,4225.640922,4216.410153,4221.025538,4233.33323,4463.589634,4231.794768,4214.871692,4267.179383,4219.487076,4201.025538
5,0,4213.846051,4213.846051,4232.820409,4217.948615,4213.33323,4215.384512,4216.410153,4231.281948,4458.97425,4232.307589,4213.846051,4265.640921,4219.487076,4206.153743
6,0,4216.410153,4216.922974,4236.410153,4219.487076,4222.051179,4216.410153,4215.897333,4232.307589,4458.97425,4232.820409,4215.384512,4270.769126,4225.128102,4212.307589
7,0,4224.615281,4222.563999,4239.487076,4222.563999,4233.33323,4218.974256,4221.538358,4236.410153,4460.512711,4231.794768,4224.615281,4277.948613,4229.743486,4213.846051
8,0,4232.307589,4225.640922,4241.538358,4226.153743,4236.922973,4220.512717,4225.128102,4239.487076,4463.589634,4234.871691,4232.820409,4282.563998,4236.410153,4220.512717
9,0,4216.410153,4210.769128,4234.358871,4218.461435,4225.128102,4216.410153,4216.922974,4230.256307,4460.512711,4233.33323,4220.512717,4270.769126,4229.743486,4214.871692
10,0,4202.564,4199.487077,4225.640922,4209.743487,4217.948615,4218.461435,4214.358871,4226.153743,4455.897327,4228.717845,4208.205025,4257.435793,4217.948615,4202.051179
11,0,4223.07682,4220.512717,4235.897332,4223.07682,4237.435794,4229.743486,4226.153743,4243.58964,4468.205019,4241.025537,4223.58964,4269.230665,4231.281948,4215.897333
12,0,4236.922973,4236.410153,4248.205024,4236.410153,4252.820409,4234.358871,4231.281948,4255.897332,4479.99989,4256.922973,4236.922973,4277.948613,4245.640922,4234.358871
13,0,4222.051179,4220.512717,4242.563999,4227.692204,4237.435794,4228.717845,4226.153743,4246.153742,4468.717839,4247.179383,4223.58964,4265.640921,4232.820409,4223.58964
14,0,4213.846051,4211.794769,4232.820409,4214.358871,4222.563999,4219.487076,4222.051179,4240.512717,4458.461429,4234.358871,4211.794769,4257.948614,4223.07682,4208.717846
15,0,4224.615281,4225.128102,4235.897332,4218.974256,4231.794768,4219.487076,4224.102461,4246.153742,4463.076814,4243.58964,4220.512717,4264.10246,4231.281948,4213.846051
16,0,4233.84605,4232.820409,4249.230665,4233.84605,4242.563999,4228.205025,4228.717845,4252.307588,4467.179378,4256.410152,4231.794768,4273.333229,4236.410153,4224.102461
17,0,4226.153743,4214.871692,4246.153742,4226.666563,4228.717845,4221.538358,4223.58964,4248.205024,4458.97425,4244.615281,4219.487076,4269.230665,4226.666563,4215.897333
18,0,4213.33323,4202.564,4231.281948,4209.743487,4210.769128,4210.769128,4212.82041,4232.820409,4449.743481,4222.051179,4198.974256,4254.871691,4212.82041,4199.999897
19,0,4216.922974,4218.461435,4235.897332,4222.051179,4226.153743,4226.153743,4217.948615,4229.743486,4452.820404,4221.538358,4204.615282,4254.871691,4215.897333,4208.205025
20,0,4224.615281,4229.230666,4248.205024,4235.384512,4245.640922,4232.820409,4230.256307,4237.948614,4459.48707,4232.820409,4215.384512,4267.179383,4228.205025,4221.025538
21,0,4214.871692,4216.410153,4241.025537,4223.07682,4234.871691,4221.025538,4227.179384,4236.410153,4458.97425,4233.84605,4209.230666,4265.640921,4219.999897,4209.743487
22,0,4210.769128,4212.307589,4231.794768,4214.871692,4224.615281,4223.07682,4217.435794,4230.769127,4457.948609,4229.743486,4208.717846,4259.487075,4209.230666,4203.589641
23,0,4215.384512,4216.922974,4233.84605,4220.512717,4227.692204,4224.102461,4216.922974,4233.84605,4457.948609,4230.256307,4217.435794,4262.563998,4220.512717,4215.897333
24,0,4217.435794,4216.922974,4235.384512,4225.128102,4231.794768,4216.410153,4224.102461,4245.640922,4460.512711,4242.051178,4218.461435,4266.153742,4235.897332,4223.58964
25,0,4216.922974,4218.974256,4236.922973,4227.179384,4234.358871,4219.487076,4225.128102,4255.384511,4464.615275,4252.307588,4219.487076,4266.666562,4235.384512,4221.025538
26,0,4204.102461,4214.358871,4233.84605,4221.025538,4223.07682,4217.948615,4214.358871,4239.487076,4453.846045,4232.307589,4214.871692,4262.051178,4218.461435,4206.153743
27,0,4199.999897,4213.846051,4228.717845,4215.897333,4215.384512,4211.794769,4209.743487,4217.435794,4440.512712,4210.769128,4199.999897,4258.461434,4211.794769,4196.922974
28,0,4214.871692,4225.640922,4233.33323,4232.307589,4233.84605,4218.461435,4216.922974,4226.153743,4446.153737,4226.153743,4201.025538,4263.589639,4224.102461,4211.281948
29,0,4210.769128,4220.512717,4233.84605,4234.871691,4237.435794,4221.025538,4216.922974,4234.871691,4450.256301,4235.897332,4204.102461,4263.589639,4224.102461,4214.358871
30,0,4202.051179,4211.281948,4229.230666,4216.410153,4224.615281,4216.922974,4214.358871,4227.692204,4450.256301,4228.205025,4199.487077,4257.435793,4221.538358,4205.640923
31,0,4213.33323,4219.487076,4231.281948,4218.461435,4230.769127,4218.461435,4219.999897,4229.230666,4456.410147,4231.281948,4207.179384,4259.999896,4231.281948,4214.871692
32,0,4215.897333,4222.563999,4230.769127,4226.666563,4239.487076,4217.948615,4219.487076,4234.871691,4453.333224,4234.358871,4212.82041,4262.051178,4232.307589,4217.948615
33,0,4203.589641,4215.897333,4229.230666,4217.435794,4229.230666,4218.461435,4213.33323,4230.769127,4444.615276,4228.205025,4204.615282,4253.333229,4218.974256,4203.589641
34,0,4207.692205,4223.58964,4232.307589,4218.461435,4226.153743,4220.512717,4215.384512,4231.281948,4452.307583,4227.692204,4206.153743,4253.333229,4221.538358,4205.640923
35,0,4219.999897,4233.84605,4234.358871,4236.922973,4239.999896,4219.487076,4220.512717,4241.538358,4461.538352,4237.948614,4216.922974,4263.076819,4236.922973,4223.07682
36,0,4219.487076,4230.769127,4230.256307,4233.33323,4243.58964,4223.58964,4218.974256,4245.128101,4457.948609,4246.153742,4214.871692,4262.563998,4237.948614,4226.153743
37,0,4215.897333,4231.794768,4230.256307,4221.538358,4234.358871,4232.307589,4222.051179,4245.640922,4457.948609,4248.717845,4213.846051,4259.999896,4232.820409,4224.615281
38,0,4218.974256,4235.384512,4233.33323,4230.256307,4234.871691,4232.307589,4226.666563,4249.230665,4463.076814,4249.743486,4221.025538,4265.640921,4236.922973,4229.743486
39,0,4216.410153,4221.025538,4228.205025,4226.666563,4230.769127,4218.974256,4214.358871,4237.948614,4452.820404,4239.487076,4211.794769,4258.974255,4235.384512,4221.538358
40,0,4214.871692,4215.897333,4226.666563,4215.897333,4219.999897,4210.769128,4205.640923,4222.563999,4439.487071,4228.717845,4206.153743,4252.307588,4224.615281,4215.897333
41,0,4238.461435,4246.153742,4241.025537,4236.922973,4236.922973,4223.07682,4222.051179,4236.410153,4452.307583,4242.563999,4226.666563,4270.769126,4237.435794,4244.10246
42,0,4263.589639,4264.61528,4250.769127,4252.307588,4259.487075,4236.410153,4231.794768,4254.871691,4464.102455,4256.922973,4239.487076,4284.102459,4256.410152,4269.230665
43,0,4265.128101,4250.769127,4246.153742,4236.410153,4245.640922,4228.717845,4223.58964,4246.666563,4452.820404,4245.128101,4227.179384,4274.35887,4250.256306,4262.563998
44,0,4269.743485,4249.743486,4246.666563,4234.871691,4230.769127,4217.948615,4224.615281,4242.051178,4448.205019,4239.999896,4225.640922,4272.307588,4250.769127,4266.153742
45,0,4284.61528,4262.051178,4249.230665,4246.153742,4232.820409,4220.512717,4229.743486,4250.256306,4452.820404,4248.205024,4235.384512,4280.512716,4266.153742,4287.692203
46,0,4294.87169,4263.589639,4248.205024,4246.666563,4229.743486,4220.512717,4220.512717,4242.563999,4446.153737,4241.025537,4232.820409,4279.487075,4262.563998,4298.461433
47,0,4297.435792,4259.487075,4248.717845,4243.58964,4224.615281,4212.307589,4211.794769,4230.256307,4439.999891,4231.281948,4229.743486,4276.922972,4247.692204,4296.922972
48,0,4286.666562,4249.743486,4246.666563,4233.33323,4217.435794,4207.692205,4208.717846,4228.717845,4441.538353,4228.717845,4229.230666,4275.897331,4244.10246,4287.179382
49,0,4273.846049,4244.10246,4244.10246,4227.692204,4217.435794,4212.82041,4209.230666,4232.307589,4440.512712,4231.794768,4224.102461,4276.410152,4248.717845,4281.025536
50,0,4273.846049,4252.820409,4248.717845,4237.948614,4227.692204,4216.410153,4214.871692,4233.84605,4440.512712,4236.922973,4218.461435,4278.974254,4253.333229,4278.974254
51,0,4266.153742,4248.205024,4246.666563,4237.948614,4229.743486,4211.281948,4215.897333,4231.281948,4441.538353,4228.205025,4214.358871,4274.35887,4245.128101,4268.205024
52,0,4250.769127,4234.871691,4236.922973,4227.692204,4227.692204,4210.769128,4211.794769,4231.281948,4438.46143,4223.07682,4215.897333,4274.35887,4237.435794,4262.051178
53,0,4244.10246,4236.922973,4231.281948,4229.230666,4223.58964,4214.871692,4213.846051,4233.33323,4435.897327,4235.897332,4218.974256,4278.461434,4241.025537,4262.051178
54,0,4236.922973,4237.435794,4226.666563,4232.307589,4217.948615,4214.358871,4217.948615,4232.820409,4438.97425,4241.538358,4215.897333,4270.256306,4241.538358,4252.307588
55,0,4230.769127,4228.717845,4223.58964,4229.230666,4227.692204,4214.871692,4217.948615,4232.820409,4440.512712,4233.84605,4215.384512,4263.076819,4235.897332,4239.487076
56,0,4228.205025,4227.692204,4222.563999,4224.102461,4232.307589,4215.384512,4213.33323,4232.820409,4432.820404,4228.717845,4211.794769,4264.10246,4228.717845,4231.794768
57,0,4219.487076,4230.256307,4217.948615,4221.538358,4216.922974,4212.307589,4209.743487,4227.692204,4425.640917,4225.128102,4197.435795,4259.999896,4222.051179,4224.615281
58,0,4222.563999,4231.281948,4216.922974,4228.717845,4221.025538,4212.307589,4212.82041,4229.743486,4430.256302,4227.179384,4201.538359,4259.487075,4226.666563,4227.179384
59,0,4230.769127,4232.820409,4219.999897,4234.871691,4238.974255,4217.435794,4216.922974,4241.538358,4435.897327,4234.358871,4215.897333,4266.153742,4232.820409,4231.281948
60,0,4222.051179,4231.281948,4218.974256,4228.205025,4232.820409,4218.974256,4216.410153,4244.615281,4435.897327,4232.307589,4208.717846,4264.61528,4227.692204,4228.717845
61,0,4214.871692,4228.205025,4214.871692,4217.948615,4218.974256,4214.358871,4215.384512,4236.410153,4432.820404,4225.128102,4198.461436,4259.999896,4223.58964,4227.692204
62,0,4224.102461,4228.205025,4215.384512,4217.948615,4216.410153,4209.743487,4212.82041,4230.256307,4428.71784,4221.538358,4201.025538,4261.538357,4225.640922,4221.538358
63,0,4234.358871,4227.179384,4216.410153,4226.153743,4219.999897,4210.769128,4211.281948,4228.717845,4425.640917,4216.410153,4199.487077,4261.538357,4226.153743,4218.974256
64,0,4247.692204,4235.384512,4219.487076,4235.384512,4223.58964,4214.871692,4214.871692,4231.794768,4427.179379,4219.487076,4205.640923,4263.589639,4232.307589,4235.897332
65,0,4259.999896,4242.051178,4217.435794,4230.256307,4217.435794,4213.846051,4213.33323,4234.358871,4427.692199,4224.615281,4218.974256,4264.61528,4232.307589,4250.256306
66,0,4270.769126,4241.025537,4215.384512,4227.179384,4213.33323,4209.743487,4210.769128,4233.33323,4426.153738,4220.512717,4216.410153,4266.153742,4230.769127,4266.153742
67,0,4305.1281,4257.435793,4226.153743,4240.512717,4227.179384,4210.256307,4213.33323,4232.307589,4425.128097,4215.384512,4212.307589,4273.333229,4243.076819,4298.461433
68,0,4334.871689,4283.589639,4236.410153,4251.281947,4236.922973,4213.33323,4214.358871,4233.33323,4426.666558,4214.871692,4217.948615,4276.922972,4249.230665,4316.410151
69,0,4326.15374,4279.999895,4232.820409,4248.205024,4225.640922,4213.846051,4213.846051,4233.33323,4427.179379,4216.410153,4218.461435,4276.410152,4240.512717,4313.846048
70,0,4310.256305,4258.461434,4225.640922,4241.025537,4211.794769,4208.717846,4213.33323,4229.230666,4419.999892,4213.33323,4214.358871,4275.897331,4237.948614,4308.205023
71,0,4307.692202,4259.487075,4226.666563,4236.410153,4217.435794,4207.179384,4212.307589,4227.692204,4413.333225,4211.794769,4210.769128,4277.435793,4247.179383,4297.948613
72,0,4302.051177,4268.717844,4231.281948,4234.358871,4230.769127,4212.82041,4212.307589,4230.256307,4419.999892,4221.538358,4212.82041,4278.461434,4249.743486,4292.307587
73,0,4291.794767,4257.948614,4227.179384,4233.33323,4233.84605,4216.410153,4214.871692,4233.84605,4429.743481,4234.358871,4226.666563,4280.512716,4247.179383,4294.87169
74,0,4278.974254,4245.640922,4223.58964,4233.33323,4230.256307,4214.871692,4214.871692,4239.487076,4428.20502,4238.461435,4229.230666,4281.025536,4249.230665,4286.153741
75,0,4265.640921,4245.128101,4225.640922,4234.358871,4227.179384,4214.871692,4215.897333,4246.666563,4425.128097,4235.384512,4213.33323,4274.87169,4246.666563,4265.128101
76,0,4259.999896,4251.281947,4223.58964,4236.922973,4235.897332,4219.999897,4225.640922,4251.281947,4429.230661,4236.922973,4212.307589,4268.717844,4240.512717,4253.333229
77,0,4251.281947,4244.615281,4216.410153,4230.769127,4235.897332,4219.487076,4228.205025,4248.205024,4428.20502,4235.384512,4217.435794,4264.61528,4230.769127,4247.179383
78,0,4236.410153,4228.205025,4215.384512,4225.128102,4219.999897,4214.871692,4219.999897,4248.205024,4425.640917,4233.84605,4208.205025,4264.10246,4221.538358,4239.487076
79,0,4229.743486,4221.025538,4216.922974,4227.179384,4217.948615,4216.410153,4219.487076,4246.153742,4424.615276,4230.769127,4198.974256,4259.999896,4214.871692,4231.281948
80,0,4227.692204,4221.538358,4213.846051,4220.512717,4231.281948,4219.487076,4223.58964,4236.922973,4420.512712,4219.487076,4199.487077,4251.794768,4210.769128,4224.102461
81,0,4229.743486,4224.615281,4214.871692,4215.384512,4235.384512,4217.948615,4223.07682,4239.999896,4421.538353,4218.461435,4204.615282,4254.871691,4217.435794,4229.230666
82,0,4236.410153,4229.230666,4223.58964,4225.128102,4226.666563,4216.922974,4223.07682,4251.281947,4429.230661,4231.794768,4214.871692,4269.743485,4231.281948,4241.538358
83,0,4237.435794,4234.358871,4231.281948,4233.84605,4224.102461,4216.922974,4223.07682,4251.794768,4428.20502,4238.461435,4219.999897,4275.384511,4236.410153,4245.640922
84,0,4234.358871,4233.84605,4230.769127,4231.794768,4228.717845,4215.384512,4217.435794,4244.615281,4418.46143,4232.820409,4213.846051,4267.692203,4233.33323,4237.435794
85,0,4231.794768,4231.794768,4223.58964,4232.307589,4234.871691,4218.461435,4220.512717,4246.666563,4417.435789,4230.769127,4213.33323,4264.61528,4231.281948,4231.281948
86,0,4225.128102,4230.256307,4218.461435,4230.769127,4236.410153,4224.102461,4227.692204,4252.820409,4420.512712,4236.922973,4216.922974,4264.10246,4226.666563,4232.307589
87,0,4209.230666,4217.948615,4208.717846,4218.461435,4225.640922,4218.974256,4219.999897,4243.58964,4414.871687,4228.717845,4203.07682,4253.84605,4211.794769,4217.948615
88,0,4196.922974,4202.564,4199.999897,4212.307589,4215.384512,4211.794769,4212.82041,4229.743486,4409.743482,4211.281948,4184.615282,4243.58964,4201.538359,4199.487077
89,0,4199.487077,4203.07682,4204.615282,4213.33323,4213.846051,4214.358871,4216.410153,4234.871691,4412.307584,4214.358871,4187.692205,4248.205024,4203.589641,4203.589641
90,0,4214.358871,4214.871692,4214.871692,4214.871692,4216.410153,4215.384512,4216.922974,4247.179383,4414.358866,4230.769127,4201.025538,4259.999896,4211.794769,4215.897333
91,0,4227.179384,4221.025538,4223.07682,4222.563999,4224.102461,4213.33323,4216.922974,4246.666563,4415.897328,4233.33323,4204.102461,4265.640921,4219.487076,4221.538358
92,0,4230.256307,4221.538358,4230.256307,4233.33323,4233.33323,4216.922974,4224.102461,4244.615281,4418.974251,4231.281948,4201.538359,4266.666562,4222.051179,4228.717845
93,0,4228.205025,4218.461435,4231.281948,4230.256307,4232.307589,4219.487076,4223.58964,4244.10246,4416.410148,4232.307589,4202.051179,4265.640921,4217.435794,4230.769127
94,0,4224.615281,4215.384512,4226.153743,4219.487076,4225.640922,4216.410153,4214.358871,4237.435794,4411.281943,4227.179384,4201.025538,4265.128101,4214.871692,4220.512717
95,0,4219.999897,4216.922974,4225.128102,4218.461435,4226.153743,4214.871692,4213.846051,4232.307589,4412.307584,4223.58964,4199.487077,4264.61528,4218.974256,4215.384512
96,0,4214.871692,4216.922974,4223.07682,4218.461435,4222.051179,4215.897333,4217.435794,4232.820409,4412.820405,4223.58964,4197.948615,4263.076819,4219.487076,4217.948615
97,0,4214.871692,4214.871692,4216.922974,4217.435794,4214.871692,4215.897333,4218.461435,4241.025537,4411.281943,4226.153743,4197.435795,4261.538357,4212.82041,4215.384512
98,0,4221.025538,4215.897333,4223.07682,4221.025538,4216.410153,4215.897333,4218.461435,4245.640922,4410.256302,4229.230666,4197.948615,4261.025537,4212.307589,4214.358871
99,0,4225.128102,4220.512717,4233.84605,4223.58964,4221.025538,4216.410153,4219.487076,4238.974255,4409.230661,4224.615281,4201.025538,4265.128101,4219.487076,4223.07682
100,0,4217.435794,4216.410153,4224.615281,4213.846051,4215.384512,4214.358871,4216.410153,4230.769127,4404.102456,4213.33323,4201.538359,4264.61528,4213.846051,4224.615281
101,0,4212.82041,4210.769128,4215.384512,4213.846051,4210.256307,4211.794769,4216.410153,4231.281948,4401.538354,4216.410153,4196.922974,4259.999896,4204.102461,4216.922974
102,0,4224.615281,4221.025538,4226.153743,4229.230666,4227.692204,4216.922974,4223.58964,4239.487076,4408.717841,4230.769127,4198.974256,4261.538357,4211.281948,4217.435794
103,0,4225.128102,4227.692204,4225.128102,4227.692204,4239.487076,4219.487076,4225.640922,4238.974255,4412.307584,4226.153743,4197.435795,4263.076819,4216.922974,4216.410153
104,0,4213.33323,4215.897333,4212.307589,4214.358871,4223.07682,4215.384512,4219.487076,4231.794768,4405.640918,4215.384512,4191.281949,4259.487075,4207.692205,4210.769128
105,0,4213.33323,4210.256307,4219.487076,4217.948615,4217.948615,4215.384512,4218.461435,4235.897332,4406.153738,4219.999897,4196.922974,4261.025537,4209.230666,4213.846051
106,0,4224.615281,4218.461435,4231.281948,4225.128102,4236.410153,4220.512717,4221.025538,4247.179383,4413.846046,4226.153743,4199.487077,4264.61528,4217.948615,4214.358871
107,0,4223.07682,4216.410153,4224.102461,4216.922974,4232.820409,4218.974256,4221.025538,4246.153742,4413.846046,4222.051179,4191.281949,4261.538357,4207.692205,4202.051179
108,0,4217.435794,4209.743487,4218.974256,4211.794769,4214.358871,4215.384512,4218.974256,4243.076819,4410.769123,4217.435794,4196.410154,4259.999896,4202.051179,4195.384513
109,0,4227.692204,4217.435794,4230.769127,4221.538358,4219.999897,4218.461435,4220.512717,4245.128101,4411.281943,4223.07682,4207.179384,4265.128101,4218.461435,4204.102461
110,0,4234.871691,4220.512717,4233.84605,4224.102461,4228.205025,4218.461435,4222.051179,4238.974255,4406.666559,4228.205025,4201.025538,4263.589639,4221.025538,4204.615282
111,0,4229.743486,4217.435794,4222.051179,4218.461435,4224.615281,4217.948615,4220.512717,4232.820409,4404.102456,4224.615281,4194.358872,4256.410152,4204.615282,4197.948615
112,0,4230.256307,4222.051179,4215.384512,4217.435794,4229.743486,4225.128102,4219.999897,4233.84605,4405.128097,4217.435794,4199.487077,4257.948614,4203.589641,4198.974256
113,0,4231.281948,4227.179384,4218.974256,4219.487076,4231.281948,4226.153743,4219.487076,4231.281948,4402.563995,4215.897333,4199.487077,4257.435793,4211.281948,4196.922974
114,0,4220.512717,4218.974256,4218.974256,4218.461435,4222.563999,4223.07682,4217.948615,4229.230666,4402.563995,4218.974256,4195.897333,4252.307588,4206.153743,4190.769128
115,0,4221.025538,4216.410153,4216.922974,4220.512717,4226.153743,4229.743486,4225.128102,4240.512717,4408.717841,4224.102461,4199.487077,4255.384511,4206.153743,4197.948615
116,0,4229.743486,4219.999897,4220.512717,4222.051179,4230.256307,4229.743486,4231.281948,4248.205024,4411.794764,4228.717845,4204.615282,4258.461434,4213.33323,4201.025538
117,0,4218.461435,4208.205025,4218.974256,4211.281948,4213.33323,4215.384512,4219.487076,4235.897332,4402.563995,4217.948615,4199.487077,4248.717845,4212.307589,4188.717846
118,0,4211.281948,4204.615282,4215.384512,4208.205025,4207.692205,4211.794769,4212.307589,4234.871691,4398.974251,4215.897333,4198.461436,4249.230665,4212.82041,4191.281949
119,0,4218.974256,4215.897333,4217.435794,4216.410153,4222.563999,4218.461435,4219.487076,4246.153742,4405.640918,4233.33323,4205.640923,4258.974255,4219.999897,4202.051179
120,0,4221.025538,4216.922974,4217.435794,4217.435794,4222.051179,4217.435794,4218.974256,4239.999896,4403.076815,4236.410153,4204.615282,4252.820409,4218.974256,4197.435795
121,0,4216.922974,4213.846051,4215.897333,4215.897333,4211.794769,4215.897333,4213.846051,4228.205025,4394.871687,4222.051179,4199.487077,4245.128101,4215.384512,4192.82041
122,0,4215.897333,4214.358871,4217.948615,4215.897333,4210.769128,4210.769128,4211.794769,4229.743486,4393.846046,4214.871692,4199.999897,4249.743486,4213.33323,4193.333231
123,0,4216.922974,4215.897333,4217.435794,4215.384512,4214.871692,4207.692205,4211.281948,4230.769127,4395.897328,4216.922974,4201.538359,4252.307588,4212.307589,4191.794769
124,0,4224.102461,4219.487076,4218.461435,4215.897333,4221.538358,4213.846051,4216.410153,4233.84605,4396.922969,4220.512717,4201.025538,4251.281947,4215.384512,4192.30759
125,0,4226.153743,4217.948615,4225.640922,4215.384512,4219.487076,4216.410153,4218.461435,4238.461435,4395.384508,4221.025538,4198.974256,4254.871691,4215.897333,4195.384513
126,0,4223.58964,4212.307589,4231.794768,4213.846051,4212.82041,4212.307589,4216.922974,4233.84605,4395.897328,4217.948615,4196.922974,4259.999896,4214.358871,4197.435795
127,0,4229.743486,4215.897333,4232.307589,4215.897333,4218.974256,4215.384512,4221.025538,4239.487076,4399.487072,4221.025538,4201.025538,4263.076819,4212.82041,4198.461436
128,0,4236.410153,4219.999897,4229.743486,4215.384512,4230.256307,4220.512717,4223.07682,4246.666563,4401.025533,4229.230666,4203.589641,4262.051178,4216.410153,4198.974256
0,0,4233.84605,4224.102461,4230.256307,4216.410153,4231.794768,4217.435794,4217.948615,4238.974255,4395.897328,4232.820409,4200.512718,4258.974255,4226.666563,4203.589641
1,0,4230.769127,4226.666563,4230.769127,4223.07682,4222.563999,4216.922974,4216.922974,4235.384512,4395.384508,4230.769127,4205.640923,4261.538357,4227.179384,4206.153743
2,0,4228.717845,4215.897333,4226.666563,4222.051179,4212.307589,4217.948615,4218.974256,4242.051178,4398.974251,4223.07682,4216.410153,4259.999896,4218.974256,4199.999897
3,0,4228.717845,4210.256307,4226.666563,4215.897333,4221.025538,4218.974256,4218.974256,4247.179383,4399.487072,4224.102461,4220.512717,4257.948614,4222.563999,4199.999897
4,0,4229.743486,4216.922974,4229.743486,4215.384512,4235.384512,4217.948615,4219.487076,4246.666563,4397.94861,4232.307589,4217.948615,4261.538357,4231.281948,4207.179384
5,0,4226.153743,4215.897333,4227.692204,4216.410153,4223.58964,4216.410153,4217.948615,4241.538358,4393.846046,4221.025538,4217.435794,4262.051178,4229.230666,4213.846051
6,0,4227.179384,4220.512717,4229.230666,4218.974256,4214.871692,4218.974256,4217.948615,4242.051178,4394.358867,4211.281948,4227.179384,4265.128101,4228.717845,4218.461435
7,0,4233.33323,4228.717845,4231.794768,4221.025538,4223.58964,4219.999897,4218.974256,4244.615281,4397.43579,4227.692204,4228.205025,4271.794767,4234.871691,4214.871692
8,0,4229.743486,4219.487076,4226.153743,4215.897333,4221.025538,4216.922974,4214.358871,4241.025537,4396.410149,4236.922973,4218.974256,4270.769126,4233.33323,4208.205025
9,0,4226.666563,4217.435794,4223.58964,4218.461435,4220.512717,4221.025538,4213.846051,4242.563999,4399.487072,4230.769127,4219.999897,4267.179383,4229.230666,4213.33323
10,0,4232.307589,4233.84605,4229.230666,4230.769127,4236.922973,4231.281948,4219.487076,4248.205024,4404.102456,4232.820409,4225.128102,4270.769126,4232.820409,4221.025538
11,0,4229.230666,4233.33323,4231.281948,4228.717845,4235.897332,4233.33323,4219.999897,4247.179383,4399.487072,4236.922973,4218.974256,4270.769126,4235.384512,4214.871692
12,0,4219.487076,4217.435794,4226.666563,4217.948615,4216.922974,4224.102461,4215.897333,4241.538358,4392.307585,4230.256307,4215.897333,4266.666562,4231.281948,4203.07682
13,0,4215.897333,4214.871692,4221.025538,4216.922974,4211.281948,4214.871692,4214.358871,4235.897332,4392.820405,4223.58964,4219.999897,4264.10246,4227.179384,4199.487077
14,0,4218.974256,4221.538358,4219.999897,4221.025538,4225.128102,4222.051179,4219.487076,4240.512717,4397.94861,4226.666563,4221.025538,4263.589639,4232.307589,4203.589641
15,0,4217.435794,4217.435794,4217.948615,4216.410153,4232.307589,4229.230666,4218.974256,4247.179383,4395.897328,4224.102461,4217.948615,4263.076819,4228.717845,4201.025538
16,0,4215.384512,4212.307589,4217.435794,4214.358871,4218.974256,4219.999897,4213.846051,4238.974255,4388.717841,4213.846051,4217.435794,4263.076819,4217.948615,4197.435795
17,0,4224.615281,4223.58964,4222.563999,4222.051179,4215.384512,4219.999897,4221.025538,4236.922973,4390.256303,4219.487076,4220.512717,4262.563998,4223.07682,4205.640923
18,0,4231.794768,4233.33323,4225.128102,4223.07682,4232.307589,4232.820409,4232.307589,4252.820409,4398.461431,4236.410153,4222.051179,4266.666562,4237.948614,4210.256307
19,0,4223.58964,4224.615281,4223.07682,4216.922974,4233.33323,4227.692204,4224.615281,4251.281947,4396.410149,4234.358871,4213.846051,4264.61528,4235.384512,4203.07682
20,0,4213.846051,4213.846051,4217.948615,4214.358871,4212.307589,4213.846051,4211.281948,4232.820409,4388.717841,4219.999897,4204.102461,4252.820409,4221.538358,4196.922974
21,0,4215.384512,4214.871692,4215.897333,4215.897333,4207.692205,4223.07682,4216.922974,4235.384512,4389.230662,4216.922974,4206.666564,4248.205024,4222.563999,4199.487077
22,0,4217.948615,4220.512717,4224.102461,4216.410153,4224.615281,4230.769127,4224.102461,4247.692204,4391.281944,4221.025538,4213.846051,4256.922973,4228.205025,4200.512718
23,0,4215.384512,4213.33323,4231.281948,4214.358871,4226.153743,4220.512717,4221.025538,4242.051178,4388.717841,4218.974256,4211.281948,4262.051178,4221.025538,4199.487077
24,0,4213.33323,4201.025538,4224.615281,4211.281948,4204.102461,4213.846051,4215.897333,4228.205025,4378.461431,4207.692205,4201.025538,4259.999896,4209.743487,4198.974256
25,0,4216.922974,4206.666564,4224.615281,4212.82041,4195.384513,4211.281948,4212.82041,4228.205025,4371.794765,4199.487077,4199.487077,4262.563998,4213.846051,4201.025538
26,0,4222.051179,4217.948615,4229.743486,4218.974256,4209.230666,4204.615282,4212.82041,4234.871691,4373.846047,4202.051179,4211.281948,4265.128101,4221.538358,4206.666564
27,0,4215.897333,4208.205025,4221.538358,4213.846051,4208.205025,4202.051179,4212.307589,4228.717845,4376.92297,4204.102461,4215.384512,4259.999896,4215.384512,4204.102461
28,0,4216.410153,4211.794769,4222.051179,4209.230666,4208.205025,4210.769128,4214.358871,4227.179384,4379.999893,4211.281948,4214.358871,4261.538357,4221.538358,4208.717846
29,0,4232.307589,4232.307589,4232.820409,4217.948615,4226.153743,4217.435794,4215.897333,4235.897332,4383.076816,4220.512717,4217.948615,4265.128101,4234.358871,4223.07682
30,0,4235.897332,4228.205025,4231.281948,4221.025538,4224.615281,4215.897333,4214.871692,4234.358871,4382.563995,4218.461435,4219.999897,4262.051178,4225.128102,4223.07682
31,0,4221.538358,4213.33323,4226.153743,4216.410153,4214.358871,4216.410153,4214.871692,4229.230666,4377.948611,4214.871692,4217.435794,4259.999896,4211.281948,4212.82041
32,0,4216.410153,4215.384512,4228.205025,4217.948615,4222.563999,4218.461435,4217.948615,4238.974255,4381.025534,4223.58964,4218.461435,4261.538357,4219.487076,4212.307589
33,0,4226.666563,4222.051179,4230.256307,4219.487076,4226.666563,4218.461435,4221.538358,4251.794768,4390.769123,4232.820409,4221.538358,4265.128101,4229.230666,4221.025538
34,0,4231.794768,4218.974256,4230.256307,4214.871692,4211.281948,4215.897333,4220.512717,4247.179383,4387.17938,4224.615281,4215.897333,4265.640921,4226.153743,4225.128102
35,0,4230.256307,4219.999897,4231.281948,4221.025538,4214.358871,4217.435794,4218.974256,4242.563999,4375.384508,4217.948615,4220.512717,4264.61528,4228.205025,4228.717845
36,0,4228.717845,4229.743486,4232.307589,4227.179384,4230.256307,4217.948615,4219.487076,4247.692204,4376.410149,4223.58964,4234.358871,4265.128101,4234.358871,4229.743486
37,0,4223.07682,4228.717845,4232.307589,4221.025538,4224.102461,4216.410153,4218.461435,4244.10246,4382.563995,4224.615281,4230.769127,4263.589639,4233.33323,4224.102461
38,0,4219.487076,4226.666563,4227.692204,4222.051179,4219.487076,4223.07682,4216.410153,4235.384512,4382.051175,4220.512717,4216.922974,4259.999896,4231.281948,4218.461435
39,0,4221.538358,4229.743486,4224.615281,4230.769127,4224.102461,4224.102461,4213.846051,4231.794768,4378.974252,4219.999897,4213.33323,4258.974255,4230.256307,4216.410153
40,0,4223.07682,4230.256307,4227.692204,4231.794768,4223.58964,4216.922974,4213.33323,4231.794768,4375.384508,4218.974256,4218.461435,4260.512716,4229.743486,4224.102461
41,0,4223.58964,4226.666563,4231.794768,4227.179384,4221.538358,4215.897333,4215.897333,4236.922973,4373.846047,4218.974256,4216.410153,4263.076819,4231.794768,4232.307589
42,0,4219.999897,4228.205025,4230.769127,4218.974256,4221.025538,4219.999897,4216.922974,4246.666563,4382.051175,4224.615281,4215.384512,4266.153742,4231.794768,4231.281948
43,0,4217.435794,4229.743486,4229.230666,4214.871692,4221.538358,4224.102461,4219.999897,4252.307588,4389.230662,4234.358871,4225.640922,4265.640921,4231.281948,4230.769127
44,0,4221.025538,4227.692204,4230.256307,4225.640922,4228.205025,4228.717845,4224.615281,4248.205024,4383.076816,4229.230666,4228.205025,4261.025537,4234.871691,4234.871691
45,0,4226.153743,4230.769127,4232.307589,4232.820409,4237.435794,4234.358871,4224.615281,4247.692204,4380.512713,4222.051179,4223.07682,4263.589639,4237.948614,4234.871691
46,0,4218.974256,4223.07682,4224.615281,4219.999897,4224.102461,4230.256307,4219.999897,4245.640922,4382.563995,4225.640922,4219.487076,4263.076819,4233.33323,4227.179384
47,0,4205.640923,4210.256307,4211.794769,4207.179384,4208.717846,4222.563999,4215.384512,4231.281948,4373.846047,4226.153743,4214.358871,4251.794768,4228.205025,4218.461435
48,0,4208.205025,4218.461435,4218.974256,4215.897333,4223.58964,4223.07682,4216.410153,4227.692204,4369.743483,4226.153743,4211.794769,4249.743486,4232.307589,4218.974256
49,0,4214.358871,4227.179384,4229.230666,4228.205025,4232.307589,4225.128102,4217.948615,4234.358871,4378.461431,4226.666563,4213.33323,4254.35887,4232.820409,4219.999897
50,0,4212.82041,4216.922974,4222.051179,4216.922974,4216.410153,4216.922974,4214.871692,4231.794768,4377.43579,4219.487076,4213.846051,4253.333229,4226.153743,4214.358871
51,0,4213.33323,4210.256307,4222.563999,4212.82041,4209.743487,4212.307589,4214.871692,4231.794768,4371.281944,4216.922974,4213.33323,4256.922973,4226.153743,4220.512717
52,0,4220.512717,4219.999897,4236.922973,4227.692204,4223.07682,4224.102461,4224.615281,4248.717845,4381.538354,4232.307589,4222.051179,4267.692203,4235.897332,4238.461435
53,0,4214.358871,4222.051179,4234.871691,4224.102461,4217.435794,4228.717845,4227.179384,4251.281947,4382.563995,4234.871691,4221.538358,4266.666562,4235.384512,4236.922973
54,0,4206.153743,4211.281948,4226.153743,4211.794769,4207.692205,4225.128102,4222.563999,4240.512717,4372.307585,4223.58964,4214.871692,4258.461434,4231.281948,4224.615281
55,0,4216.922974,4214.871692,4232.820409,4225.640922,4227.692204,4229.743486,4226.666563,4247.179383,4376.410149,4232.307589,4224.102461,4262.051178,4238.974255,4231.281948
56,0,4223.07682,4229.230666,4233.33323,4235.384512,4243.076819,4233.33323,4227.692204,4249.743486,4382.051175,4236.922973,4228.205025,4263.076819,4240.512717,4232.820409
57,0,4214.871692,4230.769127,4220.512717,4225.640922,4230.256307,4228.205025,4219.487076,4236.410153,4378.974252,4230.256307,4216.922974,4252.307588,4230.769127,4216.922974
58,0,4210.769128,4221.538358,4221.025538,4225.128102,4219.487076,4224.102461,4213.33323,4229.230666,4374.871688,4229.743486,4209.743487,4249.230665,4230.256307,4215.384512
59,0,4220.512717,4228.717845,4232.307589,4234.358871,4230.256307,4226.153743,4215.897333,4233.33323,4373.333226,4232.307589,4216.922974,4259.487075,4242.051178,4232.820409
60,0,4227.179384,4237.435794,4235.384512,4230.769127,4233.84605,4224.102461,4219.999897,4236.410153,4374.871688,4234.358871,4221.025538,4264.10246,4246.153742,4241.025537
61,0,4214.358871,4219.999897,4228.205025,4217.948615,4214.871692,4215.897333,4217.948615,4233.33323,4372.307585,4232.307589,4212.82041,4257.948614,4232.307589,4226.153743
62,0,4210.769128,4213.846051,4229.743486,4217.948615,4208.205025,4216.922974,4216.922974,4236.410153,4371.281944,4228.205025,4212.82041,4260.512716,4227.692204,4224.102461
63,0,4231.794768,4236.922973,4241.025537,4231.794768,4229.230666,4227.692204,4224.615281,4248.205024,4377.948611,4233.84605,4227.692204,4269.230665,4245.128101,4242.563999
64,0,4234.871691,4238.974255,4239.487076,4233.84605,4239.999896,4229.743486,4229.230666,4250.769127,4378.461431,4237.435794,4228.205025,4267.692203,4248.205024,4244.615281
65,0,4213.33323,4216.410153,4228.717845,4224.102461,4228.717845,4225.640922,4224.102461,4243.076819,4370.769124,4229.230666,4214.871692,4260.512716,4231.281948,4227.179384
66,0,4216.410153,4218.461435,4232.307589,4227.692204,4227.692204,4230.256307,4226.666563,4251.281947,4377.43579,4236.922973,4225.640922,4266.153742,4239.999896,4229.230666
67,0,4232.307589,4238.461435,4241.538358,4231.794768,4234.871691,4233.84605,4232.307589,4261.538357,4383.589636,4250.256306,4237.948614,4273.333229,4254.871691,4239.999896
68,0,4224.102461,4234.871691,4236.410153,4228.205025,4235.897332,4230.256307,4229.743486,4252.820409,4374.358867,4237.435794,4221.538358,4266.153742,4239.487076,4233.33323
69,0,4212.307589,4223.07682,4229.230666,4227.179384,4228.717845,4230.256307,4227.179384,4246.153742,4369.743483,4225.128102,4208.717846,4256.922973,4224.102461,4226.153743
70,0,4213.846051,4223.58964,4229.743486,4223.07682,4221.538358,4232.820409,4229.230666,4248.205024,4373.333226,4232.820409,4213.846051,4257.435793,4229.743486,4226.153743
71,0,4214.871692,4225.640922,4230.256307,4222.051179,4223.58964,4229.743486,4230.769127,4246.666563,4371.281944,4230.769127,4213.846051,4258.461434,4231.794768,4224.102461
72,0,4216.922974,4227.692204,4230.256307,4230.256307,4232.820409,4228.717845,4230.769127,4244.615281,4366.66656,4222.563999,4211.794769,4258.461434,4229.230666,4226.153743
73,0,4216.922974,4228.717845,4231.794768,4233.84605,4231.794768,4229.230666,4229.743486,4246.666563,4364.102457,4225.640922,4214.358871,4259.487075,4228.717845,4229.230666
74,0,4216.410153,4229.743486,4235.897332,4228.205025,4227.692204,4229.230666,4229.230666,4245.128101,4364.615278,4230.769127,4215.384512,4258.461434,4231.281948,4228.717845
75,0,4228.205025,4234.871691,4245.640922,4233.33323,4230.769127,4233.33323,4231.794768,4250.769127,4367.17938,4232.820409,4220.512717,4262.051178,4235.897332,4232.820409
76,0,4226.153743,4226.153743,4246.153742,4233.84605,4224.615281,4230.769127,4232.820409,4251.281947,4362.051175,4226.666563,4217.948615,4266.666562,4234.358871,4232.307589
77,0,4209.230666,4210.256307,4235.384512,4217.948615,4209.230666,4217.948615,4227.179384,4237.948614,4352.820406,4214.358871,4203.07682,4263.589639,4226.666563,4224.615281
78,0,4220.512717,4221.025538,4236.410153,4219.487076,4211.794769,4215.897333,4224.102461,4235.384512,4356.41015,4216.922974,4206.153743,4263.589639,4230.769127,4230.769127
79,0,4233.84605,4232.820409,4239.999896,4230.256307,4219.487076,4221.025538,4219.487076,4237.948614,4357.435791,4222.051179,4213.846051,4264.61528,4236.410153,4238.461435
80,0,4220.512717,4219.487076,4233.84605,4226.153743,4214.871692,4213.33323,4212.307589,4228.205025,4347.692201,4213.33323,4204.615282,4260.512716,4228.205025,4230.256307
81,0,4222.051179,4220.512717,4236.922973,4225.640922,4218.974256,4213.33323,4219.999897,4228.717845,4352.820406,4215.897333,4208.205025,4264.61528,4232.307589,4232.307589
82,0,4239.999896,4239.487076,4249.743486,4236.922973,4233.84605,4228.717845,4230.769127,4243.076819,4365.128098,4231.281948,4224.615281,4271.794767,4249.230665,4251.281947
83,0,4233.84605,4236.922973,4248.717845,4235.897332,4225.128102,4224.615281,4221.538358,4240.512717,4358.461432,4230.256307,4222.051179,4265.640921,4249.743486,4252.820409
84,0,4222.563999,4226.666563,4237.435794,4229.230666,4209.743487,4214.358871,4216.922974,4235.384512,4354.358868,4225.640922,4213.846051,4260.512716,4242.051178,4241.025537
85,0,4233.33323,4235.384512,4240.512717,4234.358871,4224.615281,4222.563999,4232.820409,4251.794768,4368.205021,4236.922973,4222.563999,4266.666562,4249.743486,4246.666563
86,0,4237.435794,4240.512717,4246.153742,4233.84605,4231.281948,4223.07682,4229.743486,4248.717845,4363.076816,4234.871691,4221.025538,4264.61528,4250.769127,4251.794768
87,0,4229.743486,4230.769127,4242.051178,4229.743486,4212.82041,4211.794769,4212.82041,4228.205025,4346.66656,4220.512717,4211.281948,4257.948614,4241.025537,4244.615281
88,0,4232.820409,4233.84605,4245.128101,4232.307589,4216.410153,4216.922974,4221.025538,4236.922973,4356.41015,4231.281948,4216.922974,4265.128101,4247.179383,4248.717845
89,0,4232.820409,4236.410153,4245.640922,4232.820409,4226.153743,4223.07682,4233.33323,4247.179383,4361.025534,4234.871691,4221.025538,4266.666562,4253.84605,4252.307588
90,0,4219.487076,4226.153743,4232.820409,4228.717845,4216.922974,4219.999897,4228.717845,4232.307589,4347.179381,4214.871692,4210.256307,4256.922973,4243.58964,4244.10246
91,0,4223.58964,4234.871691,4234.358871,4230.256307,4217.435794,4228.717845,4226.666563,4234.358871,4349.743483,4219.999897,4215.384512,4261.025537,4243.076819,4250.769127
92,0,4238.461435,4250.256306,4247.179383,4235.897332,4226.153743,4231.281948,4225.640922,4242.051178,4357.435791,4233.84605,4229.230666,4270.769126,4252.307588,4258.974255
93,0,4226.153743,4236.922973,4236.410153,4231.794768,4218.461435,4216.922974,4214.358871,4230.256307,4345.128099,4218.974256,4219.487076,4263.076819,4247.179383,4246.666563
94,0,4214.358871,4223.58964,4226.666563,4225.640922,4212.82041,4212.82041,4213.846051,4231.281948,4347.179381,4215.897333,4211.794769,4256.922973,4243.58964,4245.640922
95,0,4238.461435,4238.461435,4240.512717,4234.871691,4225.640922,4221.025538,4230.769127,4253.333229,4365.128098,4245.640922,4231.794768,4270.769126,4259.487075,4270.256306
96,0,4253.333229,4250.256306,4248.717845,4247.692204,4228.205025,4222.563999,4233.84605,4259.999896,4363.589637,4254.35887,4242.563999,4279.487075,4272.820408,4279.999895
97,0,4239.999896,4248.717845,4247.179383,4246.666563,4221.538358,4218.461435,4221.538358,4253.84605,4355.897329,4238.461435,4234.871691,4272.820408,4265.640921,4270.256306
98,0,4231.281948,4245.128101,4241.025537,4234.358871,4219.999897,4214.871692,4216.410153,4246.666563,4353.333227,4229.743486,4227.692204,4263.076819,4250.256306,4260.512716
99,0,4233.33323,4243.58964,4235.384512,4230.256307,4222.051179,4215.897333,4221.538358,4244.10246,4350.256304,4231.794768,4222.051179,4261.025537,4246.666563,4255.384511
100,0,4234.871691,4249.230665,4239.487076,4240.512717,4222.051179,4222.051179,4222.563999,4247.179383,4351.794765,4229.743486,4217.435794,4264.10246,4250.769127,4252.307588
101,0,4234.358871,4251.794768,4242.563999,4246.666563,4217.435794,4218.974256,4214.871692,4236.410153,4348.205022,4218.461435,4214.871692,4259.487075,4247.179383,4247.692204
102,0,4235.384512,4249.230665,4243.076819,4241.025537,4224.102461,4214.871692,4213.33323,4229.230666,4346.15374,4222.051179,4212.82041,4256.922973,4243.58964,4252.820409
103,0,4235.897332,4249.230665,4244.615281,4238.461435,4229.230666,4218.461435,4221.025538,4239.999896,4355.384509,4232.307589,4215.897333,4263.076819,4247.692204,4259.999896
104,0,4232.820409,4246.153742,4238.974255,4241.538358,4219.999897,4218.974256,4222.051179,4240.512717,4358.974252,4224.615281,4215.897333,4260.512716,4246.666563,4252.307588
105,0,4229.230666,4243.58964,4230.769127,4237.435794,4215.897333,4214.871692,4214.871692,4229.743486,4348.717842,4214.358871,4210.769128,4251.281947,4242.563999,4243.58964
106,0,4228.717845,4249.230665,4233.84605,4232.307589,4221.538358,4215.384512,4214.871692,4232.307589,4348.717842,4222.563999,4210.769128,4252.820409,4246.666563,4247.179383
107,0,4226.153743,4244.10246,4233.33323,4229.743486,4215.384512,4216.922974,4216.922974,4232.820409,4350.769124,4223.58964,4214.871692,4252.307588,4246.666563,4244.615281
108,0,4225.128102,4237.948614,4230.256307,4230.256307,4213.846051,4215.897333,4212.82041,4226.666563,4341.025535,4214.871692,4215.384512,4248.717845,4243.58964,4241.025537
109,0,4234.871691,4250.769127,4242.051178,4237.948614,4234.358871,4219.999897,4215.897333,4236.922973,4344.615278,4226.666563,4218.974256,4256.922973,4246.666563,4254.35887
110,0,4239.487076,4249.230665,4248.717845,4245.640922,4233.84605,4221.025538,4219.487076,4242.563999,4353.333227,4235.384512,4221.025538,4264.10246,4248.717845,4259.999896
111,0,4236.410153,4241.538358,4244.10246,4244.615281,4219.487076,4217.435794,4216.922974,4233.33323,4346.15374,4227.179384,4216.922974,4262.051178,4246.153742,4256.922973
112,0,4234.871691,4247.692204,4247.179383,4235.897332,4228.717845,4219.999897,4221.538358,4231.281948,4340.512714,4226.153743,4215.897333,4262.051178,4246.666563,4256.410152
113,0,4234.358871,4243.58964,4250.769127,4231.281948,4234.358871,4223.58964,4224.615281,4237.435794,4350.256304,4229.230666,4221.538358,4265.640921,4244.10246,4254.871691
114,0,4229.743486,4236.410153,4238.974255,4231.794768,4218.974256,4217.948615,4215.897333,4234.871691,4350.256304,4219.487076,4216.922974,4261.025537,4235.384512,4248.717845
115,0,4225.640922,4243.58964,4230.769127,4233.33323,4209.743487,4212.307589,4213.33323,4232.307589,4339.999894,4212.307589,4204.615282,4257.948614,4230.769127,4239.999896
116,0,4221.025538,4245.640922,4234.358871,4233.33323,4218.461435,4214.871692,4217.948615,4235.897332,4343.076817,4215.384512,4201.538359,4258.461434,4230.769127,4232.820409
117,0,4215.384512,4241.025537,4233.33323,4232.307589,4225.640922,4216.410153,4215.384512,4235.384512,4349.230663,4215.897333,4203.07682,4252.820409,4229.743486,4229.743486
118,0,4222.051179,4247.692204,4235.897332,4231.281948,4228.205025,4216.922974,4219.999897,4237.948614,4347.179381,4221.025538,4207.692205,4247.692204,4231.281948,4231.794768
119,0,4233.33323,4252.820409,4244.615281,4232.307589,4235.384512,4225.640922,4230.256307,4246.666563,4347.692201,4230.256307,4212.82041,4250.769127,4235.384512,4230.256307
120,0,4226.666563,4243.58964,4238.461435,4234.358871,4233.33323,4231.794768,4224.102461,4245.640922,4350.769124,4226.153743,4206.153743,4252.307588,4229.230666,4223.58964
121,0,4211.794769,4232.820409,4227.179384,4229.230666,4221.538358,4231.794768,4216.922974,4235.897332,4344.615278,4213.33323,4196.410154,4245.128101,4216.410153,4212.307589
122,0,4213.33323,4234.358871,4231.794768,4226.666563,4227.179384,4232.307589,4225.640922,4240.512717,4341.538355,4214.871692,4201.025538,4245.640922,4214.871692,4203.589641
123,0,4213.846051,4238.974255,4233.84605,4225.640922,4240.512717,4236.410153,4233.33323,4249.743486,4349.743483,4229.743486,4203.589641,4245.640922,4217.948615,4198.974256
124,0,4206.153743,4232.820409,4226.666563,4223.58964,4235.384512,4234.871691,4230.256307,4248.205024,4351.794765,4232.820409,4197.435795,4235.384512,4215.384512,4194.871692
125,0,4207.692205,4229.230666,4226.153743,4230.256307,4228.717845,4232.820409,4228.205025,4246.666563,4347.692201,4223.58964,4199.487077,4237.435794,4218.461435,4195.897333
126,0,4211.281948,4235.384512,4232.820409,4232.307589,4237.948614,4236.922973,4232.820409,4249.743486,4351.794765,4226.153743,4205.640923,4248.717845,4218.461435,4198.974256
127,0,4204.102461,4229.230666,4228.717845,4218.461435,4234.358871,4234.871691,4233.84605,4250.256306,4353.846047,4226.153743,4202.051179,4248.205024,4205.128102,4192.82041
128,0,4200.512718,4212.82041,4219.999897,4212.307589,4217.435794,4228.717845,4230.769127,4249.230665,4345.128099,4218.974256,4199.487077,4244.615281,4206.666564,4192.30759
0,0,4203.07682,4211.281948,4224.102461,4219.487076,4218.461435,4228.717845,4228.717845,4249.743486,4345.128099,4223.58964,4204.102461,4248.717845,4222.051179,4201.025538
1,0,4202.564,4217.435794,4231.281948,4218.974256,4231.794768,4232.820409,4230.256307,4249.230665,4351.794765,4228.205025,4203.589641,4249.743486,4215.384512,4196.410154
2,0,4204.615282,4217.948615,4229.230666,4215.384512,4235.384512,4232.307589,4229.230666,4247.179383,4345.640919,4222.563999,4197.948615,4247.179383,4203.589641,4186.666564
3,0,4213.846051,4217.435794,4228.205025,4219.487076,4228.205025,4227.179384,4223.07682,4242.051178,4340.512714,4226.666563,4197.948615,4249.230665,4212.307589,4194.871692
4,0,4220.512717,4218.461435,4233.33323,4220.512717,4222.051179,4224.615281,4222.051179,4241.538358,4345.640919,4230.769127,4205.640923,4253.333229,4221.025538,4207.692205
5,0,4214.871692,4214.358871,4231.794768,4215.897333,4216.410153,4224.615281,4225.128102,4241.538358,4344.615278,4217.435794,4202.564,4248.717845,4211.281948,4195.897333
6,0,4219.999897,4224.102461,4231.281948,4225.128102,4224.102461,4230.256307,4229.743486,4242.051178,4344.615278,4222.051179,4199.487077,4249.230665,4212.307589,4191.281949
7,0,4232.307589,4238.974255,4235.384512,4233.33323,4236.922973,4235.897332,4232.307589,4249.230665,4350.256304,4243.076819,4210.769128,4256.410152,4230.256307,4207.179384
8,0,4223.58964,4227.179384,4232.307589,4222.051179,4231.794768,4229.230666,4225.640922,4245.640922,4345.640919,4237.948614,4212.307589,4253.333229,4233.84605,4209.230666
9,0,4218.461435,4215.897333,4230.256307,4217.948615,4225.640922,4218.461435,4217.948615,4236.410153,4341.025535,4226.666563,4203.589641,4252.820409,4228.717845,4201.538359
10,0,4226.153743,4224.102461,4234.358871,4225.128102,4226.666563,4215.897333,4218.974256,4240.512717,4344.615278,4232.307589,4206.666564,4258.974255,4228.205025,4204.102461
11,0,4222.051179,4222.563999,4231.794768,4218.974256,4218.461435,4216.410153,4218.974256,4242.563999,4343.589637,4235.897332,4208.205025,4251.794768,4222.051179,4202.051179
12,0,4219.999897,4217.948615,4230.256307,4212.82041,4210.256307,4213.33323,4213.846051,4236.922973,4341.538355,4228.205025,4198.461436,4243.076819,4219.487076,4194.358872
13,0,4237.948614,4230.256307,4240.512717,4228.717845,4223.58964,4217.435794,4224.102461,4244.615281,4349.743483,4230.769127,4206.153743,4254.35887,4231.794768,4210.256307
14,0,4234.358871,4230.256307,4240.512717,4230.256307,4234.358871,4222.051179,4232.820409,4252.820409,4351.281945,4241.025537,4219.999897,4265.640921,4234.871691,4218.461435
15,0,4215.384512,4215.384512,4229.743486,4217.948615,4228.717845,4218.461435,4222.563999,4246.666563,4343.589637,4244.10246,4216.922974,4260.512716,4228.205025,4204.615282
16,0,4221.025538,4217.948615,4229.743486,4219.487076,4229.230666,4215.897333,4216.410153,4246.153742,4344.102458,4244.615281,4212.82041,4252.307588,4234.871691,4204.615282
17,0,4224.102461,4220.512717,4232.307589,4218.974256,4233.33323,4218.974256,4222.563999,4249.743486,4350.256304,4243.076819,4216.922974,4245.640922,4230.769127,4207.692205
18,0,4214.358871,4211.794769,4228.717845,4214.358871,4222.051179,4222.563999,4221.538358,4244.10246,4346.66656,4235.897332,4212.307589,4245.128101,4216.410153,4199.487077
19,0,4214.358871,4214.871692,4228.717845,4217.948615,4215.384512,4222.563999,4215.897333,4242.051178,4341.025535,4232.307589,4202.564,4248.717845,4216.410153,4197.948615
20,0,4214.871692,4220.512717,4230.256307,4220.512717,4221.538358,4218.461435,4216.922974,4243.58964,4342.051176,4232.820409,4206.153743,4248.717845,4217.435794,4201.538359
21,0,4210.256307,4216.922974,4230.256307,4216.410153,4223.07682,4217.435794,4219.487076,4243.58964,4343.589637,4233.84605,4216.922974,4248.717845,4219.487076,4204.615282
22,0,4210.256307,4211.794769,4231.281948,4212.307589,4221.538358,4219.999897,4220.512717,4246.666563,4342.563996,4237.948614,4218.974256,4251.281947,4230.256307,4211.281948
23,0,4206.666564,4207.179384,4231.794768,4212.307589,4221.025538,4221.025538,4221.025538,4248.205024,4345.640919,4241.025537,4218.974256,4249.230665,4228.205025,4207.179384
24,0,4198.974256,4206.153743,4227.692204,4216.410153,4219.487076,4217.435794,4218.461435,4237.435794,4340.512714,4230.769127,4214.871692,4244.615281,4213.846051,4190.769128
25,0,4206.666564,4215.384512,4225.640922,4221.538358,4224.615281,4215.897333,4214.358871,4225.640922,4327.179381,4217.435794,4203.07682,4245.640922,4212.82041,4192.30759
26,0,4217.435794,4228.205025,4229.743486,4218.974256,4229.230666,4218.974256,4214.358871,4228.717845,4329.743484,4215.384512,4208.205025,4250.256306,4221.538358,4206.153743
27,0,4210.769128,4221.025538,4227.179384,4214.871692,4217.948615,4218.974256,4215.384512,4226.666563,4335.384509,4217.435794,4215.897333,4243.58964,4221.025538,4200.512718
28,0,4195.384513,4200.512718,4217.435794,4212.82041,4207.692205,4212.82041,4210.769128,4214.871692,4326.666561,4213.846051,4199.999897,4230.769127,4210.256307,4183.589641
29,0,4198.461436,4207.179384,4217.948615,4217.948615,4225.128102,4217.948615,4214.871692,4225.128102,4328.205022,4215.384512,4199.487077,4231.794768,4206.153743,4190.256308
30,0,4205.640923,4223.58964,4218.974256,4224.615281,4238.974255,4229.743486,4224.615281,4241.025537,4341.538355,4222.051179,4213.846051,4236.410153,4214.871692,4197.435795
31,0,4190.769128,4211.794769,4209.743487,4213.846051,4225.128102,4230.256307,4223.58964,4235.897332,4338.461432,4223.58964,4205.128102,4231.281948,4212.82041,4184.102462
32,0,4190.769128,4207.179384,4216.922974,4209.743487,4222.563999,4227.692204,4221.538358,4237.948614,4336.922971,4230.769127,4203.07682,4238.974255,4211.794769,4191.794769
33,0,4214.358871,4225.128102,4234.871691,4228.717845,4232.307589,4226.153743,4224.102461,4248.717845,4343.076817,4240.512717,4220.512717,4253.84605,4227.692204,4213.33323
34,0,4209.230666,4216.410153,4229.743486,4225.128102,4215.384512,4215.897333,4217.948615,4236.922973,4333.333227,4227.692204,4209.743487,4246.153742,4225.640922,4203.07682
35,0,4191.794769,4203.07682,4220.512717,4208.717846,4208.205025,4211.794769,4210.256307,4223.07682,4324.102458,4210.769128,4194.871692,4237.948614,4207.692205,4190.256308
36,0,4208.717846,4226.153743,4230.256307,4224.615281,4238.461435,4222.051179,4218.974256,4236.410153,4334.358868,4223.07682,4210.769128,4246.153742,4219.999897,4205.640923
37,0,4228.205025,4243.58964,4238.461435,4242.051178,4246.153742,4223.58964,4226.666563,4248.205024,4343.589637,4239.487076,4220.512717,4250.256306,4242.051178,4217.435794
38,0,4223.07682,4230.769127,4232.307589,4229.230666,4223.58964,4215.384512,4219.487076,4240.512717,4336.922971,4234.871691,4213.846051,4252.820409,4237.948614,4217.435794
39,0,4230.769127,4227.692204,4237.435794,4225.128102,4226.153743,4216.922974,4216.922974,4233.84605,4328.205022,4232.820409,4217.948615,4263.076819,4236.922973,4231.281948
40,0,4253.333229,4239.999896,4248.205024,4236.410153,4229.743486,4218.974256,4219.487076,4232.307589,4325.64092,4229.230666,4221.538358,4264.10246,4248.717845,4249.743486
41,0,4275.897331,4246.666563,4247.179383,4234.358871,4214.358871,4213.846051,4216.410153,4232.307589,4327.179381,4219.487076,4217.435794,4259.999896,4248.205024,4263.076819
42,0,4301.538356,4252.307588,4249.230665,4236.922973,4212.307589,4210.256307,4214.358871,4235.897332,4328.205022,4219.999897,4219.487076,4265.640921,4243.58964,4284.102459
43,0,4326.15374,4264.10246,4259.999896,4252.307588,4222.563999,4211.281948,4220.512717,4239.487076,4327.179381,4224.615281,4228.205025,4269.230665,4259.487075,4314.871689
44,0,4337.948612,4266.666562,4259.999896,4247.692204,4214.358871,4209.230666,4216.922974,4232.307589,4322.563997,4217.435794,4227.179384,4264.61528,4267.692203,4328.205022
45,0,4348.717842,4266.153742,4256.410152,4241.538358,4210.256307,4209.743487,4213.846051,4230.769127,4322.051176,4211.794769,4223.07682,4268.205024,4256.922973,4329.743484
46,0,4362.563996,4276.410152,4266.666562,4255.384511,4225.128102,4218.461435,4226.666563,4250.256306,4330.256304,4219.999897,4233.33323,4283.076818,4262.563998,4341.025535
47,0,4352.307586,4271.794767,4264.10246,4254.35887,4215.897333,4214.871692,4226.666563,4252.307588,4327.692202,4219.487076,4236.410153,4279.999895,4267.692203,4337.948612
48,0,4326.666561,4255.384511,4250.769127,4243.58964,4201.538359,4203.589641,4214.358871,4234.871691,4318.974253,4215.897333,4219.999897,4264.61528,4252.820409,4311.281946
49,0,4313.846048,4260.512716,4252.820409,4250.256306,4223.07682,4210.256307,4216.922974,4235.384512,4324.615279,4223.07682,4212.307589,4267.692203,4248.205024,4293.846049
50,0,4304.102459,4262.051178,4257.948614,4247.692204,4241.538358,4221.025538,4223.07682,4240.512717,4327.692202,4220.512717,4215.384512,4275.897331,4250.769127,4291.794767
51,0,4279.999895,4237.435794,4247.692204,4227.692204,4220.512717,4214.358871,4213.846051,4223.07682,4312.820407,4204.102461,4204.615282,4261.025537,4236.410153,4276.922972
52,0,4259.487075,4222.563999,4235.384512,4223.07682,4204.615282,4208.717846,4210.769128,4214.358871,4307.179382,4203.07682,4192.30759,4251.281947,4224.102461,4254.871691
53,0,4256.922973,4231.794768,4235.384512,4232.307589,4225.640922,4217.948615,4219.487076,4232.820409,4322.051176,4218.974256,4203.07682,4263.589639,4233.84605,4249.743486
54,0,4250.769127,4229.743486,4233.84605,4227.692204,4234.358871,4222.563999,4219.999897,4239.999896,4327.692202,4221.025538,4209.743487,4259.999896,4233.33323,4244.615281
55,0,4242.563999,4215.897333,4230.769127,4223.58964,4212.307589,4214.871692,4219.487076,4228.717845,4320.512715,4217.435794,4200.512718,4244.10246,4219.487076,4231.281948
56,0,4238.461435,4215.897333,4233.84605,4229.743486,4210.769128,4215.897333,4227.692204,4236.410153,4324.102458,4229.230666,4198.461436,4252.820409,4221.025538,4230.256307
57,0,4235.897332,4224.615281,4235.897332,4227.179384,4235.384512,4228.205025,4231.281948,4249.230665,4332.307586,4237.948614,4206.666564,4266.153742,4229.743486,4234.358871
58,0,4224.615281,4213.33323,4229.743486,4216.922974,4227.179384,4227.692204,4221.025538,4237.435794,4320.512715,4223.07682,4203.07682,4252.307588,4219.999897,4219.999897
59,0,4215.384512,4202.051179,4225.128102,4217.948615,4208.205025,4215.897333,4217.435794,4226.153743,4311.794766,4211.794769,4197.948615,4242.563999,4212.307589,4209.743487
60,0,4224.615281,4216.410153,4232.307589,4225.128102,4223.58964,4215.897333,4221.538358,4234.871691,4322.563997,4225.128102,4205.128102,4252.820409,4226.153743,4221.025538
61,0,4228.717845,4222.051179,4234.871691,4225.640922,4227.179384,4218.974256,4217.435794,4233.33323,4318.461433,4224.615281,4197.435795,4252.307588,4226.666563,4220.512717
62,0,4218.974256,4213.846051,4228.717845,4228.717845,4213.846051,4216.410153,4220.512717,4229.743486,4310.256305,4214.358871,4184.615282,4245.640922,4214.871692,4209.743487
63,0,4212.307589,4219.999897,4229.230666,4231.281948,4222.051179,4217.435794,4231.794768,4241.538358,4321.538356,4224.102461,4193.333231,4249.743486,4218.974256,4212.82041
64,0,4208.717846,4223.58964,4229.743486,4224.615281,4227.179384,4218.461435,4228.205025,4242.051178,4324.615279,4230.256307,4194.871692,4247.179383,4221.025538,4206.153743
65,0,4197.435795,4207.692205,4221.538358,4216.410153,4214.358871,4215.384512,4215.384512,4230.256307,4312.820407,4215.384512,4185.640923,4236.922973,4213.33323,4187.692205
66,0,4194.871692,4206.153743,4220.512717,4217.435794,4219.999897,4216.410153,4216.410153,4231.794768,4317.948612,4212.82041,4195.897333,4239.487076,4211.794769,4189.230667
67,0,4199.999897,4216.410153,4228.205025,4226.666563,4227.692204,4217.948615,4225.128102,4236.922973,4322.051176,4226.153743,4205.128102,4247.179383,4216.922974,4200.512718
68,0,4201.025538,4217.435794,4229.743486,4233.84605,4221.025538,4218.461435,4228.717845,4234.871691,4311.794766,4228.717845,4195.897333,4245.640922,4222.051179,4200.512718
69,0,4203.589641,4218.461435,4231.281948,4231.794768,4225.128102,4219.487076,4229.230666,4235.897332,4312.820407,4224.102461,4196.922974,4244.10246,4225.128102,4199.999897
70,0,4195.384513,4212.82041,4234.358871,4221.025538,4224.102461,4216.410153,4221.538358,4233.33323,4315.89733,4218.461435,4197.948615,4241.538358,4218.461435,4199.487077
71,0,4191.281949,4208.205025,4230.769127,4214.871692,4213.846051,4214.871692,4216.922974,4229.743486,4310.769125,4215.384512,4188.205026,4241.538358,4212.82041,4195.897333
72,0,4210.769128,4218.461435,4230.769127,4228.717845,4225.128102,4216.410153,4219.487076,4231.794768,4308.717843,4218.461435,4195.384513,4246.666563,4216.410153,4201.025538
73,0,4218.461435,4225.640922,4230.256307,4237.435794,4232.820409,4215.384512,4217.948615,4226.153743,4308.717843,4214.358871,4202.051179,4248.205024,4217.948615,4206.153743
