title:V                                                                               , recorded:07.07.20 11.37.42, sampling:128, subject:B                                                                               , labels:COUNTER INTERPOLATED AF3 F7 F3 FC5 T7 P7 O1 O2 P8 T8 FC6 F4 F8 AF4,, units:emotiv,,,,,,,,,
114,0,4204.615282,4212.82041,4250.769127,4209.230666,4212.82041,4215.384512,4214.871692,4211.794769,4212.82041,4205.128102,4234.358871,4276.410152,4214.871692,4176.922975
115,0,4212.307589,4224.102461,4260.512716,4217.948615,4223.07682,4218.461435,4216.922974,4212.82041,4217.435794,4212.82041,4236.922973,4279.487075,4218.461435,4183.589641
116,0,4217.948615,4224.615281,4266.153742,4216.922974,4223.58964,4218.461435,4214.358871,4217.435794,4219.487076,4216.410153,4244.615281,4284.102459,4226.153743,4192.82041
117,0,4215.897333,4220.512717,4260.512716,4216.410153,4211.794769,4214.871692,4212.82041,4218.461435,4221.025538,4222.051179,4245.640922,4284.102459,4226.666563,4193.846051
118,0,4209.230666,4218.974256,4249.743486,4212.82041,4194.358872,4213.846051,4215.384512,4215.897333,4221.538358,4216.922974,4236.410153,4277.948613,4217.948615,4185.128103
119,0,4198.974256,4211.794769,4237.948614,4203.589641,4209.743487,4217.435794,4217.435794,4215.384512,4220.512717,4202.051179,4232.820409,4276.410152,4211.281948,4176.410154
120,0,4189.230667,4199.487077,4230.256307,4195.897333,4219.999897,4217.435794,4214.358871,4214.358871,4217.435794,4203.589641,4226.666563,4270.256306,4204.615282,4171.281949
121,0,4186.153744,4196.410154,4231.281948,4196.410154,4197.435795,4213.846051,4212.82041,4213.846051,4216.922974,4214.871692,4219.999897,4264.10246,4197.435795,4170.256308
122,0,4182.05118,4200.512718,4234.358871,4196.922974,4197.435795,4214.871692,4215.897333,4215.384512,4218.974256,4213.33323,4225.640922,4268.717844,4199.487077,4164.615283
123,0,4178.974257,4198.974256,4232.820409,4197.948615,4221.538358,4218.974256,4216.922974,4215.384512,4217.948615,4212.307589,4228.205025,4268.717844,4201.025538,4156.922975
124,0,4187.692205,4198.461436,4231.794768,4198.974256,4217.948615,4216.410153,4211.281948,4210.256307,4217.435794,4212.307589,4222.563999,4264.10246,4199.487077,4159.999898
125,0,4198.974256,4206.153743,4239.487076,4200.512718,4209.230666,4214.871692,4209.230666,4206.666564,4217.435794,4205.640923,4225.640922,4271.794767,4206.666564,4172.30759
126,0,4206.666564,4215.897333,4248.717845,4209.743487,4228.717845,4218.974256,4213.846051,4210.769128,4219.487076,4205.640923,4235.384512,4285.1281,4217.435794,4183.589641
127,0,4217.435794,4227.179384,4254.35887,4221.025538,4232.820409,4220.512717,4218.461435,4217.435794,4224.615281,4215.384512,4234.871691,4291.281946,4219.999897,4188.717846
128,0,4222.051179,4230.256307,4253.333229,4221.025538,4225.128102,4219.487076,4217.435794,4213.846051,4222.563999,4216.410153,4232.307589,4290.256305,4217.435794,4190.256308
0,0,4207.692205,4221.538358,4243.076819,4214.358871,4219.999897,4217.948615,4210.256307,4207.179384,4215.384512,4203.07682,4228.717845,4282.051177,4215.384512,4183.076821
1,0,4196.922974,4215.384512,4232.820409,4211.281948,4200.512718,4214.358871,4207.692205,4208.717846,4217.948615,4195.384513,4225.128102,4274.87169,4213.846051,4170.256308
2,0,4200.512718,4217.948615,4231.281948,4212.82041,4204.102461,4215.897333,4213.33323,4217.435794,4232.307589,4211.794769,4229.743486,4276.922972,4214.871692,4171.79477
3,0,4202.564,4221.025538,4236.922973,4214.871692,4232.307589,4222.051179,4218.461435,4224.615281,4242.051178,4224.102461,4232.307589,4278.461434,4216.922974,4185.128103
4,0,4198.974256,4217.435794,4238.461435,4213.33323,4230.256307,4224.615281,4216.922974,4222.051179,4237.948614,4210.256307,4228.205025,4278.974254,4215.384512,4187.179385
5,0,4196.410154,4212.82041,4235.897332,4209.743487,4218.461435,4227.179384,4217.948615,4217.948615,4231.794768,4205.128102,4226.666563,4278.461434,4212.82041,4181.025539
6,0,4198.974256,4214.358871,4234.358871,4212.307589,4229.743486,4227.692204,4217.948615,4217.435794,4232.307589,4213.846051,4231.281948,4278.974254,4215.897333,4185.128103
7,0,4203.07682,4214.871692,4233.33323,4214.358871,4229.743486,4218.461435,4213.33323,4216.410153,4231.794768,4206.666564,4229.230666,4278.461434,4214.871692,4188.205026
8,0,4196.410154,4205.128102,4231.794768,4205.640923,4210.769128,4214.358871,4213.846051,4213.846051,4229.743486,4198.461436,4219.999897,4274.87169,4205.128102,4179.999898
9,0,4184.615282,4196.410154,4230.256307,4197.948615,4195.897333,4213.846051,4214.871692,4210.256307,4224.615281,4199.999897,4215.384512,4274.35887,4199.487077,4170.769129
10,0,4184.102462,4195.897333,4229.230666,4199.487077,4188.717846,4206.666564,4211.794769,4205.128102,4218.974256,4195.897333,4216.410153,4276.922972,4202.051179,4169.230667
11,0,4191.281949,4199.487077,4233.84605,4204.102461,4196.922974,4205.640923,4210.256307,4206.153743,4221.538358,4203.589641,4217.948615,4277.948613,4202.564,4177.948616
12,0,4190.256308,4206.666564,4239.999896,4207.692205,4204.102461,4216.410153,4215.897333,4216.410153,4231.281948,4218.974256,4217.435794,4278.461434,4201.538359,4184.615282
13,0,4188.205026,4213.846051,4243.076819,4211.794769,4208.205025,4222.051179,4224.102461,4225.128102,4239.999896,4215.897333,4218.461435,4280.512716,4208.717846,4184.102462
14,0,4199.487077,4214.871692,4247.692204,4214.871692,4226.153743,4224.102461,4226.666563,4231.794768,4248.205024,4216.922974,4224.102461,4283.589639,4217.948615,4187.692205
15,0,4208.205025,4208.717846,4246.153742,4211.281948,4230.769127,4224.615281,4224.102461,4232.307589,4249.743486,4219.999897,4223.58964,4282.563998,4213.846051,4186.666564
16,0,4197.948615,4201.025538,4232.820409,4203.589641,4207.692205,4217.948615,4219.999897,4223.58964,4245.640922,4207.179384,4215.384512,4273.846049,4202.564,4172.820411
17,0,4184.102462,4198.461436,4227.179384,4199.999897,4187.692205,4213.33323,4216.922974,4218.974256,4246.666563,4209.230666,4214.358871,4269.230665,4200.512718,4165.640924
18,0,4180.512718,4199.487077,4232.307589,4203.07682,4185.128103,4216.410153,4216.922974,4222.051179,4250.256306,4224.102461,4218.461435,4277.948613,4203.589641,4171.79477
19,0,4182.05118,4199.487077,4232.307589,4203.589641,4200.512718,4218.461435,4218.974256,4219.999897,4246.666563,4211.281948,4218.461435,4280.512716,4201.538359,4173.846052
20,0,4183.589641,4197.948615,4226.153743,4201.025538,4212.307589,4217.435794,4216.922974,4215.897333,4237.435794,4194.358872,4211.794769,4267.692203,4197.948615,4169.230667
21,0,4183.589641,4194.871692,4221.025538,4202.564,4212.82041,4216.922974,4216.410153,4216.410153,4233.33323,4201.025538,4203.589641,4262.563998,4194.871692,4168.205026
22,0,4182.05118,4192.82041,4217.948615,4200.512718,4216.410153,4219.487076,4222.051179,4217.948615,4234.358871,4207.692205,4203.07682,4271.281947,4195.384513,4170.769129
23,0,4181.025539,4196.922974,4224.615281,4202.051179,4213.846051,4219.999897,4222.563999,4217.435794,4234.358871,4201.538359,4212.82041,4276.922972,4200.512718,4178.461436
24,0,4187.179385,4201.025538,4233.33323,4209.230666,4205.128102,4216.410153,4223.07682,4217.435794,4236.410153,4199.999897,4218.461435,4277.948613,4204.102461,4185.640923
25,0,4189.230667,4198.461436,4230.769127,4208.205025,4212.307589,4223.58964,4228.205025,4218.974256,4243.58964,4206.153743,4214.358871,4276.410152,4199.487077,4181.025539
26,0,4178.974257,4196.410154,4221.538358,4202.051179,4226.153743,4228.717845,4223.07682,4218.461435,4243.076819,4210.256307,4211.281948,4269.230665,4195.897333,4172.30759
27,0,4178.461436,4202.051179,4217.948615,4202.564,4226.153743,4224.615281,4216.922974,4217.435794,4234.871691,4208.205025,4215.384512,4263.589639,4200.512718,4173.333231
28,0,4185.640923,4196.922974,4215.897333,4203.589641,4208.717846,4222.051179,4218.974256,4217.948615,4234.871691,4200.512718,4211.794769,4265.640921,4196.922974,4173.846052
29,0,4172.820411,4182.05118,4210.256307,4196.922974,4194.871692,4221.025538,4217.948615,4216.922974,4234.871691,4193.333231,4201.538359,4261.538357,4187.692205,4165.640924
30,0,4167.692206,4188.717846,4213.33323,4198.461436,4206.153743,4222.563999,4215.897333,4214.358871,4233.84605,4202.564,4206.153743,4259.999896,4194.871692,4170.256308
31,0,4191.281949,4204.102461,4225.128102,4210.769128,4221.538358,4225.640922,4219.487076,4214.871692,4239.999896,4218.461435,4217.948615,4273.846049,4205.640923,4187.692205
32,0,4201.025538,4204.615282,4231.281948,4216.410153,4219.487076,4221.538358,4217.435794,4216.922974,4243.58964,4216.922974,4219.487076,4283.076818,4206.153743,4192.30759
33,0,4187.179385,4206.666564,4230.256307,4217.435794,4224.102461,4214.358871,4212.307589,4211.281948,4234.871691,4207.692205,4221.538358,4278.461434,4208.717846,4188.717846
34,0,4179.999898,4207.179384,4231.281948,4215.897333,4230.769127,4217.435794,4216.410153,4204.102461,4229.230666,4212.82041,4222.563999,4275.897331,4210.769128,4185.128103
35,0,4185.640923,4198.461436,4232.307589,4214.358871,4213.33323,4218.461435,4220.512717,4205.128102,4231.281948,4216.410153,4217.435794,4279.999895,4205.640923,4183.076821
36,0,4196.410154,4205.640923,4235.384512,4215.897333,4208.205025,4214.358871,4219.487076,4211.281948,4230.769127,4211.281948,4215.897333,4282.051177,4209.230666,4188.717846
37,0,4201.025538,4221.538358,4241.025537,4221.025538,4218.974256,4219.487076,4218.974256,4216.410153,4236.922973,4213.846051,4221.025538,4281.538357,4217.435794,4198.974256
38,0,4195.384513,4218.461435,4241.025537,4221.538358,4213.33323,4218.974256,4218.461435,4216.410153,4247.692204,4220.512717,4223.07682,4281.025536,4215.897333,4201.025538
39,0,4196.410154,4208.205025,4234.871691,4216.922974,4226.666563,4218.461435,4215.384512,4214.358871,4246.666563,4218.461435,4220.512717,4280.512716,4212.82041,4199.487077
40,0,4206.153743,4213.33323,4232.820409,4217.435794,4246.153742,4223.58964,4216.410153,4218.461435,4245.128101,4221.025538,4218.974256,4279.487075,4214.358871,4202.564
41,0,4205.128102,4218.461435,4234.871691,4221.025538,4228.717845,4222.563999,4218.974256,4223.07682,4253.84605,4228.717845,4218.974256,4278.974254,4215.384512,4204.615282
42,0,4191.281949,4208.717846,4231.794768,4222.051179,4212.82041,4219.999897,4217.435794,4216.410153,4252.307588,4223.58964,4219.487076,4278.461434,4214.358871,4198.461436
43,0,4183.589641,4202.564,4227.179384,4217.948615,4229.743486,4228.717845,4221.538358,4217.435794,4246.666563,4215.897333,4219.487076,4277.435793,4213.846051,4190.769128
44,0,4189.230667,4211.794769,4228.717845,4215.384512,4236.410153,4233.84605,4228.717845,4228.717845,4256.922973,4223.58964,4220.512717,4278.461434,4215.384512,4190.769128
45,0,4194.871692,4214.871692,4233.84605,4217.435794,4214.358871,4223.07682,4224.615281,4225.640922,4260.512716,4234.358871,4218.461435,4281.025536,4211.794769,4194.358872
46,0,4190.256308,4204.102461,4228.717845,4218.461435,4206.666564,4213.33323,4214.871692,4213.846051,4246.153742,4223.07682,4214.358871,4279.487075,4203.589641,4189.743487
47,0,4189.743487,4197.435795,4220.512717,4212.82041,4223.58964,4217.948615,4215.384512,4216.410153,4243.076819,4210.769128,4214.358871,4277.435793,4202.051179,4187.179385
48,0,4190.769128,4190.769128,4222.051179,4204.615282,4239.487076,4226.153743,4219.487076,4221.538358,4250.256306,4212.82041,4213.846051,4278.461434,4203.589641,4190.769128
49,0,4186.153744,4188.717846,4227.692204,4207.179384,4232.820409,4222.563999,4216.410153,4216.922974,4245.640922,4215.384512,4212.307589,4278.974254,4202.051179,4194.358872
50,0,4192.82041,4198.461436,4231.281948,4217.948615,4219.487076,4215.384512,4213.33323,4220.512717,4245.640922,4215.384512,4213.33323,4286.666562,4205.128102,4199.999897
51,0,4206.666564,4205.128102,4234.871691,4221.025538,4217.435794,4217.948615,4218.974256,4233.33323,4261.538357,4230.256307,4218.974256,4298.974254,4214.358871,4208.717846
52,0,4202.051179,4200.512718,4235.384512,4216.922974,4211.281948,4219.999897,4225.128102,4237.948614,4266.153742,4237.435794,4218.461435,4296.410151,4211.794769,4204.102461
53,0,4187.692205,4190.769128,4227.692204,4215.384512,4210.256307,4217.435794,4221.538358,4228.717845,4252.820409,4213.846051,4205.640923,4281.025536,4193.846051,4190.256308
54,0,4180.512718,4184.615282,4216.922974,4210.769128,4213.33323,4217.435794,4216.410153,4217.435794,4239.999896,4202.051179,4196.410154,4271.794767,4182.564,4179.487077
55,0,4181.025539,4182.564,4212.82041,4205.128102,4215.897333,4219.487076,4216.410153,4215.897333,4234.871691,4216.922974,4197.435795,4271.281947,4183.076821,4171.79477
56,0,4190.256308,4187.179385,4214.358871,4210.256307,4227.692204,4215.897333,4214.871692,4217.435794,4233.33323,4218.461435,4198.461436,4273.846049,4184.102462,4173.846052
57,0,4203.07682,4192.30759,4217.948615,4216.922974,4239.999896,4216.410153,4213.33323,4216.410153,4232.307589,4207.179384,4197.948615,4277.435793,4182.564,4183.589641
58,0,4206.666564,4193.846051,4216.922974,4215.384512,4229.230666,4224.102461,4217.435794,4215.897333,4233.33323,4209.230666,4200.512718,4279.999895,4183.589641,4186.666564
59,0,4201.538359,4194.871692,4217.435794,4212.82041,4217.948615,4224.615281,4221.538358,4219.999897,4240.512717,4218.461435,4200.512718,4278.974254,4189.230667,4188.717846
60,0,4200.512718,4199.487077,4225.640922,4217.948615,4237.948614,4222.051179,4218.461435,4223.58964,4247.692204,4218.974256,4203.07682,4281.025536,4196.922974,4198.461436
61,0,4208.205025,4206.666564,4230.769127,4221.025538,4254.35887,4227.179384,4221.538358,4228.717845,4248.205024,4216.410153,4214.358871,4292.307587,4202.564,4211.281948
62,0,4209.743487,4201.025538,4223.07682,4217.435794,4237.435794,4230.256307,4226.153743,4232.820409,4243.58964,4214.358871,4214.871692,4294.358869,4202.564,4215.384512
63,0,4196.922974,4188.717846,4213.846051,4213.33323,4213.846051,4227.692204,4226.153743,4230.769127,4243.58964,4221.025538,4201.538359,4281.025536,4201.538359,4207.179384
64,0,4188.717846,4189.743487,4213.33323,4214.358871,4221.025538,4228.717845,4226.153743,4230.769127,4246.153742,4231.794768,4204.102461,4273.333229,4202.051179,4196.410154
65,0,4197.948615,4201.538359,4217.435794,4219.999897,4240.512717,4231.281948,4224.615281,4234.358871,4249.230665,4233.33323,4217.948615,4284.102459,4204.615282,4201.538359
66,0,4197.435795,4197.435795,4214.871692,4213.33323,4228.205025,4225.128102,4221.538358,4234.358871,4246.666563,4227.692204,4210.256307,4287.179382,4203.07682,4208.717846
67,0,4189.743487,4186.153744,4211.281948,4203.07682,4214.358871,4224.615281,4225.640922,4232.307589,4245.128101,4226.666563,4197.435795,4282.051177,4201.025538,4206.666564
68,0,4202.564,4193.333231,4222.051179,4211.281948,4223.07682,4227.692204,4235.897332,4236.410153,4252.307588,4235.897332,4202.564,4290.256305,4205.128102,4213.33323
69,0,4211.794769,4193.333231,4230.769127,4216.922974,4218.974256,4222.563999,4228.205025,4235.897332,4251.794768,4232.820409,4204.102461,4293.846049,4205.640923,4219.487076
70,0,4199.999897,4181.025539,4223.07682,4207.692205,4217.948615,4216.410153,4216.922974,4227.179384,4244.10246,4216.922974,4197.435795,4282.563998,4206.153743,4214.358871
71,0,4203.589641,4189.230667,4225.640922,4208.717846,4236.922973,4218.974256,4222.563999,4228.205025,4244.615281,4222.563999,4202.564,4287.692203,4214.358871,4217.948615
72,0,4218.974256,4202.051179,4236.410153,4219.999897,4216.410153,4219.487076,4224.615281,4237.948614,4250.256306,4235.384512,4208.717846,4298.974254,4219.999897,4226.153743
73,0,4211.794769,4192.30759,4230.769127,4216.410153,4190.769128,4213.846051,4217.948615,4232.307589,4245.128101,4223.58964,4201.025538,4288.717844,4212.82041,4221.538358
74,0,4196.410154,4184.102462,4219.999897,4204.615282,4228.717845,4216.410153,4216.410153,4216.410153,4234.871691,4212.307589,4189.743487,4273.333229,4204.615282,4214.358871
75,0,4197.948615,4187.692205,4215.384512,4202.564,4234.871691,4219.487076,4217.948615,4212.82041,4230.769127,4214.871692,4182.564,4272.820408,4200.512718,4214.871692
76,0,4211.281948,4189.230667,4217.435794,4210.256307,4186.666564,4214.871692,4214.358871,4222.051179,4238.461435,4215.384512,4189.230667,4274.87169,4201.025538,4215.897333
77,0,4217.435794,4192.82041,4224.102461,4216.922974,4198.974256,4217.435794,4214.358871,4231.281948,4247.692204,4225.128102,4197.948615,4276.410152,4209.743487,4218.974256
78,0,4210.769128,4192.82041,4223.58964,4216.410153,4241.538358,4221.025538,4217.435794,4232.307589,4247.179383,4235.384512,4192.30759,4278.461434,4216.410153,4218.974256
79,0,4209.743487,4185.640923,4216.922974,4212.82041,4239.999896,4218.461435,4216.922974,4230.769127,4246.153742,4227.692204,4188.717846,4272.820408,4215.897333,4214.871692
80,0,4217.948615,4189.743487,4215.384512,4211.281948,4224.102461,4218.461435,4216.922974,4231.794768,4249.743486,4228.205025,4194.358872,4266.666562,4213.846051,4216.410153
81,0,4217.948615,4201.025538,4217.435794,4214.358871,4211.281948,4217.948615,4214.871692,4231.281948,4246.153742,4235.384512,4195.897333,4270.256306,4213.846051,4218.974256
82,0,4215.384512,4203.07682,4224.615281,4219.487076,4217.948615,4216.410153,4214.358871,4229.743486,4245.128101,4227.692204,4195.384513,4278.974254,4217.435794,4219.999897
83,0,4219.999897,4201.538359,4229.743486,4217.948615,4251.794768,4221.025538,4216.410153,4228.205025,4250.769127,4216.410153,4194.871692,4278.461434,4215.897333,4220.512717
84,0,4215.897333,4199.999897,4220.512717,4213.846051,4230.769127,4223.58964,4213.846051,4219.487076,4241.025537,4216.410153,4183.076821,4265.640921,4204.615282,4211.281948
85,0,4212.307589,4197.948615,4214.358871,4215.384512,4191.794769,4221.025538,4212.307589,4213.33323,4230.769127,4216.410153,4172.30759,4259.487075,4197.435795,4207.179384
86,0,4213.33323,4198.461436,4219.487076,4218.461435,4231.794768,4220.512717,4215.897333,4215.897333,4239.999896,4214.358871,4172.820411,4261.538357,4199.999897,4212.307589
87,0,4208.205025,4198.461436,4218.974256,4217.435794,4264.10246,4218.974256,4215.897333,4217.435794,4246.666563,4223.58964,4171.281949,4262.563998,4200.512718,4208.205025
88,0,4205.640923,4197.435795,4211.794769,4214.871692,4230.769127,4214.358871,4213.33323,4218.461435,4242.051178,4226.153743,4171.281949,4261.025537,4198.461436,4201.538359
89,0,4214.871692,4200.512718,4216.922974,4217.948615,4228.205025,4216.410153,4216.410153,4223.58964,4246.153742,4217.948615,4177.948616,4265.128101,4204.615282,4211.281948
90,0,4221.538358,4201.538359,4229.230666,4219.487076,4256.922973,4218.461435,4213.846051,4222.051179,4249.230665,4225.640922,4186.666564,4276.410152,4211.794769,4219.999897
91,0,4219.999897,4196.922974,4233.84605,4217.435794,4235.897332,4211.794769,4205.640923,4214.358871,4242.563999,4231.794768,4190.769128,4281.538357,4212.82041,4214.358871
92,0,4224.102461,4196.922974,4235.897332,4223.07682,4207.692205,4210.256307,4209.230666,4221.025538,4245.640922,4225.128102,4189.230667,4281.025536,4212.82041,4215.897333
93,0,4226.153743,4201.538359,4238.974255,4226.666563,4210.769128,4215.897333,4217.435794,4233.84605,4251.794768,4228.717845,4185.640923,4282.563998,4211.281948,4218.461435
94,0,4215.897333,4199.487077,4236.410153,4219.487076,4216.410153,4218.461435,4216.410153,4230.769127,4247.179383,4231.794768,4184.102462,4279.999895,4204.102461,4210.256307
95,0,4203.07682,4190.256308,4225.640922,4213.846051,4224.102461,4216.922974,4214.358871,4217.948615,4239.999896,4215.384512,4182.05118,4268.205024,4198.461436,4202.051179
96,0,4201.538359,4184.102462,4218.974256,4215.897333,4235.897332,4216.410153,4213.846051,4213.33323,4237.435794,4210.256307,4173.333231,4261.025537,4198.461436,4199.999897
97,0,4207.692205,4190.769128,4224.102461,4215.897333,4236.410153,4213.33323,4213.846051,4214.358871,4234.358871,4216.922974,4168.205026,4262.051178,4197.435795,4197.435795
98,0,4204.102461,4195.897333,4230.769127,4213.846051,4219.487076,4206.666564,4214.358871,4207.179384,4228.205025,4215.897333,4168.717847,4261.025537,4195.897333,4196.922974
99,0,4196.410154,4187.179385,4228.205025,4215.384512,4197.435795,4200.512718,4209.230666,4198.974256,4223.07682,4212.307589,4166.153744,4257.948614,4196.410154,4199.487077
100,0,4202.051179,4184.615282,4225.128102,4216.410153,4193.333231,4204.102461,4207.692205,4203.07682,4224.615281,4199.999897,4169.230667,4257.948614,4196.922974,4197.948615
101,0,4218.461435,4198.974256,4231.794768,4216.922974,4228.205025,4217.435794,4216.410153,4214.358871,4239.487076,4203.589641,4181.025539,4266.153742,4206.666564,4207.179384
102,0,4217.948615,4201.538359,4232.820409,4215.384512,4248.717845,4221.025538,4218.461435,4219.487076,4248.717845,4229.230666,4186.153744,4275.384511,4216.410153,4219.487076
103,0,4211.794769,4195.384513,4228.717845,4215.384512,4233.84605,4214.358871,4213.846051,4223.07682,4246.153742,4231.794768,4183.589641,4275.897331,4215.384512,4216.922974
104,0,4229.743486,4203.589641,4239.999896,4226.666563,4227.692204,4216.922974,4221.538358,4234.358871,4254.871691,4234.871691,4194.358872,4284.102459,4223.58964,4224.615281
105,0,4239.487076,4209.743487,4247.692204,4235.384512,4225.640922,4222.563999,4229.743486,4243.076819,4267.179383,4256.410152,4206.666564,4297.948613,4236.922973,4244.615281
106,0,4220.512717,4205.128102,4234.871691,4231.281948,4219.487076,4217.948615,4228.717845,4244.10246,4263.589639,4247.179383,4197.435795,4291.281946,4228.717845,4237.435794
107,0,4215.897333,4192.30759,4227.692204,4228.717845,4229.743486,4216.410153,4230.256307,4242.563999,4256.410152,4222.051179,4180.512718,4276.922972,4212.307589,4207.179384
108,0,4226.153743,4163.076821,4233.33323,4229.743486,4241.538358,4221.025538,4228.717845,4237.948614,4255.384511,4227.179384,4178.461436,4277.435793,4214.358871,4187.692205
109,0,4222.563999,4138.461437,4232.307589,4221.025538,4236.922973,4218.974256,4220.512717,4231.281948,4250.769127,4231.281948,4184.615282,4277.948613,4218.461435,4179.487077
110,0,4212.82041,4131.28195,4229.230666,4214.871692,4216.922974,4213.846051,4216.922974,4223.07682,4247.179383,4226.153743,4179.999898,4268.205024,4208.205025,4172.820411
111,0,4211.794769,4122.051181,4228.205025,4222.563999,4184.615282,4210.769128,4216.410153,4216.410153,4245.640922,4225.640922,4168.205026,4259.999896,4199.999897,4165.640924
112,0,4218.974256,4121.02554,4231.281948,4229.743486,4199.487077,4214.358871,4219.487076,4221.025538,4243.076819,4211.794769,4169.230667,4263.589639,4206.153743,4168.717847
113,0,4231.794768,4139.487078,4243.58964,4233.33323,4257.948614,4225.640922,4230.769127,4232.820409,4249.743486,4208.717846,4181.538359,4274.87169,4217.435794,4184.615282
114,0,4236.922973,4145.128104,4248.205024,4234.358871,4257.948614,4224.102461,4230.256307,4233.33323,4257.948614,4226.666563,4184.102462,4276.922972,4218.974256,4189.743487
115,0,4230.256307,4135.897335,4242.563999,4231.794768,4224.102461,4215.897333,4220.512717,4230.769127,4257.435793,4233.84605,4180.512718,4270.256306,4214.871692,4182.564
116,0,4229.743486,4142.051181,4243.58964,4235.384512,4233.84605,4223.07682,4228.717845,4241.538358,4264.61528,4239.487076,4188.717846,4274.87169,4222.051179,4185.640923
117,0,4223.07682,4141.53836,4239.999896,4233.33323,4219.999897,4226.666563,4234.358871,4243.076819,4267.692203,4243.076819,4191.281949,4276.922972,4221.025538,4184.102462
118,0,4208.205025,4123.589643,4229.230666,4221.025538,4181.025539,4214.871692,4219.999897,4229.743486,4252.820409,4231.794768,4181.025539,4264.61528,4206.666564,4167.692206
119,0,4208.205025,4125.128104,4232.307589,4220.512717,4217.435794,4214.358871,4215.384512,4228.717845,4249.230665,4224.102461,4181.025539,4260.512716,4208.205025,4163.589642
120,0,4213.846051,4135.384514,4237.435794,4223.58964,4263.589639,4223.58964,4223.58964,4232.307589,4256.410152,4224.615281,4183.589641,4265.128101,4216.922974,4171.281949
121,0,4210.256307,4127.692207,4231.281948,4217.948615,4232.820409,4218.461435,4219.999897,4221.538358,4251.281947,4216.922974,4173.333231,4262.563998,4206.666564,4169.230667
122,0,4205.640923,4123.076822,4229.230666,4219.999897,4201.538359,4212.82041,4213.846051,4214.871692,4246.153742,4210.256307,4168.205026,4258.974255,4196.922974,4165.128103
123,0,4209.743487,4130.256309,4234.871691,4229.230666,4217.948615,4216.410153,4215.897333,4218.461435,4249.230665,4215.384512,4173.846052,4258.974255,4204.102461,4167.692206
124,0,4211.281948,4132.307591,4233.84605,4227.692204,4225.640922,4218.461435,4216.922974,4215.897333,4247.692204,4217.435794,4173.846052,4257.435793,4203.589641,4166.666565
125,0,4212.82041,4133.333232,4231.281948,4225.640922,4210.256307,4216.410153,4217.948615,4213.846051,4246.153742,4214.871692,4175.897334,4257.948614,4198.461436,4166.666565
126,0,4219.999897,4141.02554,4238.974255,4231.281948,4192.30759,4214.358871,4219.999897,4222.563999,4251.794768,4218.974256,4185.640923,4263.589639,4210.256307,4175.384513
127,0,4219.999897,4140.512719,4247.179383,4232.307589,4195.384513,4213.846051,4219.487076,4225.640922,4252.307588,4219.999897,4186.153744,4267.179383,4218.461435,4185.640923
128,0,4222.563999,4145.128104,4249.230665,4230.256307,4226.666563,4215.384512,4218.974256,4221.538358,4250.256306,4215.897333,4181.538359,4265.640921,4212.307589,4189.230667
0,0,4229.743486,4154.871693,4245.640922,4231.281948,4242.563999,4217.948615,4220.512717,4223.07682,4250.256306,4214.871692,4185.640923,4263.589639,4211.281948,4183.589641
1,0,4225.128102,4148.205027,4239.487076,4231.794768,4232.307589,4218.974256,4221.025538,4223.58964,4251.281947,4218.974256,4184.615282,4263.589639,4214.871692,4175.384513
2,0,4212.82041,4137.435796,4232.820409,4228.205025,4225.640922,4217.948615,4219.487076,4218.461435,4247.692204,4212.82041,4171.281949,4255.897332,4205.640923,4169.743488
3,0,4211.281948,4144.615283,4227.692204,4225.128102,4214.358871,4218.974256,4219.487076,4213.33323,4245.640922,4208.205025,4168.717847,4247.692204,4203.07682,4167.692206
4,0,4215.897333,4155.897334,4228.717845,4230.256307,4197.435795,4221.538358,4219.487076,4215.384512,4252.820409,4213.846051,4180.512718,4253.333229,4215.384512,4173.333231
5,0,4217.435794,4156.922975,4234.358871,4236.410153,4217.948615,4222.051179,4221.025538,4222.563999,4261.538357,4216.922974,4184.615282,4261.538357,4214.871692,4179.999898
6,0,4221.538358,4157.948616,4236.922973,4235.897332,4238.974255,4219.487076,4221.538358,4226.666563,4263.589639,4221.538358,4182.564,4262.563998,4212.82041,4183.076821
7,0,4224.615281,4158.974257,4235.384512,4233.33323,4208.205025,4215.897333,4217.435794,4224.615281,4261.538357,4229.230666,4191.281949,4261.538357,4226.666563,4187.692205
8,0,4226.153743,4159.487078,4239.999896,4233.84605,4200.512718,4216.922974,4213.846051,4225.640922,4264.61528,4232.820409,4199.487077,4264.61528,4234.358871,4199.999897
9,0,4233.84605,4168.205026,4250.256306,4235.897332,4245.128101,4223.07682,4220.512717,4238.974255,4273.846049,4232.307589,4202.051179,4275.897331,4237.435794,4214.358871
10,0,4241.025537,4172.30759,4247.179383,4234.871691,4251.794768,4224.615281,4230.256307,4249.743486,4285.1281,4234.358871,4207.179384,4284.61528,4245.128101,4219.999897
11,0,4229.230666,4157.948616,4232.820409,4228.205025,4203.07682,4215.897333,4224.102461,4242.051178,4278.974254,4237.435794,4202.564,4272.820408,4237.435794,4207.179384
12,0,4213.33323,4150.256309,4226.153743,4226.153743,4195.384513,4212.82041,4214.871692,4228.717845,4262.563998,4236.410153,4188.205026,4259.999896,4219.487076,4192.30759
13,0,4215.384512,4157.435796,4236.922973,4231.794768,4232.820409,4226.153743,4224.102461,4232.307589,4262.051178,4228.205025,4186.666564,4265.128101,4214.871692,4192.82041
14,0,4214.358871,4156.922975,4240.512717,4232.307589,4235.384512,4232.307589,4231.281948,4231.281948,4264.61528,4211.794769,4188.717846,4266.153742,4213.33323,4188.717846
15,0,4205.640923,4151.28195,4232.307589,4227.692204,4215.384512,4224.102461,4223.58964,4216.922974,4257.948614,4208.717846,4184.615282,4261.538357,4211.794769,4185.640923
16,0,4208.205025,4155.384514,4237.948614,4229.743486,4213.846051,4219.999897,4219.999897,4221.025538,4259.487075,4221.538358,4191.281949,4265.128101,4221.538358,4198.974256
17,0,4217.435794,4162.564001,4249.230665,4231.281948,4212.307589,4220.512717,4222.051179,4233.33323,4265.128101,4231.794768,4201.538359,4269.743485,4230.769127,4200.512718
18,0,4225.640922,4168.205026,4252.820409,4232.307589,4201.025538,4215.384512,4219.999897,4231.281948,4266.666562,4234.358871,4200.512718,4271.794767,4231.794768,4161.53836
19,0,4233.33323,4173.846052,4255.384511,4239.487076,4215.897333,4213.33323,4218.461435,4230.256307,4272.820408,4229.743486,4199.999897,4272.307588,4233.33323,4144.615283
20,0,4226.666563,4174.871693,4254.35887,4239.487076,4246.153742,4225.128102,4217.948615,4234.871691,4278.461434,4232.820409,4202.051179,4265.128101,4236.410153,4198.974256
21,0,4216.410153,4172.820411,4242.563999,4231.794768,4246.666563,4232.820409,4223.58964,4233.33323,4280.512716,4245.128101,4199.487077,4260.512716,4232.820409,4141.53836
22,0,4214.358871,4168.205026,4231.281948,4228.717845,4226.666563,4226.666563,4230.256307,4233.84605,4282.051177,4239.999896,4196.922974,4260.512716,4223.58964,4165.640924
23,0,4205.640923,4156.410155,4222.051179,4223.07682,4213.33323,4216.410153,4224.615281,4233.84605,4273.333229,4222.051179,4193.846051,4251.794768,4217.948615,4756.41014
24,0,4192.30759,4149.743488,4213.33323,4214.871692,4205.640923,4213.846051,4215.384512,4222.051179,4260.512716,4227.179384,4185.640923,4242.051178,4217.435794,5551.794736
25,0,4192.82041,4158.974257,4219.999897,4221.538358,4193.846051,4215.897333,4217.948615,4217.435794,4258.974255,4235.897332,4185.128103,4246.153742,4219.487076,5863.5896
26,0,4205.640923,4168.717847,4230.256307,4231.281948,4198.974256,4215.897333,4221.025538,4219.999897,4261.025537,4220.512717,4195.384513,4253.333229,4222.563999,5848.204985
27,0,4216.922974,4168.205026,4232.820409,4231.281948,4227.179384,4216.410153,4216.410153,4217.948615,4262.051178,4216.410153,4199.487077,4257.948614,4226.153743,5825.128063
28,0,4219.487076,4173.846052,4234.871691,4231.794768,4240.512717,4216.922974,4217.435794,4219.999897,4268.717844,4225.640922,4197.948615,4264.10246,4229.743486,5649.230631
29,0,4216.922974,4184.615282,4238.461435,4234.358871,4232.820409,4224.102461,4224.102461,4231.794768,4277.948613,4233.84605,4204.615282,4267.692203,4234.358871,5382.05115
30,0,4217.435794,4186.666564,4236.410153,4234.871691,4234.358871,4231.281948,4227.692204,4237.435794,4283.076818,4242.563999,4208.717846,4265.640921,4236.410153,5223.589616
31,0,4212.307589,4184.615282,4232.307589,4234.358871,4233.33323,4224.615281,4227.179384,4233.84605,4283.076818,4243.076819,4202.051179,4263.589639,4233.33323,5108.205003
32,0,4198.461436,4181.538359,4232.820409,4232.820409,4211.794769,4214.358871,4228.717845,4233.84605,4277.948613,4233.84605,4198.461436,4261.538357,4226.153743,4999.999878
33,0,4192.82041,4174.358872,4232.820409,4231.281948,4203.589641,4212.307589,4231.794768,4234.358871,4274.87169,4232.307589,4198.461436,4253.84605,4220.512717,4916.922957
34,0,4190.769128,4168.205026,4231.281948,4229.230666,4214.871692,4215.384512,4231.281948,4232.820409,4275.897331,4230.769127,4191.794769,4247.179383,4217.435794,4855.897317
35,0,4183.589641,4167.179385,4229.230666,4225.128102,4212.82041,4216.922974,4229.230666,4231.794768,4276.410152,4225.128102,4187.692205,4248.717845,4216.410153,4801.025524
36,0,4188.717846,4170.256308,4231.281948,4228.717845,4213.33323,4219.999897,4231.794768,4229.230666,4272.307588,4227.179384,4190.256308,4251.794768,4216.410153,4748.717833
37,0,4202.564,4173.846052,4239.999896,4233.84605,4228.205025,4220.512717,4231.281948,4221.538358,4264.61528,4225.128102,4188.717846,4254.35887,4211.794769,4699.487065
38,0,4204.615282,4170.769129,4246.666563,4230.256307,4225.128102,4219.487076,4224.102461,4213.846051,4256.410152,4210.769128,4183.076821,4257.948614,4206.666564,4654.871681
39,0,4206.666564,4173.846052,4247.692204,4229.743486,4213.846051,4219.487076,4218.974256,4214.358871,4255.384511,4214.358871,4188.205026,4264.61528,4210.769128,4625.640913
40,0,4217.435794,4183.076821,4245.128101,4235.384512,4215.897333,4217.948615,4219.487076,4219.999897,4261.538357,4229.230666,4198.461436,4265.128101,4218.974256,4602.05117
41,0,4212.307589,4177.435795,4237.948614,4229.743486,4206.666564,4217.435794,4218.974256,4221.025538,4263.589639,4224.102461,4194.358872,4253.84605,4216.922974,4566.153734
42,0,4194.358872,4165.128103,4227.179384,4216.410153,4197.948615,4216.410153,4216.410153,4217.948615,4262.563998,4212.82041,4184.615282,4243.076819,4205.640923,4525.640915
43,0,4191.281949,4167.179385,4224.102461,4213.846051,4213.33323,4218.461435,4222.051179,4215.384512,4261.538357,4217.435794,4185.128103,4242.563999,4202.051179,4497.948608
44,0,4198.461436,4172.820411,4230.256307,4224.102461,4222.563999,4222.563999,4230.256307,4217.948615,4256.410152,4222.563999,4188.205026,4246.153742,4207.692205,4477.435788
45,0,4200.512718,4172.30759,4234.358871,4230.256307,4212.82041,4221.538358,4231.794768,4223.07682,4257.948614,4214.358871,4187.179385,4247.179383,4211.281948,4457.435788
46,0,4199.487077,4172.820411,4227.692204,4224.102461,4219.487076,4222.563999,4228.205025,4221.025538,4262.563998,4217.435794,4187.179385,4240.512717,4208.717846,4435.384507
47,0,4197.435795,4174.358872,4214.358871,4214.871692,4231.281948,4227.179384,4227.692204,4215.384512,4252.307588,4223.07682,4183.589641,4231.281948,4202.564,4409.743482
48,0,4195.384513,4176.410154,4211.794769,4215.384512,4218.974256,4228.717845,4229.743486,4215.384512,4244.615281,4207.692205,4180.512718,4234.871691,4198.461436,4388.205021
49,0,4207.692205,4187.692205,4228.717845,4226.666563,4209.743487,4228.717845,4231.794768,4219.487076,4255.897332,4205.128102,4190.256308,4251.794768,4208.717846,4383.589636
50,0,4229.230666,4198.974256,4241.025537,4234.358871,4217.948615,4229.230666,4232.820409,4218.461435,4265.640921,4226.153743,4201.538359,4265.640921,4221.025538,4387.17938
51,0,4230.769127,4199.487077,4235.897332,4231.794768,4218.974256,4220.512717,4227.179384,4215.384512,4259.487075,4238.461435,4201.025538,4267.179383,4222.563999,4378.974252
52,0,4216.922974,4198.461436,4232.820409,4229.743486,4215.384512,4214.358871,4225.128102,4219.999897,4257.948614,4229.230666,4204.102461,4264.10246,4225.128102,4361.538355
53,0,4215.897333,4199.999897,4240.512717,4234.358871,4215.384512,4218.974256,4230.256307,4225.128102,4265.128101,4223.07682,4212.82041,4265.640921,4227.692204,4344.615278
54,0,4218.974256,4192.30759,4235.384512,4230.256307,4216.922974,4218.461435,4231.281948,4221.025538,4262.563998,4226.666563,4206.666564,4262.051178,4218.974256,4328.205022
55,0,4214.871692,4183.076821,4219.487076,4219.487076,4222.051179,4215.384512,4226.153743,4215.897333,4255.384511,4223.07682,4196.922974,4252.307588,4215.897333,4310.769125
56,0,4212.307589,4186.153744,4219.999897,4219.999897,4221.025538,4217.435794,4223.07682,4217.435794,4256.922973,4217.948615,4198.974256,4248.717845,4218.974256,4294.87169
57,0,4213.846051,4192.30759,4230.256307,4228.205025,4213.846051,4219.487076,4224.615281,4220.512717,4264.10246,4223.58964,4201.538359,4250.769127,4218.974256,4283.589639
58,0,4214.871692,4189.230667,4231.794768,4230.256307,4209.743487,4219.487076,4227.179384,4218.974256,4261.538357,4236.410153,4201.025538,4251.281947,4219.999897,4275.384511
59,0,4212.82041,4185.640923,4226.153743,4224.615281,4207.179384,4216.410153,4226.666563,4215.384512,4252.307588,4230.256307,4196.922974,4245.128101,4215.384512,4261.025537
60,0,4210.769128,4190.769128,4227.179384,4223.07682,4213.846051,4221.025538,4225.128102,4219.487076,4253.333229,4213.846051,4193.333231,4241.025537,4213.846051,4247.692204
61,0,4217.435794,4202.051179,4237.948614,4231.281948,4238.461435,4233.33323,4231.794768,4228.717845,4266.666562,4219.999897,4202.051179,4253.84605,4227.179384,4251.794768
62,0,4221.025538,4202.051179,4240.512717,4233.84605,4237.435794,4229.743486,4233.33323,4226.666563,4264.10246,4237.435794,4208.717846,4266.153742,4229.230666,4249.743486
63,0,4206.666564,4189.230667,4233.84605,4224.102461,4198.461436,4213.846051,4219.487076,4215.897333,4246.153742,4233.33323,4196.922974,4252.307588,4210.256307,4222.051179
64,0,4194.871692,4179.999898,4229.230666,4214.358871,4184.102462,4213.33323,4216.922974,4217.435794,4249.230665,4211.794769,4189.743487,4232.820409,4204.615282,4197.435795
65,0,4201.025538,4182.564,4228.717845,4217.948615,4212.307589,4222.051179,4228.717845,4227.179384,4266.666562,4218.461435,4197.948615,4232.820409,4213.33323,4196.922974
66,0,4200.512718,4183.589641,4221.025538,4216.922974,4224.615281,4219.487076,4232.820409,4229.230666,4265.128101,4237.435794,4197.948615,4235.897332,4208.205025,4191.794769
67,0,4189.230667,4174.358872,4215.384512,4205.640923,4195.897333,4213.846051,4228.717845,4228.205025,4255.897332,4225.128102,4190.769128,4232.307589,4197.435795,4172.820411
68,0,4187.179385,4169.230667,4219.487076,4205.640923,4181.538359,4214.358871,4226.153743,4225.640922,4259.487075,4207.692205,4193.333231,4232.307589,4198.461436,4165.640924
69,0,4190.769128,4172.820411,4220.512717,4212.82041,4203.07682,4215.897333,4220.512717,4219.999897,4261.025537,4218.461435,4195.384513,4235.384512,4203.07682,4170.769129
70,0,4194.358872,4172.820411,4215.897333,4206.153743,4208.717846,4212.82041,4216.922974,4218.461435,4249.743486,4223.58964,4192.82041,4233.33323,4201.538359,4171.79477
71,0,4195.897333,4170.769129,4213.846051,4199.487077,4187.179385,4209.230666,4222.051179,4219.999897,4245.640922,4211.794769,4196.410154,4230.769127,4201.538359,4163.076821
72,0,4203.589641,4179.999898,4217.435794,4210.769128,4189.743487,4211.281948,4227.179384,4220.512717,4256.410152,4221.538358,4203.07682,4233.84605,4208.717846,4157.435796
73,0,4211.281948,4193.333231,4216.922974,4221.025538,4207.179384,4215.384512,4228.717845,4219.487076,4263.076819,4234.871691,4199.999897,4231.794768,4209.230666,4156.410155
74,0,4209.230666,4198.974256,4216.410153,4218.461435,4211.794769,4216.410153,4227.692204,4218.461435,4255.384511,4224.102461,4191.794769,4223.07682,4204.615282,4149.743488
75,0,4202.564,4194.871692,4214.358871,4216.410153,4200.512718,4213.846051,4223.58964,4215.897333,4248.717845,4214.871692,4187.179385,4219.487076,4202.564,4137.435796
76,0,4201.025538,4186.666564,4202.564,4216.922974,4181.538359,4204.102461,4216.922974,4213.33323,4247.692204,4215.897333,4184.102462,4213.33323,4201.538359,4126.666566
77,0,4201.025538,4184.615282,4194.358872,4215.384512,4185.128103,4199.999897,4215.384512,4212.307589,4246.666563,4212.307589,4181.025539,4205.128102,4197.435795,4121.02554
78,0,4198.461436,4192.30759,4196.922974,4215.897333,4211.794769,4211.281948,4223.58964,4215.897333,4247.179383,4217.948615,4182.05118,4207.692205,4197.435795,4120.51272
79,0,4201.025538,4202.051179,4204.615282,4222.563999,4217.435794,4213.846051,4228.205025,4221.025538,4249.743486,4226.153743,4187.692205,4217.948615,4204.102461,4123.076822
80,0,4203.589641,4205.128102,4206.666564,4226.153743,4203.07682,4204.102461,4221.025538,4220.512717,4249.743486,4214.871692,4185.640923,4217.435794,4200.512718,4116.922976
81,0,4201.538359,4201.025538,4202.051179,4220.512717,4197.948615,4207.179384,4215.384512,4214.871692,4248.717845,4208.205025,4174.358872,4204.615282,4188.205026,4103.076823
82,0,4202.051179,4198.461436,4196.922974,4213.846051,4206.666564,4218.461435,4223.58964,4213.33323,4248.205024,4209.743487,4168.717847,4197.948615,4183.589641,4099.9999
83,0,4209.743487,4209.743487,4199.999897,4218.974256,4223.58964,4219.487076,4231.794768,4220.512717,4250.769127,4209.743487,4172.30759,4203.07682,4190.256308,4106.666566
84,0,4213.846051,4216.922974,4202.051179,4224.615281,4214.358871,4211.794769,4227.692204,4217.948615,4248.205024,4211.794769,4173.333231,4206.153743,4190.769128,4103.589643
85,0,4209.230666,4210.769128,4197.948615,4224.615281,4193.846051,4203.07682,4218.461435,4202.564,4237.948614,4207.692205,4168.717847,4201.538359,4185.128103,4095.897336
86,0,4213.33323,4210.256307,4206.153743,4227.692204,4205.128102,4197.948615,4212.307589,4196.410154,4232.307589,4194.358872,4169.230667,4201.025538,4188.717846,4097.435797
87,0,4216.922974,4218.974256,4215.897333,4234.871691,4211.281948,4199.487077,4213.33323,4199.487077,4231.281948,4193.846051,4171.281949,4205.640923,4189.743487,4097.948618
88,0,4213.846051,4217.435794,4208.717846,4233.84605,4205.128102,4203.589641,4217.948615,4203.07682,4234.871691,4211.794769,4169.230667,4204.615282,4189.230667,4093.333233
89,0,4211.281948,4205.640923,4196.922974,4223.58964,4211.794769,4203.07682,4220.512717,4209.230666,4241.538358,4219.999897,4168.205026,4199.487077,4194.358872,4091.794772
90,0,4204.615282,4204.615282,4195.384513,4221.025538,4205.640923,4201.538359,4220.512717,4213.846051,4238.461435,4209.230666,4169.230667,4196.922974,4192.82041,4089.74349
91,0,4202.564,4214.358871,4206.666564,4228.717845,4199.999897,4203.07682,4219.999897,4214.358871,4232.307589,4204.615282,4170.769129,4201.025538,4190.256308,4090.25631
92,0,4215.384512,4221.025538,4216.410153,4231.281948,4213.846051,4207.179384,4220.512717,4216.922974,4242.563999,4215.897333,4174.358872,4204.615282,4194.358872,4095.897336
93,0,4218.461435,4217.948615,4209.230666,4226.666563,4201.538359,4201.025538,4217.435794,4217.948615,4249.230665,4221.025538,4173.333231,4201.538359,4190.256308,4092.820413
94,0,4211.281948,4213.33323,4197.948615,4225.640922,4196.922974,4196.410154,4216.410153,4214.358871,4243.076819,4215.897333,4171.281949,4198.461436,4186.666564,4088.205028
95,0,4216.410153,4216.410153,4205.128102,4229.743486,4229.743486,4211.281948,4226.153743,4217.948615,4245.640922,4217.948615,4174.358872,4203.07682,4197.435795,4095.384515
96,0,4221.025538,4223.58964,4216.922974,4232.307589,4231.281948,4216.922974,4232.820409,4219.487076,4246.153742,4209.230666,4175.384513,4201.538359,4196.922974,4095.897336
97,0,4214.358871,4226.153743,4212.82041,4233.84605,4213.846051,4203.589641,4224.615281,4213.33323,4234.358871,4193.333231,4165.640924,4190.769128,4183.589641,4082.051182
98,0,4205.640923,4219.999897,4202.051179,4232.307589,4208.717846,4196.410154,4214.871692,4209.743487,4230.256307,4203.07682,4155.897334,4184.615282,4182.05118,4071.281952
99,0,4191.794769,4210.256307,4192.30759,4219.999897,4191.281949,4199.487077,4216.410153,4204.615282,4232.307589,4212.307589,4150.256309,4175.384513,4176.410154,4062.564003
100,0,4186.666564,4207.179384,4193.333231,4213.33323,4187.179385,4199.487077,4217.435794,4201.025538,4230.769127,4198.974256,4150.256309,4169.743488,4168.205026,4056.410157
101,0,4199.487077,4213.846051,4200.512718,4220.512717,4203.589641,4198.974256,4214.871692,4208.205025,4231.794768,4197.948615,4153.333232,4177.435795,4176.410154,4063.589644
102,0,4203.589641,4216.922974,4201.025538,4225.128102,4204.102461,4200.512718,4214.871692,4216.922974,4232.820409,4207.179384,4154.871693,4179.999898,4176.922975,4065.640926
103,0,4198.461436,4213.33323,4204.615282,4224.102461,4207.692205,4201.025538,4217.948615,4218.974256,4239.487076,4201.538359,4155.384514,4176.410154,4167.179385,4061.025542
104,0,4203.589641,4214.871692,4216.922974,4230.256307,4219.487076,4202.564,4222.563999,4220.512717,4249.230665,4201.538359,4157.948616,4184.615282,4171.79477,4072.307593
105,0,4205.640923,4218.461435,4221.025538,4234.358871,4205.128102,4200.512718,4221.538358,4219.487076,4244.10246,4219.487076,4158.461437,4191.281949,4176.410154,4077.948618
106,0,4196.410154,4213.846051,4213.33323,4227.179384,4190.769128,4198.461436,4216.922974,4214.871692,4229.230666,4213.33323,4152.820411,4178.974257,4168.205026,4062.051183
107,0,4198.974256,4215.897333,4214.358871,4226.153743,4204.615282,4199.487077,4215.897333,4214.871692,4229.743486,4189.743487,4151.79477,4170.769129,4168.205026,4056.410157
108,0,4203.07682,4218.461435,4216.410153,4227.692204,4215.897333,4200.512718,4220.512717,4215.897333,4233.84605,4189.230667,4150.256309,4172.30759,4169.743488,4056.922978
109,0,4190.256308,4209.230666,4208.717846,4221.025538,4213.846051,4201.538359,4224.102461,4215.897333,4229.230666,4196.410154,4137.948617,4165.128103,4152.820411,4041.025542
110,0,4181.025539,4203.589641,4205.640923,4214.871692,4206.153743,4202.564,4222.563999,4219.487076,4229.743486,4194.358872,4133.333232,4156.410155,4152.820411,4034.871696
111,0,4186.666564,4202.564,4208.717846,4216.410153,4188.205026,4200.512718,4219.487076,4221.025538,4233.33323,4197.435795,4145.640924,4155.384514,4164.102462,4046.666568
112,0,4190.769128,4201.538359,4211.794769,4218.974256,4179.487077,4197.435795,4216.410153,4219.487076,4232.820409,4211.281948,4152.307591,4162.05118,4138.974258,4048.71785
113,0,4186.666564,4205.640923,4215.384512,4218.974256,4196.922974,4198.461436,4215.897333,4218.461435,4239.487076,4213.33323,4144.615283,4167.692206,4102.564002,4042.051183
114,0,4186.666564,4207.179384,4218.974256,4217.435794,4222.563999,4200.512718,4218.974256,4219.999897,4246.153742,4205.128102,4139.487078,4164.102462,4096.922977,4041.025542
115,0,4186.666564,4202.051179,4215.384512,4214.358871,4226.666563,4198.974256,4218.461435,4215.897333,4236.410153,4201.538359,4138.461437,4153.846052,4100.51272,4038.46144
116,0,4178.461436,4201.538359,4211.794769,4216.410153,4221.538358,4197.948615,4214.358871,4211.281948,4225.640922,4197.435795,4131.794771,4152.820411,4094.358874,4030.769132
117,0,4177.948616,4204.615282,4213.846051,4217.948615,4214.871692,4197.948615,4214.871692,4211.794769,4226.666563,4195.384513,4123.589643,4151.79477,4093.333233,4027.179389
118,0,4179.487077,4201.025538,4209.230666,4214.871692,4194.358872,4195.897333,4216.922974,4208.717846,4223.58964,4194.871692,4121.02554,4138.974258,4089.74349,4022.564004
119,0,4171.281949,4196.922974,4202.051179,4215.897333,4187.179385,4196.922974,4215.897333,4200.512718,4213.846051,4186.666564,4119.487079,4134.871694,4081.538362,4016.410158
120,0,4169.230667,4196.410154,4205.640923,4215.384512,4196.922974,4199.487077,4215.897333,4202.564,4213.846051,4179.487077,4118.974258,4139.999899,4084.102464,4015.897338
121,0,4181.538359,4204.102461,4213.846051,4213.846051,4202.051179,4199.999897,4217.948615,4213.846051,4224.615281,4191.281949,4121.02554,4141.02554,4092.307592,4023.589645
122,0,4189.230667,4215.897333,4215.897333,4222.051179,4211.281948,4201.538359,4219.487076,4216.922974,4232.307589,4205.640923,4123.076822,4141.02554,4095.384515,4031.281953
123,0,4185.128103,4217.435794,4214.358871,4228.205025,4223.58964,4202.564,4218.974256,4213.846051,4230.769127,4205.640923,4121.538361,4141.53836,4096.410156,4029.743491
124,0,4184.102462,4213.33323,4214.871692,4219.999897,4221.538358,4200.512718,4222.051179,4222.051179,4229.230666,4203.07682,4121.538361,4140.512719,4101.538361,4030.769132
125,0,4184.615282,4214.358871,4214.871692,4216.922974,4210.256307,4198.974256,4227.692204,4230.256307,4233.84605,4202.051179,4121.538361,4139.999899,4101.538361,4030.769132
126,0,4185.128103,4217.435794,4214.871692,4223.58964,4210.256307,4198.974256,4228.205025,4228.205025,4231.794768,4203.589641,4121.538361,4138.974258,4099.487079,4026.153748
127,0,4186.153744,4218.974256,4216.410153,4222.051179,4218.461435,4199.999897,4226.153743,4225.640922,4231.281948,4205.128102,4123.589643,4140.512719,4103.589643,4026.666568
128,0,4174.871693,4213.33323,4216.922974,4217.435794,4213.846051,4199.999897,4224.102461,4224.102461,4232.820409,4200.512718,4118.974258,4141.53836,4099.9999,4024.615286
0,0,4159.487078,4205.128102,4211.794769,4215.897333,4183.589641,4195.897333,4215.384512,4213.846051,4218.974256,4198.974256,4106.666566,4130.76913,4092.307592,4009.743492
1,0,4167.179385,4210.769128,4212.307589,4217.948615,4179.999898,4198.461436,4216.410153,4210.769128,4211.281948,4204.615282,4108.205028,4128.717848,4101.538361,4006.153748
2,0,4186.666564,4221.538358,4221.538358,4226.153743,4218.974256,4204.615282,4228.205025,4218.974256,4223.07682,4198.974256,4117.948617,4141.02554,4111.794771,4022.051184
3,0,4183.076821,4219.999897,4222.563999,4230.256307,4221.538358,4201.025538,4223.58964,4217.948615,4223.07682,4190.256308,4112.307592,4135.384514,4101.025541,4019.999902
4,0,4177.435795,4217.435794,4217.435794,4228.205025,4193.333231,4196.922974,4217.948615,4215.897333,4213.846051,4200.512718,4104.102464,4123.589643,4097.435797,4008.717851
5,0,4183.076821,4219.487076,4219.999897,4228.205025,4205.128102,4203.07682,4223.58964,4221.025538,4217.948615,4205.128102,4108.205028,4129.743489,4106.666566,4011.281953
6,0,4177.948616,4218.974256,4221.025538,4228.717845,4230.256307,4202.564,4224.615281,4218.974256,4221.538358,4197.435795,4109.230669,4131.794771,4106.666566,4011.281953
7,0,4171.281949,4218.974256,4221.538358,4226.153743,4211.794769,4193.846051,4222.563999,4213.846051,4213.33323,4201.538359,4105.128105,4124.102463,4101.538361,4007.69221
8,0,4183.076821,4219.999897,4227.179384,4227.692204,4187.179385,4194.871692,4227.179384,4217.435794,4208.205025,4196.922974,4105.640925,4125.640925,4101.025541,4011.794774
9,0,4189.230667,4218.461435,4230.769127,4230.769127,4205.640923,4196.922974,4223.58964,4217.948615,4206.666564,4181.538359,4102.051182,4128.205027,4097.435797,4012.820415
10,0,4177.948616,4216.922974,4226.153743,4228.205025,4221.025538,4189.743487,4214.358871,4205.640923,4202.564,4192.82041,4094.358874,4124.615284,4092.820413,4003.076825
11,0,4173.846052,4213.846051,4216.410153,4225.640922,4190.256308,4182.05118,4212.82041,4196.410154,4192.30759,4196.922974,4086.666567,4115.897335,4088.717849,3992.307595
12,0,4182.05118,4211.281948,4213.33323,4227.692204,4185.640923,4185.640923,4214.358871,4198.461436,4183.589641,4172.820411,4080.512721,4106.153746,4082.051182,3988.205031
13,0,4189.743487,4222.051179,4222.051179,4232.820409,4229.230666,4196.922974,4216.410153,4203.07682,4189.230667,4176.410154,4082.051182,4112.307592,4081.025541,3989.230672
14,0,4188.205026,4229.230666,4223.58964,4235.384512,4227.179384,4198.461436,4218.461435,4201.025538,4198.974256,4187.692205,4083.076823,4117.948617,4082.564003,3989.230672
15,0,4183.589641,4221.025538,4215.897333,4231.794768,4203.07682,4197.435795,4217.948615,4201.025538,4199.487077,4175.384513,4079.9999,4111.794771,4083.076823,3986.666569
16,0,4182.564,4218.461435,4211.794769,4228.717845,4222.563999,4198.974256,4218.974256,4204.102461,4197.948615,4181.025539,4078.974259,4106.666566,4087.179387,3990.256313
17,0,4184.102462,4228.205025,4213.33323,4230.769127,4208.717846,4192.82041,4217.948615,4208.717846,4199.999897,4203.589641,4086.153746,4107.692207,4096.410156,3997.94862
18,0,4190.769128,4233.33323,4218.461435,4233.33323,4169.230667,4188.717846,4217.435794,4215.897333,4202.051179,4205.640923,4091.794772,4113.846053,4105.128105,4002.564005
19,0,4190.256308,4227.692204,4218.461435,4231.794768,4205.128102,4194.871692,4218.974256,4218.461435,4204.615282,4197.948615,4091.794772,4116.922976,4106.666566,3998.461441
20,0,4183.589641,4226.153743,4217.435794,4230.769127,4252.307588,4203.07682,4220.512717,4216.922974,4204.615282,4201.538359,4092.307592,4114.871694,4103.589643,3991.794774
21,0,4191.794769,4231.794768,4225.640922,4234.358871,4228.717845,4197.435795,4219.487076,4218.461435,4203.589641,4209.230666,4092.820413,4117.435797,4105.640925,3999.487082
22,0,4201.025538,4235.384512,4235.384512,4236.410153,4205.128102,4187.179385,4217.948615,4218.974256,4202.564,4218.974256,4092.820413,4125.128104,4110.25631,4007.179389
23,0,4192.30759,4230.256307,4232.820409,4233.84605,4216.410153,4190.256308,4219.487076,4216.410153,4201.538359,4212.82041,4091.794772,4124.102463,4107.179387,3999.487082
24,0,4188.717846,4225.640922,4229.230666,4231.281948,4218.974256,4200.512718,4226.666563,4217.435794,4202.051179,4203.07682,4091.281951,4119.999899,4109.230669,3992.307595
25,0,4197.948615,4230.769127,4232.307589,4231.794768,4214.358871,4201.025538,4228.205025,4217.948615,4203.07682,4209.743487,4089.74349,4122.564002,4118.461438,4002.564005
26,0,4195.897333,4232.820409,4232.307589,4233.84605,4209.743487,4194.871692,4222.563999,4215.384512,4202.051179,4215.897333,4090.769131,4122.051181,4119.999899,4007.69221
27,0,4185.128103,4223.58964,4227.179384,4233.33323,4196.922974,4198.461436,4219.999897,4216.922974,4200.512718,4207.179384,4088.205028,4117.435797,4112.820412,3995.897338
28,0,4179.999898,4213.846051,4218.461435,4228.205025,4198.974256,4202.564,4219.999897,4216.410153,4198.461436,4197.435795,4083.076823,4108.205028,4107.179387,3985.640928
29,0,4181.538359,4221.025538,4215.897333,4226.666563,4234.358871,4201.538359,4221.538358,4214.871692,4198.461436,4207.179384,4086.666567,4109.230669,4112.307592,3989.743492
30,0,4184.615282,4230.256307,4218.974256,4232.307589,4254.35887,4204.102461,4229.230666,4219.999897,4202.051179,4222.563999,4092.307592,4121.538361,4121.538361,3995.384518
31,0,4183.076821,4221.025538,4217.948615,4229.743486,4228.205025,4204.102461,4230.769127,4222.563999,4201.538359,4215.897333,4090.25631,4121.02554,4119.487079,3992.307595
32,0,4183.589641,4212.82041,4214.358871,4221.538358,4205.128102,4196.410154,4219.999897,4217.435794,4196.922974,4201.538359,4089.230669,4109.743489,4113.846053,3987.69221
33,0,4183.589641,4215.384512,4215.897333,4224.615281,4211.794769,4192.30759,4216.410153,4215.897333,4199.999897,4207.692205,4094.871695,4112.307592,4119.487079,3989.230672
34,0,4174.358872,4211.281948,4217.948615,4227.179384,4210.769128,4197.435795,4220.512717,4218.461435,4200.512718,4219.999897,4092.820413,4122.051181,4119.999899,3989.743492
35,0,4172.30759,4206.153743,4215.897333,4220.512717,4186.153744,4197.435795,4219.999897,4217.435794,4190.256308,4215.897333,4089.230669,4122.051181,4110.25631,3987.69221
36,0,4183.589641,4213.33323,4216.410153,4218.974256,4184.102462,4196.922974,4220.512717,4217.435794,4185.128103,4213.846051,4092.307592,4125.128104,4115.897335,3996.410159
37,0,4188.205026,4218.461435,4218.974256,4223.07682,4214.871692,4203.07682,4222.051179,4218.974256,4194.358872,4215.384512,4097.948618,4136.410155,4130.76913,4013.846056
38,0,4184.102462,4215.897333,4217.435794,4220.512717,4237.435794,4202.051179,4218.974256,4217.948615,4198.461436,4218.974256,4097.435797,4139.999899,4131.28195,4018.46144
39,0,4183.076821,4213.33323,4214.358871,4215.897333,4230.769127,4194.871692,4215.897333,4216.922974,4190.256308,4227.692204,4091.794772,4134.358873,4125.128104,4011.281953
40,0,4186.666564,4214.358871,4216.410153,4221.538358,4218.974256,4197.948615,4218.461435,4217.435794,4185.128103,4224.102461,4094.871695,4134.358873,4127.179386,4013.333235
41,0,4190.256308,4218.974256,4221.538358,4227.692204,4219.487076,4203.07682,4220.512717,4217.435794,4185.640923,4212.307589,4099.487079,4135.897335,4129.743489,4022.564004
42,0,4188.717846,4213.846051,4217.948615,4221.025538,4209.230666,4200.512718,4217.435794,4216.922974,4181.538359,4211.281948,4094.358874,4129.230668,4124.615284,4021.538363
43,0,4189.230667,4204.615282,4211.794769,4213.33323,4193.333231,4197.948615,4212.82041,4216.922974,4179.999898,4214.358871,4089.230669,4121.538361,4120.51272,4016.410158
44,0,4197.948615,4213.33323,4213.33323,4223.58964,4206.666564,4201.538359,4214.358871,4217.948615,4181.025539,4212.82041,4092.307592,4123.076822,4124.615284,4023.589645
45,0,4202.564,4226.666563,4221.025538,4232.307589,4219.487076,4203.07682,4218.974256,4216.922974,4172.30759,4213.33323,4096.410156,4131.28195,4126.666566,4031.794773
46,0,4199.999897,4221.538358,4225.640922,4228.205025,4212.82041,4198.461436,4217.435794,4216.922974,4166.153744,4218.461435,4099.487079,4135.897335,4122.051181,4032.307594
47,0,4198.974256,4213.846051,4223.07682,4225.128102,4219.487076,4200.512718,4225.128102,4223.07682,4175.897334,4216.922974,4105.128105,4135.897335,4123.076822,4034.871696
48,0,4201.538359,4216.922974,4216.922974,4222.051179,4231.281948,4205.128102,4231.794768,4230.769127,4181.025539,4204.615282,4104.102464,4135.384514,4130.256309,4036.922978
49,0,4203.07682,4219.999897,4215.897333,4221.025538,4220.512717,4201.025538,4225.128102,4225.640922,4174.358872,4205.128102,4097.435797,4136.922976,4134.871694,4035.897337
50,0,4201.025538,4218.461435,4223.07682,4224.615281,4207.692205,4195.897333,4220.512717,4216.922974,4167.179385,4224.102461,4094.358874,4135.897335,4134.358873,4038.97426
51,0,4201.538359,4219.487076,4231.281948,4228.205025,4202.564,4197.948615,4222.563999,4223.07682,4170.256308,4226.153743,4098.461438,4138.461437,4135.897335,4050.256311
52,0,4202.564,4219.487076,4232.820409,4227.692204,4198.461436,4201.538359,4219.487076,4226.666563,4174.871693,4210.256307,4098.974259,4142.051181,4136.922976,4055.897337
53,0,4201.025538,4218.974256,4228.717845,4227.692204,4210.769128,4200.512718,4217.948615,4218.461435,4171.79477,4214.358871,4093.333233,4141.02554,4133.846053,4051.794773
54,0,4209.743487,4226.666563,4229.743486,4228.205025,4228.717845,4199.487077,4219.487076,4220.512717,4171.79477,4222.051179,4096.410156,4147.179386,4138.461437,4058.461439
55,0,4222.051179,4236.922973,4236.410153,4231.281948,4237.948614,4203.589641,4217.948615,4230.769127,4175.897334,4217.435794,4104.102464,4158.461437,4148.205027,4074.871695
56,0,4219.999897,4234.871691,4233.33323,4231.281948,4230.256307,4205.128102,4219.999897,4230.256307,4172.820411,4224.615281,4097.948618,4152.307591,4144.615283,4077.435798
57,0,4213.33323,4229.230666,4228.205025,4229.230666,4212.82041,4201.538359,4227.692204,4228.205025,4170.256308,4230.256307,4089.74349,4142.051181,4137.435796,4070.769131
58,0,4219.487076,4240.512717,4232.307589,4235.384512,4222.563999,4206.666564,4230.256307,4233.84605,4177.435795,4226.666563,4099.487079,4151.79477,4146.666565,4074.871695
59,0,4225.128102,4249.230665,4236.410153,4238.974255,4243.076819,4218.461435,4231.281948,4234.358871,4178.461436,4223.58964,4106.153746,4157.948616,4154.871693,4079.9999
60,0,4219.487076,4240.512717,4234.358871,4234.871691,4239.999896,4218.461435,4231.794768,4225.640922,4169.743488,4217.948615,4094.358874,4144.615283,4146.666565,4074.871695
61,0,4206.153743,4232.307589,4229.743486,4232.820409,4222.563999,4207.179384,4227.179384,4218.461435,4166.666565,4218.974256,4086.153746,4134.358873,4137.435796,4069.23067
62,0,4197.948615,4232.307589,4224.102461,4233.33323,4198.461436,4199.487077,4218.974256,4218.461435,4168.205026,4217.948615,4089.74349,4135.384514,4137.435796,4067.179388
63,0,4208.205025,4231.794768,4221.538358,4231.794768,4194.358872,4199.999897,4217.435794,4225.640922,4171.281949,4211.281948,4092.307592,4135.897335,4139.999899,4067.692208
64,0,4217.435794,4232.820409,4226.666563,4229.743486,4226.666563,4204.102461,4219.999897,4227.179384,4167.692206,4216.410153,4092.820413,4137.435796,4139.999899,4068.205029
65,0,4209.230666,4230.256307,4232.307589,4229.230666,4244.10246,4201.025538,4217.435794,4218.974256,4156.410155,4231.281948,4088.717849,4139.487078,4138.461437,4066.153747
66,0,4201.538359,4218.974256,4228.205025,4225.640922,4224.615281,4190.256308,4212.82041,4213.33323,4150.769129,4218.974256,4082.051182,4132.307591,4136.922976,4063.076824
67,0,4204.615282,4216.922974,4223.07682,4218.461435,4216.410153,4190.256308,4213.846051,4217.435794,4154.871693,4198.974256,4085.640926,4128.717848,4142.051181,4066.666567
68,0,4203.07682,4221.538358,4219.487076,4217.435794,4212.82041,4197.435795,4215.384512,4218.974256,4156.922975,4207.179384,4090.769131,4131.28195,4145.128104,4071.281952
69,0,4196.410154,4216.922974,4216.410153,4221.025538,4194.358872,4199.487077,4215.384512,4216.922974,4158.461437,4214.358871,4086.153746,4129.230668,4142.564001,4070.769131
70,0,4211.281948,4225.640922,4225.128102,4229.230666,4206.153743,4199.487077,4220.512717,4225.640922,4169.230667,4216.922974,4087.692208,4134.358873,4151.28195,4080.512721
71,0,4232.307589,4248.205024,4236.410153,4240.512717,4234.871691,4203.589641,4229.230666,4236.410153,4177.435795,4224.615281,4097.435797,4145.128104,4164.102462,4096.410156
72,0,4225.640922,4247.179383,4235.384512,4239.999896,4237.435794,4206.153743,4232.307589,4234.358871,4173.333231,4222.563999,4097.435797,4144.615283,4161.025539,4093.846054
73,0,4211.281948,4231.794768,4227.692204,4231.794768,4230.256307,4204.102461,4226.666563,4229.230666,4167.692206,4215.384512,4092.307592,4135.384514,4153.333232,4084.102464
74,0,4217.948615,4233.84605,4224.615281,4232.307589,4225.640922,4199.999897,4221.538358,4232.820409,4173.333231,4217.435794,4090.25631,4132.820412,4154.871693,4083.076823
75,0,4218.461435,4240.512717,4221.538358,4235.384512,4225.640922,4201.538359,4221.025538,4233.84605,4172.820411,4214.358871,4085.128105,4127.692207,4149.743488,4079.48708
76,0,4203.589641,4232.307589,4218.461435,4231.281948,4209.743487,4203.07682,4218.974256,4223.07682,4157.948616,4204.615282,4076.922977,4118.461438,4138.461437,4070.769131
77,0,4204.615282,4228.717845,4218.974256,4230.769127,4192.82041,4198.974256,4221.538358,4215.897333,4153.333232,4209.230666,4079.48708,4122.564002,4143.589642,4074.871695
78,0,4211.281948,4241.538358,4218.461435,4234.871691,4223.07682,4208.205025,4228.205025,4220.512717,4167.692206,4216.922974,4091.281951,4134.871694,4156.922975,4085.128105
79,0,4205.128102,4245.128101,4219.999897,4232.820409,4267.179383,4219.487076,4226.666563,4225.128102,4172.820411,4218.461435,4094.871695,4131.28195,4151.28195,4082.051182
80,0,4199.999897,4231.794768,4211.281948,4228.717845,4252.307588,4206.666564,4216.922974,4215.384512,4158.974257,4212.307589,4085.640926,4112.307592,4137.435796,4069.23067
81,0,4201.538359,4225.128102,4202.051179,4228.205025,4206.153743,4193.846051,4214.358871,4203.589641,4149.743488,4196.922974,4080.512721,4109.230669,4138.461437,4067.692208
82,0,4202.051179,4233.84605,4209.743487,4231.281948,4208.205025,4202.564,4217.948615,4208.717846,4154.358873,4198.974256,4087.692208,4121.538361,4145.640924,4075.384516
83,0,4198.974256,4233.84605,4212.307589,4230.256307,4223.07682,4205.128102,4216.410153,4219.999897,4156.410155,4211.794769,4091.794772,4121.538361,4142.564001,4075.384516
84,0,4197.948615,4227.179384,4206.153743,4228.205025,4215.897333,4198.461436,4216.922974,4218.461435,4153.846052,4204.615282,4090.769131,4113.846053,4146.666565,4073.846054
85,0,4202.051179,4232.820409,4209.230666,4228.717845,4225.128102,4203.589641,4218.974256,4215.384512,4154.358873,4198.461436,4091.281951,4118.974258,4153.333232,4079.48708
86,0,4201.025538,4235.384512,4210.769128,4224.615281,4234.358871,4202.051179,4219.999897,4220.512717,4156.922975,4206.153743,4092.820413,4126.153745,4145.640924,4079.9999
87,0,4183.589641,4220.512717,4199.999897,4216.410153,4203.589641,4186.153744,4215.897333,4215.384512,4153.333232,4201.025538,4090.25631,4113.846053,4135.384514,4065.640926
88,0,4178.461436,4214.358871,4198.461436,4215.897333,4189.230667,4186.153744,4213.33323,4207.179384,4148.205027,4194.871692,4088.717849,4104.102464,4137.435796,4061.538362
89,0,4199.999897,4228.717845,4207.692205,4224.615281,4230.256307,4206.666564,4218.461435,4215.897333,4153.333232,4202.051179,4090.769131,4119.487079,4145.128104,4079.48708
90,0,4204.615282,4234.358871,4205.640923,4222.563999,4235.897332,4205.128102,4217.435794,4217.948615,4154.358873,4206.153743,4090.769131,4126.153745,4145.640924,4084.102464
91,0,4188.205026,4226.153743,4199.999897,4215.384512,4194.358872,4187.179385,4211.794769,4203.07682,4142.564001,4200.512718,4090.769131,4110.25631,4141.53836,4074.871695
92,0,4189.230667,4227.692204,4203.07682,4222.563999,4191.794769,4189.743487,4211.281948,4199.487077,4139.999899,4195.384513,4090.769131,4109.230669,4144.102463,4081.025541
93,0,4202.051179,4236.922973,4211.281948,4234.871691,4228.717845,4202.564,4218.974256,4213.33323,4152.307591,4202.051179,4095.384515,4124.615284,4151.79477,4091.794772
94,0,4204.102461,4238.461435,4212.82041,4233.33323,4244.615281,4203.589641,4226.153743,4218.974256,4158.974257,4212.307589,4101.538361,4119.487079,4154.358873,4089.230669
95,0,4202.051179,4232.307589,4207.179384,4228.205025,4225.640922,4199.999897,4223.07682,4216.922974,4156.922975,4215.384512,4104.615284,4105.128105,4152.820411,4084.102464
96,0,4203.589641,4232.307589,4207.179384,4230.256307,4209.743487,4203.07682,4220.512717,4219.999897,4155.897334,4215.897333,4106.153746,4107.179387,4154.871693,4086.666567
97,0,4202.051179,4239.487076,4210.769128,4231.794768,4223.07682,4206.153743,4224.102461,4219.999897,4155.384514,4213.846051,4107.179387,4111.281951,4157.948616,4091.281951
98,0,4202.564,4239.999896,4211.281948,4232.820409,4222.563999,4203.589641,4224.615281,4219.487076,4160.512719,4214.871692,4110.25631,4112.820412,4160.512719,4092.820413
99,0,4197.435795,4231.281948,4204.102461,4229.743486,4189.743487,4198.974256,4216.410153,4218.974256,4159.999898,4214.358871,4106.666566,4104.615284,4156.922975,4082.564003
100,0,4188.205026,4228.717845,4199.487077,4225.640922,4206.666564,4198.461436,4213.846051,4210.256307,4143.076822,4204.102461,4095.384515,4091.794772,4151.28195,4074.358875
101,0,4189.743487,4233.33323,4207.692205,4229.743486,4253.84605,4202.051179,4215.384512,4201.538359,4133.846053,4191.794769,4092.820413,4095.384515,4150.769129,4081.538362
102,0,4197.435795,4233.84605,4212.82041,4230.256307,4232.820409,4197.435795,4212.82041,4206.666564,4141.02554,4197.948615,4103.076823,4103.589643,4151.79477,4085.640926
103,0,4199.487077,4231.794768,4209.230666,4223.58964,4198.974256,4195.897333,4214.871692,4216.410153,4145.640924,4207.692205,4110.25631,4097.435797,4154.358873,4081.538362
104,0,4190.256308,4226.666563,4201.538359,4219.999897,4216.922974,4202.051179,4216.922974,4212.307589,4139.487078,4201.538359,4099.9999,4083.076823,4153.333232,4074.871695
105,0,4188.717846,4226.153743,4198.974256,4224.615281,4230.256307,4204.615282,4216.410153,4205.640923,4135.384514,4201.025538,4092.307592,4078.974259,4150.256309,4075.897336
106,0,4201.025538,4238.974255,4209.743487,4230.256307,4224.615281,4204.615282,4219.999897,4214.871692,4142.051181,4204.615282,4104.102464,4085.128105,4157.948616,4086.666567
107,0,4203.07682,4245.128101,4215.384512,4233.33323,4215.897333,4197.948615,4221.025538,4222.051179,4144.102463,4203.589641,4110.25631,4084.615285,4168.205026,4092.307592
108,0,4198.461436,4238.974255,4206.153743,4232.820409,4204.615282,4192.30759,4215.897333,4216.410153,4137.948617,4208.205025,4104.615284,4076.922977,4169.743488,4088.717849
109,0,4210.769128,4242.051178,4201.538359,4231.794768,4214.871692,4198.461436,4215.897333,4213.33323,4141.53836,4221.538358,4111.281951,4079.9999,4170.256308,4094.871695
110,0,4219.999897,4252.820409,4213.33323,4232.820409,4241.025537,4205.128102,4221.025538,4219.999897,4151.79477,4219.999897,4127.179386,4093.333233,4175.897334,4108.717848
111,0,4204.615282,4245.128101,4214.871692,4227.692204,4242.051178,4202.051179,4219.999897,4222.563999,4145.640924,4202.564,4123.076822,4088.717849,4173.333231,4102.564002
112,0,4193.846051,4229.230666,4203.589641,4219.999897,4209.230666,4198.974256,4215.384512,4212.82041,4128.717848,4198.461436,4108.717848,4070.256311,4159.487078,4084.615285
113,0,4198.974256,4228.717845,4197.948615,4222.051179,4183.076821,4200.512718,4213.846051,4202.051179,4120.51272,4203.07682,4103.076823,4063.589644,4148.717847,4080.512721
114,0,4204.102461,4239.487076,4202.564,4230.256307,4209.230666,4201.025538,4214.871692,4208.205025,4126.666566,4198.461436,4110.76913,4071.794772,4152.820411,4090.769131
115,0,4204.615282,4248.717845,4208.717846,4234.871691,4252.307588,4201.538359,4219.487076,4219.999897,4135.897335,4202.051179,4119.487079,4074.871695,4161.53836,4096.410156
116,0,4199.999897,4245.640922,4203.589641,4231.794768,4233.33323,4199.487077,4219.999897,4220.512717,4136.410155,4211.794769,4112.820412,4057.435798,4157.435796,4084.102464
117,0,4196.922974,4241.025537,4201.025538,4230.256307,4196.922974,4198.461436,4217.948615,4219.487076,4133.333232,4206.666564,4104.615284,4046.666568,4151.28195,4072.820413
118,0,4200.512718,4242.051178,4205.128102,4231.794768,4211.281948,4203.07682,4222.051179,4223.58964,4134.871694,4206.666564,4109.743489,4053.333234,4154.358873,4075.897336
119,0,4203.07682,4244.615281,4203.07682,4232.820409,4241.025537,4212.82041,4229.743486,4229.743486,4137.435796,4217.435794,4115.384515,4053.333234,4156.410155,4082.051182
120,0,4198.461436,4246.666563,4198.461436,4232.307589,4238.974255,4215.384512,4230.769127,4232.307589,4134.358873,4212.82041,4112.307592,4044.102465,4154.871693,4079.48708
121,0,4189.230667,4241.025537,4197.435795,4229.743486,4204.102461,4202.564,4221.025538,4223.58964,4125.128104,4201.538359,4107.179387,4034.358876,4151.28195,4069.23067
122,0,4183.589641,4232.307589,4198.974256,4230.769127,4192.30759,4196.922974,4216.922974,4218.974256,4122.051181,4207.692205,4106.153746,4030.256312,4150.769129,4067.179388
123,0,4185.128103,4231.281948,4201.538359,4228.205025,4229.230666,4203.589641,4224.615281,4227.179384,4123.076822,4206.153743,4109.743489,4031.281953,4153.333232,4071.281952
124,0,4187.692205,4232.307589,4199.999897,4219.999897,4251.281947,4204.102461,4228.205025,4223.07682,4116.922976,4195.897333,4108.205028,4026.666568,4152.307591,4069.74349
125,0,4190.256308,4230.769127,4199.487077,4219.487076,4225.640922,4200.512718,4226.153743,4213.846051,4113.333233,4209.230666,4105.640925,4019.999902,4150.256309,4067.179388
126,0,4197.948615,4242.051178,4211.794769,4230.769127,4208.717846,4202.051179,4228.717845,4218.461435,4119.999899,4219.487076,4116.410156,4025.640927,4159.487078,4076.922977
127,0,4197.435795,4247.692204,4215.897333,4234.871691,4216.922974,4202.564,4228.205025,4221.025538,4118.974258,4210.769128,4118.974258,4023.589645,4166.666565,4083.589644
128,0,4188.205026,4237.435794,4203.07682,4228.205025,4207.179384,4200.512718,4223.07682,4219.487076,4107.692207,4210.256307,4110.76913,4005.640928,4163.589642,4076.922977
0,0,4191.794769,4237.435794,4199.487077,4229.230666,4203.07682,4204.102461,4225.640922,4228.717845,4110.25631,4217.435794,4114.358874,3999.999902,4165.640924,4076.922977
1,0,4200.512718,4247.692204,4206.666564,4233.84605,4234.358871,4213.846051,4232.307589,4234.871691,4121.02554,4216.410153,4123.076822,4001.538364,4172.30759,4083.076823
2,0,4197.948615,4248.205024,4204.102461,4232.307589,4255.384511,4219.487076,4232.820409,4229.230666,4115.384515,4221.025538,4121.02554,3992.307595,4171.281949,4086.666567
3,0,4198.461436,4247.179383,4203.589641,4231.281948,4239.999896,4209.743487,4230.769127,4228.205025,4104.615284,4224.615281,4122.051181,3987.69221,4170.769129,4091.281951
4,0,4198.461436,4250.256306,4210.256307,4231.794768,4224.102461,4199.999897,4229.230666,4229.230666,4108.717848,4217.948615,4128.717848,3988.717851,4174.358872,4091.281951
5,0,4188.205026,4247.179383,4206.153743,4229.743486,4221.025538,4206.153743,4228.717845,4221.538358,4108.717848,4216.410153,4126.153745,3974.871698,4170.769129,4082.051182
6,0,4188.717846,4244.615281,4197.435795,4227.692204,4213.33323,4216.922974,4230.769127,4214.871692,4094.871695,4219.999897,4123.076822,3959.999903,4168.205026,4078.461439
7,0,4196.410154,4244.615281,4198.974256,4230.256307,4215.897333,4214.871692,4231.281948,4215.897333,4089.230669,4213.33323,4124.102463,3956.92298,4170.256308,4086.153746
8,0,4189.230667,4240.512717,4202.051179,4230.769127,4225.128102,4203.07682,4228.205025,4217.948615,4093.846054,4204.102461,4125.128104,3952.307596,4169.230667,4086.153746
9,0,4181.025539,4239.999896,4200.512718,4229.743486,4215.897333,4203.07682,4227.179384,4216.922974,4088.717849,4205.128102,4123.589643,3938.461442,4166.666565,4079.48708
10,0,4190.256308,4246.153742,4206.153743,4233.84605,4218.974256,4215.384512,4230.769127,4223.58964,4084.102464,4214.358871,4125.128104,3927.692212,4169.230667,4084.615285
11,0,4203.07682,4250.769127,4211.794769,4237.435794,4248.717845,4219.999897,4232.307589,4233.84605,4090.769131,4218.461435,4130.76913,3926.666571,4172.30759,4094.871695
12,0,4203.07682,4249.743486,4204.102461,4233.33323,4254.35887,4214.871692,4230.769127,4233.33323,4091.794772,4214.871692,4129.743489,3915.89734,4169.743488,4089.74349
13,0,4189.230667,4244.615281,4198.461436,4229.743486,4227.692204,4213.846051,4231.281948,4235.897332,4082.051182,4214.871692,4126.666566,3898.461443,4166.666565,4082.564003
14,0,4180.512718,4240.512717,4208.205025,4230.256307,4223.58964,4217.948615,4232.307589,4211.281948,4075.384516,4217.435794,4128.717848,3889.230674,4167.179385,4086.666567
15,0,4194.871692,4249.230665,4217.948615,4235.384512,4237.435794,4219.487076,4234.358871,4116.410156,4075.897336,4217.435794,4130.256309,3884.61529,4169.743488,4092.820413
16,0,4209.230666,4262.563998,4210.769128,4237.948614,4233.84605,4218.461435,4235.384512,4019.487081,4076.410157,4217.948615,4128.205027,3871.794777,4171.79477,4093.846054
17,0,4198.461436,4261.538357,4199.999897,4233.84605,4226.666563,4217.435794,4233.84605,3996.922979,4072.307593,4217.948615,4125.640925,3851.794778,4170.769129,4091.794772
18,0,4189.743487,4251.794768,4204.615282,4231.281948,4225.640922,4216.410153,4230.769127,4000.512723,4062.564003,4213.846051,4123.076822,3836.922983,4168.717847,4089.230669
19,0,4201.025538,4249.230665,4215.897333,4233.84605,4233.33323,4216.410153,4230.256307,3990.769133,4055.897337,4212.307589,4126.153745,3825.128112,4168.717847,4089.230669
20,0,4204.102461,4252.820409,4213.846051,4233.84605,4239.487076,4215.897333,4230.769127,3993.333236,4059.48708,4216.410153,4129.230668,3812.307599,4171.281949,4091.281951
21,0,4187.179385,4245.128101,4202.564,4229.743486,4219.487076,4214.871692,4230.769127,4000.512723,4057.435798,4212.307589,4124.615284,3793.333241,4167.692206,4085.128105
22,0,4177.435795,4233.33323,4198.974256,4229.230666,4201.538359,4210.769128,4229.743486,3998.974261,4046.153747,4198.461436,4120.51272,3772.820421,4156.410155,4072.820413
23,0,4183.589641,4236.922973,4204.102461,4232.307589,4229.743486,4216.410153,4230.769127,4006.666569,4043.589645,4199.999897,4120.51272,3758.974267,4148.717847,4070.769131
24,0,4192.82041,4247.692204,4210.256307,4233.84605,4264.61528,4229.743486,4238.461435,4022.564004,4054.871696,4214.358871,4127.179386,3750.769139,4160.512719,4083.589644
25,0,4197.435795,4251.281947,4214.358871,4235.384512,4254.871691,4227.179384,4241.025537,4035.384517,4063.589644,4220.512717,4138.461437,3743.076832,4179.487077,4093.333233
26,0,4197.948615,4249.230665,4214.358871,4235.897332,4229.230666,4215.384512,4234.871691,4037.435799,4058.461439,4224.102461,4142.051181,3728.205037,4184.615282,4094.358874
27,0,4197.435795,4250.769127,4214.871692,4234.358871,4223.07682,4216.410153,4231.794768,4037.948619,4050.769132,4230.256307,4138.974258,3713.846063,4182.564,4099.487079
28,0,4201.025538,4255.897332,4218.461435,4239.999896,4236.410153,4220.512717,4232.307589,4042.051183,4049.743491,4231.281948,4144.102463,3706.153756,4183.589641,4107.179387
29,0,4208.717846,4258.974255,4218.974256,4245.640922,4244.615281,4216.410153,4230.769127,4046.666568,4052.820414,4229.230666,4151.79477,3697.948628,4185.640923,4108.717848
30,0,4209.743487,4257.948614,4215.897333,4237.435794,4228.717845,4217.435794,4232.307589,4055.384516,4053.333234,4232.820409,4153.333232,3687.692218,4187.692205,4111.281951
31,0,4200.512718,4250.256306,4212.82041,4229.230666,4214.358871,4220.512717,4234.358871,4060.512721,4048.205029,4231.794768,4153.846052,3673.846064,4187.692205,4112.820412
32,0,4196.922974,4251.794768,4214.358871,4241.025537,4227.692204,4218.461435,4233.33323,4062.564003,4044.615286,4229.230666,4152.820411,3655.384526,4185.640923,4108.205028
33,0,4201.538359,4257.948614,4215.897333,4249.743486,4242.563999,4221.538358,4237.435794,4069.23067,4044.102465,4234.358871,4150.769129,3636.922988,4183.589641,4111.281951
34,0,4200.512718,4253.84605,4214.871692,4237.948614,4250.769127,4229.230666,4245.128101,4080.512721,4044.615286,4231.281948,4152.307591,3624.102475,4186.153744,4120.51272
35,0,4200.512718,4253.84605,4223.07682,4234.358871,4252.820409,4232.307589,4247.692204,4088.205028,4044.615286,4228.717845,4154.871693,3618.46145,4191.794769,4122.564002
36,0,4202.564,4258.974255,4229.743486,4246.666563,4228.205025,4221.538358,4244.10246,4089.74349,4042.051183,4239.487076,4155.897334,3609.230681,4193.333231,4120.51272
37,0,4198.461436,4255.384511,4223.07682,4248.717845,4216.922974,4215.897333,4242.563999,4090.25631,4038.46144,4243.58964,4157.435796,3593.333245,4189.743487,4121.538361
38,0,4197.435795,4246.666563,4214.871692,4235.897332,4247.179383,4227.179384,4246.153742,4092.820413,4035.384517,4225.128102,4151.79477,3574.871707,4184.102462,4114.871694
39,0,4199.999897,4247.179383,4214.871692,4231.794768,4262.051178,4234.871691,4247.692204,4093.846054,4027.692209,4209.230666,4143.589642,3558.461451,4177.948616,4103.076823
40,0,4199.999897,4251.281947,4222.563999,4242.051178,4242.051178,4228.205025,4245.640922,4099.487079,4025.128107,4219.999897,4149.230668,3554.871708,4179.999898,4109.743489
41,0,4206.153743,4260.512716,4232.820409,4248.205024,4240.512717,4227.692204,4244.615281,4110.76913,4031.794773,4233.84605,4160.512719,3562.564015,4190.256308,4131.28195
42,0,4213.846051,4263.589639,4231.794768,4246.153742,4252.307588,4231.281948,4247.179383,4111.794771,4030.769132,4224.615281,4159.487078,3564.102477,4191.794769,4135.384514
43,0,4205.640923,4251.281947,4223.58964,4243.076819,4235.897332,4222.563999,4246.153742,4108.205028,4022.564004,4212.82041,4150.769129,3552.820426,4183.076821,4121.02554
44,0,4198.461436,4252.820409,4226.666563,4243.58964,4223.58964,4221.025538,4244.10246,4115.384515,4019.487081,4223.58964,4147.179386,3550.256323,4179.487077,4121.538361
45,0,4210.769128,4265.128101,4238.461435,4247.692204,4242.563999,4232.820409,4248.205024,4122.564002,4024.615286,4240.512717,4156.410155,3564.102477,4183.589641,4140.512719
46,0,4222.563999,4267.179383,4242.051178,4255.384511,4254.35887,4235.897332,4252.820409,4131.794771,4027.692209,4240.512717,4169.230667,3579.487092,4191.281949,4155.384514
47,0,4221.025538,4262.563998,4236.922973,4254.871691,4248.205024,4230.256307,4248.717845,4136.922976,4022.564004,4230.256307,4167.692206,3585.640938,4193.846051,4152.307591
48,0,4209.743487,4255.897332,4231.281948,4246.666563,4253.84605,4229.230666,4244.10246,4129.743489,4014.358876,4220.512717,4153.846052,3582.564015,4179.999898,4138.461437
49,0,4205.640923,4247.179383,4230.769127,4244.10246,4254.871691,4229.743486,4245.640922,4128.717848,4012.307594,4223.58964,4150.256309,3584.102476,4170.256308,4138.974258
50,0,4214.871692,4246.153742,4233.84605,4244.10246,4245.640922,4230.256307,4246.666563,4138.461437,4013.333235,4233.33323,4162.564001,3596.410168,4189.743487,4158.974257
51,0,4220.512717,4249.230665,4233.33323,4244.10246,4247.179383,4232.820409,4247.692204,4139.999899,4009.743492,4233.33323,4171.281949,3607.692219,4204.102461,4169.230667
52,0,4215.897333,4246.153742,4232.307589,4246.666563,4239.999896,4228.717845,4243.076819,4137.948617,4005.128107,4233.33323,4167.692206,3615.897347,4191.281949,4160.512719
53,0,4213.33323,4244.10246,4237.435794,4246.666563,4228.205025,4223.58964,4235.897332,4139.487078,4003.076825,4232.307589,4163.589642,3619.487091,4179.999898,4154.871693
54,0,4217.948615,4247.692204,4245.640922,4244.615281,4246.153742,4227.179384,4238.974255,4138.974258,4004.102466,4230.256307,4167.179385,3619.487091,4187.692205,4163.589642
55,0,4221.538358,4250.769127,4248.205024,4247.179383,4272.820408,4231.794768,4247.179383,4145.640924,4004.102466,4236.410153,4172.30759,3622.051193,4195.897333,4172.30759
56,0,4218.974256,4250.769127,4243.076819,4249.230665,4270.256306,4228.717845,4247.179383,4154.358873,4004.615287,4235.897332,4169.743488,3627.692219,4195.897333,4169.230667
57,0,4213.846051,4248.717845,4237.435794,4245.128101,4252.820409,4222.051179,4239.487076,4152.307591,4003.589646,4229.230666,4167.179385,3633.333244,4195.897333,4164.615283
58,0,4214.871692,4248.205024,4234.871691,4244.615281,4242.563999,4217.435794,4238.974255,4149.743488,4001.025543,4241.025537,4174.871693,3640.512731,4197.435795,4174.871693
59,0,4221.538358,4250.256306,4235.384512,4247.179383,4249.230665,4218.461435,4243.076819,4154.358873,4002.564005,4250.769127,4182.05118,3650.769141,4201.538359,4184.102462
60,0,4218.461435,4247.179383,4233.84605,4239.999896,4246.153742,4219.487076,4239.487076,4156.922975,3998.974261,4234.358871,4176.410154,3652.820423,4198.461436,4178.974257
61,0,4204.615282,4237.435794,4227.179384,4230.256307,4225.128102,4214.358871,4230.769127,4151.28195,3987.17939,4221.538358,4165.640924,3645.640936,4187.692205,4168.205026
62,0,4199.999897,4235.897332,4227.179384,4231.794768,4230.769127,4209.743487,4227.692204,4150.256309,3985.128108,4228.717845,4168.205026,3649.23068,4184.615282,4167.179385
63,0,4207.179384,4243.58964,4231.794768,4233.84605,4254.871691,4214.871692,4230.256307,4157.948616,3992.307595,4237.435794,4177.435795,3665.128116,4192.30759,4175.897334
64,0,4218.974256,4246.666563,4233.84605,4232.820409,4253.333229,4218.461435,4232.820409,4167.179385,3991.281954,4244.10246,4185.128103,3679.48709,4200.512718,4187.692205
65,0,4224.102461,4247.692204,4238.974255,4239.487076,4242.563999,4217.435794,4238.461435,4174.358872,3989.230672,4248.717845,4191.281949,3690.769141,4207.179384,4197.948615
66,0,4222.051179,4250.769127,4247.179383,4246.153742,4246.666563,4222.563999,4244.615281,4182.564,3994.358877,4248.205024,4196.922974,3698.974269,4212.307589,4200.512718
67,0,4224.102461,4251.794768,4247.692204,4247.179383,4254.35887,4227.692204,4247.179383,4185.640923,3999.487082,4249.743486,4199.487077,3703.076833,4209.230666,4199.999897
68,0,4228.205025,4248.205024,4238.974255,4243.076819,4244.615281,4224.102461,4245.640922,4183.076821,3997.94862,4248.717845,4193.846051,3705.640935,4203.07682,4197.948615
69,0,4221.538358,4242.563999,4231.281948,4232.307589,4231.794768,4217.435794,4239.999896,4182.564,3991.794774,4235.384512,4185.640923,3707.179397,4203.07682,4194.871692
70,0,4213.33323,4240.512717,4231.281948,4231.794768,4237.435794,4215.897333,4236.922973,4182.564,3989.743492,4227.179384,4186.153744,3707.692217,4202.564,4197.435795
71,0,4215.897333,4245.128101,4231.281948,4238.974255,4234.871691,4215.384512,4235.897332,4179.999898,3989.230672,4238.461435,4192.30759,3712.820422,4200.512718,4201.025538
72,0,4220.512717,4244.615281,4226.153743,4237.435794,4223.58964,4215.384512,4235.384512,4183.589641,3988.717851,4250.769127,4196.922974,3722.564012,4207.692205,4201.538359
73,0,4225.128102,4248.205024,4225.640922,4238.974255,4247.692204,4222.563999,4238.974255,4185.640923,3991.281954,4248.717845,4198.974256,3731.794781,4216.410153,4206.153743
74,0,4232.820409,4261.025537,4230.769127,4248.205024,4278.974254,4228.205025,4247.179383,4190.769128,3993.333236,4244.615281,4202.564,3744.615293,4218.461435,4213.33323
75,0,4234.358871,4261.538357,4226.153743,4244.10246,4270.256306,4224.615281,4248.205024,4197.435795,3992.307595,4251.281947,4203.589641,3754.871703,4214.358871,4213.33323
76,0,4223.58964,4247.179383,4217.435794,4231.794768,4241.025537,4215.897333,4235.897332,4192.82041,3989.230672,4250.769127,4201.025538,3755.897344,4205.128102,4205.640923
77,0,4212.307589,4244.615281,4216.922974,4231.281948,4225.128102,4213.846051,4231.794768,4185.128103,3988.205031,4234.871691,4198.974256,3755.384524,4201.538359,4201.025538
78,0,4222.051179,4255.897332,4221.025538,4239.487076,4243.58964,4218.974256,4243.58964,4192.30759,3988.717851,4235.897332,4201.025538,3765.640934,4209.743487,4206.153743
79,0,4234.871691,4257.948614,4222.563999,4244.10246,4269.230665,4223.07682,4246.666563,4202.564,3991.281954,4257.435793,4207.692205,3781.538369,4216.922974,4212.307589
80,0,4224.615281,4249.230665,4215.384512,4238.974255,4246.153742,4220.512717,4235.897332,4201.538359,3993.333236,4255.897332,4214.358871,3785.640933,4214.358871,4207.179384
81,0,4215.897333,4247.179383,4205.128102,4232.820409,4227.692204,4215.384512,4234.358871,4197.948615,3987.69221,4238.461435,4215.384512,3789.230677,4212.307589,4202.564
82,0,4222.051179,4250.769127,4202.564,4235.384512,4257.435793,4217.435794,4237.435794,4197.948615,3978.974262,4235.897332,4209.743487,3796.410164,4212.82041,4204.102461
83,0,4219.487076,4247.692204,4202.051179,4239.999896,4245.128101,4216.922974,4231.281948,4198.974256,3973.333236,4232.820409,4209.230666,3799.999907,4211.281948,4201.538359
84,0,4216.410153,4250.769127,4199.999897,4242.051178,4215.897333,4219.487076,4234.871691,4198.461436,3973.846057,4231.794768,4213.846051,3805.128112,4212.307589,4204.102461
85,0,4224.615281,4261.025537,4194.871692,4244.10246,4248.205024,4229.743486,4245.128101,4199.487077,3978.974262,4246.666563,4216.922974,3814.358881,4216.410153,4215.384512
86,0,4225.128102,4257.435793,4190.256308,4245.640922,4273.333229,4229.230666,4245.128101,4209.230666,3990.256313,4248.205024,4221.538358,3826.666573,4219.999897,4218.974256
87,0,4217.948615,4247.692204,4187.179385,4244.615281,4249.230665,4221.538358,4243.076819,4213.846051,3992.307595,4239.487076,4224.102461,3835.384522,4219.487076,4216.410153
88,0,4219.999897,4249.743486,4183.076821,4238.974255,4242.051178,4223.07682,4245.128101,4208.717846,3979.999903,4244.615281,4218.461435,3840.512727,4216.410153,4214.871692
89,0,4220.512717,4252.307588,4176.922975,4234.358871,4256.922973,4226.153743,4238.974255,4209.743487,3974.871698,4247.179383,4215.897333,3847.179393,4221.025538,4221.025538
90,0,4214.871692,4246.666563,4172.30759,4234.358871,4248.205024,4224.615281,4229.743486,4216.410153,3979.999903,4244.615281,4225.640922,3856.922983,4230.256307,4229.230666
91,0,4224.615281,4252.820409,4174.871693,4235.384512,4248.205024,4228.717845,4237.435794,4218.461435,3984.615287,4248.205024,4233.84605,3869.230675,4234.871691,4233.84605
92,0,4238.974255,4261.025537,4174.871693,4234.871691,4263.076819,4230.769127,4244.10246,4219.999897,3987.17939,4248.205024,4234.358871,3877.435803,4234.871691,4234.871691
93,0,4229.230666,4251.281947,4171.281949,4233.84605,4253.84605,4227.692204,4238.461435,4219.487076,3981.538364,4244.615281,4232.307589,3878.974264,4231.794768,4232.307589
94,0,4215.384512,4244.10246,4170.769129,4233.84605,4243.58964,4227.179384,4235.897332,4215.897333,3973.333236,4245.128101,4231.281948,3881.025546,4230.256307,4231.794768
95,0,4218.974256,4249.230665,4166.666565,4233.33323,4248.205024,4224.102461,4237.435794,4216.922974,3973.846057,4237.948614,4232.307589,3892.820418,4230.256307,4231.281948
96,0,4216.410153,4245.640922,4156.410155,4230.256307,4232.820409,4216.410153,4233.33323,4216.410153,3974.358877,4231.281948,4229.743486,3903.076828,4226.666563,4223.07682
97,0,4209.743487,4240.512717,4152.307591,4228.717845,4216.922974,4216.922974,4230.256307,4213.33323,3973.333236,4241.538358,4230.256307,3908.717853,4225.640922,4220.512717
98,0,4220.512717,4248.717845,4159.999898,4232.820409,4247.692204,4227.179384,4234.358871,4221.025538,3982.564005,4248.717845,4236.922973,3922.564007,4234.358871,4232.307589
99,0,4231.281948,4252.820409,4163.589642,4233.33323,4264.10246,4231.794768,4237.948614,4228.205025,3988.205031,4244.10246,4238.974255,3934.871699,4235.897332,4236.410153
100,0,4231.281948,4252.820409,4165.128103,4232.820409,4247.692204,4229.743486,4242.563999,4227.692204,3982.564005,4244.615281,4239.999896,3944.102468,4233.84605,4235.384512
101,0,4234.358871,4258.974255,4171.281949,4236.410153,4252.307588,4232.820409,4243.58964,4230.769127,3985.128108,4248.717845,4247.179383,3956.41016,4243.58964,4246.666563
102,0,4235.384512,4258.974255,4168.205026,4235.384512,4262.051178,4233.33323,4236.410153,4233.84605,3991.281954,4244.615281,4250.769127,3961.025544,4247.179383,4247.692204
103,0,4227.179384,4249.230665,4154.358873,4229.743486,4244.615281,4222.051179,4232.307589,4229.743486,3985.128108,4244.10246,4246.153742,3958.461442,4235.897332,4234.871691
104,0,4225.128102,4247.692204,4151.28195,4229.743486,4224.102461,4216.410153,4231.794768,4228.205025,3978.461441,4253.333229,4245.128101,3962.564006,4230.256307,4234.871691
105,0,4233.84605,4254.871691,4164.102462,4234.871691,4235.897332,4228.205025,4233.84605,4231.794768,3983.076826,4248.205024,4248.717845,3974.871698,4235.897332,4245.128101
106,0,4237.435794,4254.35887,4168.717847,4233.33323,4248.717845,4228.717845,4235.897332,4231.794768,3990.256313,4235.384512,4249.230665,3983.589646,4236.922973,4243.58964
107,0,4225.640922,4248.717845,4155.897334,4227.179384,4235.897332,4217.948615,4234.358871,4228.717845,3986.153749,4243.58964,4247.692204,3986.153749,4232.307589,4232.307589
108,0,4215.897333,4246.153742,4151.28195,4228.205025,4231.281948,4224.102461,4232.307589,4228.717845,3982.051185,4247.179383,4246.153742,3990.769133,4232.307589,4230.769127
109,0,4224.615281,4249.230665,4165.128103,4231.794768,4249.230665,4232.307589,4232.307589,4232.820409,3986.666569,4229.230666,4248.717845,4002.051184,4233.84605,4235.384512
110,0,4232.307589,4250.769127,4169.230667,4230.769127,4250.256306,4228.205025,4231.281948,4232.307589,3982.564005,4234.358871,4248.205024,4009.230671,4228.717845,4233.33323
111,0,4230.256307,4248.717845,4158.974257,4228.717845,4243.076819,4227.179384,4232.820409,4229.743486,3976.92298,4245.128101,4243.076819,4015.384517,4225.128102,4229.743486
112,0,4229.230666,4246.153742,4156.922975,4228.205025,4243.58964,4223.58964,4228.717845,4226.666563,3976.92298,4222.051179,4244.10246,4022.564004,4229.230666,4234.358871
113,0,4222.051179,4244.615281,4157.948616,4227.179384,4221.025538,4212.82041,4217.948615,4224.102461,3976.410159,4217.948615,4247.179383,4021.538363,4224.615281,4233.84605
114,0,4215.897333,4246.666563,4152.307591,4228.717845,4213.33323,4217.435794,4222.051179,4225.128102,3978.461441,4242.563999,4245.640922,4024.102466,4215.384512,4229.230666
115,0,4226.666563,4254.35887,4156.410155,4231.281948,4248.205024,4232.820409,4234.358871,4232.307589,3986.153749,4241.025537,4250.256306,4044.102465,4222.563999,4234.871691
116,0,4240.512717,4264.10246,4170.769129,4233.84605,4268.205024,4234.871691,4235.384512,4242.563999,3997.4358,4233.33323,4262.563998,4059.48708,4234.871691,4247.692204
117,0,4235.897332,4260.512716,4170.769129,4234.871691,4245.640922,4225.128102,4230.769127,4241.025537,4000.512723,4248.205024,4265.128101,4063.076824,4232.820409,4249.230665
118,0,4226.666563,4249.230665,4158.461437,4230.256307,4228.205025,4216.410153,4231.794768,4233.84605,3996.922979,4248.205024,4260.512716,4068.205029,4229.230666,4239.999896
119,0,4228.717845,4247.692204,4153.846052,4227.692204,4245.128101,4224.102461,4233.33323,4240.512717,4000.512723,4237.948614,4262.051178,4073.846054,4233.33323,4239.487076
120,0,4234.358871,4252.307588,4155.897334,4230.256307,4254.871691,4231.794768,4232.820409,4251.794768,4011.794774,4247.692204,4265.640921,4081.025541,4235.384512,4245.640922
121,0,4231.794768,4250.256306,4154.358873,4223.07682,4229.230666,4222.563999,4230.769127,4248.717845,4010.769133,4247.692204,4263.589639,4090.769131,4231.794768,4245.128101
122,0,4227.692204,4242.563999,4150.769129,4214.871692,4212.82041,4219.487076,4228.717845,4243.076819,4000.512723,4234.871691,4262.563998,4096.922977,4229.230666,4241.025537
123,0,4230.769127,4248.205024,4153.333232,4224.102461,4235.384512,4231.281948,4231.281948,4248.717845,4008.20503,4240.512717,4271.281947,4106.153746,4233.33323,4244.10246
124,0,4231.794768,4257.948614,4156.410155,4230.256307,4254.35887,4234.871691,4232.820409,4252.307588,4017.94862,4248.717845,4279.999895,4119.487079,4236.410153,4246.153742
125,0,4231.281948,4252.820409,4155.384514,4221.025538,4244.615281,4228.717845,4232.307589,4252.820409,4017.94862,4247.179383,4276.410152,4125.640925,4235.897332,4246.666563
126,0,4230.256307,4243.58964,4152.820411,4215.897333,4229.230666,4226.666563,4230.769127,4248.717845,4018.974261,4246.666563,4271.281947,4124.615284,4232.307589,4245.128101
127,0,4226.153743,4247.179383,4150.769129,4219.487076,4233.84605,4227.692204,4230.256307,4247.692204,4019.487081,4244.10246,4276.410152,4129.230668,4231.281948,4237.948614
128,0,4226.666563,4252.820409,4153.846052,4223.07682,4247.692204,4228.717845,4232.820409,4252.820409,4020.512722,4243.58964,4279.487075,4140.512719,4235.384512,4236.922973
0,0,4229.230666,4249.230665,4154.871693,4224.102461,4234.871691,4226.666563,4232.820409,4250.769127,4021.538363,4249.230665,4276.410152,4150.256309,4234.871691,4243.076819
1,0,4233.33323,4252.820409,4154.358873,4227.692204,4221.025538,4227.179384,4232.307589,4252.820409,4021.538363,4241.025537,4276.922972,4154.358873,4231.281948,4245.640922
2,0,4241.538358,4260.512716,4156.922975,4230.769127,4246.666563,4230.256307,4232.820409,4258.974255,4022.051184,4230.256307,4278.461434,4157.948616,4232.820409,4247.692204
3,0,4236.410153,4253.84605,4155.897334,4224.102461,4257.435793,4223.07682,4229.230666,4254.35887,4022.051184,4233.84605,4276.410152,4159.999898,4232.820409,4244.10246
4,0,4217.948615,4242.051178,4149.230668,4214.871692,4223.58964,4217.435794,4226.666563,4248.205024,4022.564004,4239.999896,4275.897331,4162.564001,4227.179384,4231.794768
5,0,4219.999897,4244.615281,4151.79477,4218.974256,4217.948615,4224.615281,4230.769127,4253.84605,4028.71785,4245.640922,4279.999895,4173.846052,4229.230666,4234.358871
6,0,4242.563999,4255.897332,4162.05118,4230.256307,4248.717845,4231.281948,4231.794768,4259.487075,4038.46144,4242.563999,4281.538357,4185.128103,4236.922973,4249.230665
7,0,4244.10246,4253.333229,4161.53836,4228.717845,4253.333229,4231.281948,4228.717845,4257.948614,4037.435799,4232.307589,4279.487075,4188.717846,4236.410153,4250.256306
8,0,4232.307589,4246.153742,4159.487078,4222.563999,4238.461435,4229.230666,4228.205025,4255.897332,4031.794773,4236.410153,4283.589639,4192.30759,4231.794768,4245.128101
9,0,4238.461435,4253.333229,4165.640924,4227.179384,4247.179383,4229.743486,4230.256307,4257.948614,4038.46144,4247.692204,4293.846049,4203.07682,4238.461435,4253.84605
10,0,4248.717845,4262.051178,4170.256308,4234.871691,4250.769127,4232.820409,4230.769127,4261.538357,4044.615286,4245.128101,4297.948613,4213.846051,4245.640922,4258.974255
11,0,4245.640922,4252.820409,4167.179385,4232.820409,4238.974255,4233.33323,4230.769127,4256.410152,4039.487081,4235.384512,4290.769126,4215.897333,4236.410153,4248.717845
12,0,4242.563999,4247.179383,4166.666565,4229.743486,4237.435794,4232.307589,4229.743486,4247.179383,4036.922978,4231.794768,4289.230664,4218.461435,4230.769127,4249.230665
13,0,4248.717845,4259.487075,4170.769129,4233.84605,4233.84605,4231.794768,4230.256307,4249.743486,4045.640927,4242.563999,4297.948613,4226.666563,4242.563999,4262.051178
14,0,4249.743486,4262.563998,4170.256308,4234.358871,4235.384512,4231.794768,4232.307589,4255.384511,4049.743491,4249.743486,4301.025536,4238.974255,4250.769127,4264.61528
15,0,4245.640922,4251.794768,4170.256308,4231.281948,4254.35887,4232.820409,4231.281948,4251.281947,4046.153747,4235.384512,4297.435792,4248.205024,4245.640922,4261.025537
16,0,4248.717845,4248.205024,4171.281949,4233.84605,4253.84605,4231.794768,4227.692204,4249.230665,4047.179388,4232.820409,4296.922972,4249.230665,4240.512717,4264.10246
17,0,4245.128101,4249.230665,4172.30759,4231.281948,4237.435794,4228.717845,4228.717845,4256.410152,4052.820414,4249.743486,4300.512715,4249.743486,4242.563999,4264.61528
18,0,4232.307589,4246.153742,4168.205026,4220.512717,4243.076819,4228.205025,4227.179384,4262.563998,4058.97426,4246.153742,4304.102459,4256.410152,4247.179383,4261.538357
19,0,4235.384512,4246.666563,4163.589642,4221.025538,4236.922973,4230.769127,4221.025538,4259.999896,4061.538362,4237.435794,4307.179382,4264.61528,4248.205024,4262.563998
20,0,4248.205024,4249.230665,4166.666565,4229.230666,4209.743487,4232.307589,4221.025538,4257.435793,4058.97426,4248.205024,4305.64092,4265.128101,4248.205024,4264.61528
21,0,4241.538358,4248.205024,4168.717847,4225.128102,4228.205025,4234.358871,4225.640922,4262.563998,4064.615285,4244.10246,4300.512715,4264.61528,4247.179383,4258.461434
22,0,4229.230666,4245.128101,4157.948616,4216.410153,4261.025537,4236.410153,4228.717845,4263.076819,4072.307593,4228.717845,4295.38451,4265.128101,4234.358871,4247.179383
23,0,4231.281948,4243.076819,4151.28195,4217.948615,4252.307588,4235.897332,4229.230666,4262.051178,4069.23067,4234.871691,4293.333228,4269.230665,4229.230666,4244.615281
24,0,4234.871691,4244.10246,4163.076821,4220.512717,4248.205024,4235.384512,4227.692204,4263.076819,4068.717849,4248.205024,4296.410151,4276.410152,4241.538358,4251.794768
25,0,4227.692204,4242.563999,4171.79477,4218.974256,4247.179383,4233.84605,4224.102461,4254.871691,4073.333234,4246.153742,4295.897331,4278.461434,4239.487076,4248.717845
26,0,4228.205025,4236.922973,4167.179385,4218.461435,4222.563999,4231.281948,4220.512717,4244.615281,4070.769131,4236.922973,4297.435792,4283.589639,4233.33323,4245.128101
27,0,4243.076819,4234.871691,4167.179385,4219.487076,4224.615281,4231.794768,4218.974256,4253.84605,4077.435798,4233.33323,4308.717843,4296.922972,4248.717845,4259.487075
28,0,4248.717845,4234.871691,4171.281949,4219.487076,4253.333229,4233.33323,4222.563999,4265.640921,4092.307592,4240.512717,4312.820407,4304.102459,4262.051178,4271.794767
29,0,4237.948614,4232.307589,4172.820411,4218.461435,4242.051178,4232.820409,4228.205025,4264.10246,4092.307592,4249.230665,4311.281946,4306.153741,4258.461434,4267.692203
30,0,4231.281948,4231.794768,4173.846052,4215.897333,4220.512717,4232.307589,4230.256307,4270.769126,4094.358874,4244.615281,4316.922971,4313.846048,4262.051178,4264.10246
31,0,4233.84605,4232.307589,4172.820411,4216.922974,4237.948614,4233.33323,4228.205025,4280.512716,4109.230669,4246.153742,4319.999894,4314.871689,4265.640921,4266.153742
32,0,4229.743486,4225.640922,4167.692206,4216.410153,4235.384512,4232.820409,4226.153743,4271.794767,4110.76913,4249.743486,4308.717843,4307.692202,4253.84605,4262.051178
33,0,4227.692204,4223.07682,4166.666565,4213.846051,4204.615282,4232.307589,4225.640922,4266.153742,4103.589643,4238.461435,4307.179382,4313.846048,4249.230665,4258.974255
34,0,4228.717845,4229.743486,4170.256308,4214.871692,4224.615281,4233.84605,4226.153743,4274.87169,4109.743489,4236.922973,4318.974253,4328.205022,4261.025537,4262.563998
35,0,4222.051179,4229.743486,4170.256308,4215.384512,4266.666562,4235.384512,4225.640922,4277.435793,4121.02554,4247.692204,4318.461433,4329.230663,4263.589639,4261.538357
36,0,4219.487076,4222.563999,4167.179385,4212.307589,4253.84605,4237.435794,4227.179384,4275.384511,4123.589643,4247.692204,4312.820407,4327.179381,4251.794768,4257.948614
37,0,4227.179384,4225.128102,4169.230667,4212.82041,4233.33323,4243.58964,4230.769127,4279.487075,4122.564002,4241.025537,4317.948612,4339.487073,4246.153742,4255.384511
38,0,4235.897332,4230.769127,4176.922975,4215.384512,4247.179383,4248.205024,4232.307589,4284.102459,4125.128104,4249.230665,4321.025535,4352.307586,4250.256306,4253.333229
39,0,4229.743486,4225.128102,4176.410154,4214.358871,4243.076819,4240.512717,4231.281948,4278.461434,4127.692207,4254.871691,4316.410151,4352.307586,4251.281947,4251.281947
40,0,4215.384512,4215.384512,4170.769129,4210.769128,4223.58964,4231.281948,4227.179384,4267.692203,4123.076822,4241.538358,4312.820407,4347.179381,4246.153742,4247.179383
41,0,4215.897333,4214.358871,4175.897334,4212.307589,4222.051179,4232.820409,4223.58964,4267.179383,4124.102463,4235.897332,4312.820407,4350.769124,4244.615281,4245.128101
42,0,4232.307589,4227.692204,4186.666564,4217.948615,4234.358871,4242.051178,4229.230666,4280.512716,4143.589642,4248.717845,4321.025535,4369.743483,4256.922973,4255.384511
43,0,4240.512717,4234.358871,4190.256308,4221.025538,4251.794768,4247.692204,4233.33323,4285.1281,4158.461437,4254.871691,4327.179381,4386.666559,4265.128101,4267.179383
44,0,4228.717845,4221.025538,4183.076821,4215.897333,4255.384511,4247.692204,4230.769127,4275.897331,4148.205027,4247.692204,4314.871689,4382.563995,4250.256306,4256.410152
45,0,4217.435794,4211.281948,4174.358872,4212.307589,4246.666563,4244.615281,4229.230666,4274.87169,4141.53836,4246.666563,4304.102459,4376.92297,4238.974255,4245.128101
46,0,4219.487076,4215.384512,4173.333231,4212.82041,4235.384512,4236.922973,4230.769127,4279.999895,4153.846052,4243.58964,4309.743484,4386.153739,4245.640922,4254.871691
47,0,4228.205025,4215.384512,4179.999898,4210.769128,4214.871692,4230.769127,4229.230666,4278.461434,4158.461437,4238.461435,4312.307587,4396.922969,4248.717845,4263.589639
48,0,4232.820409,4212.82041,4185.128103,4212.307589,4216.410153,4235.897332,4228.205025,4277.435793,4153.333232,4247.692204,4309.230664,4406.153738,4247.179383,4262.563998
49,0,4230.769127,4215.384512,4185.640923,4215.897333,4251.281947,4243.58964,4230.769127,4281.538357,4158.974257,4253.333229,4314.358869,4413.846046,4248.205024,4268.717844
50,0,4230.256307,4215.384512,4186.666564,4214.871692,4253.84605,4239.999896,4226.153743,4282.051177,4168.717847,4242.051178,4319.999894,4418.974251,4245.128101,4276.922972
51,0,4230.256307,4212.82041,4186.666564,4212.307589,4224.102461,4231.281948,4219.999897,4278.974254,4168.717847,4238.974255,4319.487074,4424.102456,4243.58964,4274.87169
52,0,4232.307589,4213.33323,4187.179385,4212.307589,4231.794768,4232.307589,4223.07682,4282.051177,4167.692206,4249.743486,4321.025535,4427.179379,4245.640922,4273.333229
53,0,4235.384512,4216.410153,4193.333231,4214.358871,4258.461434,4244.10246,4227.692204,4289.230664,4172.30759,4252.307588,4324.102458,4433.846045,4247.179383,4278.974254
54,0,4233.33323,4217.435794,4198.461436,4217.435794,4239.487076,4246.153742,4227.692204,4293.333228,4179.487077,4247.692204,4324.615279,4444.615276,4246.666563,4279.487075
55,0,4230.769127,4216.410153,4200.512718,4218.461435,4210.256307,4238.461435,4229.230666,4293.333228,4182.05118,4247.179383,4322.563997,4446.153737,4243.076819,4273.333229
56,0,4236.922973,4220.512717,4199.999897,4217.948615,4230.769127,4239.999896,4231.281948,4296.410151,4183.076821,4247.692204,4323.076817,4439.487071,4241.538358,4271.794767
57,0,4247.692204,4229.230666,4201.025538,4219.487076,4267.179383,4247.692204,4229.230666,4305.1281,4191.281949,4246.153742,4326.666561,4448.205019,4246.153742,4279.487075
58,0,4247.179383,4228.205025,4201.538359,4219.487076,4268.205024,4250.769127,4230.769127,4313.846048,4203.589641,4253.84605,4330.769125,4463.076814,4250.256306,4286.153741
59,0,4235.384512,4215.897333,4195.384513,4214.358871,4238.974255,4246.153742,4231.794768,4313.333228,4199.487077,4252.307588,4328.205022,4456.922968,4245.128101,4281.025536
60,0,4228.205025,4213.33323,4190.256308,4212.82041,4213.846051,4235.897332,4223.58964,4304.102459,4184.615282,4233.33323,4323.589638,4446.666558,4239.487076,4275.897331
61,0,4234.358871,4218.974256,4195.384513,4215.897333,4221.025538,4235.384512,4219.487076,4299.487074,4187.179385,4230.256307,4324.615279,4456.922968,4240.512717,4279.999895
62,0,4244.10246,4217.948615,4208.717846,4217.948615,4241.025537,4244.615281,4225.128102,4303.076818,4198.974256,4245.640922,4331.281945,4475.384506,4246.666563,4288.717844
63,0,4248.205024,4220.512717,4215.384512,4221.538358,4229.743486,4238.974255,4227.692204,4306.666561,4201.538359,4250.769127,4336.922971,4483.076813,4255.384511,4294.87169
64,0,4250.256306,4231.794768,4214.871692,4230.256307,4228.205025,4234.358871,4228.717845,4309.230664,4206.153743,4244.615281,4339.487073,4487.179377,4262.051178,4295.38451
65,0,4249.743486,4234.871691,4215.384512,4230.256307,4259.999896,4249.230665,4229.743486,4310.769125,4216.922974,4247.692204,4338.974253,4490.769121,4261.538357,4294.87169
66,0,4244.615281,4228.717845,4215.384512,4220.512717,4263.076819,4252.307588,4222.051179,4310.256305,4218.974256,4252.307588,4337.948612,4489.74348,4255.384511,4294.87169
67,0,4247.179383,4230.256307,4215.384512,4218.461435,4242.563999,4242.051178,4220.512717,4308.205023,4215.384512,4247.692204,4341.538355,4491.794762,4256.410152,4296.922972
68,0,4250.256306,4232.820409,4213.846051,4219.487076,4237.435794,4243.076819,4228.717845,4307.179382,4217.948615,4242.051178,4344.102458,4493.846044,4259.999896,4300.512715
69,0,4245.640922,4230.256307,4213.33323,4216.410153,4232.820409,4245.640922,4230.256307,4307.692202,4224.615281,4243.58964,4338.974253,4493.333223,4257.435793,4302.051177
70,0,4247.179383,4234.358871,4216.410153,4223.07682,4226.153743,4243.076819,4226.666563,4310.256305,4234.358871,4255.897332,4342.051176,4500.51271,4259.487075,4308.717843
71,0,4248.205024,4233.33323,4218.974256,4228.205025,4234.358871,4245.128101,4230.256307,4312.307587,4244.10246,4259.999896,4354.871688,4508.717838,4265.128101,4308.717843
72,0,4246.153742,4228.717845,4218.974256,4219.487076,4246.153742,4249.743486,4230.769127,4311.794766,4248.717845,4249.230665,4351.794765,4510.76912,4260.512716,4301.025536
73,0,4255.897332,4236.922973,4217.435794,4219.999897,4247.692204,4248.717845,4222.051179,4306.153741,4243.58964,4245.640922,4339.999894,4510.76912,4252.820409,4303.589638
74,0,4261.538357,4250.769127,4215.897333,4231.281948,4246.153742,4244.10246,4215.384512,4296.922972,4234.871691,4246.153742,4343.076817,4507.692197,4249.743486,4307.692202
75,0,4257.435793,4256.922973,4214.358871,4231.281948,4242.563999,4241.538358,4213.846051,4292.307587,4232.307589,4236.922973,4342.051176,4504.615274,4241.025537,4297.948613
76,0,4257.948614,4260.512716,4214.871692,4227.692204,4241.538358,4239.999896,4215.897333,4293.333228,4238.461435,4227.179384,4330.256304,4505.128095,4230.769127,4291.794767
77,0,4254.871691,4259.487075,4214.358871,4230.256307,4226.153743,4234.358871,4217.948615,4295.38451,4247.179383,4230.769127,4331.281945,4507.692197,4229.230666,4299.999895
78,0,4245.640922,4249.743486,4208.717846,4228.205025,4217.435794,4233.84605,4220.512717,4295.897331,4249.743486,4233.84605,4335.89733,4508.717838,4234.358871,4295.38451
79,0,4246.153742,4245.640922,4209.230666,4225.640922,4235.384512,4241.025537,4219.999897,4295.897331,4246.153742,4230.256307,4330.256304,4507.179377,4233.84605,4281.025536
80,0,4250.256306,4248.717845,4214.871692,4229.230666,4244.615281,4246.666563,4217.435794,4296.410151,4251.794768,4230.256307,4325.128099,4506.153736,4222.051179,4282.051177
81,0,4249.230665,4249.230665,4217.435794,4228.717845,4229.230666,4247.179383,4222.051179,4297.435792,4263.589639,4233.33323,4325.64092,4511.794761,4218.461435,4291.281946
82,0,4250.769127,4249.230665,4216.410153,4228.205025,4223.07682,4239.999896,4225.128102,4298.461433,4266.666562,4233.33323,4324.615279,4521.02553,4218.974256,4290.256305
83,0,4249.743486,4250.256306,4214.358871,4231.281948,4234.358871,4233.84605,4220.512717,4297.948613,4263.076819,4227.692204,4323.076817,4523.076812,4165.640924,4279.487075
84,0,4247.179383,4250.256306,4215.384512,4231.281948,4231.794768,4238.974255,4217.948615,4295.38451,4263.589639,4226.153743,4322.563997,4518.461428,4063.076824,4277.435793
85,0,4247.179383,4249.743486,4213.846051,4227.179384,4216.922974,4246.153742,4219.999897,4294.358869,4268.717844,4233.33323,4321.025535,4514.358864,4004.615287,4282.563998
86,0,4247.179383,4250.256306,4206.666564,4227.692204,4217.435794,4244.615281,4219.487076,4295.38451,4273.846049,4235.897332,4321.025535,4518.461428,4013.333235,4282.563998
87,0,4247.179383,4251.281947,4199.999897,4230.256307,4238.974255,4244.615281,4221.025538,4295.897331,4283.589639,4232.820409,4318.461433,4522.051171,4032.820414,4281.025536
88,0,4243.076819,4250.256306,4199.487077,4224.102461,4252.307588,4250.256306,4226.153743,4295.38451,4287.179382,4235.384512,4320.512715,4516.922966,4037.435799,4279.487075
89,0,4232.307589,4246.666563,4194.871692,4218.461435,4231.794768,4243.58964,4221.025538,4294.87169,4280.512716,4233.84605,4320.512715,4513.333223,4039.999901,4277.435793
90,0,4227.692204,4244.10246,4187.692205,4218.461435,4209.230666,4238.461435,4216.410153,4294.358869,4283.076818,4227.692204,4312.820407,4518.974248,4047.179388,4275.384511
91,0,4233.33323,4244.10246,4191.794769,4217.435794,4213.846051,4244.10246,4224.615281,4295.897331,4293.846049,4230.769127,4314.358869,4523.076812,4059.999901,4276.410152
92,0,4236.410153,4245.640922,4198.974256,4217.948615,4232.820409,4248.205024,4230.256307,4296.410151,4299.487074,4235.897332,4325.64092,4523.589633,4070.769131,4282.563998
93,0,4236.922973,4250.256306,4202.564,4222.051179,4238.461435,4248.205024,4228.205025,4299.999895,4308.205023,4236.410153,4330.769125,4531.28194,4075.897336,4290.769126
94,0,4228.205025,4247.179383,4198.974256,4221.025538,4222.051179,4247.179383,4225.640922,4301.025536,4312.307587,4233.84605,4323.076817,4534.358863,4077.435798,4288.717844
95,0,4218.461435,4236.410153,4189.743487,4214.358871,4210.769128,4242.051178,4221.025538,4289.230664,4299.999895,4222.051179,4314.871689,4524.615274,4075.897336,4276.922972
96,0,4222.563999,4231.281948,4185.128103,4211.794769,4217.435794,4233.84605,4214.358871,4278.461434,4296.922972,4215.897333,4310.256305,4523.076812,4074.871695,4273.333229
97,0,4227.692204,4232.820409,4185.640923,4212.307589,4222.563999,4233.33323,4214.358871,4278.974254,4305.1281,4223.07682,4309.230664,4526.666556,4082.564003,4279.487075
98,0,4225.128102,4232.820409,4185.640923,4212.82041,4215.897333,4234.871691,4214.358871,4278.461434,4302.051177,4219.999897,4313.846048,4526.153735,4091.794772,4279.487075
99,0,4225.128102,4232.307589,4185.640923,4214.871692,4214.358871,4233.84605,4213.846051,4277.948613,4301.538356,4212.82041,4320.512715,4527.692197,4093.333233,4277.435793
100,0,4223.07682,4232.820409,4185.640923,4213.33323,4203.589641,4234.871691,4216.922974,4278.461434,4308.205023,4218.974256,4322.563997,4531.28194,4090.769131,4277.948613
101,0,4216.410153,4233.33323,4183.589641,4209.230666,4186.153744,4231.794768,4213.33323,4271.281947,4307.179382,4219.487076,4319.999894,4527.179376,4091.281951,4271.794767
102,0,4217.435794,4233.33323,4182.564,4206.666564,4199.999897,4230.769127,4206.666564,4264.10246,4305.1281,4214.358871,4317.948612,4522.563992,4095.384515,4262.563998
103,0,4225.640922,4230.769127,4183.076821,4202.051179,4218.974256,4233.33323,4203.589641,4265.640921,4308.205023,4217.435794,4317.435792,4523.589633,4100.51272,4264.10246
104,0,4229.230666,4232.307589,4181.538359,4198.974256,4216.410153,4233.84605,4202.564,4267.692203,4312.307587,4215.897333,4319.999894,4529.230658,4107.179387,4272.820408
105,0,4227.692204,4243.58964,4185.640923,4208.205025,4212.307589,4233.84605,4206.153743,4271.281947,4321.538356,4218.974256,4327.179381,4535.897325,4116.410156,4277.435793
106,0,4227.179384,4246.666563,4194.871692,4215.897333,4215.384512,4239.999896,4214.871692,4278.461434,4332.307586,4235.384512,4328.717843,4538.461427,4122.564002,4277.435793
107,0,4226.666563,4237.435794,4194.871692,4206.153743,4223.07682,4244.615281,4218.461435,4278.461434,4333.333227,4231.794768,4326.666561,4536.410145,4123.076822,4275.897331
108,0,4222.051179,4235.897332,4187.179385,4199.487077,4234.871691,4245.640922,4216.410153,4272.820408,4330.769125,4213.33323,4328.205022,4536.410145,4122.051181,4274.87169
109,0,4222.051179,4247.179383,4187.179385,4208.717846,4229.230666,4244.10246,4215.897333,4273.333229,4333.846048,4220.512717,4330.256304,4537.435786,4122.564002,4275.897331
110,0,4223.58964,4246.666563,4187.692205,4210.256307,4211.794769,4239.487076,4214.871692,4273.846049,4335.89733,4232.307589,4327.179381,4537.435786,4125.640925,4274.87169
111,0,4216.410153,4234.871691,4184.615282,4200.512718,4208.205025,4231.794768,4215.384512,4273.333229,4335.384509,4221.538358,4325.128099,4537.948607,4132.307591,4272.820408
112,0,4221.538358,4238.974255,4192.82041,4205.128102,4209.230666,4231.794768,4218.461435,4276.410152,4341.538355,4219.487076,4332.820407,4539.487068,4141.02554,4275.384511
113,0,4235.384512,4250.769127,4198.974256,4212.82041,4213.33323,4239.487076,4218.461435,4280.512716,4350.769124,4231.794768,4337.435791,4540.512709,4143.076822,4279.487075
114,0,4227.179384,4244.10246,4187.692205,4204.102461,4223.07682,4239.487076,4215.384512,4278.461434,4351.281945,4234.871691,4328.717843,4538.461427,4139.487078,4277.435793
115,0,4218.974256,4237.435794,4182.05118,4197.948615,4217.948615,4232.820409,4213.33323,4274.87169,4349.743483,4229.230666,4325.128099,4536.922966,4144.615283,4276.410152
116,0,4227.179384,4239.999896,4188.717846,4201.025538,4199.487077,4230.256307,4212.82041,4273.333229,4350.256304,4219.487076,4332.307586,4536.922966,4150.769129,4278.974254
117,0,4228.717845,4240.512717,4195.384513,4201.538359,4199.999897,4236.922973,4216.410153,4274.87169,4351.794765,4213.33323,4334.871689,4544.615273,4149.230668,4279.487075
118,0,4227.692204,4245.128101,4199.999897,4209.743487,4226.666563,4245.640922,4220.512717,4276.410152,4359.999893,4224.102461,4336.922971,4555.384504,4151.79477,4281.025536
119,0,4230.769127,4247.179383,4201.538359,4214.358871,4230.769127,4242.051178,4217.948615,4269.743485,4365.128098,4232.820409,4339.999894,4555.384504,4156.410155,4281.025536
120,0,4229.230666,4236.922973,4196.410154,4202.564,4196.410154,4232.820409,4212.307589,4262.563998,4357.435791,4228.205025,4336.922971,4551.79476,4152.307591,4275.897331
121,0,4231.794768,4237.948614,4202.051179,4203.07682,4196.922974,4239.999896,4218.461435,4268.205024,4356.41015,4225.640922,4336.41015,4558.974247,4154.358873,4278.974254
122,0,4240.512717,4251.281947,4212.82041,4216.410153,4235.384512,4254.871691,4228.717845,4278.974254,4372.307585,4230.256307,4343.076817,4569.743478,4168.205026,4284.61528
123,0,4241.538358,4251.281947,4209.230666,4216.410153,4234.358871,4248.717845,4222.563999,4277.435793,4376.410149,4232.307589,4343.076817,4570.769119,4169.230667,4282.051177
124,0,4242.563999,4247.692204,4204.615282,4211.794769,4210.256307,4236.922973,4211.794769,4266.666562,4365.640919,4227.692204,4337.948612,4567.692196,4167.692206,4284.102459
125,0,4251.794768,4256.410152,4212.82041,4217.435794,4216.410153,4240.512717,4214.871692,4263.076819,4366.66656,4234.358871,4342.051176,4572.307581,4177.948616,4295.38451
126,0,4261.538357,4267.692203,4219.999897,4224.615281,4233.84605,4249.743486,4222.563999,4272.307588,4377.43579,4248.717845,4352.307586,4584.102452,4188.205026,4304.615279
127,0,4265.640921,4270.769126,4220.512717,4229.743486,4238.974255,4250.256306,4220.512717,4279.999895,4382.563995,4242.563999,4356.92297,4590.256298,4194.871692,4309.230664
128,0,4262.051178,4267.692203,4220.512717,4228.717845,4228.205025,4244.615281,4214.871692,4274.35887,4382.563995,4232.307589,4354.358868,4588.717837,4199.487077,4306.153741
0,0,4251.794768,4264.10246,4213.846051,4220.512717,4216.922974,4246.153742,4212.82041,4265.640921,4380.512713,4238.461435,4353.333227,4581.53835,4200.512718,4298.974254
1,0,4244.615281,4262.051178,4202.564,4215.897333,4221.538358,4246.666563,4215.384512,4264.10246,4377.43579,4237.948614,4351.281945,4573.333222,4197.948615,4298.461433
2,0,4234.871691,4253.333229,4198.461436,4214.358871,4204.102461,4237.435794,4215.897333,4261.025537,4374.358867,4227.179384,4336.922971,4567.692196,4187.179385,4288.717844
3,0,4223.07682,4247.692204,4202.564,4212.82041,4178.974257,4227.692204,4206.666564,4250.256306,4370.769124,4226.666563,4328.717843,4566.666555,4177.948616,4272.307588
4,0,4233.84605,4255.897332,4206.666564,4213.846051,4208.717846,4229.743486,4201.538359,4247.692204,4371.281944,4228.205025,4341.538355,4571.281939,4193.846051,4284.61528
5,0,4254.871691,4257.435793,4205.128102,4215.897333,4244.615281,4238.461435,4209.230666,4258.974255,4385.128098,4238.461435,4356.41015,4581.53835,4218.974256,4311.794766
6,0,4252.820409,4245.640922,4206.153743,4210.256307,4222.051179,4242.563999,4215.897333,4264.10246,4391.794764,4248.717845,4357.948611,4585.640914,4220.512717,4314.358869
7,0,4244.615281,4242.563999,4213.33323,4206.666564,4214.871692,4244.10246,4215.897333,4259.487075,4387.17938,4239.999896,4357.435791,4587.179375,4221.025538,4309.743484
8,0,4249.230665,4248.205024,4215.897333,4210.769128,4242.051178,4247.692204,4218.461435,4263.589639,4393.846046,4234.358871,4361.538355,4593.333221,4232.307589,4319.999894
9,0,4248.717845,4248.205024,4213.846051,4209.743487,4212.82041,4242.563999,4219.999897,4266.666562,4397.94861,4237.435794,4357.435791,4590.256298,4223.58964,4318.974253
10,0,4249.230665,4246.153742,4218.974256,4209.230666,4177.435795,4233.33323,4217.948615,4262.051178,4391.281944,4232.307589,4352.307586,4589.230657,4212.307589,4309.743484
11,0,4256.410152,4248.717845,4222.563999,4216.922974,4217.948615,4237.435794,4217.948615,4259.999896,4393.333226,4227.179384,4353.846047,4598.461426,4219.999897,4309.743484
12,0,4250.769127,4248.205024,4216.410153,4213.846051,4246.666563,4246.153742,4217.435794,4258.461434,4397.94861,4235.384512,4351.794765,4593.333221,4223.07682,4308.717843
13,0,4244.10246,4246.153742,4213.33323,4207.179384,4218.974256,4245.128101,4212.82041,4256.410152,4399.487072,4243.58964,4347.692201,4584.615273,4219.999897,4306.153741
14,0,4244.10246,4244.615281,4213.846051,4208.717846,4212.307589,4243.076819,4211.794769,4257.948614,4405.640918,4239.999896,4348.717842,4592.820401,4227.692204,4307.179382
15,0,4246.153742,4244.615281,4211.794769,4205.128102,4228.717845,4245.128101,4212.82041,4260.512716,4406.666559,4241.025537,4354.358868,4602.56399,4233.84605,4309.743484
16,0,4253.84605,4247.179383,4213.846051,4205.640923,4222.051179,4245.640922,4213.846051,4258.461434,4405.640918,4246.666563,4356.41015,4606.153734,4233.33323,4314.871689
17,0,4255.384511,4247.179383,4214.871692,4211.281948,4212.82041,4246.153742,4214.871692,4254.871691,4411.281943,4238.461435,4356.41015,4607.179375,4237.435794,4319.487074
18,0,4246.153742,4244.10246,4207.179384,4205.128102,4212.82041,4245.128101,4212.82041,4252.307588,4410.256302,4232.307589,4355.897329,4602.05117,4243.076819,4321.025535
19,0,4245.128101,4244.615281,4207.179384,4204.102461,4221.025538,4246.666563,4213.846051,4257.948614,4415.897328,4244.10246,4356.41015,4600.512708,4247.179383,4319.487074
20,0,4245.640922,4248.205024,4218.461435,4214.871692,4234.871691,4251.281947,4219.999897,4266.153742,4427.179379,4252.820409,4356.92297,4606.153734,4248.717845,4315.89733
21,0,4236.410153,4243.076819,4216.922974,4210.256307,4230.256307,4250.769127,4223.58964,4262.563998,4418.974251,4245.128101,4351.281945,4602.56399,4242.051178,4310.256305
22,0,4229.743486,4234.871691,4205.128102,4199.487077,4216.410153,4247.692204,4220.512717,4258.974255,4409.230661,4238.461435,4345.640919,4592.820401,4236.922973,4304.102459
23,0,4225.128102,4231.281948,4201.025538,4201.025538,4212.307589,4249.230665,4218.461435,4259.999896,4414.358866,4234.871691,4343.589637,4586.666555,4235.384512,4295.38451
24,0,4214.358871,4227.692204,4201.538359,4197.948615,4202.564,4246.153742,4219.487076,4254.35887,4413.846046,4233.84605,4337.948612,4579.487068,4228.205025,4283.589639
25,0,4212.82041,4226.153743,4200.512718,4193.333231,4189.743487,4235.384512,4216.410153,4247.179383,4408.20502,4230.769127,4333.846048,4574.871683,4224.102461,4279.487075
26,0,4226.666563,4231.281948,4203.589641,4198.461436,4203.589641,4236.410153,4213.33323,4247.692204,4410.256302,4227.179384,4339.999894,4582.563991,4230.256307,4285.1281
27,0,4223.07682,4231.281948,4205.128102,4200.512718,4212.82041,4245.128101,4215.897333,4249.230665,4412.820405,4231.281948,4342.563996,4586.666555,4232.307589,4285.1281
28,0,4207.692205,4228.717845,4201.025538,4198.974256,4198.461436,4238.974255,4216.922974,4247.179383,4409.743482,4227.179384,4330.256304,4575.384504,4225.640922,4276.922972
29,0,4213.846051,4232.307589,4199.999897,4201.538359,4206.666564,4234.871691,4213.846051,4245.128101,4408.717841,4218.461435,4324.102458,4566.153734,4227.179384,4276.410152
30,0,4216.410153,4222.563999,4199.999897,4195.384513,4223.58964,4245.128101,4213.33323,4245.640922,4410.256302,4218.461435,4328.717843,4569.743478,4228.717845,4274.87169
31,0,4201.025538,4211.281948,4194.871692,4187.692205,4207.179384,4248.205024,4216.410153,4247.179383,4410.256302,4216.410153,4325.64092,4565.128093,4218.974256,4258.974255
32,0,4210.769128,4232.307589,4195.897333,4197.948615,4203.589641,4244.615281,4213.846051,4246.153742,4410.256302,4221.025538,4323.589638,4555.384504,4220.512717,4262.051178
33,0,4233.33323,4254.871691,4202.051179,4209.230666,4235.384512,4244.615281,4206.153743,4244.615281,4412.820405,4229.230666,4326.666561,4553.846042,4231.794768,4277.948613
34,0,4223.07682,4247.179383,4196.410154,4200.512718,4226.666563,4237.435794,4202.051179,4243.076819,4411.794764,4224.615281,4324.615279,4552.307581,4230.256307,4270.256306
35,0,4212.82041,4240.512717,4190.769128,4194.871692,4186.153744,4227.692204,4202.051179,4238.461435,4412.307584,4212.82041,4321.538356,4548.717837,4226.666563,4259.487075
36,0,4230.256307,4249.230665,4196.922974,4207.179384,4198.974256,4235.384512,4207.692205,4240.512717,4422.563994,4216.922974,4325.128099,4552.307581,4231.281948,4272.820408
