title:V                                                                               , recorded:07.07.20 11.33.52, sampling:128, subject:B                                                                               , labels:COUNTER INTERPOLATED AF3 F7 F3 FC5 T7 P7 O1 O2 P8 T8 FC6 F4 F8 AF4,, units:emotiv,,,,,,,,,
110,0,4216.410153,4183.076821,4303.076818,4165.128103,4169.230667,4435.384507,4134.358873,4129.230668,4351.281945,4196.922974,4324.615279,4506.153736,4282.563998,4296.410151
111,0,4217.948615,4190.256308,4293.333228,4169.743488,4170.256308,4429.230661,4129.743489,4117.948617,4337.948612,4197.948615,4313.846048,4487.692198,4271.281947,4290.769126
112,0,4214.871692,4189.743487,4290.769126,4168.717847,4171.79477,4431.794763,4132.820412,4123.076822,4335.89733,4195.897333,4307.692202,4477.948608,4259.999896,4278.461434
113,0,4212.307589,4186.666564,4288.717844,4167.692206,4160.512719,4429.743481,4136.410155,4136.410155,4345.640919,4189.743487,4311.281946,4477.435788,4263.589639,4275.384511
114,0,4211.794769,4185.640923,4284.102459,4167.179385,4154.871693,4425.640917,4132.307591,4135.384514,4347.692201,4192.30759,4311.281946,4474.358865,4267.179383,4278.974254
115,0,4213.33323,4189.743487,4287.692203,4166.153744,4166.666565,4426.666558,4128.205027,4129.230668,4341.538355,4196.922974,4309.230664,4470.769121,4266.666562,4275.897331
116,0,4218.974256,4199.999897,4295.38451,4176.922975,4175.897334,4428.20502,4132.820412,4134.871694,4344.615278,4196.922974,4318.974253,4472.820403,4276.922972,4283.076818
117,0,4219.999897,4202.564,4296.410151,4182.564,4175.384513,4428.71784,4136.410155,4141.53836,4353.846047,4201.538359,4325.64092,4475.384506,4284.61528,4290.769126
118,0,4216.922974,4196.410154,4294.87169,4172.30759,4172.820411,4427.692199,4134.871694,4138.461437,4352.820406,4206.153743,4319.487074,4476.410147,4279.999895,4283.076818
119,0,4222.563999,4197.435795,4302.563997,4173.333231,4170.769129,4421.538353,4135.384514,4137.435796,4349.743483,4199.487077,4319.487074,4476.922967,4279.487075,4283.589639
120,0,4231.281948,4203.07682,4311.794766,4184.615282,4174.871693,4419.487071,4137.435796,4141.53836,4350.256304,4196.410154,4323.076817,4477.435788,4282.563998,4290.769126
121,0,4230.769127,4204.102461,4314.358869,4185.640923,4183.589641,4425.128097,4137.948617,4141.02554,4343.589637,4199.487077,4321.538356,4478.461429,4281.025536,4285.640921
122,0,4224.615281,4202.051179,4310.769125,4183.076821,4180.512718,4424.102456,4137.948617,4137.948617,4339.999894,4195.897333,4322.051176,4475.384506,4279.487075,4278.461434
123,0,4213.33323,4197.948615,4301.025536,4182.564,4167.692206,4413.333225,4136.410155,4135.897335,4340.512714,4188.205026,4319.999894,4462.563993,4279.487075,4274.87169
124,0,4203.589641,4188.205026,4291.794767,4173.846052,4165.640924,4409.743482,4134.871694,4134.358873,4331.281945,4182.05118,4309.743484,4447.179378,4274.87169,4263.589639
125,0,4208.717846,4185.640923,4292.820408,4169.743488,4181.025539,4419.999892,4137.435796,4134.871694,4325.64092,4182.05118,4305.64092,4443.076814,4267.692203,4261.025537
126,0,4210.256307,4186.153744,4294.358869,4171.281949,4186.153744,4425.640917,4141.02554,4139.487078,4333.846048,4185.128103,4308.205023,4442.051173,4264.61528,4260.512716
127,0,4199.487077,4181.538359,4288.205023,4167.692206,4174.358872,4416.922969,4138.461437,4139.487078,4335.89733,4187.179385,4304.102459,4432.307584,4264.10246,4246.666563
128,0,4204.615282,4192.30759,4286.153741,4170.256308,4174.871693,4410.769123,4134.358873,4134.871694,4327.692202,4179.999898,4297.435792,4426.666558,4261.025537,4247.179383
0,0,4221.538358,4209.743487,4292.307587,4183.076821,4187.692205,4414.871687,4135.897335,4134.871694,4324.102458,4171.281949,4294.358869,4429.230661,4259.999896,4257.948614
1,0,4222.051179,4207.692205,4290.769126,4186.153744,4184.102462,4414.358866,4137.948617,4133.846053,4326.15374,4168.205026,4295.38451,4423.589635,4263.076819,4253.84605
2,0,4212.82041,4197.948615,4281.025536,4174.871693,4172.820411,4408.20502,4135.897335,4124.102463,4325.128099,4158.461437,4293.333228,4411.281943,4258.461434,4243.58964
3,0,4213.33323,4199.487077,4283.076818,4174.358872,4176.922975,4410.769123,4134.871694,4121.02554,4324.102458,4153.846052,4290.769126,4407.179379,4251.281947,4246.666563
4,0,4224.102461,4209.743487,4294.87169,4187.179385,4186.153744,4415.384507,4138.974258,4130.76913,4324.615279,4165.640924,4297.435792,4415.897328,4257.435793,4258.461434
5,0,4235.897332,4216.410153,4297.948613,4192.30759,4186.666564,4410.256302,4139.487078,4135.897335,4326.666561,4168.717847,4302.563997,4424.102456,4267.179383,4266.153742
6,0,4230.256307,4211.281948,4293.333228,4186.666564,4182.05118,4404.102456,4136.922976,4136.922976,4327.179381,4156.410155,4297.435792,4416.410148,4265.128101,4265.128101
7,0,4215.897333,4201.538359,4285.1281,4183.589641,4176.922975,4404.615277,4137.948617,4134.871694,4323.589638,4154.358873,4291.281946,4402.563995,4259.999896,4256.922973
8,0,4213.33323,4201.025538,4276.922972,4183.076821,4167.179385,4404.102456,4136.922976,4129.230668,4321.538356,4162.564001,4291.794767,4397.43579,4259.999896,4254.35887
9,0,4214.871692,4203.07682,4276.922972,4182.564,4172.30759,4405.640918,4134.871694,4131.28195,4324.102458,4165.640924,4293.846049,4398.461431,4263.076819,4257.948614
10,0,4215.897333,4205.640923,4282.563998,4185.640923,4195.897333,4413.333225,4136.922976,4139.487078,4329.743484,4172.30759,4294.87169,4398.974251,4264.10246,4259.999896
11,0,4214.358871,4204.102461,4279.487075,4185.640923,4199.999897,4416.410148,4141.02554,4139.487078,4327.179381,4169.230667,4294.87169,4392.820405,4259.487075,4256.922973
12,0,4210.769128,4198.461436,4275.384511,4182.564,4183.589641,4409.230661,4138.974258,4133.846053,4316.922971,4155.897334,4294.358869,4387.6922,4256.410152,4256.410152
13,0,4212.307589,4208.205025,4284.102459,4187.179385,4181.538359,4409.230661,4137.435796,4135.897335,4318.461433,4164.102462,4295.38451,4394.871687,4258.974255,4263.589639
14,0,4217.435794,4217.435794,4294.87169,4194.871692,4190.769128,4414.871687,4141.53836,4141.53836,4326.666561,4173.333231,4293.333228,4399.999892,4262.051178,4266.666562
15,0,4216.410153,4206.666564,4295.897331,4191.281949,4185.640923,4410.769123,4142.564001,4139.487078,4317.948612,4158.974257,4290.769126,4390.769123,4261.025537,4262.563998
16,0,4216.410153,4199.487077,4293.333228,4185.128103,4177.435795,4396.922969,4138.974258,4130.256309,4306.666561,4149.743488,4292.820408,4386.666559,4258.461434,4259.487075
17,0,4221.538358,4207.692205,4295.897331,4187.692205,4182.564,4390.256303,4133.846053,4125.128104,4310.769125,4161.53836,4293.333228,4390.256303,4261.538357,4262.563998
18,0,4221.025538,4208.205025,4297.435792,4189.230667,4187.179385,4391.794764,4130.256309,4126.666566,4307.692202,4160.512719,4285.640921,4383.076816,4261.538357,4262.563998
19,0,4213.33323,4199.487077,4292.307587,4184.102462,4173.846052,4390.769123,4130.76913,4124.102463,4293.846049,4149.743488,4280.512716,4372.820406,4252.820409,4253.333229
20,0,4212.307589,4196.922974,4289.230664,4183.076821,4161.025539,4385.128098,4135.897335,4124.102463,4296.410151,4160.512719,4281.538357,4371.794765,4253.333229,4252.820409
21,0,4218.461435,4202.051179,4294.358869,4187.692205,4175.384513,4384.102457,4139.999899,4133.333232,4310.769125,4171.281949,4285.1281,4375.897329,4265.128101,4265.128101
22,0,4219.999897,4207.179384,4297.948613,4188.205026,4191.281949,4386.666559,4139.999899,4140.512719,4314.358869,4162.05118,4287.692203,4375.384508,4268.717844,4268.717844
23,0,4216.922974,4203.07682,4292.307587,4186.153744,4177.948616,4384.615277,4139.487078,4133.846053,4302.563997,4152.820411,4283.589639,4368.205021,4261.538357,4262.563998
24,0,4215.897333,4199.999897,4290.769126,4185.128103,4169.743488,4379.487072,4137.435796,4125.640925,4292.307587,4154.871693,4278.974254,4363.076816,4261.025537,4261.538357
25,0,4217.435794,4205.640923,4292.820408,4187.179385,4183.589641,4381.025534,4137.948617,4129.743489,4292.820408,4149.743488,4280.512716,4365.128098,4264.61528,4260.512716
26,0,4216.410153,4204.102461,4289.743485,4187.692205,4187.692205,4378.974252,4139.487078,4137.435796,4294.87169,4141.53836,4278.974254,4363.589637,4259.487075,4252.307588
27,0,4216.922974,4198.974256,4287.692203,4185.640923,4174.358872,4373.333226,4137.948617,4136.410155,4291.794767,4142.564001,4276.922972,4357.948611,4251.794768,4247.179383
28,0,4216.922974,4199.487077,4292.307587,4184.615282,4168.717847,4373.333226,4137.435796,4134.871694,4289.743485,4141.53836,4277.948613,4355.384509,4249.230665,4248.717845
29,0,4215.384512,4200.512718,4290.769126,4185.640923,4175.384513,4374.358867,4141.02554,4137.948617,4290.256305,4137.435796,4272.820408,4351.281945,4250.256306,4251.281947
30,0,4215.897333,4201.025538,4283.589639,4186.666564,4174.871693,4372.820406,4144.615283,4138.974258,4292.307587,4139.487078,4263.589639,4342.051176,4250.256306,4247.179383
31,0,4210.769128,4191.794769,4279.487075,4184.102462,4164.102462,4371.794765,4143.076822,4137.948617,4293.333228,4140.512719,4261.025537,4330.769125,4242.563999,4232.307589
32,0,4208.717846,4186.153744,4281.538357,4182.564,4165.640924,4369.743483,4138.461437,4137.948617,4288.205023,4138.461437,4259.999896,4324.615279,4233.84605,4228.205025
33,0,4222.051179,4209.230666,4291.281946,4192.30759,4184.615282,4370.769124,4137.435796,4136.922976,4282.563998,4136.410155,4262.051178,4329.230663,4237.948614,4243.076819
34,0,4236.410153,4230.769127,4294.87169,4203.589641,4193.846051,4372.307585,4140.512719,4137.435796,4283.589639,4129.743489,4258.461434,4330.769125,4236.410153,4245.128101
35,0,4234.358871,4222.051179,4285.1281,4203.07682,4187.179385,4367.692201,4142.051181,4136.922976,4283.589639,4123.589643,4249.230665,4317.435792,4221.538358,4231.794768
36,0,4225.128102,4214.871692,4276.922972,4199.487077,4180.512718,4364.615278,4139.999899,4132.307591,4277.948613,4119.487079,4243.076819,4308.205023,4212.82041,4225.640922
37,0,4217.435794,4221.025538,4276.410152,4201.025538,4177.435795,4367.17938,4137.435796,4124.102463,4271.281947,4109.743489,4236.922973,4307.692202,4208.717846,4221.025538
38,0,4215.897333,4216.922974,4275.384511,4198.974256,4181.025539,4367.17938,4141.53836,4119.999899,4271.794767,4103.589643,4235.897332,4303.589638,4205.128102,4218.974256
39,0,4225.640922,4221.538358,4281.538357,4200.512718,4195.384513,4370.256303,4152.820411,4127.692207,4276.922972,4110.25631,4245.640922,4304.615279,4212.307589,4229.743486
40,0,4235.897332,4235.897332,4294.358869,4211.794769,4202.051179,4372.820406,4156.410155,4136.922976,4277.948613,4116.922976,4251.281947,4314.871689,4219.487076,4239.487076
41,0,4231.794768,4228.205025,4291.281946,4211.794769,4191.794769,4365.128098,4151.79477,4136.922976,4276.410152,4112.307592,4247.179383,4312.307587,4216.410153,4231.281948
42,0,4222.051179,4212.307589,4279.487075,4199.999897,4182.05118,4361.538355,4152.820411,4134.871694,4278.974254,4105.128105,4244.615281,4297.435792,4215.384512,4220.512717
43,0,4222.563999,4215.384512,4279.999895,4197.948615,4181.025539,4363.076816,4156.410155,4142.051181,4279.487075,4104.102464,4246.666563,4292.820408,4215.897333,4220.512717
44,0,4227.692204,4222.051179,4285.640921,4205.128102,4184.615282,4361.538355,4153.846052,4152.820411,4283.589639,4109.230669,4244.10246,4298.974254,4215.384512,4224.102461
45,0,4218.461435,4212.82041,4285.1281,4199.487077,4186.153744,4359.487073,4152.820411,4153.846052,4291.281946,4108.205028,4235.384512,4294.87169,4211.794769,4217.435794
46,0,4215.384512,4211.281948,4283.589639,4198.461436,4185.128103,4359.999893,4155.897334,4151.79477,4289.743485,4111.794771,4236.410153,4284.102459,4209.743487,4209.743487
47,0,4230.256307,4221.538358,4290.769126,4212.307589,4188.717846,4362.563996,4158.461437,4154.358873,4284.61528,4119.999899,4246.153742,4287.179382,4215.384512,4216.922974
48,0,4231.794768,4218.461435,4293.846049,4211.281948,4196.410154,4364.615278,4158.461437,4151.79477,4284.102459,4115.384515,4243.58964,4292.307587,4216.410153,4215.897333
49,0,4227.692204,4217.435794,4291.281946,4204.615282,4200.512718,4367.17938,4158.974257,4146.153745,4283.589639,4110.25631,4239.999896,4290.769126,4214.871692,4212.307589
50,0,4240.512717,4235.384512,4295.38451,4216.410153,4201.538359,4367.692201,4159.487078,4146.666565,4279.487075,4110.25631,4248.717845,4290.256305,4219.999897,4228.717845
51,0,4244.10246,4235.897332,4292.820408,4217.948615,4202.051179,4363.589637,4157.435796,4143.589642,4277.435793,4104.102464,4246.153742,4286.153741,4216.410153,4232.307589
52,0,4232.820409,4216.922974,4281.025536,4202.564,4192.30759,4357.435791,4154.358873,4136.922976,4279.487075,4105.128105,4233.84605,4278.461434,4208.205025,4219.487076
53,0,4232.820409,4215.384512,4276.922972,4204.102461,4177.948616,4354.871688,4152.820411,4137.435796,4276.922972,4107.179387,4233.84605,4278.974254,4207.692205,4222.563999
54,0,4236.922973,4221.538358,4281.538357,4210.256307,4181.538359,4352.820406,4152.307591,4138.974258,4272.307588,4093.333233,4236.922973,4279.999895,4206.666564,4229.230666
55,0,4231.794768,4218.461435,4277.948613,4201.538359,4198.974256,4349.230663,4150.256309,4135.897335,4272.820408,4090.25631,4233.84605,4270.256306,4202.564,4220.512717
56,0,4230.256307,4216.922974,4271.794767,4203.589641,4206.153743,4350.256304,4150.256309,4135.384514,4276.410152,4104.615284,4232.307589,4259.999896,4201.538359,4214.871692
57,0,4233.84605,4217.948615,4274.35887,4213.846051,4199.487077,4350.769124,4153.333232,4145.128104,4276.922972,4109.743489,4233.84605,4261.538357,4201.538359,4218.461435
58,0,4234.871691,4222.563999,4279.487075,4216.922974,4199.487077,4352.307586,4155.384514,4152.307591,4278.974254,4107.179387,4232.820409,4265.128101,4204.615282,4219.487076
59,0,4234.358871,4225.640922,4278.461434,4215.897333,4204.102461,4350.256304,4153.846052,4145.640924,4274.35887,4100.51272,4231.794768,4257.435793,4205.640923,4214.871692
60,0,4232.820409,4222.051179,4274.35887,4215.897333,4199.487077,4342.563996,4151.79477,4136.410155,4263.076819,4089.230669,4226.153743,4245.640922,4198.461436,4205.640923
61,0,4233.33323,4225.640922,4276.922972,4216.410153,4198.974256,4340.512714,4151.79477,4139.487078,4262.563998,4094.358874,4221.025538,4246.666563,4198.461436,4210.256307
62,0,4235.897332,4230.256307,4279.999895,4216.922974,4204.615282,4342.563996,4150.769129,4142.051181,4267.179383,4110.76913,4224.615281,4251.281947,4205.128102,4222.051179
63,0,4233.33323,4225.128102,4274.35887,4213.846051,4204.102461,4343.589637,4151.79477,4138.974258,4263.589639,4107.692207,4230.256307,4248.717845,4204.102461,4215.897333
64,0,4229.743486,4223.58964,4267.179383,4214.871692,4202.051179,4343.589637,4153.846052,4137.948617,4260.512716,4091.794772,4228.717845,4242.563999,4202.564,4206.666564
65,0,4232.307589,4224.102461,4264.61528,4216.410153,4200.512718,4340.512714,4153.846052,4136.410155,4261.025537,4086.666567,4221.538358,4233.33323,4199.999897,4205.640923
66,0,4228.717845,4215.897333,4263.076819,4212.307589,4201.025538,4343.589637,4157.948616,4139.487078,4260.512716,4090.25631,4215.897333,4229.230666,4189.230667,4201.025538
67,0,4217.435794,4213.846051,4263.589639,4212.82041,4205.128102,4353.846047,4168.717847,4151.28195,4266.153742,4087.692208,4213.846051,4227.179384,4179.999898,4196.922974
68,0,4221.025538,4220.512717,4264.61528,4216.410153,4203.07682,4351.281945,4172.820411,4157.435796,4271.794767,4091.281951,4216.922974,4219.487076,4186.666564,4200.512718
69,0,4230.769127,4220.512717,4263.589639,4213.846051,4193.846051,4338.974253,4168.205026,4155.897334,4271.794767,4108.205028,4221.538358,4216.410153,4191.794769,4199.999897
70,0,4231.794768,4223.07682,4270.769126,4213.33323,4201.025538,4337.948612,4166.153744,4160.512719,4276.410152,4113.846053,4226.666563,4227.179384,4194.871692,4206.666564
71,0,4241.025537,4231.281948,4282.051177,4218.974256,4219.487076,4343.076817,4170.769129,4170.256308,4282.563998,4113.333233,4236.410153,4241.025537,4209.230666,4226.666563
72,0,4253.84605,4232.307589,4282.051177,4220.512717,4220.512717,4341.538355,4173.846052,4171.281949,4279.999895,4119.999899,4242.563999,4242.051178,4222.051179,4237.435794
73,0,4251.281947,4224.102461,4278.461434,4217.948615,4208.205025,4340.512714,4171.79477,4167.692206,4275.897331,4122.051181,4244.10246,4240.512717,4228.717845,4240.512717
74,0,4248.717845,4218.461435,4282.051177,4219.487076,4203.07682,4344.102458,4173.333231,4175.897334,4284.102459,4121.02554,4247.692204,4243.58964,4234.358871,4249.230665
75,0,4250.769127,4217.435794,4280.512716,4216.922974,4203.589641,4344.102458,4177.948616,4185.128103,4293.333228,4121.538361,4250.256306,4242.051178,4235.897332,4250.256306
76,0,4245.128101,4214.358871,4277.948613,4212.307589,4207.692205,4340.512714,4177.948616,4177.435795,4291.281946,4123.589643,4244.10246,4233.84605,4231.794768,4235.384512
77,0,4241.538358,4213.33323,4278.974254,4214.358871,4213.846051,4343.076817,4180.512718,4169.230667,4284.102459,4123.076822,4236.922973,4230.256307,4230.256307,4231.794768
78,0,4239.999896,4212.307589,4270.769126,4215.384512,4214.871692,4347.692201,4182.564,4170.769129,4282.051177,4113.333233,4232.820409,4225.128102,4223.58964,4231.281948
79,0,4231.281948,4205.128102,4262.051178,4212.82041,4211.281948,4343.076817,4175.384513,4168.717847,4280.512716,4101.025541,4228.205025,4208.717846,4211.281948,4217.948615
80,0,4229.230666,4201.538359,4270.769126,4213.33323,4206.666564,4339.999894,4171.281949,4167.692206,4277.948613,4103.589643,4227.692204,4199.487077,4213.846051,4212.307589
81,0,4232.307589,4201.538359,4274.35887,4210.256307,4202.564,4338.974253,4173.846052,4169.230667,4277.948613,4101.538361,4223.07682,4199.487077,4211.281948,4211.794769
82,0,4230.256307,4198.461436,4263.589639,4206.666564,4201.025538,4331.281945,4174.358872,4167.692206,4276.922972,4092.820413,4215.897333,4198.461436,4202.051179,4209.230666
83,0,4229.743486,4197.435795,4263.589639,4211.794769,4197.435795,4327.692202,4176.922975,4174.358872,4278.461434,4097.948618,4219.999897,4195.384513,4205.128102,4209.230666
84,0,4231.281948,4199.487077,4273.333229,4215.897333,4198.461436,4336.41015,4183.589641,4185.640923,4290.769126,4110.76913,4229.230666,4198.974256,4214.871692,4215.384512
85,0,4235.897332,4201.538359,4278.461434,4214.871692,4212.307589,4343.076817,4186.666564,4188.205026,4297.948613,4118.461438,4234.358871,4212.82041,4222.563999,4224.615281
86,0,4246.153742,4205.128102,4277.948613,4217.435794,4223.58964,4342.051176,4186.153744,4186.666564,4290.769126,4122.564002,4234.871691,4221.538358,4226.666563,4232.820409
87,0,4247.692204,4206.153743,4271.794767,4218.974256,4221.538358,4338.974253,4185.640923,4187.179385,4290.769126,4127.692207,4233.33323,4217.948615,4223.58964,4231.794768
88,0,4237.948614,4204.102461,4265.128101,4214.871692,4217.435794,4339.999894,4182.564,4184.102462,4294.358869,4144.615283,4229.743486,4214.358871,4215.384512,4227.692204
89,0,4228.717845,4203.589641,4263.076819,4214.871692,4219.999897,4346.15374,4183.589641,4182.05118,4286.666562,4159.999898,4230.256307,4216.922974,4216.922974,4229.743486
90,0,4223.58964,4198.974256,4262.563998,4215.897333,4222.563999,4340.512714,4186.666564,4182.05118,4277.948613,4156.410155,4229.230666,4214.871692,4214.358871,4225.128102
91,0,4218.461435,4189.230667,4259.487075,4207.179384,4212.82041,4326.15374,4182.564,4178.461436,4275.897331,4159.999898,4221.538358,4206.666564,4201.538359,4218.461435
92,0,4217.948615,4186.153744,4259.999896,4199.487077,4201.025538,4328.205022,4177.435795,4179.999898,4275.384511,4181.025539,4221.025538,4207.179384,4198.461436,4221.538358
93,0,4217.948615,4186.666564,4262.563998,4205.128102,4203.589641,4334.871689,4182.564,4185.128103,4277.435793,4196.410154,4229.230666,4215.384512,4202.564,4229.230666
94,0,4217.435794,4187.692205,4265.128101,4212.82041,4213.33323,4329.743484,4181.538359,4182.564,4274.87169,4199.999897,4233.33323,4219.999897,4203.589641,4237.948614
95,0,4217.948615,4191.794769,4267.692203,4213.33323,4214.871692,4324.102458,4172.820411,4173.846052,4267.692203,4202.564,4231.794768,4217.948615,4202.564,4244.615281
96,0,4215.384512,4193.846051,4266.153742,4212.82041,4208.205025,4327.692202,4177.435795,4173.846052,4264.61528,4208.717846,4230.256307,4215.897333,4204.102461,4242.563999
97,0,4213.33323,4193.846051,4265.128101,4212.307589,4206.666564,4328.205022,4185.640923,4182.564,4262.563998,4210.769128,4231.281948,4216.410153,4206.666564,4239.999896
98,0,4217.948615,4197.948615,4267.692203,4215.384512,4215.897333,4326.666561,4183.589641,4184.615282,4262.051178,4214.358871,4235.897332,4219.487076,4214.871692,4245.128101
99,0,4212.82041,4195.897333,4262.563998,4214.871692,4222.051179,4326.15374,4181.025539,4175.384513,4260.512716,4213.33323,4230.256307,4215.897333,4211.281948,4236.922973
100,0,4196.922974,4184.102462,4250.769127,4205.128102,4216.410153,4327.179381,4183.589641,4169.743488,4252.820409,4204.615282,4216.410153,4203.07682,4194.358872,4216.922974
101,0,4195.897333,4181.538359,4251.281947,4199.487077,4213.846051,4330.256304,4187.179385,4173.846052,4251.281947,4209.230666,4222.051179,4198.974256,4200.512718,4224.615281
102,0,4208.205025,4185.128103,4261.538357,4202.051179,4216.922974,4327.692202,4187.692205,4178.974257,4257.948614,4225.128102,4233.33323,4202.051179,4219.999897,4245.640922
103,0,4213.846051,4182.564,4262.563998,4203.07682,4216.922974,4323.076817,4185.128103,4181.538359,4259.999896,4226.666563,4233.33323,4202.051179,4224.102461,4247.179383
104,0,4219.999897,4187.692205,4264.10246,4207.692205,4217.435794,4325.128099,4189.743487,4185.128103,4261.538357,4223.58964,4238.974255,4206.666564,4230.769127,4249.743486
105,0,4230.769127,4197.435795,4273.846049,4216.922974,4217.435794,4328.717843,4194.358872,4189.230667,4269.230665,4235.897332,4250.769127,4215.897333,4246.666563,4263.589639
106,0,4234.871691,4197.948615,4281.025536,4218.461435,4215.897333,4328.205022,4191.794769,4192.82041,4274.35887,4235.897332,4251.794768,4218.461435,4249.230665,4269.230665
107,0,4231.794768,4195.897333,4278.974254,4216.410153,4217.435794,4325.128099,4187.179385,4189.230667,4273.333229,4225.640922,4249.230665,4217.435794,4245.128101,4265.128101
108,0,4233.33323,4203.07682,4278.461434,4218.974256,4222.051179,4324.615279,4188.717846,4186.666564,4268.717844,4238.974255,4251.281947,4220.512717,4248.717845,4266.153742
109,0,4234.358871,4206.666564,4278.974254,4219.487076,4223.58964,4327.692202,4192.82041,4194.358872,4265.128101,4251.281947,4251.794768,4222.563999,4252.307588,4269.743485
110,0,4223.58964,4201.025538,4271.794767,4217.435794,4214.358871,4328.717843,4191.281949,4195.897333,4264.10246,4235.897332,4249.743486,4219.487076,4249.743486,4264.61528
111,0,4213.33323,4198.461436,4264.10246,4217.435794,4213.33323,4325.64092,4187.179385,4187.179385,4263.589639,4228.205025,4247.179383,4212.82041,4239.999896,4252.820409
112,0,4213.846051,4197.435795,4258.974255,4214.358871,4228.717845,4329.230663,4188.205026,4184.615282,4265.128101,4233.84605,4244.615281,4204.615282,4233.33323,4245.640922
113,0,4208.205025,4190.769128,4251.794768,4204.102461,4228.717845,4326.666561,4189.230667,4185.640923,4259.487075,4219.999897,4238.461435,4195.384513,4231.794768,4238.974255
114,0,4197.948615,4183.076821,4246.153742,4199.487077,4212.307589,4315.38451,4187.179385,4184.102462,4252.820409,4211.794769,4231.794768,4186.666564,4230.256307,4231.794768
115,0,4203.07682,4187.179385,4245.128101,4206.153743,4211.794769,4313.333228,4187.179385,4184.102462,4257.435793,4227.179384,4234.871691,4183.076821,4227.692204,4234.871691
116,0,4214.871692,4196.922974,4252.307588,4213.846051,4218.461435,4319.999894,4187.692205,4187.179385,4265.128101,4231.794768,4242.051178,4188.717846,4233.84605,4244.615281
117,0,4218.461435,4203.07682,4262.051178,4218.461435,4219.487076,4321.538356,4189.230667,4193.846051,4263.076819,4231.794768,4248.205024,4200.512718,4248.205024,4252.307588
118,0,4217.435794,4205.640923,4265.640921,4221.025538,4219.999897,4315.89733,4189.230667,4196.410154,4256.410152,4235.897332,4248.205024,4206.153743,4249.230665,4255.384511
119,0,4213.846051,4200.512718,4259.999896,4217.435794,4209.230666,4309.743484,4184.615282,4187.692205,4249.743486,4223.58964,4235.384512,4195.897333,4232.820409,4247.692204
120,0,4214.871692,4198.461436,4258.974255,4215.384512,4205.128102,4312.307587,4188.717846,4183.076821,4246.153742,4212.82041,4229.230666,4188.205026,4229.230666,4242.563999
121,0,4219.999897,4204.615282,4262.051178,4218.461435,4228.205025,4320.512715,4200.512718,4187.692205,4247.692204,4221.538358,4243.076819,4192.82041,4246.153742,4249.743486
122,0,4217.435794,4203.07682,4263.076819,4219.999897,4237.948614,4320.512715,4201.025538,4189.743487,4248.717845,4225.128102,4248.717845,4194.871692,4253.84605,4253.333229
123,0,4213.846051,4200.512718,4259.999896,4217.435794,4219.999897,4317.435792,4194.871692,4187.179385,4245.640922,4212.82041,4234.871691,4185.128103,4241.538358,4245.640922
124,0,4215.384512,4204.102461,4249.743486,4216.410153,4214.871692,4319.487074,4195.897333,4183.589641,4242.051178,4206.153743,4227.179384,4174.871693,4229.743486,4235.897332
125,0,4208.717846,4195.897333,4248.205024,4214.871692,4223.07682,4320.512715,4197.948615,4184.102462,4245.640922,4212.307589,4231.281948,4177.435795,4230.256307,4227.692204
126,0,4207.179384,4190.769128,4254.35887,4213.33323,4219.999897,4318.974253,4196.922974,4189.743487,4249.743486,4216.410153,4234.358871,4183.589641,4234.871691,4228.205025
127,0,4221.538358,4209.743487,4253.333229,4214.871692,4216.410153,4314.358869,4198.461436,4189.230667,4239.487076,4206.153743,4231.281948,4185.640923,4232.307589,4234.871691
128,0,4231.794768,4227.179384,4248.205024,4222.051179,4219.999897,4310.256305,4195.897333,4185.640923,4229.743486,4195.384513,4221.538358,4181.538359,4223.07682,4235.897332
0,0,4230.256307,4230.769127,4250.769127,4232.307589,4221.538358,4310.256305,4189.743487,4187.179385,4234.358871,4198.974256,4214.871692,4175.384513,4209.230666,4231.281948
1,0,4230.769127,4234.871691,4252.820409,4231.794768,4212.307589,4310.256305,4188.717846,4187.179385,4237.435794,4205.128102,4216.922974,4175.384513,4200.512718,4230.256307
2,0,4233.33323,4234.358871,4248.717845,4223.07682,4210.256307,4308.205023,4193.846051,4184.102462,4232.820409,4202.051179,4217.948615,4181.538359,4210.769128,4234.871691
3,0,4229.743486,4229.230666,4248.205024,4227.179384,4227.179384,4310.256305,4193.846051,4183.589641,4233.33323,4201.538359,4216.922974,4188.205026,4216.922974,4239.487076
4,0,4222.051179,4230.256307,4246.153742,4229.230666,4237.435794,4311.281946,4189.230667,4181.025539,4232.307589,4197.948615,4217.435794,4182.05118,4205.128102,4236.410153
5,0,4214.358871,4228.205025,4242.563999,4218.974256,4228.717845,4307.692202,4186.153744,4171.79477,4219.487076,4186.153744,4214.871692,4171.79477,4196.410154,4222.563999
6,0,4217.435794,4227.179384,4243.58964,4219.999897,4224.615281,4307.179382,4185.640923,4167.179385,4213.846051,4188.717846,4210.769128,4170.769129,4199.487077,4217.435794
7,0,4223.58964,4230.769127,4244.615281,4229.743486,4227.692204,4308.205023,4186.666564,4175.384513,4225.128102,4198.461436,4210.256307,4176.410154,4201.538359,4225.128102
8,0,4219.999897,4231.794768,4242.563999,4230.769127,4221.025538,4303.589638,4188.717846,4184.102462,4231.794768,4194.358872,4212.307589,4173.846052,4201.025538,4223.58964
9,0,4215.384512,4230.256307,4242.051178,4228.205025,4215.897333,4299.487074,4189.230667,4183.589641,4229.230666,4192.82041,4215.384512,4168.717847,4201.025538,4214.871692
10,0,4216.410153,4230.256307,4244.615281,4229.743486,4219.999897,4301.025536,4190.256308,4182.05118,4230.769127,4204.102461,4214.358871,4172.30759,4201.025538,4214.358871
11,0,4219.999897,4231.794768,4245.640922,4229.230666,4215.897333,4299.487074,4189.230667,4185.128103,4234.358871,4200.512718,4209.743487,4172.30759,4203.07682,4216.922974
12,0,4217.435794,4231.794768,4244.10246,4228.205025,4213.33323,4292.820408,4188.717846,4186.666564,4233.84605,4186.153744,4211.281948,4168.717847,4202.051179,4213.33323
13,0,4215.384512,4230.769127,4243.58964,4228.717845,4223.58964,4297.948613,4189.230667,4185.128103,4234.358871,4192.82041,4217.948615,4175.384513,4205.128102,4216.410153
14,0,4224.615281,4233.33323,4248.717845,4232.820409,4232.820409,4306.666561,4189.230667,4184.102462,4235.384512,4212.307589,4221.538358,4187.692205,4216.922974,4229.743486
15,0,4230.769127,4234.871691,4247.692204,4234.358871,4226.666563,4301.538356,4189.230667,4182.564,4232.820409,4210.256307,4218.461435,4189.743487,4215.897333,4230.769127
16,0,4222.563999,4225.640922,4236.410153,4226.153743,4217.948615,4293.333228,4186.666564,4180.512718,4229.230666,4186.153744,4215.384512,4182.564,4203.589641,4217.435794
17,0,4213.846051,4215.897333,4230.769127,4220.512717,4215.897333,4294.358869,4184.615282,4180.512718,4227.692204,4182.05118,4213.33323,4179.999898,4199.999897,4212.307589
18,0,4214.358871,4220.512717,4230.769127,4219.999897,4214.871692,4294.358869,4185.128103,4181.538359,4229.743486,4193.846051,4213.33323,4178.974257,4203.07682,4215.384512
19,0,4216.922974,4229.743486,4229.743486,4219.487076,4213.846051,4292.307587,4187.179385,4185.640923,4233.84605,4193.846051,4214.358871,4178.461436,4209.230666,4215.897333
20,0,4214.358871,4227.179384,4230.256307,4219.999897,4213.846051,4293.333228,4187.179385,4188.205026,4236.410153,4190.769128,4219.999897,4183.589641,4216.410153,4217.948615
21,0,4204.615282,4216.410153,4231.794768,4218.974256,4211.281948,4290.256305,4185.128103,4185.128103,4234.871691,4189.743487,4218.974256,4183.076821,4208.717846,4217.435794
22,0,4205.128102,4211.794769,4229.230666,4216.410153,4211.281948,4289.230664,4184.102462,4183.076821,4232.820409,4182.564,4213.846051,4172.30759,4199.487077,4210.256307
23,0,4216.922974,4219.487076,4227.692204,4219.487076,4221.025538,4296.410151,4189.230667,4186.153744,4237.948614,4183.076821,4222.051179,4171.281949,4207.692205,4213.846051
24,0,4220.512717,4233.33323,4232.307589,4230.769127,4228.717845,4297.948613,4194.358872,4190.256308,4245.128101,4205.128102,4230.769127,4184.615282,4222.051179,4228.717845
25,0,4220.512717,4233.33323,4232.307589,4232.820409,4219.999897,4296.410151,4190.769128,4190.256308,4243.076819,4204.615282,4223.07682,4187.692205,4219.487076,4227.179384
26,0,4213.846051,4214.871692,4224.102461,4219.999897,4216.922974,4292.820408,4182.564,4182.05118,4233.33323,4172.30759,4212.307589,4175.384513,4199.487077,4203.589641
27,0,4201.538359,4204.102461,4214.358871,4212.82041,4218.974256,4284.102459,4181.538359,4170.256308,4228.717845,4166.153744,4212.82041,4166.153744,4196.410154,4194.871692
28,0,4205.640923,4210.256307,4215.384512,4214.358871,4204.615282,4282.051177,4183.589641,4172.820411,4229.230666,4186.666564,4217.948615,4169.230667,4217.435794,4210.769128
29,0,4221.025538,4217.435794,4227.179384,4218.974256,4203.07682,4291.794767,4185.640923,4184.615282,4231.281948,4190.256308,4223.07682,4179.999898,4225.128102,4219.999897
30,0,4221.538358,4217.435794,4235.384512,4223.58964,4226.153743,4294.87169,4188.717846,4187.179385,4242.051178,4186.153744,4227.692204,4186.666564,4215.384512,4216.922974
31,0,4214.358871,4216.922974,4231.281948,4222.563999,4229.743486,4291.281946,4188.717846,4186.153744,4246.666563,4188.717846,4224.102461,4179.999898,4215.384512,4213.846051
32,0,4217.435794,4213.33323,4223.58964,4214.358871,4210.256307,4291.794767,4186.153744,4185.640923,4237.948614,4185.128103,4222.563999,4175.384513,4218.974256,4213.846051
33,0,4229.230666,4215.897333,4226.666563,4217.435794,4209.230666,4291.281946,4187.179385,4187.179385,4239.487076,4186.153744,4231.794768,4184.102462,4224.102461,4223.58964
34,0,4238.461435,4225.640922,4235.897332,4227.692204,4226.666563,4291.794767,4191.794769,4193.846051,4252.307588,4191.281949,4237.435794,4192.30759,4234.871691,4231.794768
35,0,4229.230666,4222.563999,4229.743486,4221.538358,4228.717845,4293.846049,4190.256308,4194.358872,4250.769127,4185.128103,4228.205025,4186.153744,4231.794768,4218.974256
36,0,4218.974256,4212.82041,4217.435794,4215.897333,4216.922974,4289.743485,4185.128103,4186.153744,4240.512717,4181.025539,4223.58964,4179.487077,4223.07682,4209.743487
37,0,4232.820409,4218.974256,4222.563999,4227.692204,4212.82041,4288.717844,4188.717846,4186.153744,4243.58964,4186.153744,4228.717845,4184.615282,4229.230666,4224.102461
38,0,4245.640922,4227.179384,4233.84605,4231.794768,4224.615281,4293.846049,4193.846051,4189.743487,4246.153742,4181.538359,4224.102461,4194.358872,4234.358871,4229.230666
39,0,4234.871691,4221.025538,4229.230666,4224.615281,4220.512717,4291.281946,4189.743487,4184.615282,4235.384512,4169.743488,4215.897333,4191.794769,4222.563999,4216.410153
40,0,4225.128102,4218.974256,4225.640922,4225.128102,4199.487077,4280.512716,4184.102462,4179.999898,4227.692204,4167.692206,4216.922974,4186.666564,4215.384512,4214.358871
41,0,4240.512717,4228.205025,4232.307589,4232.307589,4207.692205,4278.974254,4186.153744,4185.128103,4235.897332,4170.769129,4219.487076,4197.435795,4223.07682,4228.205025
42,0,4250.769127,4230.769127,4235.384512,4231.281948,4230.256307,4284.102459,4190.256308,4193.846051,4245.640922,4171.281949,4217.948615,4201.538359,4225.640922,4230.256307
43,0,4237.435794,4226.666563,4230.769127,4230.256307,4224.615281,4281.025536,4187.179385,4199.487077,4246.666563,4170.769129,4216.922974,4187.179385,4217.435794,4216.922974
44,0,4231.794768,4223.07682,4232.307589,4230.256307,4211.794769,4280.512716,4186.153744,4199.999897,4246.666563,4172.30759,4217.948615,4190.769128,4215.384512,4215.897333
45,0,4234.871691,4216.922974,4235.897332,4224.102461,4215.897333,4287.179382,4193.333231,4201.025538,4245.640922,4164.102462,4218.461435,4202.051179,4220.512717,4220.512717
46,0,4221.025538,4207.179384,4228.205025,4217.435794,4210.256307,4286.666562,4197.948615,4198.974256,4243.58964,4154.358873,4214.871692,4191.281949,4212.307589,4205.640923
47,0,4211.794769,4206.153743,4221.025538,4216.410153,4203.07682,4279.487075,4190.256308,4192.30759,4240.512717,4162.05118,4209.230666,4185.128103,4201.025538,4193.846051
48,0,4228.717845,4214.871692,4227.179384,4217.948615,4217.435794,4279.999895,4186.666564,4193.333231,4235.384512,4169.230667,4215.384512,4200.512718,4210.256307,4208.205025
49,0,4234.871691,4214.358871,4234.358871,4218.461435,4217.948615,4285.1281,4194.358872,4196.410154,4234.871691,4158.461437,4218.461435,4208.717846,4217.435794,4215.897333
50,0,4215.384512,4199.999897,4228.717845,4217.435794,4196.410154,4279.999895,4192.30759,4186.666564,4232.307589,4147.179386,4205.128102,4194.358872,4202.051179,4201.538359
51,0,4212.307589,4198.974256,4226.153743,4216.922974,4196.410154,4273.333229,4183.589641,4180.512718,4227.179384,4151.79477,4196.922974,4187.692205,4193.333231,4194.358872
52,0,4230.256307,4213.33323,4231.281948,4217.435794,4217.948615,4277.435793,4187.179385,4186.666564,4234.358871,4156.922975,4209.230666,4198.974256,4203.07682,4201.538359
53,0,4236.922973,4216.922974,4233.33323,4218.461435,4227.179384,4282.051177,4194.358872,4188.717846,4242.563999,4151.28195,4214.358871,4204.102461,4203.589641,4204.615282
54,0,4232.307589,4213.33323,4232.307589,4219.999897,4228.717845,4281.025536,4196.922974,4185.128103,4236.922973,4148.205027,4207.692205,4200.512718,4200.512718,4203.589641
55,0,4233.33323,4217.948615,4233.84605,4221.538358,4229.743486,4282.563998,4198.974256,4186.666564,4231.794768,4154.871693,4208.717846,4201.538359,4204.615282,4206.153743
56,0,4231.794768,4217.435794,4233.33323,4218.974256,4219.487076,4283.076818,4196.410154,4192.30759,4234.871691,4153.333232,4212.82041,4202.564,4202.564,4207.692205
57,0,4227.692204,4211.281948,4229.743486,4215.897333,4212.307589,4277.948613,4192.82041,4199.487077,4242.563999,4151.28195,4214.871692,4207.692205,4202.564,4208.717846
58,0,4242.051178,4224.615281,4235.897332,4225.640922,4218.974256,4278.461434,4199.487077,4205.640923,4250.256306,4168.717847,4222.051179,4223.58964,4218.974256,4224.102461
59,0,4251.794768,4235.384512,4241.538358,4233.33323,4221.025538,4282.051177,4203.07682,4204.615282,4250.769127,4172.30759,4221.025538,4227.692204,4225.128102,4232.307589
60,0,4234.358871,4219.487076,4232.307589,4223.07682,4218.974256,4279.487075,4198.974256,4201.025538,4243.076819,4156.410155,4208.717846,4215.384512,4206.153743,4208.717846
61,0,4225.128102,4209.743487,4227.179384,4216.410153,4218.461435,4278.461434,4201.538359,4202.051179,4244.615281,4154.358873,4212.307589,4214.358871,4205.640923,4198.974256
62,0,4235.384512,4215.384512,4231.794768,4219.487076,4219.999897,4281.538357,4204.615282,4203.589641,4246.153742,4152.307591,4222.563999,4228.205025,4227.179384,4223.07682
63,0,4237.435794,4209.230666,4235.384512,4218.461435,4219.999897,4279.999895,4198.974256,4196.922974,4237.435794,4145.128104,4219.999897,4232.820409,4237.435794,4236.922973
64,0,4233.33323,4199.487077,4229.743486,4215.897333,4208.205025,4267.692203,4195.384513,4187.692205,4232.307589,4155.384514,4217.435794,4222.051179,4231.281948,4229.743486
65,0,4234.358871,4196.922974,4221.025538,4212.307589,4197.948615,4263.076819,4197.435795,4184.102462,4233.84605,4157.435796,4216.922974,4216.410153,4223.07682,4224.102461
66,0,4230.256307,4191.794769,4212.82041,4203.589641,4208.205025,4273.333229,4195.897333,4184.102462,4233.84605,4137.948617,4207.692205,4215.897333,4216.922974,4216.922974
67,0,4228.717845,4192.82041,4212.82041,4203.589641,4215.897333,4279.487075,4197.435795,4186.666564,4233.84605,4134.871694,4202.564,4213.846051,4216.410153,4212.82041
68,0,4230.769127,4196.922974,4217.435794,4206.153743,4203.589641,4275.384511,4199.999897,4188.205026,4233.33323,4143.076822,4203.07682,4212.307589,4218.461435,4210.769128
69,0,4224.615281,4188.205026,4210.769128,4201.025538,4196.922974,4274.35887,4194.871692,4187.179385,4231.281948,4139.487078,4201.025538,4212.307589,4212.307589,4203.07682
70,0,4223.07682,4179.999898,4202.564,4197.435795,4201.538359,4275.897331,4191.281949,4193.846051,4241.538358,4137.948617,4206.153743,4213.846051,4212.307589,4204.102461
71,0,4231.281948,4188.717846,4209.230666,4201.025538,4196.410154,4274.35887,4197.948615,4203.07682,4251.281947,4145.128104,4216.922974,4223.07682,4225.128102,4217.948615
72,0,4235.897332,4198.461436,4215.897333,4204.615282,4199.487077,4273.846049,4203.07682,4197.435795,4240.512717,4155.384514,4218.461435,4230.769127,4233.33323,4228.205025
73,0,4233.33323,4191.794769,4205.128102,4203.07682,4216.410153,4267.692203,4195.897333,4185.128103,4231.281948,4154.871693,4217.435794,4228.717845,4233.33323,4226.153743
74,0,4229.743486,4184.615282,4197.948615,4197.948615,4214.358871,4260.512716,4190.256308,4182.564,4232.820409,4137.435796,4216.922974,4227.179384,4229.743486,4216.410153
75,0,4231.281948,4193.846051,4210.769128,4201.538359,4193.333231,4261.538357,4195.897333,4185.640923,4233.84605,4133.333232,4214.871692,4231.794768,4229.743486,4215.897333
76,0,4239.487076,4203.07682,4218.974256,4212.82041,4195.897333,4265.640921,4203.07682,4187.179385,4239.999896,4151.28195,4217.948615,4236.410153,4233.84605,4225.640922
77,0,4239.999896,4191.794769,4209.230666,4208.205025,4210.256307,4264.61528,4197.948615,4186.666564,4243.076819,4154.358873,4216.410153,4229.743486,4229.230666,4222.051179
78,0,4224.615281,4181.538359,4196.410154,4195.384513,4199.999897,4259.487075,4188.205026,4180.512718,4232.307589,4141.53836,4205.640923,4221.025538,4216.410153,4208.205025
79,0,4224.615281,4188.717846,4201.025538,4198.461436,4199.999897,4262.563998,4193.333231,4185.128103,4233.33323,4139.999899,4206.666564,4228.717845,4218.461435,4212.82041
80,0,4236.410153,4197.948615,4211.794769,4206.666564,4206.153743,4267.692203,4202.051179,4196.922974,4247.179383,4142.051181,4215.897333,4237.948614,4232.820409,4222.051179
81,0,4236.410153,4200.512718,4208.205025,4208.717846,4188.205026,4264.10246,4197.948615,4193.846051,4248.205024,4134.358873,4215.897333,4232.820409,4231.794768,4218.974256
82,0,4239.487076,4203.07682,4207.692205,4213.846051,4193.846051,4265.128101,4193.846051,4190.256308,4245.128101,4142.051181,4215.384512,4234.358871,4227.179384,4221.538358
83,0,4247.179383,4205.640923,4213.33323,4219.487076,4228.717845,4271.281947,4200.512718,4197.435795,4248.205024,4150.769129,4222.051179,4244.10246,4233.84605,4228.717845
84,0,4237.948614,4204.102461,4207.179384,4214.871692,4231.281948,4268.205024,4202.564,4193.333231,4246.153742,4137.435796,4215.384512,4240.512717,4230.769127,4219.487076
85,0,4226.153743,4201.538359,4196.410154,4208.205025,4205.640923,4263.589639,4197.948615,4182.05118,4239.999896,4121.538361,4201.538359,4229.230666,4218.974256,4207.692205
86,0,4230.256307,4200.512718,4197.948615,4208.205025,4200.512718,4262.563998,4196.922974,4180.512718,4235.384512,4122.564002,4204.102461,4231.281948,4217.435794,4210.769128
87,0,4232.307589,4194.871692,4201.538359,4208.717846,4208.205025,4258.461434,4195.384513,4181.025539,4229.743486,4132.307591,4212.82041,4238.461435,4218.974256,4212.307589
88,0,4228.717845,4193.333231,4201.025538,4205.128102,4199.487077,4255.897332,4194.358872,4181.538359,4230.769127,4139.999899,4213.846051,4240.512717,4216.410153,4209.743487
89,0,4231.281948,4196.410154,4209.743487,4203.589641,4179.487077,4254.871691,4198.461436,4186.666564,4236.410153,4148.717847,4210.769128,4244.10246,4217.435794,4216.410153
90,0,4229.743486,4191.794769,4214.358871,4203.07682,4180.512718,4249.230665,4199.487077,4185.640923,4235.384512,4155.384514,4209.743487,4247.692204,4217.435794,4217.948615
91,0,4230.256307,4188.205026,4214.871692,4203.07682,4212.307589,4250.256306,4196.922974,4184.102462,4232.307589,4167.179385,4212.82041,4257.435793,4215.897333,4215.384512
92,0,4244.10246,4197.948615,4222.051179,4210.256307,4223.58964,4255.897332,4198.974256,4192.30759,4239.999896,4191.281949,4219.999897,4274.35887,4223.07682,4226.666563
93,0,4249.230665,4203.589641,4224.102461,4215.897333,4204.615282,4253.333229,4198.974256,4198.461436,4246.666563,4206.666564,4219.999897,4280.512716,4230.256307,4236.410153
94,0,4241.538358,4199.487077,4217.948615,4214.358871,4196.410154,4252.820409,4195.384513,4195.897333,4243.58964,4211.281948,4216.922974,4278.461434,4229.230666,4236.922973
95,0,4241.538358,4202.564,4218.974256,4215.384512,4204.615282,4262.051178,4200.512718,4202.564,4245.128101,4227.692204,4226.153743,4289.230664,4229.230666,4247.692204
96,0,4237.435794,4203.589641,4217.948615,4213.33323,4209.743487,4262.051178,4201.538359,4207.179384,4248.205024,4239.487076,4229.230666,4294.358869,4229.743486,4251.794768
97,0,4216.922974,4185.640923,4201.025538,4197.435795,4190.256308,4247.692204,4188.205026,4188.205026,4230.769127,4214.871692,4212.82041,4272.820408,4213.33323,4231.281948
98,0,4205.640923,4177.435795,4191.794769,4190.769128,4174.871693,4242.051178,4187.179385,4173.846052,4214.358871,4199.999897,4198.974256,4257.435793,4196.922974,4219.999897
99,0,4218.461435,4192.30759,4201.538359,4201.538359,4196.410154,4251.281947,4199.487077,4184.102462,4226.666563,4226.666563,4207.692205,4264.10246,4208.205025,4232.820409
100,0,4226.666563,4197.948615,4205.128102,4206.153743,4214.358871,4255.384511,4202.564,4190.769128,4234.358871,4235.384512,4217.948615,4267.692203,4221.025538,4237.948614
101,0,4217.435794,4182.05118,4198.461436,4197.435795,4193.333231,4249.230665,4195.897333,4183.076821,4222.563999,4217.948615,4208.205025,4261.025537,4211.794769,4228.205025
102,0,4210.256307,4180.512718,4201.025538,4196.410154,4182.05118,4246.666563,4191.281949,4182.564,4219.999897,4214.871692,4199.487077,4259.999896,4204.102461,4226.153743
103,0,4219.487076,4198.974256,4213.33323,4209.230666,4202.564,4249.230665,4191.281949,4190.769128,4224.615281,4221.025538,4207.179384,4263.589639,4214.358871,4232.820409
104,0,4229.230666,4205.128102,4216.922974,4213.33323,4207.692205,4247.692204,4196.922974,4195.897333,4222.051179,4226.666563,4214.358871,4263.076819,4217.435794,4233.84605
105,0,4229.230666,4199.999897,4213.33323,4210.256307,4196.922974,4245.128101,4201.025538,4198.461436,4224.102461,4231.281948,4213.846051,4260.512716,4213.846051,4231.794768
106,0,4229.230666,4203.07682,4214.871692,4213.846051,4204.615282,4246.153742,4195.897333,4199.487077,4231.281948,4233.84605,4217.435794,4266.153742,4219.999897,4233.33323
107,0,4232.307589,4207.692205,4217.948615,4217.435794,4219.999897,4248.717845,4191.794769,4198.974256,4230.256307,4239.487076,4221.538358,4273.333229,4230.256307,4239.999896
108,0,4235.384512,4206.153743,4215.384512,4217.948615,4216.410153,4248.717845,4196.922974,4200.512718,4229.743486,4241.538358,4221.025538,4271.281947,4229.743486,4245.640922
109,0,4231.281948,4204.102461,4208.205025,4216.410153,4205.640923,4246.666563,4203.07682,4201.025538,4231.281948,4234.358871,4219.999897,4262.563998,4220.512717,4238.974255
110,0,4213.846051,4196.922974,4194.358872,4207.692205,4202.564,4245.128101,4196.922974,4192.30759,4222.051179,4226.153743,4214.871692,4252.820409,4215.897333,4222.563999
111,0,4200.512718,4186.666564,4182.564,4197.435795,4202.051179,4246.153742,4188.205026,4181.538359,4211.281948,4219.999897,4205.640923,4245.640922,4213.33323,4213.33323
112,0,4199.999897,4186.666564,4180.512718,4199.487077,4200.512718,4243.58964,4188.205026,4181.538359,4212.307589,4215.897333,4199.487077,4243.076819,4203.07682,4213.846051
113,0,4201.025538,4189.230667,4184.102462,4202.051179,4202.051179,4236.410153,4189.230667,4184.615282,4216.410153,4218.974256,4200.512718,4243.58964,4199.487077,4214.871692
114,0,4202.051179,4188.717846,4184.615282,4197.948615,4204.102461,4232.307589,4188.205026,4183.589641,4212.82041,4217.948615,4198.461436,4241.025537,4200.512718,4212.307589
115,0,4207.692205,4193.846051,4188.205026,4201.538359,4202.564,4233.84605,4192.30759,4184.615282,4211.281948,4211.794769,4193.846051,4237.435794,4199.487077,4210.256307
116,0,4215.897333,4201.538359,4198.461436,4212.82041,4201.538359,4236.410153,4198.461436,4192.30759,4215.384512,4217.435794,4203.589641,4244.10246,4213.33323,4225.128102
117,0,4229.230666,4208.717846,4204.102461,4219.487076,4203.07682,4235.384512,4198.461436,4199.999897,4219.487076,4225.640922,4214.871692,4251.281947,4230.256307,4243.58964
118,0,4241.538358,4215.384512,4201.538359,4216.922974,4203.589641,4230.769127,4196.410154,4199.999897,4216.410153,4226.153743,4210.769128,4247.179383,4229.743486,4250.769127
119,0,4248.717845,4218.461435,4201.025538,4214.871692,4202.051179,4229.743486,4196.410154,4198.461436,4215.897333,4230.256307,4213.33323,4249.230665,4232.820409,4263.589639
120,0,4265.640921,4223.07682,4208.717846,4224.102461,4201.025538,4233.33323,4199.999897,4203.07682,4225.640922,4237.435794,4230.256307,4263.589639,4250.256306,4290.256305
121,0,4288.205023,4233.84605,4215.897333,4232.307589,4201.025538,4232.307589,4201.538359,4204.102461,4225.640922,4225.640922,4235.897332,4268.717844,4260.512716,4313.333228
122,0,4301.538356,4234.358871,4213.846051,4229.743486,4197.948615,4222.051179,4198.974256,4196.410154,4214.871692,4202.564,4226.666563,4260.512716,4255.384511,4329.230663
123,0,4319.999894,4230.256307,4212.82041,4225.640922,4192.30759,4216.410153,4198.974256,4189.743487,4212.82041,4204.102461,4227.692204,4259.999896,4257.948614,4355.897329
124,0,4343.589637,4239.999896,4214.358871,4229.743486,4188.205026,4219.487076,4199.999897,4186.666564,4209.230666,4209.743487,4233.33323,4265.128101,4269.743485,4386.666559
125,0,4356.41015,4246.153742,4215.384512,4229.743486,4175.384513,4212.82041,4191.281949,4181.025539,4194.871692,4194.358872,4230.256307,4263.589639,4268.717844,4402.563995
126,0,4367.692201,4246.153742,4223.07682,4230.256307,4159.487078,4201.025538,4186.666564,4181.025539,4191.281949,4196.410154,4229.230666,4265.128101,4265.128101,4406.153738
127,0,4370.769124,4248.205024,4229.743486,4234.871691,4172.820411,4204.102461,4195.897333,4184.615282,4198.461436,4204.102461,4228.205025,4264.10246,4269.743485,4403.589636
128,0,4349.743483,4241.025537,4222.051179,4232.307589,4192.82041,4214.358871,4199.999897,4186.153744,4199.999897,4189.230667,4222.563999,4253.84605,4268.717844,4388.205021
0,0,4326.666561,4238.461435,4215.897333,4231.281948,4192.82041,4214.871692,4195.897333,4191.794769,4201.538359,4192.82041,4223.07682,4248.205024,4264.61528,4365.128098
1,0,4314.871689,4244.10246,4220.512717,4235.384512,4194.871692,4212.82041,4196.410154,4196.410154,4203.589641,4218.461435,4224.615281,4247.692204,4265.640921,4345.128099
2,0,4297.435792,4238.974255,4216.922974,4234.358871,4207.692205,4214.871692,4198.974256,4195.897333,4204.102461,4222.563999,4218.974256,4237.948614,4258.461434,4321.538356
3,0,4276.410152,4229.743486,4207.179384,4232.307589,4210.769128,4215.384512,4202.051179,4203.589641,4212.307589,4209.743487,4213.846051,4232.307589,4249.743486,4298.461433
4,0,4262.563998,4227.692204,4200.512718,4229.743486,4207.179384,4216.410153,4205.640923,4213.846051,4218.461435,4205.640923,4211.281948,4232.307589,4248.205024,4282.563998
5,0,4246.666563,4214.871692,4189.230667,4218.974256,4203.07682,4216.922974,4204.102461,4206.153743,4208.717846,4202.564,4196.922974,4216.922974,4232.307589,4257.435793
6,0,4227.179384,4203.07682,4181.538359,4212.307589,4194.358872,4214.358871,4199.487077,4192.82041,4198.974256,4194.358872,4181.025539,4199.487077,4213.33323,4232.820409
7,0,4218.461435,4214.871692,4184.102462,4216.922974,4198.461436,4214.358871,4202.051179,4194.358872,4201.538359,4197.948615,4179.487077,4195.384513,4213.846051,4226.666563
8,0,4215.897333,4217.435794,4186.153744,4218.974256,4203.07682,4213.846051,4208.205025,4198.974256,4202.564,4200.512718,4180.512718,4191.794769,4215.897333,4219.999897
9,0,4204.615282,4202.564,4182.05118,4217.948615,4196.922974,4214.871692,4208.717846,4197.948615,4197.435795,4191.794769,4171.79477,4179.487077,4203.589641,4202.051179
10,0,4195.897333,4203.589641,4182.564,4217.948615,4207.179384,4216.410153,4208.205025,4197.435795,4196.410154,4191.281949,4164.615283,4169.743488,4196.410154,4190.256308
11,0,4206.153743,4218.974256,4194.358872,4217.948615,4223.07682,4209.743487,4209.230666,4201.025538,4200.512718,4203.07682,4175.384513,4168.717847,4207.179384,4195.897333
12,0,4216.410153,4219.999897,4202.564,4223.58964,4218.461435,4203.589641,4210.769128,4207.179384,4202.051179,4202.051179,4182.05118,4166.153744,4213.846051,4198.974256
13,0,4213.846051,4216.922974,4205.128102,4232.820409,4213.33323,4210.256307,4213.846051,4212.307589,4201.025538,4201.538359,4176.922975,4160.512719,4212.307589,4189.743487
14,0,4211.794769,4225.640922,4210.769128,4234.358871,4222.563999,4216.410153,4216.922974,4218.461435,4203.07682,4216.410153,4178.974257,4159.999898,4214.358871,4185.128103
15,0,4211.794769,4227.692204,4218.461435,4233.84605,4214.871692,4208.717846,4216.410153,4219.487076,4206.153743,4216.410153,4186.153744,4159.487078,4217.435794,4186.666564
16,0,4205.128102,4220.512717,4216.922974,4236.922973,4203.07682,4200.512718,4214.871692,4217.948615,4201.538359,4205.128102,4183.589641,4152.820411,4211.794769,4183.076821
17,0,4192.82041,4214.358871,4205.640923,4229.743486,4212.82041,4202.564,4215.384512,4220.512717,4194.358872,4201.025538,4172.820411,4141.53836,4201.538359,4168.205026
18,0,4176.410154,4204.615282,4191.794769,4215.384512,4218.461435,4201.538359,4214.871692,4218.461435,4184.615282,4189.230667,4162.564001,4128.717848,4190.769128,4152.307591
19,0,4166.153744,4196.922974,4182.564,4209.743487,4213.846051,4190.256308,4213.846051,4205.640923,4173.846052,4176.922975,4151.79477,4112.820412,4183.589641,4141.02554
20,0,4169.743488,4202.051179,4183.589641,4214.871692,4213.33323,4185.640923,4215.384512,4198.461436,4170.769129,4186.666564,4150.256309,4107.692207,4181.025539,4137.948617
21,0,4168.205026,4205.128102,4188.205026,4217.435794,4209.743487,4189.230667,4218.974256,4203.07682,4171.79477,4190.769128,4153.846052,4107.692207,4182.05118,4137.948617
22,0,4157.948616,4198.974256,4184.102462,4215.897333,4208.205025,4187.692205,4218.974256,4204.615282,4169.230667,4173.846052,4147.692206,4095.897336,4184.102462,4135.897335
23,0,4162.564001,4204.615282,4182.564,4221.538358,4222.051179,4184.615282,4217.948615,4201.025538,4166.153744,4175.897334,4144.102463,4090.25631,4185.640923,4137.948617
24,0,4178.461436,4214.871692,4193.333231,4228.717845,4221.025538,4181.538359,4216.922974,4203.07682,4167.692206,4192.82041,4149.743488,4101.025541,4187.179385,4145.128104
25,0,4181.538359,4214.871692,4202.564,4230.256307,4204.102461,4177.948616,4211.794769,4207.692205,4169.230667,4188.205026,4152.307591,4108.717848,4191.794769,4152.307591
26,0,4182.564,4219.487076,4202.564,4231.281948,4215.897333,4182.564,4213.33323,4215.384512,4169.743488,4186.153744,4151.28195,4107.179387,4198.461436,4156.922975
27,0,4188.205026,4229.230666,4205.640923,4234.358871,4237.435794,4190.256308,4226.153743,4226.666563,4173.846052,4198.461436,4152.820411,4105.128105,4204.102461,4159.999898
28,0,4180.512718,4221.025538,4202.564,4232.820409,4229.230666,4187.692205,4229.743486,4225.640922,4171.79477,4193.846051,4146.153745,4093.846054,4199.999897,4150.769129
29,0,4163.076821,4204.615282,4189.230667,4226.153743,4214.871692,4184.102462,4220.512717,4214.871692,4159.999898,4175.384513,4131.28195,4069.23067,4188.205026,4129.743489
30,0,4154.871693,4200.512718,4181.538359,4221.025538,4214.871692,4185.128103,4218.974256,4212.82041,4154.358873,4177.948616,4126.153745,4053.333234,4183.076821,4119.487079
31,0,4155.384514,4199.487077,4182.564,4216.922974,4215.897333,4177.948616,4222.563999,4215.384512,4153.846052,4182.564,4126.666566,4047.692209,4181.538359,4122.051181
32,0,4156.410155,4198.461436,4183.076821,4218.974256,4213.33323,4169.743488,4218.974256,4214.358871,4146.153745,4170.256308,4125.128104,4043.589645,4174.358872,4117.435797
33,0,4153.333232,4205.640923,4184.615282,4224.102461,4215.897333,4171.79477,4217.435794,4212.82041,4140.512719,4163.076821,4119.999899,4036.922978,4167.692206,4107.692207
34,0,4151.28195,4201.538359,4185.128103,4222.051179,4218.974256,4168.717847,4218.461435,4214.358871,4140.512719,4167.692206,4113.333233,4027.692209,4167.692206,4101.538361
35,0,4152.307591,4185.640923,4183.076821,4216.410153,4211.281948,4156.410155,4217.435794,4211.794769,4127.692207,4159.999898,4106.666566,4024.102466,4163.589642,4096.410156
36,0,4150.769129,4198.461436,4191.281949,4223.07682,4204.102461,4160.512719,4224.615281,4212.307589,4121.02554,4149.743488,4106.666566,4025.128107,4160.512719,4097.948618
37,0,4158.461437,4193.333231,4211.281948,4239.487076,4223.07682,4171.281949,4234.358871,4223.58964,4136.922976,4161.53836,4117.948617,4034.358876,4167.179385,4107.692207
38,0,4168.205026,4109.230669,4221.538358,4241.025537,4237.948614,4160.512719,4233.33323,4231.794768,4138.974258,4169.230667,4121.538361,4038.97426,4172.820411,4111.281951
39,0,4162.05118,4032.820414,4214.871692,4233.33323,4222.563999,4149.743488,4231.794768,4231.281948,4123.589643,4158.461437,4112.307592,4026.153748,4165.640924,4106.153746
40,0,4149.230668,4035.897337,4206.153743,4230.256307,4214.358871,4156.922975,4234.871691,4231.281948,4121.02554,4154.871693,4106.153746,4011.281953,4155.384514,4099.487079
41,0,4140.512719,4045.128106,4201.025538,4223.07682,4205.640923,4152.307591,4233.33323,4224.615281,4117.435797,4151.79477,4099.9999,3999.999902,4145.640924,4087.692208
42,0,4133.846053,4033.333235,4196.922974,4215.897333,4177.948616,4139.999899,4228.205025,4214.358871,4104.102464,4145.640924,4089.74349,3990.256313,4137.948617,4078.974259
43,0,4137.948617,4051.281952,4198.461436,4224.102461,4195.897333,4145.640924,4231.794768,4223.07682,4106.666566,4148.717847,4093.846054,3990.256313,4142.051181,4087.179387
44,0,4147.692206,4074.871695,4201.538359,4233.84605,4246.666563,4154.871693,4242.563999,4236.922973,4116.410156,4155.897334,4105.128105,3995.384518,4151.28195,4098.974259
45,0,4145.128104,4073.846054,4198.974256,4231.281948,4249.743486,4154.358873,4247.692204,4232.307589,4109.743489,4155.384514,4098.461438,3986.666569,4152.307591,4096.922977
46,0,4139.999899,4079.9999,4198.974256,4234.871691,4229.230666,4149.230668,4244.10246,4228.205025,4103.589643,4152.820411,4090.769131,3976.92298,4149.230668,4091.794772
47,0,4140.512719,4092.307592,4207.692205,4244.615281,4230.769127,4144.102463,4244.615281,4232.307589,4103.076823,4154.358873,4092.820413,3975.897339,4145.128104,4091.281951
48,0,4140.512719,4092.820413,4212.307589,4246.153742,4231.794768,4138.974258,4247.692204,4233.33323,4096.410156,4154.358873,4093.846054,3968.205031,4141.02554,4089.74349
49,0,4144.102463,4095.897336,4212.307589,4244.10246,4228.205025,4135.897335,4245.640922,4233.33323,4092.820413,4154.871693,4096.410156,3965.128108,4145.640924,4096.410156
50,0,4150.769129,4107.692207,4219.999897,4249.743486,4230.769127,4133.846053,4243.076819,4238.974255,4095.897336,4162.05118,4101.538361,3968.717852,4153.846052,4107.179387
51,0,4153.333232,4112.820412,4230.256307,4256.410152,4230.769127,4135.384514,4245.640922,4243.58964,4093.846054,4167.692206,4096.922977,3961.538365,4151.79477,4107.179387
52,0,4147.692206,4115.384515,4227.692204,4253.333229,4233.84605,4138.974258,4251.281947,4243.076819,4086.666567,4161.53836,4092.820413,3953.846057,4149.230668,4103.589643
53,0,4145.128104,4121.02554,4224.102461,4254.35887,4233.84605,4132.307591,4251.281947,4244.10246,4081.538362,4156.922975,4100.51272,3953.333237,4152.820411,4106.666566
54,0,4153.846052,4129.230668,4230.769127,4264.10246,4228.717845,4124.615284,4249.743486,4248.205024,4081.025541,4160.512719,4105.640925,3950.256314,4156.922975,4116.922976
55,0,4157.948616,4136.922976,4233.33323,4265.128101,4240.512717,4125.128104,4254.871691,4249.230665,4079.9999,4156.922975,4096.922977,3941.025545,4153.333232,4120.51272
56,0,4152.307591,4139.487078,4230.769127,4263.076819,4258.974255,4125.640925,4262.563998,4247.692204,4076.410157,4159.487078,4092.820413,3940.512724,4150.769129,4112.307592
57,0,4151.28195,4144.102463,4233.84605,4271.794767,4262.563998,4125.640925,4265.128101,4249.230665,4075.897336,4165.128103,4097.948618,3942.564006,4151.28195,4107.692207
58,0,4147.692206,4147.692206,4231.794768,4271.794767,4255.384511,4129.230668,4265.640921,4250.256306,4072.307593,4156.922975,4093.333233,3929.230673,4141.53836,4104.615284
59,0,4138.974258,4146.666565,4227.179384,4264.61528,4249.743486,4128.205027,4266.153742,4252.307588,4067.179388,4156.922975,4087.692208,3914.871699,4134.871694,4098.974259
60,0,4150.256309,4155.384514,4237.435794,4272.820408,4252.820409,4124.102463,4269.230665,4259.487075,4070.769131,4170.769129,4098.974259,3914.871699,4147.692206,4108.717848
61,0,4167.692206,4168.205026,4244.10246,4282.051177,4261.538357,4122.051181,4272.307588,4264.10246,4072.820413,4170.769129,4106.666566,3918.461443,4158.461437,4124.615284
62,0,4167.179385,4170.769129,4236.922973,4280.512716,4265.640921,4121.02554,4274.35887,4261.025537,4064.615285,4165.640924,4101.025541,3909.230674,4155.384514,4124.615284
63,0,4167.692206,4178.461436,4240.512717,4287.179382,4267.692203,4120.51272,4275.897331,4261.025537,4058.461439,4175.897334,4102.564002,3899.487084,4155.384514,4123.589643
64,0,4173.846052,4185.128103,4250.769127,4294.358869,4273.846049,4119.999899,4277.948613,4266.153742,4057.948619,4181.538359,4109.230669,3894.8717,4161.025539,4129.230668
65,0,4168.717847,4177.948616,4245.128101,4285.1281,4276.410152,4118.974258,4279.487075,4265.640921,4052.820414,4176.922975,4103.589643,3884.61529,4157.948616,4127.179386
66,0,4163.589642,4178.974257,4240.512717,4282.051177,4274.35887,4119.999899,4279.487075,4265.640921,4049.743491,4179.999898,4098.461438,3876.922982,4151.79477,4120.51272
67,0,4170.769129,4191.794769,4255.897332,4292.820408,4269.230665,4118.461438,4279.487075,4273.333229,4053.333234,4193.333231,4105.640925,3878.461444,4157.435796,4125.640925
68,0,4174.358872,4197.948615,4267.179383,4298.974254,4271.794767,4116.922976,4287.179382,4280.512716,4053.846055,4199.487077,4111.794771,3881.025546,4167.692206,4132.307591
69,0,4168.717847,4197.435795,4263.076819,4300.512715,4286.666562,4118.974258,4297.435792,4284.61528,4052.820414,4198.974256,4110.25631,3876.922982,4168.205026,4127.692207
70,0,4169.230667,4200.512718,4264.10246,4306.666561,4295.38451,4116.410156,4295.897331,4292.820408,4051.281952,4198.974256,4108.717848,3870.256316,4165.128103,4125.640925
71,0,4172.820411,4203.07682,4273.333229,4310.256305,4292.820408,4113.333233,4291.281946,4296.922972,4047.179388,4191.794769,4110.25631,3868.205034,4166.666565,4135.384514
72,0,4173.333231,4204.615282,4270.769126,4308.205023,4293.333228,4114.358874,4293.333228,4296.410151,4043.589645,4187.179385,4110.25631,3859.999906,4165.128103,4139.999899
73,0,4178.461436,4209.230666,4264.10246,4308.717843,4296.410151,4111.794771,4295.38451,4304.615279,4044.102465,4197.948615,4109.743489,3849.230675,4165.128103,4135.897335
74,0,4185.128103,4215.897333,4270.256306,4310.769125,4294.87169,4107.692207,4295.897331,4309.743484,4043.589645,4204.102461,4109.743489,3846.153752,4168.717847,4136.922976
75,0,4186.666564,4218.974256,4273.846049,4312.820407,4293.333228,4103.076823,4294.358869,4299.999895,4037.948619,4195.897333,4108.717848,3842.564009,4164.615283,4139.999899
76,0,4184.615282,4217.948615,4268.717844,4313.846048,4290.769126,4098.974259,4295.38451,4294.87169,4028.20503,4190.769128,4109.743489,3832.820419,4161.025539,4139.999899
77,0,4182.05118,4217.435794,4263.589639,4311.794766,4293.333228,4102.051182,4299.487074,4296.922972,4018.974261,4197.948615,4109.743489,3827.179394,4160.512719,4138.461437
78,0,4179.999898,4216.410153,4265.640921,4309.230664,4297.948613,4108.205028,4304.615279,4295.897331,4014.358876,4207.692205,4107.692207,3824.615291,4158.461437,4137.435796
79,0,4182.564,4218.461435,4270.769126,4309.230664,4295.38451,4107.179387,4305.64092,4296.410151,4014.358876,4218.461435,4112.820412,3818.461445,4163.076821,4139.487078
80,0,4183.076821,4218.461435,4268.205024,4309.230664,4296.410151,4100.51272,4298.974254,4301.538356,4016.922979,4238.461435,4118.974258,3815.384522,4164.615283,4140.512719
81,0,4180.512718,4218.461435,4263.076819,4308.717843,4306.666561,4094.871695,4297.435792,4307.692202,4021.538363,4268.717844,4119.487079,3816.922984,4161.025539,4144.615283
82,0,4185.640923,4224.102461,4266.153742,4309.230664,4315.38451,4093.846054,4303.589638,4310.769125,4022.564004,4290.256305,4118.974258,3816.922984,4165.640924,4154.358873
83,0,4183.589641,4228.717845,4272.307588,4309.743484,4310.256305,4095.384515,4300.512715,4303.589638,4012.307594,4296.922972,4119.487079,3817.435804,4169.230667,4156.410155
84,0,4172.820411,4229.230666,4273.846049,4313.333228,4298.974254,4095.897336,4295.897331,4297.948613,4002.051184,4301.025536,4120.51272,3814.871702,4163.076821,4152.820411
85,0,4175.384513,4230.256307,4274.35887,4318.974253,4304.615279,4098.461438,4308.205023,4304.615279,4004.102466,4310.256305,4122.051181,3808.205035,4164.102462,4159.487078
86,0,4183.076821,4230.769127,4271.794767,4319.487074,4316.922971,4098.461438,4311.794766,4307.179382,4005.640928,4323.076817,4123.589643,3805.128112,4171.281949,4168.717847
87,0,4176.922975,4234.871691,4267.179383,4317.435792,4315.38451,4090.769131,4298.461433,4302.563997,3995.897338,4330.769125,4126.153745,3799.999907,4170.256308,4170.256308
88,0,4170.256308,4241.025537,4264.10246,4318.974253,4312.820407,4090.769131,4300.512715,4303.076818,3989.230672,4327.692202,4128.717848,3788.717856,4169.230667,4170.256308
89,0,4173.333231,4236.410153,4265.128101,4319.487074,4319.999894,4094.358874,4312.307587,4301.025536,3989.230672,4324.102458,4124.615284,3783.076831,4168.717847,4163.589642
90,0,4172.820411,4230.769127,4266.666562,4319.487074,4312.307587,4086.153746,4308.717843,4293.846049,3986.666569,4325.64092,4121.538361,3781.538369,4165.640924,4155.897334
91,0,4175.384513,4239.999896,4268.717844,4322.051176,4301.538356,4082.051182,4303.076818,4294.87169,3983.076826,4331.281945,4123.589643,3777.948626,4166.666565,4163.589642
92,0,4179.999898,4245.640922,4271.794767,4321.025535,4313.846048,4089.230669,4308.717843,4301.025536,3981.025544,4333.333227,4123.076822,3777.435805,4168.205026,4167.692206
93,0,4181.025539,4245.128101,4276.922972,4322.051176,4321.538356,4089.230669,4312.820407,4306.153741,3982.564005,4333.846048,4124.102463,3782.56401,4166.666565,4156.410155
94,0,4181.025539,4246.666563,4278.461434,4321.025535,4312.307587,4081.538362,4309.743484,4309.743484,3986.666569,4341.025535,4125.640925,3784.615292,4165.128103,4154.871693
95,0,4174.358872,4238.461435,4270.769126,4313.333228,4307.692202,4077.435798,4308.717843,4310.256305,3984.102467,4343.076817,4123.076822,3779.999908,4166.153744,4160.512719
96,0,4165.640924,4232.820409,4264.10246,4311.281946,4313.333228,4082.051182,4311.281946,4313.846048,3981.025544,4338.461432,4125.128104,3774.871703,4167.692206,4156.410155
97,0,4166.153744,4237.435794,4264.61528,4314.358869,4314.358869,4084.615285,4312.820407,4317.948612,3986.666569,4339.487073,4131.28195,3774.358882,4168.205026,4153.333232
98,0,4169.230667,4238.461435,4266.153742,4311.281946,4307.692202,4079.48708,4310.256305,4315.38451,3988.717851,4341.538355,4129.230668,3773.846062,4169.743488,4155.897334
99,0,4169.230667,4238.461435,4265.128101,4311.281946,4308.717843,4072.307593,4310.256305,4310.256305,3982.564005,4337.948612,4127.179386,3771.281959,4167.692206,4154.871693
100,0,4169.743488,4245.128101,4264.10246,4317.435792,4319.487074,4075.384516,4313.846048,4314.871689,3983.589646,4342.563996,4133.333232,3771.79478,4165.640924,4152.820411
101,0,4169.743488,4245.128101,4263.076819,4314.871689,4319.999894,4079.9999,4315.38451,4319.487074,3984.615287,4346.66656,4137.435796,3777.948626,4168.205026,4153.333232
102,0,4167.692206,4239.999896,4262.051178,4308.205023,4299.999895,4069.74349,4311.794766,4311.794766,3975.384518,4336.922971,4133.846053,3776.922985,4166.666565,4153.333232
103,0,4169.230667,4243.076819,4265.640921,4311.794766,4294.358869,4057.948619,4307.692202,4305.64092,3969.230672,4329.230663,4133.333232,3771.79478,4160.512719,4150.769129
104,0,4170.769129,4248.717845,4266.153742,4321.025535,4307.692202,4058.97426,4307.179382,4305.1281,3972.820416,4329.743484,4136.410155,3775.897344,4162.05118,4153.333232
105,0,4171.79477,4251.794768,4264.10246,4321.538356,4312.307587,4066.666567,4308.717843,4306.666561,3973.846057,4333.333227,4137.948617,3784.102472,4171.79477,4164.615283
106,0,4172.820411,4251.281947,4265.128101,4312.820407,4314.871689,4070.256311,4310.256305,4312.307587,3975.897339,4339.999894,4142.564001,3785.640933,4182.05118,4172.30759
107,0,4173.846052,4247.692204,4263.076819,4310.256305,4324.615279,4068.205029,4316.922971,4321.025535,3983.589646,4343.076817,4149.230668,3783.076831,4183.076821,4169.743488
108,0,4177.948616,4253.333229,4261.538357,4316.922971,4318.461433,4064.615285,4319.999894,4320.512715,3987.17939,4343.589637,4152.307591,3784.102472,4182.05118,4168.717847
109,0,4184.102462,4263.076819,4271.281947,4323.076817,4307.179382,4062.051183,4317.948612,4318.461433,3987.69221,4347.179381,4154.358873,3788.205036,4191.281949,4177.948616
110,0,4189.230667,4267.692203,4277.948613,4327.692202,4316.922971,4066.666567,4321.538356,4322.563997,3990.256313,4347.179381,4157.435796,3790.769138,4203.589641,4190.256308
111,0,4188.717846,4264.10246,4268.205024,4325.128099,4321.538356,4070.256311,4323.589638,4319.999894,3991.794774,4342.051176,4157.435796,3784.102472,4198.974256,4187.692205
112,0,4183.589641,4255.384511,4260.512716,4313.846048,4311.281946,4063.076824,4314.358869,4312.820407,3989.743492,4334.358868,4151.28195,3763.076831,4187.179385,4173.846052
113,0,4174.871693,4247.692204,4260.512716,4308.205023,4308.205023,4058.461439,4307.179382,4305.1281,3978.974262,4323.076817,4143.076822,3723.589653,4181.025539,4165.640924
114,0,4167.692206,4246.666563,4257.948614,4309.743484,4309.743484,4059.999901,4308.717843,4297.435792,3971.794775,4317.435792,4136.922976,3682.564013,4178.461436,4164.615283
115,0,4174.871693,4256.922973,4256.922973,4312.820407,4309.743484,4057.435798,4308.717843,4296.410151,3983.076826,4326.15374,4142.564001,3675.897346,4183.076821,4168.205026
116,0,4187.179385,4265.128101,4264.10246,4313.333228,4309.743484,4050.769132,4306.153741,4297.948613,3994.871697,4326.15374,4153.333232,3695.897346,4196.410154,4179.487077
117,0,4186.153744,4258.461434,4264.61528,4310.256305,4308.205023,4050.769132,4307.179382,4294.87169,3988.205031,4312.307587,4155.897334,3704.615294,4196.922974,4182.564
118,0,4179.999898,4248.717845,4253.333229,4304.102459,4303.589638,4054.358875,4309.743484,4290.256305,3981.025544,4307.692202,4150.769129,3700.51273,4184.615282,4178.461436
119,0,4192.82041,4256.410152,4249.743486,4306.153741,4304.102459,4053.333234,4311.281946,4297.435792,3989.743492,4314.358869,4152.307591,3707.179397,4190.256308,4194.871692
120,0,4221.538358,4271.794767,4262.051178,4311.794766,4303.589638,4051.281952,4311.281946,4305.64092,3998.461441,4319.487074,4163.076821,3723.076832,4211.794769,4229.230666
121,0,4244.10246,4276.922972,4275.384511,4311.281946,4294.358869,4050.256311,4312.307587,4301.025536,3996.922979,4319.999894,4170.256308,3737.948627,4221.538358,4256.410152
122,0,4265.128101,4284.61528,4279.487075,4319.487074,4291.281946,4050.256311,4311.281946,4297.948613,3996.410159,4322.051176,4175.897334,3750.256319,4228.205025,4284.61528
123,0,4287.692203,4297.948613,4281.538357,4332.820407,4299.487074,4049.743491,4309.230664,4308.205023,4003.589646,4323.589638,4182.564,3762.05119,4244.10246,4319.487074
124,0,4308.205023,4310.256305,4287.179382,4336.922971,4297.435792,4046.666568,4308.717843,4313.846048,4009.230671,4326.15374,4186.666564,3776.410164,4253.333229,4345.640919
125,0,4318.974253,4314.871689,4294.87169,4333.333227,4286.666562,4044.615286,4307.692202,4303.589638,4006.153748,4332.307586,4188.717846,3788.717856,4253.84605,4353.333227
126,0,4309.743484,4304.102459,4292.307587,4328.205022,4288.717844,4042.051183,4305.1281,4293.846049,3994.871697,4325.128099,4186.153744,3788.717856,4248.205024,4342.051176
127,0,4291.794767,4294.87169,4281.538357,4327.692202,4298.974254,4039.487081,4303.076818,4290.256305,3990.256313,4310.256305,4174.358872,3776.922985,4235.384512,4316.410151
128,0,4278.461434,4296.922972,4276.922972,4326.15374,4300.512715,4043.589645,4306.153741,4292.820408,3999.487082,4310.769125,4169.230667,3771.79478,4226.666563,4292.820408
0,0,4258.461434,4288.717844,4270.256306,4314.358869,4295.897331,4048.205029,4310.769125,4294.358869,4000.512723,4317.948612,4171.79477,3768.205036,4221.025538,4272.820408
1,0,4230.769127,4266.666562,4258.974255,4302.051177,4293.846049,4045.128106,4310.256305,4285.1281,3989.743492,4307.692202,4160.512719,3747.692216,4208.205025,4245.640922
2,0,4211.281948,4259.487075,4255.384511,4304.615279,4294.358869,4044.615286,4309.743484,4282.051177,3990.769133,4293.333228,4148.205027,3717.948627,4195.384513,4217.948615
3,0,4199.487077,4263.076819,4250.256306,4306.666561,4292.820408,4047.692209,4310.256305,4287.692203,4001.025543,4295.897331,4149.230668,3695.384525,4193.846051,4199.999897
4,0,4197.948615,4262.051178,4247.179383,4304.615279,4290.256305,4048.71785,4309.743484,4292.820408,4007.179389,4306.666561,4153.846052,3682.051192,4198.461436,4195.897333
5,0,4199.999897,4263.076819,4258.974255,4309.230664,4294.87169,4050.769132,4311.794766,4299.487074,4017.435799,4311.281946,4156.410155,3666.666577,4203.07682,4199.999897
6,0,4191.281949,4264.10246,4261.025537,4309.230664,4297.435792,4052.820414,4314.358869,4306.153741,4026.153748,4309.743484,4157.435796,3645.128116,4203.589641,4195.897333
7,0,4183.589641,4261.025537,4250.769127,4303.076818,4287.179382,4049.743491,4311.281946,4306.153741,4025.128107,4308.205023,4155.897334,3628.205039,4200.512718,4185.640923
8,0,4188.205026,4263.076819,4256.410152,4306.153741,4286.153741,4048.71785,4309.230664,4304.615279,4024.615286,4308.205023,4156.410155,3621.538373,4201.025538,4180.512718
9,0,4189.743487,4262.051178,4261.538357,4308.717843,4297.435792,4047.179388,4308.205023,4302.563997,4024.102466,4305.64092,4158.974257,3620.512732,4204.102461,4178.974257
10,0,4183.589641,4251.794768,4251.281947,4299.999895,4294.358869,4044.615286,4305.1281,4293.333228,4015.384517,4297.435792,4156.922975,3627.179398,4198.461436,4173.333231
11,0,4175.384513,4245.128101,4246.153742,4291.281946,4278.461434,4042.051183,4302.051177,4280.512716,4003.589646,4281.025536,4153.846052,3631.794783,4189.743487,4167.692206
12,0,4172.30759,4249.230665,4246.153742,4292.307587,4275.897331,4041.025542,4302.051177,4274.87169,4004.615287,4273.333229,4154.358873,3625.640937,4190.256308,4167.179385
13,0,4173.333231,4252.820409,4239.999896,4294.87169,4287.179382,4049.23067,4305.64092,4279.999895,4016.922979,4284.61528,4157.435796,3622.051193,4198.461436,4165.640924
14,0,4167.179385,4248.717845,4234.358871,4289.230664,4292.307587,4055.384516,4309.743484,4286.666562,4025.128107,4285.640921,4154.358873,3623.076834,4198.461436,4158.461437
15,0,4156.922975,4244.615281,4230.769127,4285.1281,4289.743485,4055.384516,4310.769125,4288.205023,4028.20503,4276.410152,4150.769129,3622.051193,4190.256308,4152.307591
16,0,4155.897334,4245.128101,4229.230666,4285.1281,4290.256305,4061.538362,4312.820407,4294.358869,4033.333235,4284.102459,4153.846052,3628.205039,4191.794769,4150.256309
17,0,4158.461437,4247.179383,4232.307589,4282.563998,4296.410151,4068.205029,4314.358869,4299.487074,4039.487081,4291.794767,4151.79477,3635.384526,4199.487077,4144.102463
18,0,4159.487078,4245.640922,4230.769127,4279.487075,4290.769126,4059.999901,4309.743484,4293.846049,4042.051183,4279.999895,4141.02554,3631.794783,4200.512718,4140.512719
19,0,4155.384514,4234.358871,4228.717845,4277.948613,4277.435793,4052.820414,4309.743484,4292.820408,4044.615286,4279.999895,4141.53836,3632.307603,4196.922974,4139.999899
20,0,4152.820411,4230.256307,4237.435794,4281.538357,4279.999895,4059.48708,4312.307587,4302.051177,4047.179388,4291.794767,4153.333232,3644.615295,4198.461436,4132.820412
21,0,4164.615283,4251.794768,4248.717845,4291.794767,4292.307587,4059.999901,4307.179382,4300.512715,4044.102465,4281.025536,4157.435796,3657.948629,4204.615282,4134.871694
22,0,4177.948616,4276.410152,4249.743486,4299.487074,4295.38451,4058.461439,4305.64092,4284.102459,4035.897337,4264.61528,4149.230668,3663.076834,4202.051179,4143.589642
23,0,4175.897334,4277.948613,4245.128101,4299.487074,4294.87169,4059.48708,4304.615279,4275.384511,4027.179389,4261.538357,4141.02554,3664.102475,4188.205026,4136.410155
24,0,4166.666565,4268.717844,4239.487076,4297.435792,4293.846049,4055.897337,4296.410151,4273.846049,4021.538363,4254.871691,4135.897335,3663.589654,4172.820411,4115.384515
25,0,4154.358873,4259.999896,4227.692204,4288.717844,4286.153741,4054.871696,4298.461433,4268.205024,4019.487081,4245.640922,4127.179386,3658.97427,4165.128103,4096.410156
26,0,4138.974258,4250.769127,4215.384512,4275.897331,4277.435793,4059.999901,4305.64092,4261.025537,4019.487081,4242.051178,4118.461438,3653.333244,4164.102462,4087.179387
27,0,4134.871694,4247.179383,4212.82041,4275.897331,4273.846049,4058.97426,4297.948613,4261.025537,4023.076825,4241.025537,4118.974258,3655.897346,4166.153744,4087.692208
28,0,4142.564001,4250.769127,4214.871692,4280.512716,4275.897331,4057.948619,4298.461433,4270.256306,4034.871696,4248.205024,4124.102463,3666.153757,4167.179385,4090.769131
29,0,4151.28195,4258.461434,4214.871692,4279.999895,4284.61528,4065.640926,4309.230664,4281.538357,4046.153747,4251.794768,4126.666566,3676.410167,4171.281949,4090.25631
30,0,4153.846052,4262.051178,4213.846051,4279.999895,4291.794767,4065.128106,4302.051177,4279.999895,4044.102465,4237.435794,4127.692207,3682.051192,4175.384513,4090.25631
31,0,4151.79477,4258.974255,4215.384512,4279.487075,4290.256305,4056.922978,4291.794767,4274.35887,4041.538363,4227.692204,4125.128104,3688.205038,4174.358872,4093.333233
32,0,4154.358873,4261.025537,4220.512717,4278.974254,4287.692203,4058.461439,4294.87169,4280.512716,4045.640927,4235.384512,4124.615284,3695.897346,4175.384513,4092.820413
33,0,4155.897334,4263.076819,4219.487076,4278.974254,4279.487075,4061.538362,4294.87169,4281.025536,4045.640927,4236.922973,4123.589643,3696.410166,4174.358872,4082.051182
34,0,4152.307591,4258.461434,4217.435794,4277.948613,4266.153742,4058.461439,4291.794767,4273.846049,4046.666568,4233.33323,4120.51272,3696.922987,4168.205026,4077.435798
35,0,4153.333232,4259.999896,4223.58964,4276.922972,4267.692203,4058.461439,4294.358869,4278.461434,4055.897337,4235.384512,4128.205027,3712.307602,4175.897334,4091.281951
36,0,4156.410155,4262.051178,4226.153743,4278.461434,4277.948613,4061.538362,4296.410151,4282.051177,4060.512721,4233.33323,4138.461437,3727.692217,4183.589641,4095.384515
37,0,4154.871693,4252.820409,4217.435794,4276.410152,4276.410152,4061.025542,4294.87169,4275.897331,4056.410157,4229.230666,4130.76913,3725.128114,4174.358872,4082.051182
38,0,4149.230668,4248.717845,4213.846051,4269.230665,4275.897331,4060.512721,4294.358869,4272.307588,4057.948619,4232.307589,4119.487079,3719.999909,4168.205026,4078.974259
39,0,4143.076822,4249.230665,4213.846051,4263.076819,4275.384511,4061.538362,4291.281946,4269.743485,4058.97426,4232.820409,4121.02554,3723.076832,4170.256308,4078.974259
40,0,4147.692206,4248.205024,4211.794769,4262.051178,4269.230665,4061.025542,4290.256305,4268.205024,4057.435798,4230.256307,4126.666566,3732.820422,4174.358872,4077.948618
41,0,4155.897334,4248.205024,4213.846051,4265.640921,4266.666562,4061.025542,4290.256305,4276.410152,4062.564003,4232.820409,4125.640925,3742.051191,4176.922975,4082.051182
42,0,4152.307591,4248.205024,4215.384512,4265.640921,4264.10246,4059.999901,4285.640921,4278.461434,4068.205029,4232.820409,4122.051181,3742.564011,4177.435795,4075.897336
43,0,4149.230668,4250.256306,4214.871692,4265.640921,4261.538357,4062.051183,4283.589639,4273.333229,4072.307593,4232.307589,4122.051181,3747.179396,4180.512718,4074.871695
44,0,4156.922975,4254.35887,4219.487076,4266.153742,4273.333229,4067.179388,4289.743485,4276.922972,4076.410157,4234.871691,4124.615284,3760.512729,4187.692205,4088.205028
45,0,4157.948616,4252.307588,4218.974256,4264.10246,4283.589639,4068.717849,4291.281946,4281.025536,4075.897336,4231.794768,4123.076822,3762.564011,4185.640923,4087.179387
46,0,4149.230668,4248.717845,4215.897333,4262.051178,4273.333229,4065.128106,4283.076818,4277.435793,4073.846054,4225.640922,4121.538361,3764.615293,4179.999898,4075.384516
47,0,4154.358873,4251.281947,4225.128102,4266.153742,4262.563998,4063.076824,4280.512716,4276.922972,4078.461439,4230.256307,4124.615284,3780.512728,4184.102462,4084.102464
48,0,4166.153744,4251.281947,4230.769127,4268.205024,4263.589639,4065.640926,4283.076818,4282.563998,4081.538362,4233.33323,4125.128104,3789.230677,4189.743487,4095.897336
49,0,4164.615283,4251.281947,4221.538358,4262.563998,4263.076819,4066.666567,4282.563998,4280.512716,4076.922977,4223.58964,4122.051181,3787.179395,4188.205026,4090.25631
50,0,4155.897334,4253.333229,4211.281948,4260.512716,4262.051178,4063.076824,4280.512716,4267.692203,4073.333234,4216.410153,4119.999899,3789.743497,4182.05118,4082.564003
51,0,4152.307591,4246.153742,4205.640923,4259.487075,4261.538357,4062.564003,4277.948613,4262.051178,4073.333234,4213.846051,4116.410156,3792.3076,4178.461436,4076.922977
52,0,4153.333232,4243.076819,4201.538359,4255.384511,4260.512716,4063.589644,4278.974254,4263.589639,4073.333234,4209.230666,4110.25631,3793.333241,4183.589641,4074.871695
53,0,4155.384514,4256.410152,4201.025538,4256.922973,4262.563998,4061.025542,4278.461434,4256.922973,4073.333234,4212.307589,4106.153746,3796.410164,4186.153744,4075.384516
54,0,4156.410155,4265.128101,4199.999897,4262.051178,4267.692203,4061.025542,4275.897331,4245.640922,4072.307593,4215.384512,4105.128105,3797.435805,4182.05118,4070.769131
55,0,4151.79477,4254.35887,4191.794769,4262.563998,4262.563998,4066.153747,4273.333229,4246.666563,4072.307593,4205.640923,4103.589643,3796.922984,4178.974257,4064.102465
56,0,4149.743488,4247.179383,4189.743487,4254.35887,4256.410152,4070.256311,4275.897331,4254.871691,4077.948618,4201.025538,4099.487079,3802.051189,4178.974257,4065.640926
57,0,4156.922975,4253.84605,4198.461436,4250.256306,4263.076819,4072.820413,4276.410152,4262.051178,4088.717849,4212.307589,4103.076823,3814.358881,4186.666564,4076.922977
58,0,4168.205026,4262.051178,4204.615282,4257.435793,4258.974255,4068.717849,4269.743485,4266.666562,4099.487079,4227.179384,4117.435797,3832.820419,4205.640923,4091.794772
59,0,4182.05118,4271.281947,4209.743487,4266.666562,4246.153742,4058.97426,4261.538357,4268.205024,4106.153746,4232.307589,4129.230668,3851.794778,4221.025538,4105.640925
60,0,4191.794769,4282.051177,4219.487076,4265.640921,4256.922973,4061.538362,4259.487075,4269.743485,4106.666566,4227.692204,4130.76913,3865.640931,4223.07682,4114.871694
61,0,4191.281949,4280.512716,4219.487076,4265.128101,4275.384511,4074.871695,4267.179383,4276.410152,4105.128105,4223.58964,4129.230668,3870.256316,4223.58964,4115.897335
62,0,4181.538359,4268.717844,4207.692205,4264.61528,4272.820408,4076.922977,4271.794767,4279.487075,4110.25631,4222.563999,4124.102463,3866.666572,4218.974256,4107.179387
63,0,4168.717847,4258.461434,4198.461436,4254.35887,4258.974255,4066.666567,4266.666562,4272.307588,4109.230669,4212.82041,4114.871694,3865.640931,4206.153743,4096.410156
64,0,4157.435796,4252.307588,4187.692205,4247.179383,4249.230665,4058.97426,4261.025537,4259.999896,4096.410156,4198.461436,4107.692207,3861.025547,4199.999897,4088.717849
65,0,4146.153745,4241.025537,4170.769129,4241.538358,4245.128101,4058.97426,4261.025537,4247.692204,4087.179387,4196.410154,4098.461438,3848.717855,4195.384513,4074.358875
66,0,4141.53836,4231.794768,4165.128103,4232.307589,4246.153742,4062.564003,4262.563998,4247.179383,4088.717849,4197.435795,4089.74349,3846.666573,4187.692205,4061.538362
67,0,4148.205027,4237.948614,4174.871693,4234.871691,4251.281947,4063.589644,4262.563998,4256.410152,4094.871695,4197.948615,4096.410156,3859.487085,4192.30759,4068.205029
68,0,4153.846052,4245.640922,4178.974257,4245.640922,4248.717845,4061.538362,4261.538357,4255.384511,4094.871695,4197.948615,4106.666566,3871.281957,4202.051179,4079.9999
69,0,4157.435796,4243.58964,4173.333231,4244.615281,4230.256307,4058.97426,4258.461434,4248.205024,4090.25631,4191.281949,4104.615284,3874.8717,4199.999897,4077.948618
70,0,4165.640924,4243.076819,4168.205026,4239.999896,4226.153743,4059.999901,4258.974255,4255.384511,4092.307592,4184.615282,4101.538361,3882.051187,4198.461436,4080.512721
71,0,4169.743488,4249.230665,4168.717847,4245.128101,4249.743486,4064.615285,4262.051178,4265.640921,4101.025541,4188.205026,4107.179387,3891.794777,4208.717846,4089.74349
72,0,4169.743488,4249.743486,4174.358872,4247.692204,4261.025537,4065.128106,4263.589639,4264.10246,4105.128105,4189.230667,4109.230669,3904.615289,4213.33323,4093.333233
73,0,4172.30759,4247.692204,4178.461436,4246.666563,4249.743486,4062.051183,4264.10246,4263.076819,4104.615284,4184.102462,4107.692207,3919.999904,4210.256307,4093.333233
74,0,4172.30759,4248.717845,4174.358872,4246.153742,4248.717845,4060.512721,4262.051178,4264.10246,4107.692207,4189.230667,4107.179387,3929.230673,4210.769128,4095.384515
75,0,4169.743488,4250.256306,4168.717847,4246.666563,4250.769127,4059.48708,4258.461434,4263.589639,4105.128105,4201.025538,4108.717848,3929.743494,4214.871692,4093.846054
76,0,4167.179385,4248.717845,4165.640924,4243.58964,4242.051178,4058.461439,4259.999896,4263.589639,4096.410156,4207.179384,4108.205028,3928.205032,4217.948615,4093.333233
77,0,4160.512719,4240.512717,4158.974257,4235.897332,4240.512717,4059.999901,4264.10246,4259.999896,4092.307592,4221.025538,4102.051182,3933.333237,4212.82041,4093.333233
78,0,4154.358873,4232.820409,4154.871693,4232.820409,4243.076819,4061.025542,4261.538357,4255.897332,4095.897336,4244.10246,4096.922977,3940.512724,4204.102461,4089.230669
79,0,4153.846052,4232.820409,4160.512719,4238.461435,4242.563999,4061.538362,4257.435793,4258.461434,4095.897336,4262.563998,4098.461438,3950.256314,4199.999897,4092.307592
80,0,4154.871693,4235.897332,4163.076821,4239.999896,4242.051178,4066.666567,4260.512716,4259.487075,4093.333233,4269.230665,4099.487079,3958.974262,4201.025538,4104.102464
81,0,4151.79477,4234.358871,4156.922975,4233.84605,4236.410153,4067.692208,4259.999896,4251.281947,4091.794772,4272.307588,4095.384515,3960.512724,4199.999897,4105.640925
82,0,4142.051181,4231.794768,4151.79477,4230.769127,4231.794768,4065.128106,4251.794768,4245.128101,4091.281951,4288.205023,4089.74349,3958.461442,4198.461436,4100.51272
83,0,4138.461437,4233.33323,4154.358873,4234.871691,4234.871691,4065.640926,4248.717845,4246.666563,4090.769131,4299.487074,4092.307592,3959.999903,4201.025538,4108.205028
84,0,4148.717847,4234.358871,4161.025539,4239.999896,4249.230665,4071.281952,4251.794768,4247.692204,4091.281951,4290.256305,4100.51272,3961.538365,4206.153743,4122.564002
85,0,4154.358873,4234.358871,4162.05118,4236.922973,4254.35887,4075.897336,4251.281947,4245.640922,4089.230669,4292.307587,4103.076823,3953.846057,4210.256307,4122.051181
86,0,4150.769129,4239.487076,4157.948616,4232.307589,4236.410153,4071.281952,4247.179383,4244.10246,4088.717849,4312.820407,4102.051182,3940.512724,4210.769128,4125.128104
87,0,4150.256309,4246.666563,4159.999898,4239.999896,4228.205025,4065.128106,4245.128101,4242.051178,4091.794772,4316.922971,4105.640925,3929.743494,4212.307589,4137.435796
88,0,4153.333232,4251.281947,4162.564001,4251.281947,4247.179383,4070.769131,4245.128101,4240.512717,4088.205028,4308.717843,4108.717848,3923.589648,4217.435794,4138.974258
89,0,4152.820411,4251.281947,4159.487078,4248.205024,4258.461434,4079.48708,4245.640922,4238.461435,4083.589644,4310.769125,4106.153746,3921.538366,4216.410153,4132.307591
90,0,4150.256309,4247.692204,4154.871693,4241.025537,4246.666563,4075.897336,4245.640922,4235.897332,4085.640926,4311.281946,4103.076823,3920.512725,4213.33323,4134.871694
91,0,4150.769129,4247.179383,4156.922975,4243.076819,4242.051178,4074.358875,4251.794768,4246.153742,4096.410156,4313.846048,4109.743489,3923.589648,4220.512717,4140.512719
92,0,4153.333232,4249.743486,4161.025539,4245.640922,4251.794768,4083.076823,4261.538357,4259.999896,4109.743489,4324.615279,4119.999899,3931.794776,4229.743486,4140.512719
93,0,4155.897334,4253.333229,4166.153744,4245.128101,4252.307588,4085.128105,4264.10246,4255.897332,4114.358874,4326.666561,4124.615284,3944.102468,4233.33323,4145.128104
94,0,4155.897334,4255.384511,4167.692206,4244.10246,4247.179383,4079.9999,4258.461434,4247.692204,4110.76913,4327.692202,4123.076822,3954.358878,4235.384512,4150.769129
95,0,4152.820411,4251.794768,4163.589642,4243.076819,4246.153742,4083.589644,4253.84605,4251.794768,4114.871694,4334.358868,4123.589643,3966.66657,4237.435794,4151.28195
96,0,4152.820411,4248.717845,4163.589642,4243.58964,4250.769127,4090.769131,4253.333229,4254.871691,4123.076822,4331.281945,4127.179386,3984.102467,4235.384512,4151.28195
97,0,4155.897334,4253.333229,4167.692206,4243.076819,4251.281947,4087.179387,4252.307588,4251.281947,4121.538361,4323.589638,4125.128104,4000.512723,4233.33323,4152.307591
98,0,4157.435796,4259.487075,4169.230667,4244.10246,4249.743486,4084.102464,4252.307588,4248.205024,4123.076822,4323.076817,4122.051181,4010.769133,4240.512717,4152.307591
99,0,4156.922975,4261.538357,4169.230667,4244.10246,4248.205024,4089.74349,4257.435793,4247.692204,4126.666566,4324.102458,4130.256309,4022.051184,4249.230665,4157.948616
100,0,4160.512719,4262.563998,4169.230667,4239.999896,4247.179383,4093.333233,4262.051178,4247.179383,4124.102463,4322.563997,4138.461437,4037.948619,4251.281947,4169.230667
101,0,4161.53836,4258.974255,4169.743488,4238.461435,4254.35887,4092.820413,4256.922973,4246.666563,4128.205027,4318.974253,4130.76913,4047.179388,4244.615281,4169.743488
102,0,4156.410155,4258.974255,4165.640924,4239.999896,4250.256306,4091.794772,4248.717845,4247.692204,4137.435796,4322.563997,4126.666566,4053.333234,4244.615281,4166.666565
103,0,4155.384514,4262.051178,4157.948616,4238.974255,4235.384512,4088.717849,4249.743486,4254.871691,4144.102463,4330.256304,4132.307591,4064.615285,4250.769127,4174.358872
104,0,4153.846052,4254.35887,4154.358873,4232.307589,4238.461435,4091.794772,4257.948614,4261.538357,4150.256309,4318.974253,4125.128104,4071.281952,4236.410153,4166.666565
105,0,4147.692206,4244.615281,4161.53836,4230.769127,4250.256306,4099.487079,4265.128101,4262.563998,4156.410155,4305.1281,4121.02554,4077.435798,4226.666563,4151.79477
106,0,4156.410155,4246.153742,4169.230667,4233.33323,4248.205024,4099.9999,4262.051178,4261.538357,4155.384514,4318.461433,4134.358873,4093.846054,4249.230665,4168.717847
107,0,4176.410154,4251.794768,4168.205026,4235.897332,4245.128101,4100.51272,4258.974255,4259.487075,4158.461437,4328.717843,4145.128104,4113.846053,4269.743485,4204.615282
108,0,4185.640923,4251.794768,4168.717847,4235.897332,4245.128101,4106.153746,4261.025537,4259.999896,4168.717847,4317.948612,4146.666565,4129.230668,4266.153742,4221.025538
109,0,4195.384513,4248.717845,4177.948616,4232.307589,4243.076819,4106.153746,4262.563998,4262.051178,4171.281949,4312.307587,4149.230668,4145.640924,4267.179383,4230.256307
110,0,4216.922974,4252.307588,4189.743487,4234.871691,4246.153742,4104.615284,4259.999896,4256.922973,4169.743488,4315.38451,4158.974257,4164.615283,4284.61528,4253.333229
111,0,4222.563999,4256.410152,4188.717846,4236.922973,4246.153742,4105.128105,4254.871691,4250.256306,4174.358872,4312.307587,4168.717847,4181.538359,4294.87169,4268.205024
112,0,4206.153743,4245.640922,4174.871693,4229.743486,4227.179384,4100.51272,4249.230665,4247.692204,4173.333231,4302.051177,4164.102462,4186.153744,4286.666562,4258.461434
113,0,4196.410154,4232.820409,4167.692206,4223.07682,4211.281948,4097.948618,4245.128101,4238.974255,4164.102462,4290.256305,4151.79477,4182.564,4275.384511,4243.076819
114,0,4202.051179,4239.999896,4172.30759,4227.692204,4223.07682,4105.128105,4245.640922,4235.384512,4170.769129,4286.666562,4156.410155,4192.82041,4281.538357,4244.615281
115,0,4203.589641,4249.230665,4173.846052,4229.743486,4242.051178,4110.25631,4246.666563,4245.640922,4188.205026,4294.358869,4168.717847,4211.794769,4288.717844,4251.794768
116,0,4197.435795,4243.076819,4168.717847,4219.999897,4238.461435,4106.666566,4245.128101,4249.743486,4190.769128,4298.974254,4166.666565,4216.410153,4281.538357,4244.615281
117,0,4196.922974,4240.512717,4167.179385,4218.461435,4231.794768,4108.717848,4246.153742,4243.076819,4189.743487,4294.358869,4164.615283,4219.487076,4284.61528,4241.538358
118,0,4203.07682,4247.692204,4170.256308,4229.230666,4236.922973,4117.435797,4250.769127,4246.666563,4205.128102,4292.820408,4173.846052,4234.871691,4296.922972,4249.230665
119,0,4199.487077,4248.717845,4170.769129,4233.33323,4235.384512,4117.948617,4250.256306,4253.84605,4217.435794,4296.410151,4178.974257,4244.615281,4296.410151,4251.281947
120,0,4192.82041,4242.563999,4168.205026,4225.640922,4230.256307,4115.897335,4246.153742,4250.256306,4217.435794,4296.410151,4172.820411,4244.10246,4292.307587,4245.640922
121,0,4197.435795,4242.563999,4165.128103,4223.07682,4234.358871,4119.999899,4246.666563,4247.179383,4217.435794,4294.87169,4173.333231,4249.230665,4292.307587,4244.615281
122,0,4202.564,4248.205024,4166.666565,4224.615281,4237.948614,4123.589643,4248.205024,4249.743486,4218.461435,4298.974254,4183.589641,4265.640921,4294.87169,4248.205024
123,0,4197.435795,4250.256306,4169.230667,4223.58964,4233.84605,4122.564002,4244.10246,4245.640922,4220.512717,4293.846049,4186.153744,4275.897331,4295.897331,4248.205024
124,0,4195.384513,4248.205024,4163.589642,4222.563999,4230.256307,4123.589643,4242.563999,4235.384512,4227.692204,4285.640921,4182.564,4274.35887,4294.87169,4247.692204
125,0,4199.999897,4245.640922,4157.435796,4221.538358,4230.769127,4124.102463,4242.051178,4231.281948,4231.794768,4294.358869,4183.076821,4278.461434,4293.846049,4246.666563
126,0,4195.384513,4237.435794,4156.410155,4217.948615,4231.794768,4124.615284,4236.922973,4232.820409,4231.794768,4295.897331,4183.589641,4290.256305,4293.333228,4245.128101
127,0,4191.281949,4231.281948,4155.384514,4214.871692,4222.051179,4123.589643,4229.230666,4231.281948,4237.948614,4276.922972,4190.256308,4297.435792,4290.256305,4244.615281
128,0,4197.948615,4237.948614,4152.820411,4216.410153,4212.82041,4120.51272,4229.743486,4229.743486,4244.615281,4277.435793,4197.948615,4304.102459,4293.333228,4247.179383
0,0,4203.589641,4244.10246,4159.487078,4218.461435,4226.153743,4127.179386,4239.487076,4236.410153,4250.256306,4295.897331,4199.999897,4319.487074,4303.076818,4255.897332
1,0,4209.230666,4245.640922,4170.256308,4220.512717,4234.871691,4137.435796,4244.615281,4248.205024,4263.076819,4301.538356,4207.692205,4336.922971,4311.794766,4268.717844
2,0,4212.82041,4247.179383,4170.769129,4218.974256,4225.640922,4139.999899,4238.974255,4248.205024,4269.230665,4294.358869,4215.384512,4342.563996,4312.820407,4270.256306
3,0,4207.692205,4247.692204,4166.153744,4215.897333,4224.615281,4137.435796,4232.820409,4235.897332,4264.10246,4283.076818,4211.794769,4343.589637,4309.743484,4263.076819
4,0,4206.666564,4248.205024,4166.153744,4223.07682,4231.794768,4136.410155,4232.820409,4232.307589,4264.61528,4279.487075,4212.307589,4354.871688,4312.307587,4262.563998
5,0,4210.256307,4248.205024,4166.666565,4224.102461,4230.769127,4137.948617,4230.769127,4232.307589,4265.128101,4276.922972,4213.846051,4365.640919,4311.281946,4264.61528
6,0,4208.205025,4246.666563,4167.179385,4218.461435,4230.769127,4141.02554,4229.743486,4226.666563,4263.589639,4270.256306,4205.640923,4364.615278,4299.999895,4262.051178
7,0,4209.230666,4249.743486,4168.717847,4222.051179,4235.384512,4144.102463,4235.384512,4230.769127,4277.435793,4268.205024,4206.153743,4368.205021,4298.974254,4262.563998
8,0,4209.230666,4249.743486,4161.025539,4223.58964,4230.256307,4144.102463,4234.358871,4235.384512,4288.717844,4270.769126,4211.281948,4377.43579,4307.179382,4263.589639
9,0,4203.07682,4244.10246,4152.307591,4214.358871,4225.128102,4147.179386,4232.820409,4231.794768,4290.256305,4265.128101,4209.230666,4376.92297,4307.692202,4261.538357
10,0,4206.153743,4245.640922,4154.358873,4214.358871,4229.230666,4153.333232,4239.999896,4240.512717,4302.563997,4263.076819,4212.82041,4381.538354,4304.102459,4261.538357
11,0,4208.205025,4250.256306,4158.461437,4219.999897,4226.666563,4155.384514,4241.538358,4247.179383,4314.358869,4268.717844,4217.948615,4394.871687,4303.589638,4262.051178
12,0,4199.999897,4247.692204,4154.358873,4216.410153,4217.948615,4153.333232,4233.33323,4235.384512,4308.717843,4265.640921,4212.82041,4400.512713,4303.589638,4258.974255
13,0,4202.564,4245.128101,4150.769129,4212.82041,4225.128102,4151.79477,4229.743486,4229.743486,4309.230664,4264.61528,4213.846051,4406.153738,4308.205023,4262.563998
14,0,4213.846051,4248.717845,4155.384514,4217.435794,4234.358871,4153.846052,4231.281948,4234.358871,4323.076817,4269.230665,4224.102461,4418.974251,4312.820407,4272.820408
15,0,4216.922974,4259.999896,4160.512719,4226.666563,4232.307589,4156.922975,4230.256307,4233.33323,4328.205022,4268.205024,4230.769127,4429.230661,4311.794766,4279.487075
16,0,4217.948615,4264.61528,4157.435796,4228.717845,4232.820409,4157.948616,4229.230666,4226.666563,4325.128099,4259.999896,4229.230666,4433.846045,4308.717843,4276.410152
17,0,4221.025538,4254.35887,4151.28195,4219.999897,4234.358871,4153.333232,4227.692204,4222.563999,4330.256304,4250.769127,4225.640922,4441.025532,4307.692202,4273.846049
18,0,4219.487076,4247.692204,4155.897334,4216.922974,4233.33323,4152.820411,4227.692204,4222.563999,4336.922971,4250.769127,4231.281948,4453.333224,4308.717843,4278.974254
19,0,4217.948615,4250.769127,4162.05118,4219.999897,4233.33323,4156.922975,4231.281948,4221.025538,4331.794766,4245.640922,4230.769127,4456.410147,4302.051177,4274.87169
20,0,4216.922974,4247.692204,4151.79477,4214.871692,4223.58964,4152.307591,4229.743486,4212.307589,4328.205022,4233.33323,4223.58964,4448.205019,4291.794767,4259.487075
21,0,4215.897333,4243.58964,4140.512719,4208.205025,4215.897333,4150.256309,4229.230666,4213.33323,4343.076817,4238.461435,4227.179384,4450.769122,4298.974254,4262.051178
22,0,4218.461435,4246.666563,4142.051181,4213.846051,4227.179384,4164.615283,4233.84605,4224.615281,4357.948611,4246.153742,4235.897332,4463.589634,4308.205023,4276.410152
23,0,4214.358871,4248.205024,4143.076822,4215.384512,4237.435794,4172.30759,4234.871691,4227.179384,4358.461432,4235.897332,4233.33323,4469.23066,4299.487074,4270.256306
24,0,4204.615282,4245.128101,4135.897335,4206.666564,4231.281948,4167.692206,4231.281948,4226.153743,4359.487073,4236.410153,4230.256307,4469.74348,4292.820408,4258.461434
25,0,4205.128102,4242.051178,4132.820412,4205.128102,4217.948615,4167.692206,4232.820409,4230.769127,4365.640919,4251.794768,4238.974255,4478.461429,4296.410151,4264.10246
26,0,4217.948615,4246.153742,4144.615283,4216.922974,4218.461435,4175.384513,4237.435794,4233.84605,4373.846047,4245.640922,4249.743486,4493.846044,4300.512715,4273.333229
27,0,4228.205025,4255.384511,4152.820411,4222.563999,4234.871691,4179.487077,4234.871691,4228.205025,4377.948611,4232.307589,4253.333229,4509.743479,4306.666561,4279.487075
28,0,4223.58964,4253.333229,4144.615283,4216.410153,4238.974255,4177.435795,4226.666563,4219.999897,4373.846047,4235.384512,4251.794768,4511.794761,4304.102459,4279.487075
29,0,4212.82041,4242.563999,4130.76913,4212.307589,4227.692204,4176.410154,4225.128102,4216.922974,4372.307585,4226.153743,4248.205024,4503.589633,4292.307587,4268.717844
30,0,4213.846051,4243.076819,4130.76913,4213.846051,4227.692204,4182.05118,4226.666563,4215.897333,4370.769124,4210.256307,4248.717845,4510.76912,4290.769126,4262.563998
31,0,4228.717845,4248.717845,4137.948617,4217.435794,4230.769127,4188.717846,4223.07682,4213.846051,4364.102457,4220.512717,4251.794768,4522.563992,4297.948613,4267.179383
32,0,4229.743486,4241.538358,4134.871694,4217.435794,4221.025538,4185.640923,4218.461435,4213.33323,4366.66656,4233.84605,4250.769127,4523.589633,4296.410151,4267.179383
33,0,4216.922974,4229.743486,4125.640925,4215.384512,4212.307589,4184.615282,4219.487076,4215.897333,4378.461431,4223.58964,4250.256306,4528.717838,4293.846049,4263.589639
34,0,4215.384512,4231.794768,4123.076822,4215.384512,4213.846051,4194.358872,4219.487076,4214.358871,4375.384508,4212.82041,4254.871691,4538.461427,4292.820408,4263.589639
35,0,4219.999897,4236.410153,4124.615284,4214.871692,4227.692204,4201.538359,4217.435794,4211.794769,4370.256303,4217.948615,4258.461434,4541.02553,4291.794767,4267.179383
36,0,4217.948615,4232.820409,4124.102463,4212.82041,4230.256307,4202.051179,4215.897333,4213.33323,4377.948611,4219.487076,4263.076819,4546.666555,4294.87169,4272.307588
37,0,4220.512717,4236.410153,4123.589643,4214.358871,4218.461435,4199.487077,4211.794769,4212.82041,4385.640918,4216.922974,4266.666562,4561.025529,4295.897331,4281.025536
38,0,4232.820409,4248.205024,4124.615284,4218.461435,4215.897333,4201.538359,4212.82041,4214.358871,4392.307585,4224.102461,4268.205024,4569.743478,4293.846049,4288.717844
39,0,4236.410153,4249.230665,4125.128104,4219.487076,4215.897333,4207.692205,4212.307589,4217.435794,4395.384508,4227.179384,4273.846049,4569.230657,4294.87169,4289.743485
40,0,4230.256307,4246.153742,4124.102463,4217.435794,4209.230666,4213.846051,4206.666564,4213.846051,4390.256303,4219.487076,4280.512716,4571.281939,4296.410151,4289.230664
41,0,4230.256307,4247.692204,4122.564002,4216.410153,4216.922974,4218.974256,4210.256307,4208.717846,4389.230662,4214.871692,4279.999895,4580.512709,4291.281946,4293.333228
42,0,4233.33323,4246.666563,4119.487079,4218.461435,4234.358871,4219.999897,4216.410153,4205.128102,4390.256303,4218.974256,4276.410152,4585.640914,4288.205023,4292.820408
43,0,4228.205025,4243.58964,4118.461438,4218.461435,4233.33323,4221.538358,4212.307589,4200.512718,4381.025534,4215.384512,4277.948613,4585.128093,4289.743485,4289.230664
44,0,4223.07682,4244.615281,4119.999899,4217.435794,4221.025538,4221.538358,4206.666564,4200.512718,4380.512713,4205.640923,4280.512716,4592.30758,4291.281946,4292.307587
45,0,4226.666563,4240.512717,4122.051181,4217.435794,4215.897333,4219.999897,4206.666564,4205.128102,4389.743482,4208.205025,4283.076818,4602.05117,4291.794767,4292.820408
46,0,4231.281948,4236.410153,4118.974258,4213.33323,4216.922974,4221.538358,4204.102461,4202.564,4388.717841,4204.615282,4282.563998,4599.487067,4291.281946,4285.640921
47,0,4231.281948,4242.563999,4117.948617,4211.281948,4214.358871,4227.692204,4206.666564,4199.487077,4389.743482,4199.999897,4286.666562,4599.999888,4292.307587,4288.717844
48,0,4234.871691,4249.743486,4126.666566,4216.410153,4214.871692,4239.487076,4215.384512,4208.717846,4398.461431,4212.82041,4298.461433,4615.897323,4295.38451,4297.948613
49,0,4241.025537,4248.205024,4138.974258,4221.538358,4224.102461,4248.717845,4217.435794,4218.461435,4401.025533,4220.512717,4305.1281,4629.743477,4294.87169,4298.974254
50,0,4246.153742,4248.717845,4139.999899,4220.512717,4222.563999,4248.717845,4214.358871,4219.487076,4396.922969,4208.717846,4301.538356,4634.358861,4294.358869,4297.435792
51,0,4246.153742,4248.717845,4130.76913,4217.948615,4214.871692,4244.615281,4213.846051,4211.794769,4398.461431,4201.025538,4297.435792,4633.846041,4294.358869,4299.487074
52,0,4236.410153,4237.435794,4119.487079,4214.358871,4219.487076,4246.153742,4212.307589,4203.589641,4400.512713,4201.538359,4296.410151,4634.358861,4287.692203,4295.897331
53,0,4229.230666,4229.743486,4112.820412,4207.692205,4219.487076,4246.153742,4205.640923,4197.948615,4393.333226,4189.743487,4294.87169,4638.461425,4280.512716,4290.769126
54,0,4230.769127,4232.307589,4110.25631,4203.07682,4212.82041,4242.563999,4201.025538,4188.205026,4381.538354,4181.025539,4290.769126,4637.435784,4277.435793,4288.717844
55,0,4230.769127,4230.256307,4108.717848,4202.051179,4216.922974,4244.10246,4203.07682,4182.564,4381.538354,4184.102462,4289.230664,4634.358861,4275.384511,4286.666562
56,0,4229.230666,4226.153743,4106.666566,4202.051179,4216.410153,4248.205024,4210.256307,4192.30759,4393.333226,4186.153744,4294.358869,4640.512707,4277.435793,4290.769126
57,0,4232.307589,4231.281948,4107.692207,4206.153743,4212.82041,4255.384511,4215.384512,4204.102461,4398.974251,4186.666564,4302.051177,4652.307579,4282.563998,4297.948613
58,0,4234.871691,4235.384512,4112.820412,4211.281948,4219.487076,4262.051178,4212.82041,4203.07682,4397.94861,4185.640923,4306.153741,4655.384502,4281.025536,4296.922972
59,0,4232.307589,4232.820409,4114.871694,4207.692205,4209.743487,4259.487075,4204.102461,4201.025538,4399.999892,4186.666564,4306.666561,4657.435784,4278.461434,4296.922972
60,0,4231.794768,4231.794768,4111.794771,4203.589641,4193.846051,4256.410152,4203.589641,4202.051179,4400.512713,4196.410154,4310.256305,4666.666553,4282.051177,4305.64092
61,0,4238.461435,4234.358871,4109.230669,4206.153743,4206.666564,4261.025537,4209.230666,4202.564,4397.43579,4201.538359,4315.38451,4672.307578,4283.589639,4311.281946
62,0,4243.076819,4234.358871,4110.25631,4207.179384,4222.051179,4263.076819,4208.205025,4204.615282,4397.43579,4190.256308,4315.38451,4672.307578,4279.999895,4308.717843
63,0,4237.435794,4232.820409,4106.666566,4203.589641,4216.410153,4261.538357,4202.051179,4206.153743,4401.538354,4186.153744,4311.794766,4671.281937,4279.999895,4302.051177
64,0,4226.666563,4229.230666,4095.384515,4201.538359,4212.307589,4262.051178,4198.974256,4197.435795,4396.410149,4199.487077,4307.692202,4666.153732,4275.384511,4293.846049
65,0,4219.487076,4226.153743,4089.74349,4201.025538,4215.384512,4263.076819,4197.948615,4187.692205,4389.230662,4207.179384,4308.717843,4664.615271,4265.128101,4292.820408
66,0,4216.922974,4228.717845,4093.846054,4199.999897,4215.897333,4270.256306,4198.974256,4192.82041,4391.281944,4211.281948,4314.358869,4675.384501,4268.205024,4303.076818
67,0,4215.897333,4229.743486,4095.384515,4200.512718,4215.384512,4278.974254,4201.538359,4201.025538,4395.384508,4226.153743,4315.38451,4682.051168,4279.487075,4311.794766
68,0,4214.871692,4227.692204,4092.307592,4201.538359,4217.435794,4279.999895,4201.538359,4198.461436,4394.358867,4234.358871,4311.281946,4681.025527,4276.410152,4311.281946
69,0,4212.82041,4225.128102,4092.820413,4201.025538,4218.974256,4277.435793,4199.999897,4193.846051,4391.281944,4230.769127,4310.256305,4682.051168,4269.230665,4310.256305
70,0,4212.82041,4223.07682,4092.820413,4199.487077,4212.82041,4277.948613,4198.974256,4197.948615,4392.820405,4230.769127,4312.307587,4682.051168,4268.717844,4310.256305
71,0,4211.794769,4226.153743,4089.74349,4199.487077,4206.666564,4282.051177,4199.999897,4199.999897,4393.846046,4232.307589,4315.38451,4681.538347,4265.128101,4310.769125
72,0,4207.179384,4227.179384,4089.74349,4197.948615,4210.256307,4285.1281,4200.512718,4198.974256,4390.256303,4237.435794,4315.89733,4686.666552,4266.666562,4312.820407
73,0,4205.128102,4219.999897,4090.769131,4192.82041,4214.358871,4283.076818,4197.435795,4197.948615,4386.153739,4250.256306,4314.358869,4688.205014,4271.281947,4313.846048
74,0,4203.589641,4214.871692,4086.666567,4186.666564,4202.051179,4278.974254,4194.871692,4192.82041,4383.076816,4247.179383,4315.89733,4679.999886,4266.666562,4310.256305
75,0,4199.999897,4218.974256,4084.102464,4186.153744,4187.179385,4281.025536,4192.30759,4187.692205,4382.051175,4232.820409,4320.512715,4678.461424,4262.051178,4308.717843
76,0,4198.461436,4218.974256,4088.205028,4190.769128,4188.717846,4288.205023,4191.794769,4187.179385,4384.102457,4234.871691,4319.487074,4687.179373,4266.153742,4311.794766
77,0,4203.589641,4216.410153,4089.74349,4191.281949,4201.025538,4293.333228,4195.897333,4187.179385,4386.153739,4235.384512,4319.487074,4695.384501,4267.692203,4313.333228
78,0,4209.230666,4220.512717,4089.74349,4189.230667,4212.82041,4294.358869,4198.974256,4187.179385,4385.640918,4235.384512,4324.102458,4699.999885,4266.153742,4313.333228
79,0,4211.281948,4225.640922,4090.769131,4193.846051,4214.358871,4294.87169,4196.922974,4187.179385,4387.6922,4243.58964,4326.15374,4702.051167,4269.743485,4314.871689
80,0,4214.358871,4229.743486,4091.794772,4200.512718,4210.256307,4298.974254,4197.435795,4187.692205,4389.743482,4241.538358,4330.769125,4703.589629,4274.87169,4319.487074
81,0,4217.948615,4230.769127,4098.461438,4201.538359,4202.564,4303.076818,4199.487077,4193.333231,4390.256303,4238.974255,4338.461432,4704.102449,4279.999895,4326.15374
82,0,4219.487076,4233.33323,4106.666566,4201.025538,4198.461436,4307.179382,4198.974256,4196.922974,4392.820405,4249.230665,4338.461432,4705.640911,4281.538357,4321.538356
83,0,4219.999897,4237.948614,4104.615284,4202.051179,4212.307589,4313.846048,4198.974256,4195.897333,4395.384508,4251.281947,4335.384509,4706.666552,4279.999895,4313.333228
84,0,4222.563999,4236.922973,4095.897336,4201.538359,4225.128102,4314.871689,4199.487077,4195.897333,4390.769123,4246.153742,4335.384509,4706.666552,4278.974254,4315.38451
85,0,4223.07682,4230.256307,4092.307592,4197.435795,4214.358871,4311.794766,4198.974256,4191.281949,4381.538354,4244.615281,4337.948612,4706.153731,4277.948613,4319.999894
86,0,4220.512717,4230.769127,4093.846054,4188.717846,4203.07682,4310.769125,4197.948615,4183.589641,4377.43579,4235.897332,4341.025535,4707.179372,4280.512716,4318.974253
87,0,4217.948615,4232.820409,4091.794772,4186.153744,4206.666564,4312.307587,4191.794769,4184.615282,4381.025534,4230.256307,4339.999894,4705.640911,4279.487075,4315.89733
88,0,4207.692205,4223.58964,4081.025541,4185.128103,4192.82041,4309.230664,4184.615282,4181.538359,4377.948611,4229.743486,4329.743484,4694.35886,4269.743485,4311.281946
89,0,4202.564,4214.358871,4072.307593,4182.05118,4182.05118,4307.179382,4183.076821,4173.846052,4369.743483,4222.051179,4322.051176,4685.128091,4265.640921,4306.666561
90,0,4213.33323,4218.461435,4080.512721,4182.564,4202.051179,4314.358869,4184.102462,4181.025539,4374.358867,4222.563999,4330.256304,4688.717834,4274.35887,4311.281946
91,0,4216.922974,4222.563999,4087.179387,4185.640923,4209.743487,4319.999894,4184.615282,4185.640923,4381.538354,4228.717845,4337.948612,4693.846039,4277.435793,4314.871689
92,0,4205.640923,4218.461435,4077.948618,4184.102462,4197.435795,4317.435792,4183.589641,4176.410154,4379.999893,4220.512717,4330.256304,4688.205014,4267.692203,4309.230664
93,0,4207.692205,4220.512717,4072.307593,4183.589641,4195.384513,4319.999894,4183.589641,4178.461436,4382.051175,4212.307589,4328.717843,4687.179373,4266.153742,4308.717843
94,0,4219.487076,4230.769127,4080.512721,4188.717846,4198.461436,4328.205022,4188.717846,4193.846051,4393.846046,4224.102461,4341.025535,4699.487065,4275.384511,4321.538356
95,0,4218.974256,4231.794768,4083.076823,4186.666564,4199.487077,4327.179381,4188.717846,4195.384513,4400.512713,4231.281948,4344.615278,4705.12809,4279.487075,4328.205022
96,0,4213.846051,4228.205025,4074.871695,4186.153744,4205.640923,4324.102458,4184.615282,4184.615282,4398.974251,4217.435794,4334.871689,4697.948603,4275.384511,4319.487074
97,0,4215.897333,4231.281948,4073.333234,4192.30759,4199.999897,4326.666561,4185.128103,4183.589641,4394.871687,4209.743487,4330.769125,4694.87168,4270.256306,4315.38451
98,0,4217.948615,4230.769127,4076.410157,4190.769128,4186.666564,4325.64092,4185.128103,4184.102462,4389.230662,4212.307589,4328.717843,4695.897321,4265.128101,4315.89733
99,0,4218.974256,4227.179384,4075.897336,4191.281949,4188.205026,4322.051176,4181.025539,4174.358872,4383.589636,4202.051179,4324.615279,4694.35886,4260.512716,4309.743484
100,0,4224.615281,4230.769127,4075.897336,4199.999897,4198.974256,4325.64092,4182.05118,4168.717847,4385.128098,4194.871692,4329.743484,4697.948603,4263.076819,4316.922971
101,0,4223.07682,4227.179384,4076.410157,4195.384513,4201.025538,4329.230663,4185.128103,4172.820411,4389.743482,4205.128102,4334.358868,4699.487065,4264.61528,4327.692202
102,0,4215.897333,4217.435794,4070.256311,4184.102462,4191.794769,4327.692202,4185.128103,4173.846052,4388.205021,4204.102461,4328.205022,4689.743475,4262.051178,4318.461433
103,0,4214.871692,4217.435794,4064.102465,4187.179385,4181.025539,4324.615279,4181.025539,4170.769129,4385.640918,4197.435795,4323.076817,4685.640911,4259.487075,4307.179382
104,0,4215.897333,4218.461435,4067.179388,4190.256308,4182.564,4324.615279,4173.846052,4168.717847,4386.666559,4205.640923,4324.615279,4687.692193,4254.871691,4309.230664
105,0,4214.358871,4214.871692,4072.307593,4186.153744,4196.410154,4332.820407,4177.435795,4169.743488,4388.205021,4208.205025,4326.666561,4682.563988,4250.256306,4310.769125
106,0,4211.281948,4216.410153,4068.717849,4187.692205,4203.07682,4339.487073,4184.102462,4170.769129,4387.17938,4197.948615,4326.666561,4676.922963,4248.717845,4306.666561
107,0,4208.205025,4216.410153,4062.564003,4188.205026,4197.948615,4338.974253,4181.025539,4173.846052,4386.666559,4198.461436,4326.666561,4680.512706,4247.179383,4304.615279
108,0,4212.82041,4217.948615,4065.128106,4187.692205,4199.487077,4338.974253,4180.512718,4181.538359,4388.717841,4206.153743,4331.794766,4688.205014,4245.128101,4310.769125
109,0,4221.025538,4223.58964,4070.256311,4190.256308,4203.589641,4341.538355,4187.179385,4188.205026,4390.769123,4204.102461,4343.076817,4692.820398,4249.230665,4321.538356
110,0,4219.487076,4224.615281,4069.23067,4190.769128,4199.487077,4341.538355,4187.692205,4183.076821,4389.743482,4201.538359,4344.102458,4689.743475,4248.205024,4323.076817
111,0,4215.897333,4227.179384,4069.74349,4194.358872,4201.025538,4341.538355,4183.589641,4174.358872,4385.128098,4201.025538,4330.769125,4683.076809,4238.974255,4317.948612
112,0,4216.410153,4229.230666,4068.205029,4197.435795,4204.615282,4341.538355,4185.128103,4172.820411,4381.538354,4199.999897,4326.666561,4679.999886,4234.871691,4318.974253
113,0,4216.410153,4221.025538,4059.48708,4189.743487,4187.692205,4338.461432,4180.512718,4170.769129,4379.487072,4198.461436,4335.384509,4676.922963,4237.435794,4318.461433
114,0,4215.384512,4215.897333,4051.794773,4182.564,4177.948616,4339.487073,4173.333231,4166.666565,4376.410149,4192.30759,4339.487073,4671.794758,4234.358871,4315.89733
115,0,4207.692205,4217.435794,4048.71785,4184.102462,4196.922974,4344.102458,4178.461436,4167.692206,4373.333226,4186.153744,4332.820407,4662.563989,4221.538358,4311.794766
116,0,4198.461436,4215.897333,4045.128106,4182.564,4205.128102,4344.102458,4183.589641,4168.205026,4372.307585,4187.692205,4326.666561,4652.307579,4207.692205,4304.102459
117,0,4202.051179,4211.281948,4041.025542,4181.025539,4193.333231,4342.563996,4176.922975,4166.153744,4375.897329,4183.589641,4326.666561,4651.794758,4196.410154,4304.102459
118,0,4209.230666,4208.717846,4043.076824,4181.538359,4196.922974,4344.615278,4177.435795,4168.205026,4382.051175,4172.30759,4329.230663,4659.487066,4184.102462,4311.794766
119,0,4199.999897,4199.999897,4043.076824,4175.897334,4199.999897,4345.128099,4184.102462,4171.79477,4379.487072,4174.871693,4326.15374,4654.358861,4167.179385,4304.102459
120,0,4190.769128,4198.974256,4036.410158,4170.256308,4185.128103,4342.051176,4176.410154,4167.179385,4373.333226,4185.640923,4319.487074,4639.999887,4158.461437,4289.743485
121,0,4197.435795,4211.794769,4034.358876,4177.435795,4188.717846,4341.538355,4170.769129,4166.666565,4377.948611,4188.717846,4323.589638,4641.538348,4161.025539,4297.435792
122,0,4204.102461,4218.974256,4036.922978,4185.128103,4201.025538,4343.589637,4176.410154,4168.717847,4378.974252,4180.512718,4325.128099,4647.692194,4157.435796,4306.153741
123,0,4200.512718,4214.871692,4034.871696,4181.538359,4190.256308,4342.051176,4175.384513,4164.615283,4370.256303,4170.769129,4315.38451,4639.487066,4148.205027,4297.435792
124,0,4196.410154,4210.769128,4032.820414,4175.384513,4182.564,4341.538355,4172.820411,4163.589642,4367.17938,4167.179385,4312.820407,4631.794759,4150.256309,4292.307587
125,0,4192.30759,4208.205025,4028.20503,4175.384513,4186.153744,4341.538355,4173.846052,4162.05118,4365.640919,4167.179385,4316.922971,4629.230656,4151.79477,4290.769126
126,0,4177.948616,4194.871692,4010.256312,4165.640924,4175.384513,4337.435791,4169.743488,4154.358873,4355.897329,4157.948616,4312.307587,4619.487067,4141.53836,4279.999895
127,0,4171.79477,4182.564,3999.999902,4151.79477,4157.948616,4331.794766,4166.666565,4149.743488,4352.307586,4149.230668,4304.102459,4607.692195,4133.846053,4272.307588
128,0,4182.05118,4188.717846,4011.281953,4157.948616,4170.256308,4334.871689,4169.743488,4153.333232,4363.589637,4159.999898,4308.717843,4604.615272,4139.487078,4277.948613
0,0,4186.666564,4202.051179,4019.487081,4171.281949,4193.333231,4339.999894,4172.30759,4159.999898,4368.717842,4169.743488,4316.410151,4603.076811,4143.076822,4279.999895
1,0,4181.538359,4200.512718,4014.871697,4169.743488,4191.794769,4338.974253,4171.79477,4166.153744,4368.205021,4169.230667,4317.948612,4604.102452,4142.051181,4277.948613
2,0,4181.025539,4188.717846,4014.871697,4165.640924,4181.025539,4337.948612,4172.30759,4171.281949,4374.358867,4167.179385,4320.512715,4608.205016,4145.640924,4282.563998
3,0,4185.640923,4189.743487,4015.384517,4168.717847,4182.05118,4342.051176,4177.435795,4174.358872,4381.538354,4167.692206,4323.589638,4605.640913,4151.28195,4288.717844
4,0,4186.153744,4199.487077,4013.333235,4169.743488,4186.153744,4347.179381,4181.025539,4177.948616,4382.051175,4170.256308,4325.64092,4604.102452,4154.871693,4290.769126
5,0,4183.589641,4197.948615,4014.871697,4168.205026,4185.640923,4344.102458,4175.897334,4174.358872,4379.487072,4167.179385,4326.15374,4603.589631,4150.769129,4289.743485
6,0,4175.897334,4187.692205,4012.820415,4168.717847,4183.589641,4337.948612,4172.820411,4165.640924,4376.410149,4158.461437,4320.512715,4594.871683,4145.128104,4285.640921
7,0,4170.256308,4183.589641,4009.230671,4167.692206,4170.769129,4337.435791,4175.897334,4162.564001,4374.358867,4152.307591,4313.333228,4586.153734,4146.666565,4278.974254
8,0,4179.999898,4186.153744,4010.769133,4166.666565,4164.102462,4342.563996,4174.358872,4166.153744,4377.43579,4153.333232,4319.487074,4589.230657,4151.28195,4278.461434
9,0,4188.205026,4185.640923,4007.179389,4168.205026,4180.512718,4343.589637,4174.358872,4168.205026,4384.102457,4154.358873,4324.102458,4589.743478,4151.79477,4280.512716
10,0,4183.076821,4185.640923,4004.102466,4167.692206,4190.769128,4341.025535,4182.564,4169.230667,4390.256303,4154.358873,4318.461433,4584.615273,4149.743488,4277.948613
11,0,4181.538359,4187.692205,4012.307594,4167.179385,4186.153744,4343.076817,4182.564,4170.256308,4392.307585,4155.897334,4322.051176,4582.563991,4153.333232,4277.948613
12,0,4187.179385,4186.666564,4013.846056,4168.205026,4179.487077,4343.076817,4173.333231,4169.230667,4388.717841,4152.820411,4329.230663,4577.435786,4155.384514,4282.051177
13,0,4181.538359,4183.076821,4006.153748,4167.692206,4174.871693,4340.512714,4170.256308,4167.692206,4384.615277,4144.102463,4322.563997,4570.769119,4150.256309,4280.512716
14,0,4173.333231,4182.564,4008.717851,4167.179385,4172.820411,4339.999894,4172.30759,4163.076821,4385.128098,4138.974258,4316.922971,4568.205016,4142.564001,4272.307588
15,0,4177.435795,4184.615282,4014.871697,4168.717847,4172.820411,4338.974253,4171.281949,4155.384514,4390.769123,4139.487078,4319.487074,4568.717837,4144.102463,4270.256306
16,0,4184.615282,4185.128103,4011.794774,4170.256308,4177.948616,4337.435791,4170.769129,4157.948616,4397.43579,4140.512719,4321.025535,4566.153734,4152.820411,4277.948613
17,0,4184.615282,4185.128103,4009.743492,4168.717847,4183.076821,4343.076817,4176.922975,4167.692206,4398.974251,4147.179386,4323.589638,4564.615273,4155.897334,4280.512716
18,0,4187.179385,4187.692205,4015.384517,4170.769129,4184.102462,4346.66656,4183.589641,4170.769129,4401.025533,4151.28195,4327.692202,4568.717837,4155.897334,4277.948613
19,0,4193.846051,4191.281949,4022.051184,4175.897334,4184.102462,4343.076817,4180.512718,4168.717847,4405.128097,4143.076822,4326.15374,4570.769119,4154.871693,4283.589639
20,0,4193.846051,4193.333231,4021.538363,4178.974257,4182.05118,4340.512714,4178.974257,4167.179385,4404.102456,4135.897335,4322.051176,4564.615273,4154.358873,4291.281946
21,0,4187.692205,4192.30759,4017.94862,4176.410154,4176.922975,4341.538355,4182.05118,4167.692206,4401.025533,4137.948617,4319.999894,4556.922965,4154.871693,4287.179382
22,0,4183.076821,4187.179385,4014.358876,4171.79477,4175.384513,4346.15374,4182.05118,4167.692206,4399.487072,4139.487078,4318.461433,4553.846042,4149.230668,4276.922972
23,0,4184.102462,4184.615282,4010.769133,4171.79477,4182.564,4348.205022,4182.05118,4162.564001,4398.461431,4141.02554,4313.333228,4551.28194,4144.615283,4278.461434
24,0,4184.615282,4186.153744,4009.743492,4171.281949,4184.615282,4344.102458,4180.512718,4156.922975,4398.974251,4141.02554,4308.717843,4548.205017,4153.333232,4290.256305
25,0,4184.615282,4186.666564,4012.307594,4169.743488,4183.589641,4341.025535,4175.897334,4156.922975,4397.43579,4141.53836,4311.281946,4549.230658,4166.153744,4297.948613
26,0,4186.666564,4182.05118,4014.871697,4169.743488,4181.025539,4344.102458,4176.922975,4156.922975,4390.256303,4147.179386,4313.333228,4550.256299,4168.717847,4297.435792
27,0,4181.025539,4171.281949,4012.820415,4164.102462,4171.281949,4343.076817,4176.410154,4153.333232,4381.025534,4136.922976,4303.076818,4544.102453,4157.948616,4289.743485
28,0,4169.230667,4163.076821,4007.179389,4152.307591,4164.615283,4338.974253,4169.230667,4151.79477,4379.999893,4117.948617,4291.794767,4533.333222,4140.512719,4277.948613
29,0,4166.153744,4165.640924,4004.615287,4150.769129,4171.79477,4345.640919,4173.333231,4154.358873,4386.153739,4125.128104,4292.307587,4528.205017,4135.897335,4272.307588
30,0,4170.256308,4172.30759,4004.102466,4159.487078,4175.897334,4352.307586,4184.102462,4157.948616,4389.230662,4139.999899,4300.512715,4525.640915,4146.153745,4275.897331
31,0,4173.846052,4172.30759,4005.640928,4163.076821,4165.128103,4346.15374,4184.615282,4163.076821,4388.717841,4137.948617,4307.692202,4524.615274,4154.358873,4281.025536
32,0,4179.999898,4171.79477,4011.794774,4163.589642,4161.025539,4339.999894,4181.025539,4166.666565,4387.6922,4139.999899,4310.256305,4528.205017,4161.025539,4287.692203
