title:V                                                                               , recorded:07.07.20 11.35.42, sampling:128, subject:B                                                                               , labels:COUNTER INTERPOLATED AF3 F7 F3 FC5 T7 P7 O1 O2 P8 T8 FC6 F4 F8 AF4,, units:emotiv,,,,,,,,,
124,0,4251.281947,4238.461435,4218.461435,4231.281948,4215.384512,4218.974256,4218.974256,4236.922973,4229.743486,4230.769127,4215.384512,4226.153743,4209.230666,4251.281947
125,0,4252.307588,4241.538358,4221.025538,4233.33323,4253.84605,4219.999897,4217.948615,4235.384512,4230.769127,4235.897332,4210.769128,4228.717845,4215.897333,4253.84605
126,0,4248.205024,4232.820409,4217.435794,4232.820409,4249.230665,4219.999897,4213.846051,4232.820409,4231.281948,4238.461435,4199.999897,4219.487076,4207.179384,4249.230665
127,0,4241.025537,4218.974256,4209.743487,4229.743486,4212.82041,4214.871692,4213.33323,4232.820409,4223.07682,4223.07682,4197.435795,4213.846051,4197.435795,4237.435794
128,0,4243.076819,4217.435794,4211.794769,4230.769127,4217.435794,4214.358871,4214.358871,4235.897332,4216.922974,4220.512717,4199.487077,4213.33323,4200.512718,4232.307589
0,0,4244.10246,4219.487076,4211.281948,4229.230666,4235.897332,4212.307589,4210.256307,4233.33323,4217.435794,4229.743486,4199.487077,4208.717846,4200.512718,4233.84605
1,0,4237.435794,4217.948615,4203.589641,4221.538358,4212.307589,4204.102461,4203.589641,4228.717845,4220.512717,4219.487076,4196.922974,4203.07682,4197.948615,4233.33323
2,0,4239.487076,4223.07682,4202.051179,4222.563999,4197.435795,4206.153743,4202.564,4229.230666,4218.974256,4211.794769,4190.769128,4201.025538,4196.410154,4231.794768
3,0,4245.640922,4230.769127,4204.102461,4231.281948,4224.615281,4215.384512,4203.589641,4230.256307,4214.358871,4218.974256,4188.205026,4207.179384,4193.846051,4232.820409
4,0,4235.384512,4229.743486,4202.051179,4228.717845,4230.769127,4210.769128,4201.025538,4228.205025,4216.410153,4216.410153,4193.846051,4213.846051,4196.410154,4233.84605
5,0,4229.230666,4228.717845,4201.025538,4220.512717,4206.153743,4204.615282,4202.051179,4227.692204,4217.435794,4212.82041,4193.846051,4207.179384,4196.410154,4232.820409
6,0,4235.897332,4227.179384,4198.461436,4219.999897,4217.948615,4213.33323,4212.82041,4231.794768,4209.230666,4214.871692,4186.666564,4199.999897,4188.205026,4226.666563
7,0,4225.640922,4207.179384,4188.717846,4217.435794,4232.307589,4216.410153,4214.358871,4228.717845,4202.564,4208.717846,4182.564,4195.384513,4180.512718,4209.230666
8,0,4215.384512,4201.538359,4187.692205,4213.33323,4199.999897,4208.205025,4206.153743,4220.512717,4205.128102,4201.025538,4182.564,4188.717846,4178.974257,4203.589641
9,0,4228.205025,4227.179384,4197.435795,4222.051179,4193.846051,4210.256307,4208.205025,4224.615281,4210.769128,4201.538359,4185.128103,4193.333231,4183.589641,4216.922974
10,0,4245.640922,4242.051178,4205.128102,4233.84605,4235.897332,4218.974256,4216.922974,4233.84605,4215.384512,4207.692205,4188.205026,4204.615282,4186.666564,4222.563999
11,0,4247.179383,4232.820409,4205.640923,4233.33323,4247.179383,4218.461435,4217.948615,4231.794768,4214.358871,4208.717846,4187.692205,4204.102461,4182.05118,4216.410153
12,0,4236.922973,4227.179384,4203.07682,4223.07682,4216.410153,4214.358871,4210.769128,4227.692204,4209.230666,4200.512718,4183.589641,4196.410154,4178.974257,4213.33323
13,0,4235.384512,4231.281948,4202.564,4220.512717,4205.640923,4214.871692,4210.256307,4230.256307,4210.256307,4204.102461,4185.128103,4200.512718,4183.589641,4217.435794
14,0,4247.692204,4234.871691,4210.769128,4231.281948,4229.743486,4218.461435,4215.897333,4231.794768,4217.435794,4215.897333,4195.384513,4212.307589,4189.743487,4225.640922
15,0,4250.769127,4235.384512,4215.897333,4233.33323,4226.666563,4219.487076,4212.82041,4228.717845,4216.410153,4210.256307,4197.948615,4210.769128,4190.256308,4223.58964
16,0,4241.025537,4231.281948,4204.615282,4221.025538,4190.769128,4213.846051,4200.512718,4225.128102,4211.794769,4198.974256,4185.640923,4197.948615,4183.589641,4213.33323
17,0,4244.10246,4231.281948,4196.922974,4224.102461,4209.743487,4214.871692,4202.564,4228.205025,4219.999897,4210.256307,4187.179385,4199.487077,4189.230667,4219.999897
18,0,4248.205024,4234.358871,4200.512718,4233.33323,4258.461434,4221.025538,4217.435794,4238.461435,4231.281948,4221.538358,4203.589641,4208.717846,4201.538359,4227.692204
19,0,4234.871691,4230.769127,4201.025538,4225.640922,4237.948614,4220.512717,4214.871692,4233.33323,4219.999897,4212.307589,4200.512718,4203.589641,4196.410154,4217.948615
20,0,4227.179384,4229.230666,4196.410154,4218.461435,4210.256307,4216.410153,4203.07682,4219.999897,4202.564,4203.07682,4187.179385,4193.846051,4185.128103,4213.33323
21,0,4228.717845,4230.769127,4190.256308,4219.999897,4230.769127,4215.384512,4202.051179,4216.922974,4201.538359,4197.948615,4185.640923,4189.230667,4185.128103,4215.897333
22,0,4231.794768,4227.179384,4188.205026,4221.538358,4226.666563,4213.33323,4205.640923,4216.410153,4204.102461,4189.230667,4188.717846,4190.256308,4187.692205,4213.846051
23,0,4238.461435,4229.230666,4196.922974,4227.179384,4211.794769,4213.33323,4206.153743,4214.871692,4200.512718,4190.769128,4193.846051,4198.974256,4185.640923,4217.435794
24,0,4245.128101,4241.538358,4205.128102,4232.820409,4223.07682,4211.281948,4203.07682,4214.358871,4200.512718,4199.487077,4195.897333,4202.564,4184.102462,4219.487076
25,0,4241.538358,4244.615281,4203.07682,4232.307589,4209.230666,4200.512718,4198.974256,4210.256307,4200.512718,4198.461436,4193.846051,4197.948615,4184.615282,4212.82041
26,0,4234.871691,4241.025537,4202.051179,4233.84605,4193.333231,4197.948615,4198.461436,4206.153743,4197.948615,4188.717846,4195.897333,4199.487077,4188.205026,4218.461435
27,0,4234.358871,4244.10246,4203.589641,4232.307589,4219.487076,4209.743487,4201.025538,4210.769128,4196.922974,4184.615282,4200.512718,4206.153743,4192.30759,4231.794768
28,0,4235.897332,4243.58964,4199.999897,4229.743486,4245.128101,4215.897333,4202.051179,4217.948615,4199.487077,4193.333231,4198.974256,4206.666564,4191.281949,4230.769127
29,0,4233.33323,4233.33323,4192.30759,4229.743486,4225.640922,4210.256307,4203.07682,4218.974256,4201.025538,4196.922974,4190.256308,4197.948615,4187.179385,4218.974256
30,0,4226.666563,4227.179384,4186.666564,4223.07682,4190.769128,4210.256307,4208.205025,4214.358871,4198.461436,4183.076821,4183.076821,4190.769128,4182.564,4213.846051
31,0,4225.640922,4230.256307,4188.717846,4221.025538,4197.435795,4214.358871,4213.33323,4217.948615,4198.974256,4183.076821,4189.230667,4195.897333,4184.102462,4215.897333
32,0,4231.281948,4234.871691,4195.897333,4228.205025,4232.820409,4214.871692,4215.897333,4227.692204,4205.128102,4204.615282,4201.025538,4204.615282,4188.717846,4218.461435
33,0,4229.743486,4232.820409,4194.358872,4224.615281,4230.769127,4213.846051,4216.410153,4224.102461,4204.102461,4199.487077,4195.897333,4202.564,4187.179385,4217.948615
34,0,4226.666563,4228.717845,4188.205026,4216.410153,4204.615282,4216.922974,4216.410153,4219.487076,4201.025538,4178.974257,4190.769128,4198.974256,4188.717846,4216.922974
35,0,4230.256307,4229.743486,4188.717846,4222.563999,4217.435794,4219.999897,4217.435794,4228.205025,4206.153743,4187.692205,4198.461436,4202.051179,4196.410154,4223.58964
36,0,4238.461435,4235.384512,4194.358872,4232.307589,4242.563999,4219.999897,4217.435794,4234.358871,4214.871692,4206.153743,4202.564,4209.230666,4201.538359,4232.307589
37,0,4247.692204,4240.512717,4199.487077,4232.820409,4232.820409,4218.461435,4220.512717,4231.794768,4215.897333,4205.640923,4201.538359,4221.025538,4202.564,4235.384512
38,0,4247.692204,4244.615281,4203.07682,4230.769127,4213.846051,4214.871692,4219.487076,4231.794768,4208.717846,4198.461436,4204.102461,4231.794768,4203.589641,4237.948614
39,0,4237.435794,4244.10246,4204.615282,4232.307589,4215.897333,4213.846051,4218.461435,4232.820409,4208.205025,4199.487077,4205.128102,4233.33323,4202.564,4241.025537
40,0,4232.307589,4236.410153,4198.461436,4230.769127,4225.640922,4217.435794,4222.563999,4232.307589,4213.846051,4200.512718,4202.564,4224.102461,4200.512718,4234.871691
41,0,4234.871691,4229.743486,4186.666564,4222.051179,4227.179384,4217.435794,4223.58964,4234.871691,4214.871692,4199.487077,4202.564,4215.897333,4201.025538,4228.717845
42,0,4234.871691,4228.205025,4183.589641,4215.897333,4211.281948,4213.846051,4219.487076,4234.871691,4213.846051,4206.153743,4201.538359,4214.871692,4200.512718,4228.717845
43,0,4231.794768,4230.769127,4191.281949,4218.461435,4199.999897,4213.846051,4217.435794,4233.33323,4217.948615,4208.205025,4201.538359,4215.384512,4199.999897,4226.153743
44,0,4228.717845,4232.820409,4194.358872,4225.128102,4216.922974,4217.948615,4220.512717,4234.871691,4218.974256,4199.487077,4204.102461,4215.384512,4203.589641,4225.640922
45,0,4227.692204,4231.281948,4189.230667,4227.692204,4232.307589,4217.948615,4222.563999,4234.871691,4215.384512,4203.589641,4202.051179,4215.897333,4205.128102,4225.128102
46,0,4230.256307,4231.794768,4189.230667,4227.179384,4228.717845,4216.922974,4224.615281,4235.384512,4215.897333,4217.948615,4202.564,4217.948615,4202.564,4223.07682
47,0,4234.871691,4233.84605,4196.410154,4228.205025,4228.205025,4218.974256,4227.692204,4236.410153,4216.410153,4210.769128,4208.717846,4217.435794,4206.666564,4227.692204
48,0,4233.84605,4231.794768,4199.999897,4231.281948,4232.820409,4219.999897,4226.153743,4235.384512,4217.435794,4196.410154,4208.205025,4217.435794,4211.794769,4230.256307
49,0,4230.256307,4229.230666,4193.846051,4229.230666,4227.179384,4218.461435,4223.07682,4232.820409,4212.307589,4197.948615,4202.051179,4215.897333,4206.153743,4222.563999
50,0,4228.717845,4230.256307,4186.666564,4222.563999,4205.640923,4216.410153,4219.487076,4228.205025,4202.564,4195.897333,4199.999897,4212.307589,4196.922974,4216.922974
51,0,4222.563999,4225.640922,4181.538359,4218.461435,4186.153744,4214.871692,4216.922974,4222.051179,4198.461436,4184.102462,4196.922974,4205.640923,4191.281949,4212.82041
52,0,4206.153743,4212.82041,4174.871693,4215.384512,4205.128102,4216.410153,4214.358871,4215.384512,4197.948615,4178.974257,4186.666564,4192.82041,4182.05118,4199.999897
53,0,4195.897333,4205.640923,4168.717847,4213.33323,4239.487076,4218.461435,4213.33323,4213.33323,4196.410154,4183.076821,4181.538359,4184.102462,4176.922975,4194.871692
54,0,4205.128102,4210.769128,4170.769129,4212.82041,4226.153743,4216.922974,4214.871692,4220.512717,4198.974256,4192.30759,4187.179385,4190.256308,4187.179385,4203.589641
55,0,4216.410153,4216.410153,4181.538359,4215.384512,4206.666564,4215.897333,4216.922974,4231.281948,4204.615282,4203.07682,4195.897333,4199.999897,4198.461436,4209.230666
56,0,4208.717846,4215.897333,4183.076821,4216.922974,4221.025538,4214.358871,4217.435794,4235.384512,4205.128102,4199.487077,4201.025538,4199.487077,4199.999897,4205.128102
57,0,4197.948615,4211.794769,4171.281949,4211.794769,4215.384512,4212.82041,4213.846051,4229.230666,4203.07682,4190.256308,4197.435795,4195.384513,4197.435795,4201.025538
58,0,4210.256307,4215.897333,4171.79477,4213.33323,4200.512718,4214.358871,4211.794769,4230.769127,4208.205025,4194.358872,4198.461436,4200.512718,4199.999897,4206.153743
59,0,4219.999897,4227.692204,4183.076821,4226.666563,4215.897333,4217.948615,4214.358871,4239.999896,4215.897333,4204.615282,4208.717846,4210.256307,4207.179384,4216.922974
60,0,4217.948615,4233.84605,4184.615282,4232.307589,4229.743486,4223.58964,4218.461435,4239.999896,4217.948615,4206.666564,4213.846051,4215.897333,4211.794769,4220.512717
61,0,4224.615281,4232.307589,4182.05118,4226.153743,4236.922973,4228.717845,4221.025538,4234.358871,4214.871692,4195.384513,4210.256307,4215.384512,4213.33323,4216.922974
62,0,4227.692204,4229.230666,4183.076821,4226.153743,4253.84605,4225.128102,4218.461435,4229.230666,4212.307589,4189.230667,4206.666564,4215.384512,4212.82041,4215.384512
63,0,4216.922974,4231.281948,4181.025539,4229.743486,4239.999896,4216.410153,4215.897333,4228.717845,4213.846051,4199.487077,4205.640923,4215.897333,4215.384512,4217.435794
64,0,4209.230666,4234.871691,4181.025539,4230.256307,4212.307589,4214.871692,4216.410153,4229.743486,4211.281948,4205.640923,4204.102461,4214.358871,4212.82041,4216.410153
65,0,4208.717846,4234.358871,4184.615282,4230.256307,4221.025538,4217.948615,4217.948615,4231.281948,4203.07682,4191.281949,4203.589641,4213.846051,4205.128102,4214.871692
66,0,4207.179384,4230.769127,4184.615282,4229.230666,4237.435794,4219.999897,4224.102461,4232.307589,4205.640923,4181.025539,4203.07682,4217.948615,4205.640923,4214.358871
67,0,4207.179384,4229.230666,4184.102462,4225.640922,4230.769127,4218.974256,4227.179384,4233.84605,4216.922974,4194.358872,4204.102461,4215.897333,4210.769128,4214.871692
68,0,4202.564,4229.743486,4182.564,4225.640922,4223.07682,4215.897333,4219.999897,4233.84605,4218.461435,4197.435795,4202.564,4204.615282,4209.743487,4214.871692
69,0,4196.922974,4228.205025,4179.487077,4227.692204,4216.922974,4213.846051,4215.384512,4230.256307,4211.794769,4185.640923,4201.025538,4202.051179,4206.153743,4212.307589
70,0,4208.205025,4232.307589,4182.564,4231.794768,4212.82041,4218.461435,4223.58964,4237.948614,4215.384512,4189.230667,4210.769128,4214.871692,4212.82041,4214.871692
71,0,4216.410153,4233.84605,4184.615282,4230.769127,4228.717845,4226.666563,4229.743486,4248.717845,4221.538358,4201.538359,4218.461435,4222.563999,4221.025538,4223.07682
72,0,4205.640923,4222.051179,4176.922975,4222.051179,4241.025537,4225.128102,4227.692204,4243.58964,4215.384512,4200.512718,4211.794769,4217.948615,4214.358871,4218.974256
73,0,4197.435795,4213.33323,4168.717847,4214.358871,4224.102461,4216.922974,4226.153743,4232.820409,4206.153743,4195.897333,4201.538359,4213.846051,4201.538359,4205.640923
74,0,4198.974256,4213.33323,4168.205026,4215.384512,4212.82041,4214.358871,4224.615281,4230.256307,4203.07682,4196.410154,4199.487077,4214.871692,4198.461436,4204.615282
75,0,4201.025538,4212.307589,4174.871693,4216.410153,4221.538358,4218.461435,4221.025538,4231.281948,4201.538359,4198.461436,4200.512718,4219.487076,4201.025538,4214.871692
76,0,4210.256307,4213.33323,4183.589641,4215.897333,4222.051179,4218.461435,4218.461435,4229.230666,4200.512718,4208.205025,4202.051179,4226.666563,4200.512718,4218.974256
77,0,4221.025538,4214.358871,4183.076821,4216.410153,4216.922974,4213.846051,4218.461435,4228.717845,4202.564,4214.871692,4203.07682,4228.717845,4201.025538,4218.461435
78,0,4219.487076,4207.692205,4177.435795,4213.846051,4214.358871,4212.82041,4217.948615,4230.769127,4202.564,4217.948615,4197.435795,4224.615281,4200.512718,4216.410153
79,0,4219.999897,4205.640923,4179.487077,4214.871692,4202.564,4213.33323,4217.948615,4230.769127,4198.461436,4230.256307,4197.435795,4227.692204,4197.435795,4214.871692
80,0,4229.743486,4216.922974,4189.230667,4226.153743,4215.384512,4215.897333,4219.487076,4232.820409,4198.461436,4232.307589,4210.769128,4244.10246,4205.128102,4225.640922
81,0,4233.33323,4222.051179,4190.769128,4229.230666,4250.256306,4217.435794,4218.974256,4235.384512,4200.512718,4230.256307,4221.538358,4253.84605,4216.922974,4238.461435
82,0,4233.33323,4217.948615,4185.640923,4218.461435,4239.999896,4216.922974,4214.871692,4234.358871,4202.564,4246.666563,4218.974256,4250.769127,4213.33323,4237.435794
83,0,4237.948614,4214.358871,4183.076821,4213.33323,4206.153743,4215.384512,4214.871692,4229.743486,4198.974256,4251.281947,4215.384512,4249.230665,4203.589641,4233.33323
84,0,4230.769127,4212.82041,4183.076821,4217.948615,4221.025538,4215.384512,4218.974256,4228.205025,4190.256308,4233.84605,4215.384512,4248.717845,4201.538359,4232.307589
85,0,4215.897333,4212.82041,4182.564,4217.435794,4251.281947,4219.487076,4219.487076,4228.205025,4188.717846,4234.358871,4215.897333,4247.179383,4203.589641,4230.769127
86,0,4219.999897,4210.256307,4182.05118,4212.82041,4243.076819,4214.358871,4216.922974,4221.538358,4187.692205,4248.717845,4217.435794,4248.717845,4206.153743,4229.230666
87,0,4231.794768,4206.153743,4185.128103,4212.82041,4225.128102,4203.589641,4216.922974,4216.410153,4182.564,4245.128101,4217.435794,4246.666563,4208.205025,4230.769127
88,0,4226.153743,4204.102461,4183.589641,4212.82041,4220.512717,4202.564,4216.922974,4222.051179,4184.102462,4236.922973,4214.358871,4237.948614,4208.717846,4231.794768
89,0,4211.281948,4198.974256,4172.30759,4203.589641,4214.871692,4208.205025,4217.435794,4223.07682,4187.179385,4242.051178,4214.871692,4232.820409,4208.205025,4227.692204
90,0,4213.846051,4201.025538,4169.743488,4198.974256,4214.358871,4202.564,4216.410153,4217.435794,4187.179385,4249.743486,4215.897333,4232.307589,4212.82041,4227.692204
91,0,4225.128102,4211.794769,4177.948616,4209.230666,4215.384512,4196.922974,4213.33323,4223.58964,4191.794769,4253.333229,4216.922974,4231.794768,4215.384512,4231.794768
92,0,4231.281948,4219.999897,4186.666564,4219.487076,4204.615282,4209.743487,4215.897333,4236.922973,4202.564,4262.563998,4222.563999,4238.461435,4214.871692,4233.33323
93,0,4238.974255,4222.563999,4192.30759,4219.999897,4216.410153,4220.512717,4226.153743,4246.153742,4210.256307,4267.692203,4236.410153,4249.230665,4224.615281,4246.666563
94,0,4248.717845,4221.538358,4192.82041,4219.487076,4246.666563,4216.922974,4230.769127,4248.205024,4210.256307,4256.410152,4244.615281,4252.307588,4237.948614,4264.61528
95,0,4248.717845,4219.999897,4191.794769,4219.487076,4251.794768,4217.948615,4230.769127,4241.538358,4204.102461,4250.769127,4241.025537,4250.256306,4241.025537,4263.589639
96,0,4236.922973,4214.358871,4189.743487,4215.897333,4227.692204,4218.461435,4229.743486,4234.358871,4201.025538,4249.743486,4232.820409,4245.128101,4229.743486,4248.205024
97,0,4229.743486,4207.692205,4183.589641,4212.307589,4204.102461,4203.07682,4219.999897,4230.769127,4196.922974,4235.384512,4222.563999,4233.84605,4216.922974,4233.84605
98,0,4231.794768,4208.717846,4188.205026,4214.358871,4210.769128,4195.384513,4213.33323,4227.179384,4194.358872,4232.307589,4221.538358,4229.230666,4213.846051,4233.33323
99,0,4234.871691,4217.435794,4201.025538,4218.461435,4219.999897,4209.743487,4223.58964,4227.179384,4198.974256,4244.615281,4227.692204,4233.84605,4218.461435,4243.58964
100,0,4236.922973,4219.999897,4197.435795,4218.461435,4212.82041,4217.948615,4227.692204,4230.256307,4198.461436,4242.051178,4222.051179,4232.307589,4218.974256,4241.538358
101,0,4234.358871,4211.794769,4183.076821,4212.82041,4213.846051,4210.769128,4217.948615,4228.205025,4190.769128,4235.897332,4212.82041,4227.179384,4212.307589,4225.128102
102,0,4231.281948,4210.256307,4182.05118,4211.281948,4225.640922,4210.769128,4220.512717,4233.33323,4198.461436,4245.640922,4222.563999,4229.230666,4214.871692,4228.205025
103,0,4236.410153,4216.410153,4189.743487,4216.410153,4230.769127,4217.435794,4233.84605,4246.666563,4213.33323,4256.410152,4234.358871,4234.358871,4227.179384,4244.615281
104,0,4242.051178,4219.999897,4192.30759,4218.461435,4227.692204,4216.922974,4231.281948,4250.769127,4213.33323,4259.999896,4233.33323,4235.384512,4233.84605,4243.58964
105,0,4228.205025,4212.82041,4189.743487,4217.948615,4221.538358,4211.281948,4221.025538,4242.051178,4203.589641,4252.820409,4228.205025,4229.230666,4225.640922,4231.794768
106,0,4214.358871,4202.564,4187.179385,4213.846051,4216.410153,4210.769128,4220.512717,4233.84605,4201.025538,4241.025537,4222.051179,4218.974256,4215.897333,4222.051179
107,0,4225.640922,4202.051179,4188.205026,4207.179384,4224.615281,4211.281948,4223.58964,4234.871691,4198.461436,4242.563999,4218.461435,4218.461435,4216.410153,4218.974256
108,0,4227.179384,4197.948615,4184.102462,4200.512718,4205.640923,4204.102461,4218.461435,4230.256307,4189.230667,4237.948614,4215.384512,4215.384512,4215.384512,4216.922974
109,0,4211.794769,4189.743487,4180.512718,4200.512718,4176.922975,4197.948615,4213.33323,4219.487076,4182.564,4230.769127,4212.307589,4204.102461,4212.82041,4212.307589
110,0,4218.974256,4194.871692,4183.589641,4209.743487,4207.179384,4201.538359,4215.897333,4218.461435,4184.102462,4239.487076,4214.871692,4205.640923,4214.871692,4213.846051
111,0,4234.871691,4208.717846,4185.640923,4215.897333,4237.435794,4203.589641,4216.922974,4226.153743,4189.743487,4239.487076,4216.922974,4215.897333,4213.33323,4223.58964
112,0,4235.897332,4216.410153,4192.30759,4218.974256,4217.948615,4206.153743,4218.461435,4230.769127,4196.922974,4234.871691,4216.922974,4219.999897,4217.435794,4230.256307
113,0,4241.538358,4219.999897,4201.538359,4224.615281,4201.538359,4212.307589,4224.102461,4233.84605,4202.051179,4248.717845,4224.615281,4222.563999,4226.666563,4231.794768
114,0,4248.717845,4222.051179,4199.487077,4225.640922,4217.948615,4209.743487,4223.58964,4235.384512,4203.589641,4257.435793,4230.256307,4225.128102,4225.640922,4233.84605
115,0,4232.820409,4217.435794,4186.153744,4217.435794,4228.205025,4200.512718,4216.922974,4230.769127,4198.461436,4242.563999,4219.487076,4212.82041,4216.410153,4226.153743
116,0,4215.897333,4206.153743,4174.358872,4212.307589,4203.07682,4198.974256,4213.33323,4226.153743,4186.666564,4232.307589,4208.717846,4197.948615,4213.33323,4212.307589
117,0,4217.435794,4202.564,4167.692206,4213.846051,4184.615282,4198.974256,4214.358871,4227.692204,4187.692205,4242.051178,4211.794769,4195.384513,4213.33323,4210.769128
118,0,4224.102461,4210.256307,4168.205026,4213.33323,4211.794769,4198.461436,4214.871692,4230.256307,4199.487077,4249.230665,4216.410153,4198.461436,4213.846051,4214.871692
119,0,4225.640922,4216.410153,4175.897334,4214.358871,4242.563999,4208.717846,4217.435794,4229.230666,4197.435795,4245.128101,4216.410153,4201.025538,4215.384512,4215.384512
120,0,4230.769127,4220.512717,4183.589641,4220.512717,4224.102461,4214.871692,4218.974256,4228.717845,4190.769128,4243.076819,4219.999897,4204.615282,4218.974256,4223.58964
121,0,4236.410153,4229.230666,4185.128103,4230.769127,4206.666564,4205.128102,4216.410153,4230.256307,4195.897333,4248.717845,4221.538358,4208.205025,4224.615281,4233.33323
122,0,4235.897332,4232.307589,4182.05118,4233.33323,4228.205025,4198.974256,4213.33323,4229.230666,4202.051179,4249.743486,4222.051179,4210.256307,4227.692204,4231.281948
123,0,4241.025537,4231.794768,4185.128103,4229.743486,4241.025537,4204.615282,4215.384512,4233.33323,4203.07682,4257.435793,4230.256307,4214.871692,4230.769127,4232.307589
124,0,4245.640922,4233.84605,4185.640923,4231.281948,4229.230666,4206.153743,4218.974256,4236.410153,4203.07682,4264.10246,4233.84605,4215.384512,4232.307589,4235.384512
125,0,4229.230666,4226.666563,4174.871693,4227.692204,4218.974256,4197.948615,4214.871692,4226.153743,4197.948615,4254.871691,4219.487076,4201.538359,4223.58964,4221.025538
126,0,4211.794769,4215.384512,4164.615283,4216.922974,4213.846051,4195.897333,4208.717846,4214.871692,4188.205026,4241.025537,4204.102461,4179.999898,4208.205025,4200.512718
127,0,4216.410153,4214.358871,4158.461437,4212.82041,4212.307589,4199.999897,4211.281948,4218.974256,4186.153744,4238.974255,4202.564,4169.743488,4202.564,4198.974256
128,0,4215.384512,4214.871692,4157.435796,4213.846051,4219.999897,4203.07682,4214.871692,4221.538358,4189.230667,4239.999896,4203.07682,4171.281949,4204.102461,4200.512718
0,0,4200.512718,4210.769128,4153.846052,4211.281948,4212.82041,4197.948615,4211.281948,4213.33323,4186.666564,4233.84605,4198.461436,4167.179385,4200.512718,4193.846051
1,0,4207.692205,4212.82041,4152.307591,4212.307589,4203.07682,4198.461436,4211.281948,4218.974256,4189.230667,4236.922973,4206.153743,4164.102462,4206.666564,4197.948615
2,0,4216.410153,4219.487076,4160.512719,4218.461435,4216.922974,4210.256307,4218.461435,4232.820409,4200.512718,4247.179383,4215.897333,4170.769129,4213.846051,4205.128102
3,0,4206.153743,4221.025538,4169.743488,4219.487076,4241.025537,4211.794769,4220.512717,4233.84605,4203.07682,4247.692204,4206.666564,4176.922975,4208.205025,4198.461436
4,0,4211.281948,4218.461435,4171.281949,4217.948615,4240.512717,4201.538359,4217.435794,4230.769127,4198.461436,4245.128101,4206.153743,4182.05118,4210.256307,4205.640923
5,0,4236.410153,4219.999897,4179.999898,4219.487076,4206.666564,4197.948615,4216.410153,4235.384512,4200.512718,4249.230665,4224.615281,4195.384513,4231.794768,4230.769127
6,0,4235.897332,4221.025538,4186.666564,4221.538358,4196.410154,4200.512718,4216.410153,4236.922973,4202.564,4249.743486,4227.692204,4199.999897,4237.435794,4237.948614
7,0,4217.435794,4213.846051,4174.358872,4215.897333,4224.615281,4199.487077,4214.358871,4233.84605,4202.051179,4248.717845,4216.410153,4189.743487,4222.051179,4223.07682
8,0,4211.794769,4202.564,4164.102462,4205.128102,4234.871691,4197.435795,4213.33323,4234.358871,4201.538359,4247.692204,4212.82041,4178.461436,4214.358871,4212.307589
9,0,4210.769128,4198.461436,4165.640924,4203.589641,4217.948615,4198.461436,4215.897333,4232.820409,4196.922974,4232.307589,4213.33323,4174.871693,4213.846051,4209.230666
10,0,4214.871692,4208.205025,4168.717847,4212.307589,4212.307589,4200.512718,4219.487076,4232.820409,4197.435795,4225.640922,4215.384512,4179.999898,4222.563999,4214.358871
11,0,4223.58964,4217.948615,4172.30759,4216.922974,4217.435794,4201.025538,4220.512717,4241.538358,4204.102461,4244.10246,4217.948615,4189.743487,4229.230666,4223.07682
12,0,4220.512717,4217.948615,4175.897334,4214.358871,4223.58964,4200.512718,4218.974256,4243.58964,4201.025538,4249.230665,4212.307589,4185.128103,4221.538358,4219.487076
13,0,4215.384512,4218.461435,4172.820411,4216.410153,4234.871691,4202.051179,4220.512717,4234.358871,4194.871692,4232.820409,4212.307589,4173.846052,4215.384512,4212.82041
14,0,4218.461435,4219.487076,4170.769129,4218.974256,4226.666563,4202.051179,4220.512717,4231.794768,4196.922974,4227.179384,4214.871692,4174.871693,4218.974256,4216.410153
15,0,4216.922974,4217.948615,4175.897334,4217.435794,4212.307589,4197.435795,4215.384512,4232.307589,4194.358872,4232.307589,4207.692205,4176.922975,4217.435794,4216.410153
16,0,4214.871692,4219.487076,4180.512718,4218.974256,4207.179384,4194.871692,4213.846051,4223.07682,4182.05118,4226.666563,4200.512718,4171.281949,4210.256307,4206.666564
17,0,4218.974256,4217.948615,4176.922975,4218.974256,4190.256308,4195.384513,4214.871692,4213.33323,4172.820411,4208.717846,4195.384513,4162.564001,4203.07682,4199.999897
18,0,4211.281948,4208.205025,4169.230667,4213.33323,4192.82041,4195.384513,4214.871692,4217.948615,4175.897334,4199.487077,4191.281949,4154.358873,4197.435795,4198.461436
19,0,4200.512718,4209.230666,4166.666565,4210.256307,4231.794768,4198.974256,4216.922974,4228.717845,4184.615282,4214.871692,4196.922974,4151.28195,4207.179384,4198.974256
20,0,4204.615282,4214.358871,4168.717847,4215.384512,4243.076819,4203.07682,4221.538358,4233.33323,4189.230667,4231.281948,4204.615282,4156.410155,4215.897333,4201.025538
21,0,4199.999897,4206.153743,4168.717847,4216.410153,4213.846051,4201.025538,4220.512717,4232.820409,4187.179385,4221.538358,4195.384513,4154.358873,4206.666564,4194.871692
22,0,4188.205026,4203.07682,4167.179385,4211.794769,4209.743487,4199.487077,4216.410153,4232.307589,4186.153744,4209.743487,4187.179385,4139.487078,4196.410154,4182.564
23,0,4195.897333,4215.384512,4167.179385,4214.358871,4233.33323,4202.564,4224.102461,4236.410153,4194.871692,4224.102461,4197.948615,4141.02554,4203.07682,4187.692205
24,0,4207.179384,4219.999897,4169.230667,4221.025538,4235.897332,4203.589641,4231.794768,4238.974255,4198.974256,4232.820409,4205.128102,4154.358873,4213.33323,4200.512718
25,0,4202.051179,4216.410153,4170.256308,4218.974256,4225.128102,4201.025538,4223.58964,4237.948614,4191.281949,4224.102461,4201.025538,4155.897334,4213.846051,4202.564
26,0,4201.025538,4214.871692,4171.281949,4217.435794,4223.07682,4197.948615,4213.33323,4230.769127,4184.615282,4217.435794,4196.410154,4147.179386,4208.717846,4198.461436
27,0,4198.461436,4206.666564,4170.769129,4213.846051,4207.179384,4188.205026,4214.871692,4220.512717,4181.025539,4212.307589,4191.794769,4139.999899,4201.538359,4190.256308
28,0,4187.179385,4196.922974,4166.153744,4203.07682,4187.179385,4184.615282,4215.384512,4215.897333,4172.820411,4204.615282,4184.615282,4138.974258,4197.435795,4182.05118
29,0,4189.230667,4202.051179,4165.640924,4204.102461,4205.640923,4194.358872,4212.82041,4217.948615,4167.179385,4198.974256,4182.564,4140.512719,4197.435795,4186.153744
30,0,4201.025538,4211.281948,4168.205026,4215.897333,4229.230666,4199.999897,4216.410153,4217.948615,4170.256308,4198.461436,4184.102462,4139.999899,4197.948615,4192.30759
31,0,4202.051179,4211.281948,4169.743488,4217.948615,4223.58964,4197.948615,4219.999897,4217.948615,4171.79477,4204.615282,4184.102462,4140.512719,4199.999897,4190.256308
32,0,4200.512718,4211.794769,4176.410154,4213.846051,4219.487076,4197.948615,4218.461435,4224.615281,4171.79477,4214.358871,4186.666564,4149.230668,4201.025538,4188.717846
33,0,4202.051179,4209.230666,4181.538359,4215.384512,4223.58964,4192.82041,4215.384512,4231.794768,4174.871693,4215.897333,4187.179385,4154.871693,4199.999897,4188.205026
34,0,4199.999897,4206.666564,4175.384513,4216.410153,4216.922974,4182.564,4214.358871,4229.230666,4174.358872,4205.640923,4184.615282,4147.692206,4198.461436,4185.128103
35,0,4196.410154,4212.307589,4169.743488,4217.435794,4213.33323,4183.589641,4215.897333,4226.666563,4171.79477,4201.538359,4185.640923,4141.53836,4201.538359,4187.179385
36,0,4193.333231,4212.307589,4172.30759,4217.948615,4210.769128,4188.205026,4217.948615,4231.281948,4171.79477,4207.692205,4184.615282,4139.999899,4202.051179,4185.640923
37,0,4183.076821,4201.025538,4169.743488,4213.846051,4193.333231,4183.589641,4217.435794,4229.743486,4170.769129,4204.102461,4173.846052,4137.435796,4190.769128,4173.846052
38,0,4180.512718,4197.948615,4168.205026,4212.82041,4198.461436,4182.564,4215.897333,4219.487076,4168.205026,4195.384513,4167.179385,4135.384514,4183.076821,4170.769129
39,0,4194.871692,4207.179384,4175.384513,4215.384512,4228.205025,4186.153744,4217.435794,4219.999897,4171.79477,4203.07682,4172.820411,4137.948617,4191.794769,4184.102462
40,0,4202.564,4213.846051,4177.435795,4216.410153,4238.461435,4186.153744,4218.461435,4231.281948,4176.410154,4210.256307,4174.871693,4139.487078,4198.461436,4185.640923
41,0,4189.230667,4214.871692,4168.717847,4215.384512,4224.102461,4187.179385,4215.897333,4229.743486,4172.820411,4198.974256,4169.230667,4131.28195,4189.743487,4172.820411
42,0,4180.512718,4206.666564,4162.564001,4215.897333,4212.307589,4189.230667,4214.358871,4219.999897,4168.717847,4196.922974,4166.153744,4121.02554,4182.564,4167.692206
43,0,4185.128103,4199.999897,4164.102462,4213.846051,4212.82041,4186.153744,4214.871692,4224.102461,4169.230667,4199.487077,4166.153744,4119.487079,4184.615282,4168.717847
44,0,4183.589641,4202.564,4166.153744,4211.794769,4217.435794,4184.615282,4214.871692,4231.281948,4170.769129,4199.487077,4166.666565,4123.076822,4185.640923,4167.179385
45,0,4182.564,4204.615282,4167.692206,4214.358871,4214.871692,4186.666564,4216.922974,4230.769127,4170.256308,4209.230666,4168.717847,4123.076822,4186.666564,4171.79477
46,0,4184.615282,4201.538359,4167.692206,4210.769128,4202.051179,4187.179385,4218.974256,4229.743486,4170.256308,4205.640923,4169.743488,4122.051181,4189.230667,4174.871693
47,0,4173.333231,4199.487077,4166.666565,4205.128102,4203.589641,4185.128103,4217.435794,4227.179384,4167.179385,4189.230667,4167.179385,4122.051181,4186.153744,4162.564001
48,0,4165.128103,4198.461436,4169.743488,4210.256307,4218.461435,4186.153744,4216.410153,4221.025538,4159.487078,4194.871692,4163.589642,4121.538361,4183.589641,4155.897334
49,0,4177.948616,4200.512718,4178.461436,4218.461435,4217.948615,4185.128103,4217.435794,4217.948615,4154.871693,4204.615282,4166.153744,4124.102463,4186.153744,4166.153744
50,0,4190.256308,4205.128102,4185.640923,4218.461435,4213.33323,4182.564,4215.897333,4214.358871,4152.307591,4192.82041,4167.179385,4126.666566,4188.205026,4173.333231
51,0,4187.692205,4203.589641,4185.128103,4216.922974,4227.692204,4182.564,4213.846051,4212.82041,4151.28195,4187.692205,4161.025539,4127.179386,4186.153744,4168.205026
52,0,4185.128103,4199.487077,4185.128103,4218.461435,4230.769127,4184.102462,4215.897333,4218.461435,4153.846052,4199.487077,4156.922975,4127.179386,4186.666564,4164.102462
53,0,4181.025539,4202.051179,4185.640923,4218.461435,4203.589641,4182.564,4215.897333,4221.025538,4156.922975,4204.615282,4156.410155,4125.640925,4185.640923,4160.512719
54,0,4168.717847,4204.102461,4181.025539,4217.435794,4197.948615,4180.512718,4213.33323,4223.58964,4154.358873,4196.410154,4153.333232,4122.564002,4181.538359,4154.358873
55,0,4169.230667,4203.07682,4177.435795,4217.435794,4233.84605,4185.640923,4217.435794,4226.153743,4151.79477,4185.640923,4150.769129,4120.51272,4178.974257,4152.820411
56,0,4182.564,4202.564,4181.538359,4216.410153,4235.897332,4185.128103,4220.512717,4222.563999,4153.333232,4190.256308,4150.769129,4122.564002,4176.410154,4154.871693
57,0,4178.974257,4197.948615,4184.102462,4216.410153,4198.974256,4173.846052,4216.410153,4217.948615,4151.79477,4196.410154,4151.28195,4123.589643,4173.333231,4153.333232
58,0,4166.666565,4193.846051,4180.512718,4214.871692,4206.666564,4175.384513,4213.846051,4218.461435,4145.128104,4191.281949,4151.28195,4124.102463,4171.281949,4149.230668
59,0,4170.256308,4198.461436,4181.538359,4215.384512,4226.666563,4179.487077,4214.871692,4217.435794,4137.948617,4188.717846,4151.28195,4129.743489,4167.692206,4149.230668
60,0,4184.102462,4204.102461,4190.769128,4223.58964,4215.384512,4172.30759,4215.384512,4215.384512,4138.461437,4196.922974,4153.846052,4139.487078,4173.846052,4161.025539
61,0,4190.769128,4204.615282,4193.333231,4226.666563,4215.897333,4167.692206,4212.307589,4213.33323,4139.999899,4193.846051,4153.846052,4143.589642,4184.615282,4168.717847
62,0,4182.05118,4199.999897,4184.102462,4218.461435,4214.358871,4168.205026,4205.640923,4206.666564,4135.384514,4179.487077,4146.153745,4137.948617,4177.948616,4157.435796
63,0,4178.974257,4199.487077,4178.974257,4215.897333,4209.230666,4168.717847,4205.128102,4210.769128,4136.922976,4186.153744,4144.615283,4134.871694,4171.281949,4150.769129
64,0,4191.794769,4205.128102,4186.153744,4222.563999,4235.384512,4175.384513,4214.871692,4224.615281,4146.153745,4199.487077,4150.769129,4136.922976,4180.512718,4158.461437
65,0,4195.897333,4203.589641,4186.153744,4218.974256,4243.58964,4178.974257,4217.435794,4224.102461,4145.128104,4188.717846,4144.615283,4135.897335,4177.948616,4158.461437
66,0,4183.589641,4195.897333,4177.435795,4212.307589,4218.461435,4172.30759,4211.281948,4214.871692,4135.897335,4174.871693,4135.384514,4134.358873,4164.102462,4150.256309
67,0,4183.076821,4197.435795,4181.025539,4216.410153,4216.410153,4172.820411,4214.871692,4215.384512,4133.333232,4184.615282,4144.102463,4137.435796,4171.79477,4155.897334
68,0,4193.846051,4203.07682,4187.179385,4219.999897,4209.230666,4173.333231,4215.897333,4216.922974,4131.28195,4189.230667,4153.333232,4138.974258,4185.128103,4167.692206
69,0,4194.358872,4203.589641,4185.640923,4221.025538,4193.333231,4162.564001,4206.666564,4212.307589,4124.615284,4178.974257,4146.666565,4139.999899,4183.589641,4169.230667
70,0,4193.333231,4210.769128,4193.333231,4228.205025,4216.922974,4158.461437,4207.179384,4213.33323,4125.128104,4185.128103,4141.53836,4149.230668,4182.05118,4170.769129
71,0,4201.538359,4219.999897,4200.512718,4232.820409,4224.615281,4167.179385,4214.871692,4216.922974,4124.102463,4188.717846,4144.615283,4152.820411,4184.102462,4174.871693
72,0,4197.948615,4210.769128,4191.281949,4228.205025,4202.564,4169.230667,4212.307589,4210.769128,4113.846053,4173.333231,4141.02554,4142.564001,4176.410154,4167.692206
73,0,4183.589641,4199.487077,4182.564,4224.615281,4211.281948,4164.615283,4209.743487,4208.717846,4112.820412,4170.256308,4135.384514,4137.948617,4169.230667,4155.897334
74,0,4186.153744,4207.692205,4187.692205,4230.256307,4241.025537,4168.205026,4215.897333,4217.435794,4123.589643,4187.692205,4137.948617,4143.589642,4175.897334,4155.384514
75,0,4199.487077,4213.846051,4190.256308,4234.358871,4239.487076,4174.358872,4218.974256,4220.512717,4129.230668,4193.846051,4142.051181,4146.153745,4184.615282,4161.53836
76,0,4193.333231,4203.589641,4186.153744,4228.205025,4209.230666,4169.230667,4216.922974,4219.999897,4126.153745,4184.615282,4141.53836,4144.615283,4185.128103,4161.025539
77,0,4176.922975,4197.948615,4181.025539,4221.538358,4198.974256,4168.717847,4217.435794,4227.692204,4124.615284,4184.615282,4139.487078,4142.051181,4182.05118,4156.410155
78,0,4179.999898,4202.564,4186.666564,4229.230666,4216.922974,4173.333231,4221.025538,4231.281948,4125.640925,4186.666564,4139.487078,4146.666565,4185.640923,4157.435796
79,0,4189.743487,4203.589641,4195.897333,4234.871691,4220.512717,4169.743488,4222.051179,4224.615281,4123.589643,4186.666564,4139.999899,4152.820411,4186.666564,4162.564001
80,0,4183.076821,4196.410154,4191.281949,4221.025538,4210.256307,4168.717847,4218.461435,4221.538358,4118.461438,4184.615282,4138.974258,4146.153745,4175.897334,4156.922975
81,0,4180.512718,4197.948615,4188.205026,4216.922974,4225.128102,4173.333231,4223.07682,4229.743486,4121.538361,4176.410154,4140.512719,4143.076822,4175.384513,4153.846052
82,0,4195.897333,4210.769128,4197.948615,4231.281948,4235.384512,4172.30759,4230.256307,4231.281948,4126.666566,4171.79477,4141.02554,4151.28195,4182.05118,4165.640924
83,0,4206.153743,4219.487076,4202.564,4236.922973,4230.769127,4166.666565,4222.563999,4218.974256,4116.410156,4170.769129,4136.410155,4152.307591,4174.871693,4172.820411
84,0,4202.051179,4218.461435,4201.538359,4231.794768,4234.871691,4166.666565,4213.846051,4212.82041,4107.692207,4177.948616,4136.410155,4150.256309,4168.205026,4172.30759
85,0,4200.512718,4215.897333,4202.564,4232.820409,4216.922974,4168.717847,4219.999897,4224.102461,4117.435797,4191.281949,4142.051181,4151.79477,4173.846052,4168.717847
86,0,4196.922974,4210.769128,4194.871692,4235.897332,4203.07682,4169.230667,4226.666563,4230.769127,4122.051181,4193.333231,4139.487078,4146.153745,4172.30759,4158.461437
87,0,4186.666564,4196.410154,4186.153744,4228.205025,4227.692204,4168.717847,4219.999897,4218.974256,4108.717848,4184.615282,4133.333232,4138.461437,4165.128103,4152.307591
88,0,4184.615282,4189.230667,4187.179385,4218.974256,4233.84605,4167.179385,4215.897333,4218.461435,4103.589643,4187.692205,4135.897335,4140.512719,4168.717847,4153.846052
89,0,4183.076821,4191.281949,4186.153744,4222.051179,4221.025538,4169.743488,4223.58964,4229.743486,4113.846053,4206.153743,4137.435796,4144.102463,4167.179385,4149.743488
90,0,4182.564,4199.487077,4190.256308,4232.820409,4233.33323,4177.948616,4232.820409,4236.922973,4124.102463,4226.666563,4136.410155,4151.79477,4166.153744,4153.846052
91,0,4193.333231,4209.743487,4201.025538,4236.410153,4239.487076,4183.076821,4233.33323,4243.58964,4129.230668,4238.974255,4146.666565,4165.640924,4177.948616,4169.743488
92,0,4203.589641,4209.230666,4203.589641,4232.307589,4233.84605,4182.564,4230.256307,4244.10246,4124.102463,4234.358871,4151.79477,4171.79477,4181.025539,4172.30759
93,0,4202.051179,4206.153743,4202.051179,4232.307589,4251.794768,4183.589641,4230.769127,4236.410153,4116.410156,4235.384512,4144.615283,4170.256308,4172.30759,4167.179385
94,0,4199.487077,4213.846051,4206.666564,4234.871691,4246.153742,4187.692205,4231.281948,4233.33323,4112.820412,4248.717845,4145.128104,4170.769129,4171.79477,4173.333231
95,0,4203.07682,4216.922974,4206.153743,4235.384512,4215.384512,4181.025539,4230.256307,4235.897332,4110.76913,4252.820409,4147.692206,4170.769129,4175.897334,4176.922975
96,0,4199.999897,4205.128102,4197.435795,4232.820409,4215.897333,4171.281949,4229.743486,4232.307589,4105.128105,4242.051178,4138.461437,4162.564001,4169.743488,4164.615283
97,0,4191.281949,4201.025538,4195.384513,4230.256307,4236.922973,4175.897334,4231.281948,4230.256307,4101.538361,4235.897332,4133.333232,4154.358873,4168.205026,4153.846052
98,0,4183.589641,4203.07682,4198.974256,4229.230666,4246.153742,4184.615282,4233.33323,4232.820409,4101.538361,4244.615281,4136.922976,4153.333232,4169.230667,4153.846052
99,0,4181.025539,4198.974256,4199.999897,4228.205025,4247.179383,4183.076821,4232.820409,4230.256307,4095.897336,4246.666563,4135.897335,4153.333232,4157.948616,4153.333232
100,0,4192.30759,4206.666564,4199.999897,4229.230666,4251.794768,4182.05118,4231.794768,4229.743486,4093.333233,4237.435794,4135.897335,4152.820411,4156.922975,4151.79477
101,0,4202.051179,4213.33323,4201.538359,4231.281948,4247.179383,4184.102462,4233.33323,4232.820409,4096.922977,4240.512717,4134.871694,4153.333232,4166.153744,4154.358873
102,0,4191.281949,4203.589641,4199.999897,4230.256307,4231.281948,4177.948616,4232.820409,4233.33323,4096.922977,4253.84605,4129.230668,4147.692206,4162.05118,4151.79477
103,0,4179.487077,4199.999897,4196.922974,4230.256307,4227.692204,4175.384513,4230.769127,4231.281948,4095.897336,4249.743486,4130.256309,4141.53836,4154.871693,4148.205027
104,0,4199.487077,4215.897333,4203.07682,4237.948614,4243.076819,4184.615282,4233.33323,4236.410153,4104.102464,4242.563999,4141.53836,4150.769129,4166.153744,4164.615283
105,0,4231.794768,4233.84605,4219.487076,4249.743486,4259.487075,4189.743487,4236.922973,4244.615281,4114.358874,4259.487075,4155.897334,4171.79477,4187.179385,4189.743487
106,0,4235.897332,4235.384512,4223.58964,4252.820409,4256.922973,4186.153744,4235.897332,4245.640922,4109.743489,4268.717844,4159.487078,4175.897334,4189.230667,4189.743487
107,0,4214.871692,4224.102461,4209.230666,4244.10246,4235.897332,4183.589641,4234.871691,4242.563999,4102.564002,4254.871691,4149.230668,4157.435796,4176.922975,4171.79477
108,0,4202.051179,4213.33323,4197.948615,4234.871691,4228.717845,4186.666564,4235.897332,4239.999896,4102.051182,4255.384511,4141.02554,4145.640924,4170.256308,4168.205026
109,0,4197.948615,4206.666564,4198.461436,4231.281948,4241.025537,4185.128103,4232.307589,4236.410153,4099.9999,4266.666562,4141.02554,4149.230668,4170.769129,4167.179385
110,0,4192.30759,4201.538359,4198.461436,4230.769127,4234.358871,4180.512718,4228.205025,4231.281948,4091.794772,4254.35887,4145.128104,4150.769129,4167.179385,4158.974257
111,0,4195.384513,4202.564,4199.999897,4231.794768,4228.717845,4180.512718,4230.256307,4230.769127,4092.307592,4242.563999,4149.743488,4150.256309,4167.692206,4163.076821
112,0,4203.589641,4205.640923,4203.07682,4228.717845,4250.256306,4185.128103,4233.33323,4232.820409,4095.897336,4247.179383,4146.666565,4154.358873,4168.717847,4170.256308
113,0,4198.461436,4199.999897,4199.999897,4225.128102,4257.435793,4185.128103,4232.820409,4226.666563,4084.102464,4244.615281,4137.435796,4148.717847,4157.435796,4158.461437
114,0,4191.794769,4197.435795,4197.948615,4226.666563,4241.025537,4181.025539,4229.743486,4221.538358,4079.9999,4242.051178,4136.410155,4139.999899,4155.897334,4148.205027
115,0,4198.974256,4208.205025,4205.640923,4231.794768,4237.435794,4180.512718,4230.256307,4224.615281,4091.794772,4248.205024,4145.128104,4146.153745,4168.717847,4158.974257
116,0,4207.692205,4216.922974,4213.846051,4237.435794,4231.281948,4184.102462,4231.281948,4225.640922,4093.846054,4248.205024,4151.79477,4155.384514,4172.30759,4171.281949
117,0,4213.846051,4218.974256,4216.410153,4243.076819,4222.563999,4185.128103,4229.230666,4224.615281,4088.717849,4247.692204,4153.846052,4157.435796,4174.358872,4177.435795
118,0,4219.999897,4228.205025,4217.435794,4247.692204,4243.58964,4186.153744,4230.256307,4230.769127,4092.307592,4250.256306,4155.897334,4158.974257,4183.589641,4183.076821
119,0,4223.07682,4238.461435,4217.948615,4249.743486,4270.256306,4194.871692,4234.871691,4235.897332,4097.435797,4251.794768,4157.948616,4157.948616,4188.205026,4188.205026
120,0,4219.487076,4229.230666,4215.384512,4247.179383,4268.717844,4199.999897,4237.948614,4237.435794,4097.948618,4251.281947,4156.922975,4154.358873,4183.076821,4186.153744
121,0,4211.281948,4212.82041,4205.640923,4237.948614,4246.666563,4191.281949,4237.435794,4239.999896,4095.897336,4252.307588,4153.333232,4150.769129,4175.897334,4175.897334
122,0,4202.564,4210.769128,4202.564,4231.281948,4232.307589,4183.589641,4235.384512,4238.461435,4095.384515,4254.35887,4154.358873,4146.666565,4172.30759,4170.256308
123,0,4195.897333,4209.230666,4207.179384,4232.307589,4230.769127,4184.102462,4234.358871,4233.33323,4094.871695,4244.615281,4154.358873,4141.02554,4170.256308,4168.717847
124,0,4194.871692,4199.999897,4206.153743,4230.769127,4243.58964,4187.179385,4232.820409,4228.717845,4086.153746,4232.820409,4147.692206,4137.948617,4166.666565,4165.640924
125,0,4195.897333,4195.897333,4201.538359,4226.153743,4255.384511,4188.717846,4232.820409,4228.717845,4083.589644,4239.487076,4145.128104,4141.53836,4165.640924,4167.179385
126,0,4190.256308,4196.410154,4202.051179,4225.640922,4229.743486,4186.153744,4234.358871,4230.256307,4087.692208,4242.563999,4150.769129,4142.564001,4164.102462,4167.179385
127,0,4189.230667,4192.30759,4205.128102,4226.153743,4203.589641,4181.025539,4232.820409,4226.153743,4082.051182,4228.717845,4151.79477,4141.53836,4158.461437,4159.999898
128,0,4196.922974,4195.384513,4212.82041,4227.692204,4233.84605,4181.025539,4229.230666,4225.640922,4079.9999,4230.769127,4150.769129,4149.230668,4162.564001,4167.179385
0,0,4204.615282,4206.153743,4221.538358,4232.307589,4273.846049,4187.179385,4231.281948,4232.820409,4092.820413,4254.35887,4161.025539,4159.487078,4180.512718,4188.205026
1,0,4202.051179,4203.589641,4219.999897,4233.84605,4251.281947,4189.230667,4233.84605,4233.84605,4095.897336,4259.999896,4167.692206,4155.897334,4183.076821,4187.179385
2,0,4202.051179,4202.051179,4214.871692,4232.307589,4229.230666,4187.692205,4232.307589,4230.256307,4088.717849,4247.692204,4162.05118,4151.79477,4174.358872,4172.30759
3,0,4208.205025,4210.769128,4216.410153,4234.358871,4249.230665,4188.717846,4231.281948,4232.820409,4090.25631,4245.640922,4156.410155,4152.820411,4174.358872,4172.30759
4,0,4203.589641,4207.179384,4215.897333,4235.897332,4240.512717,4188.205026,4232.820409,4233.84605,4091.281951,4250.769127,4153.846052,4144.102463,4168.717847,4171.281949
5,0,4196.922974,4198.461436,4214.871692,4233.33323,4219.487076,4184.102462,4232.307589,4230.256307,4089.74349,4248.717845,4153.846052,4137.435796,4166.153744,4166.153744
6,0,4195.384513,4196.410154,4212.82041,4229.230666,4246.666563,4185.640923,4231.794768,4232.307589,4087.692208,4245.128101,4156.410155,4141.02554,4180.512718,4171.281949
7,0,4189.743487,4189.743487,4208.205025,4221.538358,4262.051178,4189.230667,4232.307589,4230.256307,4085.128105,4244.10246,4154.871693,4139.487078,4183.076821,4173.333231
8,0,4185.128103,4179.487077,4207.179384,4218.974256,4223.58964,4186.153744,4231.794768,4219.999897,4077.948618,4238.974255,4149.743488,4133.846053,4172.820411,4167.692206
9,0,4195.384513,4182.564,4213.33323,4227.179384,4213.33323,4185.640923,4232.307589,4221.538358,4074.358875,4242.051178,4154.871693,4139.999899,4179.999898,4173.846052
10,0,4205.640923,4189.230667,4215.897333,4233.33323,4246.666563,4188.717846,4234.358871,4231.794768,4084.615285,4250.256306,4163.076821,4148.717847,4190.769128,4185.128103
11,0,4202.051179,4185.128103,4213.33323,4229.230666,4243.58964,4185.640923,4233.84605,4231.794768,4088.717849,4245.640922,4157.435796,4142.051181,4183.076821,4181.538359
12,0,4199.487077,4184.615282,4214.871692,4227.692204,4225.640922,4187.692205,4232.820409,4229.230666,4081.025541,4243.58964,4153.333232,4142.564001,4182.564,4181.025539
13,0,4202.051179,4189.230667,4219.999897,4230.256307,4237.435794,4193.846051,4231.794768,4230.769127,4080.512721,4254.35887,4163.076821,4154.358873,4191.794769,4188.717846
14,0,4205.128102,4186.153744,4222.563999,4229.230666,4242.563999,4188.205026,4226.666563,4222.051179,4085.640926,4257.435793,4167.692206,4154.358873,4192.30759,4185.640923
15,0,4198.974256,4172.820411,4213.846051,4221.538358,4224.615281,4181.025539,4222.051179,4209.230666,4077.435798,4243.58964,4155.897334,4137.948617,4183.589641,4171.79477
16,0,4187.179385,4168.717847,4204.615282,4216.922974,4225.640922,4186.666564,4226.666563,4212.82041,4073.333234,4233.33323,4148.205027,4127.179386,4179.487077,4167.179385
17,0,4186.153744,4177.435795,4208.205025,4219.487076,4233.84605,4188.205026,4230.769127,4220.512717,4080.512721,4234.358871,4151.79477,4125.640925,4184.615282,4170.769129
18,0,4193.846051,4182.564,4209.743487,4219.487076,4232.307589,4183.589641,4228.205025,4217.948615,4078.461439,4236.922973,4150.769129,4124.102463,4182.564,4169.743488
19,0,4199.999897,4183.076821,4207.692205,4221.538358,4232.307589,4188.717846,4228.717845,4214.358871,4073.333234,4233.84605,4143.076822,4124.102463,4173.846052,4167.692206
20,0,4192.30759,4184.102462,4210.256307,4229.230666,4220.512717,4191.281949,4231.281948,4214.358871,4073.333234,4229.230666,4142.564001,4122.564002,4171.281949,4169.743488
21,0,4184.615282,4183.076821,4215.384512,4230.769127,4221.025538,4188.717846,4230.256307,4214.358871,4072.820413,4231.281948,4148.717847,4123.589643,4175.384513,4168.205026
22,0,4195.897333,4185.128103,4216.922974,4230.256307,4250.256306,4194.871692,4230.256307,4224.615281,4082.564003,4237.435794,4154.358873,4127.692207,4184.102462,4168.717847
23,0,4202.564,4186.153744,4215.384512,4232.307589,4257.435793,4198.461436,4233.33323,4231.794768,4093.846054,4238.461435,4150.256309,4126.153745,4186.153744,4171.281949
24,0,4190.256308,4184.615282,4211.281948,4231.281948,4230.769127,4193.846051,4230.769127,4221.025538,4086.666567,4228.717845,4145.128104,4121.02554,4177.948616,4164.615283
25,0,4185.640923,4184.615282,4212.307589,4229.230666,4226.153743,4196.410154,4230.256307,4221.025538,4079.9999,4228.717845,4147.179386,4121.02554,4176.410154,4161.025539
26,0,4191.794769,4187.179385,4216.410153,4231.794768,4245.640922,4204.102461,4236.922973,4235.897332,4092.820413,4242.563999,4152.307591,4124.102463,4187.179385,4169.743488
27,0,4189.230667,4186.153744,4209.230666,4228.717845,4246.666563,4203.07682,4236.410153,4234.358871,4098.461438,4242.051178,4153.333232,4123.589643,4189.230667,4175.384513
28,0,4185.640923,4184.615282,4199.487077,4219.999897,4224.102461,4198.974256,4229.230666,4224.615281,4090.769131,4230.256307,4149.230668,4122.564002,4183.076821,4170.769129
29,0,4188.205026,4187.692205,4202.051179,4222.051179,4211.794769,4198.974256,4229.230666,4226.666563,4089.230669,4228.717845,4145.128104,4123.589643,4182.05118,4170.256308
30,0,4190.769128,4190.256308,4209.743487,4232.820409,4237.435794,4201.538359,4239.999896,4229.743486,4091.281951,4231.794768,4146.153745,4123.589643,4183.589641,4172.30759
31,0,4196.410154,4194.871692,4216.922974,4236.922973,4253.333229,4207.179384,4246.153742,4230.256307,4092.820413,4229.230666,4150.769129,4124.102463,4183.589641,4172.820411
32,0,4198.461436,4199.999897,4214.871692,4234.871691,4238.461435,4208.205025,4243.076819,4232.820409,4094.358874,4234.358871,4150.769129,4123.589643,4184.102462,4172.30759
33,0,4194.871692,4198.461436,4205.128102,4232.307589,4236.922973,4203.589641,4239.487076,4232.820409,4093.846054,4235.897332,4150.769129,4122.564002,4184.102462,4169.230667
34,0,4198.461436,4196.410154,4201.025538,4231.281948,4254.871691,4206.153743,4241.538358,4232.307589,4094.871695,4222.563999,4152.307591,4124.102463,4186.153744,4170.256308
35,0,4201.025538,4201.025538,4202.564,4231.794768,4257.435793,4212.82041,4241.538358,4231.794768,4095.384515,4223.58964,4147.179386,4123.589643,4188.717846,4172.820411
36,0,4190.256308,4194.871692,4197.435795,4231.281948,4230.256307,4205.128102,4233.84605,4226.153743,4089.74349,4233.33323,4142.564001,4113.846053,4180.512718,4166.153744
37,0,4181.025539,4187.692205,4193.846051,4230.769127,4211.794769,4196.922974,4230.769127,4223.07682,4084.102464,4223.07682,4147.692206,4111.281951,4173.846052,4160.512719
38,0,4186.153744,4195.897333,4199.999897,4234.871691,4236.410153,4208.205025,4237.948614,4229.230666,4089.230669,4214.358871,4153.333232,4120.51272,4182.05118,4166.666565
39,0,4191.281949,4194.871692,4203.589641,4231.794768,4266.666562,4219.487076,4246.153742,4234.358871,4096.410156,4230.769127,4151.28195,4122.564002,4187.179385,4168.205026
40,0,4196.410154,4191.281949,4201.025538,4233.33323,4253.333229,4215.897333,4242.563999,4232.307589,4093.846054,4238.461435,4152.307591,4120.51272,4183.589641,4164.615283
41,0,4208.717846,4208.205025,4199.999897,4243.58964,4239.999896,4211.794769,4235.384512,4229.230666,4090.769131,4225.640922,4155.897334,4123.076822,4184.615282,4174.358872
42,0,4219.487076,4221.025538,4202.051179,4246.666563,4249.743486,4215.897333,4233.84605,4227.692204,4092.820413,4225.128102,4154.358873,4123.589643,4187.692205,4184.615282
43,0,4219.999897,4217.435794,4208.717846,4247.692204,4246.666563,4217.435794,4234.358871,4228.205025,4092.820413,4234.358871,4153.333232,4128.205027,4184.615282,4181.538359
44,0,4215.897333,4224.102461,4216.922974,4257.948614,4245.640922,4215.384512,4239.999896,4232.820409,4097.948618,4233.84605,4155.897334,4138.974258,4184.102462,4182.05118
45,0,4223.07682,4231.281948,4218.974256,4261.538357,4248.205024,4215.897333,4241.538358,4232.820409,4103.589643,4232.307589,4155.897334,4139.999899,4186.666564,4188.717846
46,0,4229.743486,4221.538358,4214.358871,4250.256306,4243.58964,4217.948615,4234.871691,4228.717845,4095.897336,4233.33323,4153.333232,4136.922976,4186.153744,4186.153744
47,0,4221.538358,4215.384512,4210.256307,4245.128101,4250.769127,4216.410153,4229.230666,4233.33323,4088.717849,4232.307589,4156.922975,4138.461437,4186.666564,4183.076821
48,0,4216.410153,4217.948615,4211.281948,4249.743486,4255.384511,4213.33323,4230.769127,4237.948614,4092.307592,4228.717845,4157.948616,4131.28195,4186.153744,4186.666564
49,0,4219.487076,4218.974256,4214.871692,4251.281947,4245.640922,4216.410153,4238.461435,4232.307589,4094.358874,4226.666563,4154.358873,4127.179386,4184.615282,4185.640923
50,0,4219.487076,4216.410153,4213.33323,4247.179383,4250.256306,4221.538358,4244.615281,4244.10246,4093.846054,4231.794768,4156.410155,4135.897335,4187.179385,4183.076821
51,0,4217.435794,4214.871692,4208.717846,4244.615281,4258.974255,4218.461435,4238.974255,4238.461435,4095.897336,4233.33323,4159.999898,4135.384514,4191.794769,4188.717846
52,0,4218.461435,4212.307589,4204.615282,4244.615281,4234.871691,4212.82041,4228.717845,4154.871693,4089.230669,4222.051179,4153.333232,4123.076822,4186.153744,4186.153744
53,0,4214.871692,4211.794769,4199.487077,4242.563999,4211.281948,4211.794769,4228.717845,4069.23067,4083.076823,4213.846051,4145.640924,4118.461438,4180.512718,4171.281949
54,0,4214.358871,4217.435794,4197.948615,4243.58964,4232.307589,4215.897333,4230.769127,4062.051183,4090.25631,4221.025538,4151.28195,4121.538361,4185.640923,4172.820411
55,0,4220.512717,4219.999897,4197.948615,4247.179383,4261.025537,4217.948615,4231.281948,4077.435798,4097.948618,4228.717845,4155.897334,4122.051181,4189.230667,4186.666564
56,0,4222.051179,4220.512717,4199.487077,4249.743486,4255.897332,4219.487076,4233.84605,4066.666567,4098.974259,4230.256307,4152.307591,4122.564002,4185.640923,4186.666564
57,0,4216.410153,4217.948615,4201.025538,4245.640922,4242.051178,4217.435794,4234.358871,4063.076824,4093.846054,4225.640922,4151.28195,4119.999899,4184.102462,4183.076821
58,0,4214.871692,4207.692205,4196.922974,4235.384512,4248.717845,4215.384512,4231.281948,4069.74349,4090.25631,4223.07682,4153.333232,4107.692207,4185.128103,4182.05118
59,0,4213.33323,4199.999897,4194.358872,4230.256307,4252.307588,4222.051179,4236.410153,4077.948618,4094.871695,4230.769127,4152.820411,4097.948618,4184.615282,4173.846052
60,0,4205.128102,4202.051179,4198.974256,4232.307589,4239.999896,4227.179384,4241.538358,4090.25631,4098.974259,4234.871691,4151.79477,4089.230669,4184.102462,4169.230667
61,0,4205.128102,4203.589641,4200.512718,4234.358871,4235.384512,4221.538358,4236.410153,4092.820413,4098.461438,4229.743486,4153.333232,4074.358875,4185.128103,4177.435795
62,0,4212.82041,4202.564,4197.948615,4234.871691,4237.948614,4217.435794,4232.307589,4092.307592,4104.102464,4231.281948,4157.948616,4055.897337,4186.666564,4182.564
63,0,4205.640923,4201.025538,4195.384513,4233.33323,4226.153743,4216.922974,4232.820409,4092.820413,4106.153746,4231.281948,4155.897334,4036.922978,4184.102462,4174.871693
64,0,4195.897333,4196.922974,4195.384513,4230.769127,4222.563999,4217.948615,4231.794768,4092.820413,4098.461438,4225.640922,4148.205027,4018.46144,4179.999898,4167.179385
65,0,4206.153743,4201.538359,4198.461436,4233.33323,4240.512717,4224.102461,4232.820409,4095.384515,4095.897336,4228.205025,4150.769129,4007.179389,4183.589641,4171.79477
66,0,4211.281948,4201.538359,4193.333231,4235.384512,4239.487076,4225.128102,4232.820409,4095.384515,4095.897336,4223.07682,4152.307591,3990.256313,4181.538359,4170.256308
67,0,4196.410154,4189.743487,4182.05118,4228.205025,4221.538358,4213.846051,4227.692204,4088.717849,4087.692208,4210.769128,4140.512719,3963.589647,4172.30759,4156.922975
68,0,4195.384513,4190.256308,4182.05118,4228.205025,4236.922973,4215.897333,4228.205025,4091.794772,4087.692208,4218.974256,4143.589642,3949.743493,4177.948616,4159.999898
69,0,4209.230666,4204.102461,4188.717846,4234.871691,4259.487075,4226.153743,4233.84605,4110.25631,4099.9999,4236.922973,4164.615283,3950.256314,4197.948615,4181.025539
70,0,4208.205025,4205.640923,4190.769128,4234.871691,4246.666563,4222.563999,4233.33323,4121.538361,4108.205028,4235.384512,4172.820411,3941.538365,4204.102461,4188.717846
71,0,4206.666564,4200.512718,4192.30759,4233.84605,4234.871691,4220.512717,4233.33323,4121.02554,4110.25631,4227.692204,4170.256308,3926.15375,4202.051179,4185.128103
72,0,4215.384512,4202.564,4191.281949,4236.410153,4235.384512,4225.640922,4233.33323,4121.02554,4104.102464,4228.205025,4168.717847,3914.358879,4202.564,4186.153744
73,0,4213.846051,4201.538359,4186.153744,4234.871691,4232.820409,4221.538358,4229.230666,4122.564002,4096.922977,4224.102461,4160.512719,3904.615289,4193.846051,4179.999898
74,0,4206.153743,4198.974256,4183.076821,4231.794768,4236.410153,4217.948615,4230.256307,4124.102463,4102.564002,4217.948615,4158.974257,3893.333238,4185.640923,4173.846052
75,0,4206.666564,4200.512718,4184.102462,4234.358871,4243.58964,4222.051179,4233.84605,4125.128104,4107.179387,4217.948615,4164.102462,3883.076828,4187.692205,4176.410154
76,0,4204.615282,4198.461436,4182.564,4234.358871,4228.717845,4217.948615,4230.769127,4124.615284,4095.897336,4214.871692,4158.461437,3873.846059,4187.692205,4172.820411
77,0,4201.025538,4199.487077,4173.333231,4231.281948,4211.281948,4214.871692,4230.256307,4129.230668,4094.358874,4215.384512,4156.410155,3867.179393,4184.615282,4166.666565
78,0,4204.102461,4197.435795,4168.717847,4231.281948,4229.230666,4230.769127,4234.358871,4138.974258,4109.230669,4224.615281,4169.230667,3859.999906,4187.179385,4169.743488
79,0,4201.538359,4189.743487,4170.256308,4231.281948,4242.051178,4234.871691,4234.358871,4139.999899,4105.640925,4224.615281,4166.666565,3850.769137,4186.666564,4171.79477
80,0,4197.948615,4192.82041,4170.769129,4232.820409,4232.820409,4221.538358,4232.820409,4134.358873,4093.333233,4215.384512,4154.871693,3842.564009,4182.564,4167.179385
81,0,4201.025538,4201.538359,4173.333231,4234.358871,4232.820409,4224.102461,4234.358871,4142.564001,4100.51272,4213.33323,4160.512719,3845.640932,4187.179385,4168.205026
82,0,4198.461436,4197.435795,4179.487077,4231.794768,4237.435794,4235.384512,4234.358871,4151.79477,4104.615284,4216.410153,4166.666565,3846.153752,4188.717846,4170.256308
83,0,4202.051179,4195.384513,4180.512718,4229.743486,4238.461435,4233.84605,4234.358871,4149.743488,4100.51272,4218.974256,4167.692206,3836.922983,4185.640923,4169.743488
84,0,4214.871692,4202.051179,4181.538359,4234.871691,4244.10246,4228.205025,4234.358871,4149.230668,4103.589643,4212.307589,4165.640924,3830.769137,4186.153744,4169.230667
85,0,4213.846051,4202.564,4185.640923,4237.948614,4253.333229,4229.230666,4232.820409,4151.79477,4102.564002,4205.640923,4156.410155,3832.307599,4185.640923,4170.256308
86,0,4206.666564,4199.999897,4181.538359,4235.384512,4246.153742,4232.307589,4232.820409,4152.307591,4097.948618,4214.871692,4157.435796,3827.692214,4183.076821,4169.230667
87,0,4213.846051,4202.051179,4177.435795,4234.871691,4229.743486,4233.33323,4235.384512,4153.333232,4104.615284,4228.717845,4167.179385,3821.538368,4186.153744,4171.79477
88,0,4217.435794,4203.589641,4181.025539,4237.948614,4231.281948,4231.794768,4236.922973,4155.897334,4107.179387,4230.769127,4162.05118,3819.999907,4186.153744,4173.333231
89,0,4204.102461,4201.025538,4179.487077,4236.410153,4251.281947,4231.794768,4234.871691,4155.897334,4094.871695,4227.179384,4150.256309,3817.948625,4174.358872,4161.53836
90,0,4200.512718,4200.512718,4170.256308,4233.84605,4250.256306,4233.33323,4232.820409,4152.307591,4088.717849,4225.128102,4152.307591,3819.999907,4166.153744,4152.307591
91,0,4209.743487,4201.025538,4170.256308,4233.33323,4231.794768,4232.307589,4233.33323,4151.28195,4091.794772,4230.256307,4155.384514,3827.692214,4170.256308,4161.53836
92,0,4212.307589,4200.512718,4178.461436,4234.871691,4241.538358,4233.33323,4232.820409,4158.461437,4093.846054,4244.10246,4155.897334,3832.820419,4173.846052,4169.230667
93,0,4211.794769,4206.666564,4177.435795,4234.871691,4256.922973,4235.384512,4232.307589,4167.179385,4093.846054,4249.743486,4162.564001,3833.33324,4173.333231,4168.717847
94,0,4212.82041,4214.871692,4173.333231,4233.84605,4246.666563,4234.358871,4233.84605,4164.615283,4089.74349,4245.128101,4167.692206,3833.33324,4173.846052,4173.333231
95,0,4209.230666,4205.128102,4170.769129,4232.307589,4230.256307,4233.84605,4233.33323,4159.999898,4083.589644,4242.051178,4166.153744,3832.307599,4171.281949,4173.846052
96,0,4207.179384,4194.358872,4167.692206,4230.256307,4228.205025,4232.307589,4230.256307,4164.615283,4083.076823,4245.640922,4163.589642,3828.205035,4171.281949,4173.846052
97,0,4215.897333,4209.743487,4168.205026,4235.384512,4250.769127,4232.820409,4232.307589,4175.897334,4093.333233,4257.948614,4169.743488,3832.307599,4182.564,4185.640923
98,0,4221.538358,4222.051179,4169.230667,4246.153742,4261.025537,4235.384512,4235.897332,4180.512718,4098.974259,4265.640921,4176.922975,3838.974265,4191.281949,4192.82041
99,0,4217.435794,4213.846051,4166.666565,4245.128101,4246.666563,4234.871691,4233.33323,4178.461436,4092.307592,4261.538357,4173.846052,3835.897342,4186.666564,4188.717846
100,0,4215.384512,4211.281948,4165.128103,4236.410153,4251.794768,4239.487076,4231.794768,4179.999898,4088.717849,4258.461434,4169.743488,3830.769137,4182.564,4187.692205
101,0,4218.461435,4218.974256,4170.256308,4237.948614,4270.256306,4247.179383,4234.871691,4186.666564,4092.820413,4266.153742,4178.461436,3834.871701,4187.179385,4191.281949
102,0,4217.435794,4213.846051,4168.205026,4238.974255,4248.717845,4241.025537,4235.897332,4186.666564,4092.307592,4267.179383,4186.666564,3835.897342,4187.179385,4189.743487
103,0,4212.307589,4205.640923,4161.53836,4231.281948,4227.179384,4231.281948,4234.871691,4183.589641,4089.74349,4259.999896,4182.05118,3828.205035,4184.102462,4185.128103
104,0,4215.897333,4209.230666,4167.179385,4231.281948,4245.640922,4235.384512,4235.897332,4188.205026,4095.384515,4262.563998,4182.564,3829.743496,4185.128103,4187.692205
105,0,4220.512717,4207.692205,4169.230667,4233.33323,4245.128101,4238.974255,4235.897332,4190.769128,4094.871695,4265.640921,4183.589641,3834.871701,4185.128103,4188.717846
106,0,4212.82041,4196.410154,4162.05118,4228.205025,4221.025538,4229.743486,4230.769127,4181.538359,4084.615285,4258.461434,4173.333231,3833.84606,4180.512718,4182.564
107,0,4212.307589,4202.051179,4163.589642,4227.692204,4229.743486,4230.769127,4229.743486,4181.025539,4085.640926,4259.999896,4174.871693,3837.948624,4184.615282,4187.179385
108,0,4226.666563,4215.897333,4172.820411,4233.84605,4256.410152,4247.692204,4239.999896,4195.384513,4095.384515,4270.256306,4189.230667,3849.230675,4193.846051,4202.564
109,0,4227.692204,4208.717846,4174.871693,4231.281948,4258.461434,4248.717845,4243.076819,4196.922974,4093.846054,4264.61528,4190.769128,3851.794778,4190.769128,4202.564
110,0,4215.384512,4196.922974,4172.30759,4223.58964,4248.205024,4233.84605,4232.307589,4184.102462,4087.692208,4259.999896,4185.128103,3847.692214,4184.615282,4195.897333
111,0,4212.82041,4202.564,4171.281949,4227.179384,4244.615281,4231.794768,4230.256307,4186.153744,4088.717849,4268.205024,4187.179385,3848.205034,4187.179385,4197.948615
112,0,4214.871692,4205.128102,4169.743488,4229.743486,4233.84605,4237.435794,4236.922973,4193.846051,4090.769131,4265.640921,4188.717846,3849.230675,4187.179385,4194.358872
113,0,4213.846051,4198.974256,4167.692206,4219.487076,4229.230666,4234.871691,4233.84605,4191.281949,4090.25631,4255.384511,4183.589641,3846.666573,4179.999898,4183.076821
114,0,4213.33323,4204.615282,4166.153744,4218.974256,4241.538358,4235.384512,4229.743486,4191.794769,4090.25631,4263.076819,4181.538359,3850.256316,4180.512718,4188.717846
115,0,4213.846051,4215.384512,4168.205026,4229.230666,4243.58964,4235.897332,4232.307589,4199.487077,4092.307592,4275.384511,4190.769128,3860.512726,4195.384513,4203.589641
116,0,4214.358871,4212.307589,4170.256308,4229.743486,4235.384512,4232.307589,4231.794768,4201.025538,4092.820413,4268.717844,4199.999897,3870.256316,4204.102461,4203.589641
117,0,4216.410153,4205.128102,4168.717847,4225.640922,4247.179383,4239.487076,4232.820409,4199.487077,4093.846054,4260.512716,4194.358872,3874.35888,4199.487077,4198.974256
118,0,4222.051179,4204.615282,4170.256308,4227.692204,4257.948614,4249.230665,4235.897332,4199.999897,4096.922977,4264.61528,4191.794769,3878.974264,4195.897333,4200.512718
119,0,4230.256307,4209.230666,4172.820411,4228.717845,4240.512717,4245.640922,4234.871691,4201.025538,4095.384515,4266.153742,4199.487077,3884.102469,4199.487077,4202.051179
120,0,4229.743486,4214.358871,4171.79477,4229.743486,4230.769127,4238.974255,4232.307589,4201.025538,4093.846054,4261.025537,4199.487077,3883.076828,4200.512718,4199.487077
121,0,4217.435794,4210.256307,4168.205026,4230.769127,4234.358871,4239.999896,4234.871691,4199.487077,4094.871695,4262.051178,4195.384513,3885.12811,4195.384513,4194.871692
122,0,4214.871692,4205.128102,4169.743488,4227.692204,4236.922973,4243.076819,4234.358871,4201.025538,4095.897336,4260.512716,4197.435795,3892.820418,4193.333231,4192.82041
123,0,4226.666563,4212.307589,4174.871693,4227.179384,4246.153742,4246.666563,4233.33323,4208.717846,4100.51272,4261.025537,4201.538359,3896.410161,4196.410154,4196.922974
124,0,4232.307589,4220.512717,4172.820411,4229.743486,4252.307588,4247.179383,4241.538358,4214.871692,4108.717848,4271.794767,4208.717846,3893.846059,4200.512718,4198.974256
125,0,4226.153743,4216.922974,4169.230667,4230.769127,4254.35887,4246.153742,4244.615281,4213.846051,4109.743489,4275.897331,4215.897333,3899.487084,4203.589641,4200.512718
126,0,4219.487076,4214.871692,4171.79477,4232.820409,4256.922973,4246.153742,4235.897332,4212.82041,4105.128105,4263.076819,4214.358871,3907.692212,4203.589641,4203.589641
127,0,4222.051179,4217.948615,4175.897334,4233.33323,4232.307589,4244.615281,4231.794768,4214.358871,4105.640925,4256.410152,4211.281948,3908.717853,4199.487077,4199.487077
128,0,4230.256307,4216.922974,4178.461436,4233.33323,4217.435794,4245.640922,4236.410153,4215.384512,4108.205028,4265.128101,4216.922974,3915.38452,4198.461436,4198.461436
0,0,4233.84605,4216.410153,4179.487077,4233.33323,4249.230665,4247.692204,4236.922973,4215.897333,4107.179387,4266.153742,4218.974256,3925.64093,4205.128102,4210.256307
1,0,4229.230666,4217.435794,4181.025539,4232.820409,4271.281947,4248.205024,4234.871691,4214.871692,4105.128105,4262.051178,4216.922974,3926.666571,4204.102461,4211.794769
2,0,4230.256307,4219.487076,4185.128103,4234.871691,4252.307588,4249.230665,4237.435794,4216.922974,4108.717848,4266.666562,4221.538358,3927.692212,4202.051179,4210.256307
3,0,4229.743486,4219.999897,4180.512718,4235.384512,4222.563999,4244.10246,4235.384512,4219.487076,4111.281951,4270.256306,4224.102461,3930.256314,4207.179384,4214.871692
4,0,4224.102461,4215.897333,4168.205026,4231.281948,4217.948615,4239.487076,4229.743486,4217.948615,4109.743489,4264.10246,4217.435794,3927.692212,4209.230666,4211.281948
5,0,4227.179384,4214.358871,4167.692206,4229.230666,4246.153742,4244.615281,4228.205025,4216.922974,4110.76913,4261.538357,4214.871692,3931.281955,4197.948615,4206.153743
6,0,4231.794768,4214.871692,4174.358872,4232.820409,4264.61528,4247.179383,4228.717845,4218.461435,4111.794771,4273.333229,4221.538358,3945.640929,4184.615282,4212.307589
7,0,4231.794768,4215.897333,4180.512718,4236.922973,4250.769127,4241.538358,4228.717845,4218.974256,4113.846053,4281.025536,4225.640922,3956.41016,4183.589641,4219.487076
8,0,4231.794768,4215.384512,4183.076821,4235.384512,4241.538358,4239.999896,4226.153743,4218.974256,4121.538361,4277.948613,4227.179384,3961.025544,4187.179385,4219.999897
9,0,4228.205025,4208.717846,4176.410154,4231.794768,4238.974255,4245.128101,4227.179384,4219.487076,4123.076822,4272.820408,4228.205025,3961.538365,4185.128103,4217.435794
10,0,4216.922974,4202.564,4167.692206,4229.230666,4225.640922,4246.666563,4231.794768,4218.974256,4115.384515,4268.205024,4222.563999,3958.461442,4181.538359,4207.692205
11,0,4214.358871,4204.102461,4166.666565,4229.743486,4226.666563,4246.153742,4232.307589,4218.974256,4112.307592,4262.563998,4218.461435,3957.435801,4183.076821,4203.07682
12,0,4218.974256,4203.07682,4168.205026,4228.205025,4234.358871,4242.563999,4227.692204,4216.922974,4110.76913,4256.922973,4217.948615,3958.974262,4184.615282,4204.102461
13,0,4213.846051,4195.384513,4167.179385,4226.153743,4232.820409,4237.435794,4228.205025,4216.922974,4109.230669,4258.461434,4218.974256,3961.025544,4181.538359,4201.025538
14,0,4213.33323,4197.435795,4168.205026,4229.743486,4241.538358,4239.487076,4231.281948,4225.128102,4117.435797,4262.051178,4223.58964,3968.205031,4183.076821,4206.666564
15,0,4229.230666,4206.153743,4176.922975,4234.871691,4252.307588,4247.179383,4230.769127,4231.281948,4124.102463,4265.128101,4231.281948,3977.948621,4192.82041,4218.461435
16,0,4233.33323,4207.179384,4183.076821,4235.384512,4250.769127,4249.743486,4229.743486,4231.794768,4123.589643,4270.256306,4234.871691,3984.615287,4203.07682,4222.563999
17,0,4216.922974,4202.051179,4175.384513,4234.358871,4241.538358,4245.128101,4228.717845,4228.205025,4124.102463,4269.743485,4231.794768,3984.615287,4198.974256,4217.435794
18,0,4209.230666,4197.948615,4167.179385,4229.743486,4233.84605,4244.10246,4226.153743,4225.128102,4124.102463,4262.051178,4230.769127,3986.153749,4195.384513,4213.846051
19,0,4218.974256,4199.999897,4171.281949,4221.025538,4233.33323,4245.640922,4226.666563,4227.692204,4122.051181,4259.487075,4230.769127,3990.256313,4197.948615,4214.871692
20,0,4223.58964,4201.538359,4174.358872,4216.922974,4235.384512,4245.128101,4228.205025,4230.769127,4125.640925,4261.025537,4230.256307,3990.256313,4196.922974,4217.435794
21,0,4219.999897,4199.999897,4174.358872,4217.948615,4224.615281,4245.128101,4227.692204,4229.743486,4126.153745,4258.461434,4232.307589,3990.769133,4201.025538,4221.025538
22,0,4217.948615,4199.487077,4170.256308,4215.897333,4217.435794,4244.10246,4226.666563,4228.205025,4122.051181,4251.794768,4233.33323,3996.922979,4201.538359,4216.922974
23,0,4213.33323,4198.974256,4166.666565,4213.33323,4233.33323,4246.153742,4229.230666,4231.794768,4129.230668,4249.230665,4230.256307,4002.051184,4187.692205,4205.128102
24,0,4213.33323,4199.487077,4175.384513,4215.897333,4242.051178,4248.205024,4231.794768,4233.84605,4138.974258,4255.384511,4230.769127,4007.179389,4187.692205,4204.615282
25,0,4219.999897,4199.999897,4183.076821,4215.897333,4229.230666,4246.153742,4232.307589,4234.358871,4134.871694,4261.538357,4233.33323,4010.769133,4202.564,4217.948615
26,0,4219.487076,4199.999897,4175.897334,4214.358871,4229.743486,4245.640922,4231.281948,4241.538358,4134.358873,4261.025537,4234.871691,4013.846056,4203.589641,4221.538358
27,0,4216.922974,4201.025538,4171.79477,4215.897333,4239.999896,4251.281947,4234.358871,4250.769127,4142.564001,4258.461434,4238.974255,4018.974261,4198.461436,4215.897333
28,0,4216.922974,4198.974256,4171.281949,4214.358871,4218.974256,4251.794768,4242.051178,4247.179383,4145.128104,4257.948614,4239.999896,4020.512722,4199.999897,4210.769128
29,0,4217.948615,4198.974256,4171.281949,4214.358871,4209.230666,4250.256306,4245.128101,4246.666563,4147.179386,4261.538357,4241.025537,4020.512722,4199.999897,4211.281948
30,0,4217.948615,4202.051179,4172.820411,4214.358871,4242.051178,4256.922973,4245.640922,4256.922973,4152.820411,4265.128101,4248.205024,4024.102466,4202.051179,4212.307589
31,0,4209.230666,4194.871692,4168.205026,4207.692205,4242.563999,4261.025537,4244.615281,4255.897332,4152.820411,4253.84605,4243.58964,4022.564004,4200.512718,4204.615282
32,0,4198.974256,4182.05118,4162.05118,4198.974256,4215.897333,4253.84605,4239.999896,4248.205024,4151.28195,4245.640922,4232.307589,4019.487081,4188.205026,4193.846051
33,0,4199.999897,4182.564,4167.179385,4198.974256,4224.615281,4248.717845,4235.897332,4249.743486,4151.79477,4253.333229,4236.410153,4031.281953,4184.102462,4199.999897
34,0,4204.102461,4186.153744,4172.30759,4201.025538,4229.230666,4247.179383,4234.358871,4249.743486,4150.256309,4249.743486,4244.10246,4043.076824,4191.281949,4206.153743
35,0,4204.615282,4184.102462,4169.743488,4199.487077,4210.256307,4248.205024,4237.948614,4248.205024,4153.846052,4242.563999,4242.051178,4045.640927,4196.922974,4202.564
36,0,4211.794769,4186.666564,4169.230667,4200.512718,4221.025538,4255.384511,4241.538358,4252.820409,4161.025539,4256.410152,4244.615281,4054.871696,4198.461436,4207.179384
37,0,4214.358871,4188.205026,4168.205026,4199.999897,4239.487076,4254.871691,4238.974255,4251.281947,4156.922975,4258.974255,4246.666563,4062.051183,4197.435795,4213.846051
38,0,4210.769128,4190.256308,4173.333231,4202.564,4231.794768,4248.717845,4232.820409,4247.692204,4153.846052,4244.615281,4246.153742,4065.128106,4198.974256,4213.846051
39,0,4214.358871,4198.461436,4180.512718,4206.666564,4224.615281,4252.307588,4233.84605,4252.307588,4163.589642,4245.128101,4248.717845,4072.820413,4202.051179,4216.922974
40,0,4212.82041,4202.564,4174.358872,4205.128102,4216.922974,4257.435793,4234.358871,4251.794768,4168.205026,4253.333229,4250.769127,4076.410157,4202.564,4217.948615
41,0,4204.615282,4200.512718,4168.717847,4204.102461,4210.769128,4256.922973,4231.794768,4249.743486,4166.666565,4247.179383,4246.666563,4076.410157,4203.589641,4212.307589
42,0,4199.487077,4192.82041,4166.153744,4203.07682,4218.974256,4254.871691,4232.307589,4248.717845,4163.589642,4235.897332,4238.461435,4073.846054,4199.999897,4202.564
43,0,4189.743487,4182.05118,4154.358873,4192.30759,4213.33323,4248.205024,4230.769127,4238.974255,4156.922975,4231.794768,4230.256307,4061.025542,4187.692205,4191.794769
44,0,4182.564,4177.948616,4147.692206,4184.615282,4196.410154,4244.10246,4228.205025,4230.769127,4151.28195,4231.281948,4229.230666,4057.435798,4184.102462,4191.281949
45,0,4190.256308,4186.666564,4156.922975,4192.82041,4211.794769,4248.205024,4228.205025,4236.410153,4153.333232,4230.769127,4237.948614,4074.871695,4194.871692,4198.974256
46,0,4206.153743,4198.974256,4167.179385,4202.564,4239.487076,4249.743486,4228.717845,4246.153742,4161.025539,4230.256307,4245.640922,4088.205028,4197.948615,4203.589641
47,0,4214.871692,4204.102461,4175.897334,4206.666564,4230.256307,4247.692204,4231.794768,4253.333229,4169.743488,4237.435794,4248.717845,4097.435797,4199.999897,4209.230666
48,0,4216.922974,4205.640923,4183.076821,4213.33323,4220.512717,4251.281947,4236.410153,4262.051178,4173.846052,4246.666563,4251.794768,4109.230669,4210.256307,4219.999897
49,0,4216.922974,4205.128102,4179.487077,4213.33323,4240.512717,4253.333229,4233.84605,4262.563998,4170.769129,4239.487076,4250.769127,4111.281951,4207.692205,4219.999897
50,0,4214.358871,4202.051179,4176.922975,4205.640923,4236.922973,4250.769127,4229.230666,4258.974255,4168.205026,4233.84605,4248.205024,4111.794771,4197.948615,4214.871692
51,0,4214.358871,4203.589641,4182.564,4209.230666,4206.666564,4249.230665,4230.769127,4259.999896,4173.333231,4241.025537,4254.871691,4125.640925,4205.128102,4221.025538
52,0,4224.102461,4213.846051,4187.692205,4218.461435,4219.487076,4252.820409,4235.384512,4265.128101,4185.640923,4242.051178,4265.640921,4139.999899,4216.410153,4229.743486
53,0,4229.230666,4213.846051,4186.666564,4216.410153,4236.410153,4253.333229,4232.307589,4263.589639,4188.205026,4235.897332,4259.999896,4143.076822,4214.871692,4228.717845
54,0,4219.487076,4199.487077,4178.461436,4210.256307,4197.948615,4244.615281,4223.07682,4252.820409,4174.871693,4227.692204,4248.717845,4137.435796,4208.717846,4218.461435
55,0,4213.846051,4197.948615,4175.384513,4212.307589,4191.794769,4244.10246,4223.58964,4250.256306,4172.30759,4222.051179,4253.333229,4135.384514,4210.769128,4215.384512
56,0,4218.461435,4210.256307,4182.564,4214.358871,4245.640922,4256.410152,4231.794768,4261.025537,4185.640923,4230.256307,4265.128101,4147.179386,4218.461435,4226.153743
57,0,4222.051179,4216.922974,4185.640923,4213.846051,4265.640921,4259.487075,4233.33323,4266.666562,4189.230667,4240.512717,4264.61528,4156.922975,4221.538358,4232.820409
58,0,4227.179384,4216.410153,4182.564,4213.846051,4236.922973,4249.230665,4228.205025,4258.461434,4181.025539,4233.33323,4256.922973,4153.333232,4217.435794,4231.281948
59,0,4230.256307,4211.794769,4183.076821,4211.794769,4211.794769,4244.615281,4221.025538,4256.410152,4178.461436,4230.769127,4257.435793,4156.410155,4213.846051,4230.769127
60,0,4227.179384,4206.153743,4185.128103,4211.794769,4209.743487,4246.666563,4215.384512,4262.563998,4182.564,4235.897332,4262.051178,4168.205026,4214.871692,4231.794768
61,0,4230.256307,4212.82041,4186.153744,4215.897333,4219.999897,4246.666563,4214.871692,4262.051178,4190.256308,4230.769127,4263.589639,4175.897334,4219.999897,4238.461435
62,0,4234.358871,4220.512717,4190.256308,4218.974256,4221.025538,4247.179383,4216.922974,4264.61528,4198.974256,4233.84605,4261.538357,4179.487077,4223.58964,4245.128101
63,0,4230.256307,4216.922974,4188.205026,4214.871692,4213.33323,4249.230665,4217.435794,4272.307588,4203.07682,4234.871691,4263.076819,4186.153744,4218.974256,4239.487076
64,0,4228.717845,4214.358871,4185.640923,4213.846051,4221.538358,4250.256306,4219.487076,4278.461434,4202.564,4221.538358,4266.153742,4187.179385,4218.461435,4233.33323
65,0,4226.666563,4215.384512,4183.076821,4212.82041,4211.794769,4250.256306,4221.025538,4278.974254,4198.461436,4210.769128,4256.922973,4179.487077,4215.384512,4230.769127
66,0,4216.410153,4203.589641,4175.384513,4203.07682,4190.256308,4246.666563,4217.435794,4276.410152,4194.871692,4212.82041,4245.128101,4172.30759,4201.025538,4217.435794
67,0,4211.794769,4198.974256,4175.897334,4201.025538,4215.384512,4246.153742,4215.897333,4277.435793,4198.461436,4221.025538,4247.179383,4179.487077,4201.538359,4210.256307
68,0,4216.922974,4205.640923,4184.102462,4209.743487,4246.153742,4248.717845,4218.461435,4280.512716,4201.025538,4221.025538,4253.333229,4195.384513,4214.871692,4224.102461
69,0,4219.999897,4204.615282,4187.692205,4211.794769,4233.33323,4249.743486,4221.025538,4281.025536,4196.922974,4212.307589,4249.743486,4201.025538,4215.384512,4233.33323
70,0,4222.563999,4203.589641,4188.205026,4211.794769,4216.410153,4249.230665,4219.999897,4283.589639,4196.922974,4210.769128,4247.179383,4202.564,4211.794769,4229.743486
71,0,4223.07682,4211.281948,4190.256308,4214.871692,4214.358871,4245.640922,4217.435794,4290.769126,4203.589641,4217.948615,4256.410152,4209.743487,4215.384512,4231.281948
72,0,4222.563999,4217.435794,4197.948615,4219.999897,4218.461435,4247.692204,4217.435794,4294.358869,4211.281948,4217.435794,4265.128101,4222.051179,4219.999897,4242.051178
73,0,4230.256307,4219.487076,4207.692205,4224.615281,4215.384512,4249.743486,4221.025538,4297.435792,4218.461435,4214.871692,4268.205024,4232.820409,4228.717845,4251.794768
74,0,4234.871691,4218.461435,4207.179384,4223.07682,4198.461436,4240.512717,4215.897333,4295.897331,4212.82041,4219.487076,4264.61528,4234.358871,4233.84605,4249.230665
75,0,4232.307589,4215.384512,4200.512718,4214.871692,4207.692205,4237.435794,4209.743487,4289.743485,4206.666564,4218.461435,4265.128101,4232.307589,4229.230666,4245.128101
76,0,4232.307589,4216.922974,4196.410154,4214.358871,4250.769127,4252.820409,4221.538358,4296.410151,4218.974256,4217.435794,4273.333229,4234.871691,4232.820409,4250.256306
77,0,4225.128102,4215.384512,4189.743487,4215.897333,4256.410152,4265.640921,4233.84605,4306.666561,4227.692204,4220.512717,4273.846049,4238.461435,4234.358871,4246.666563
78,0,4204.102461,4203.07682,4178.974257,4206.666564,4220.512717,4257.948614,4224.615281,4297.948613,4215.384512,4211.794769,4262.051178,4228.205025,4217.948615,4230.769127
79,0,4194.871692,4195.897333,4173.333231,4199.999897,4208.205025,4246.666563,4213.33323,4283.589639,4207.692205,4198.461436,4256.922973,4218.461435,4209.743487,4226.153743
80,0,4208.205025,4200.512718,4177.435795,4206.666564,4213.33323,4245.640922,4215.384512,4284.61528,4214.358871,4204.102461,4265.128101,4224.615281,4222.563999,4232.820409
81,0,4219.999897,4204.615282,4185.640923,4213.846051,4203.07682,4246.666563,4217.948615,4287.179382,4218.974256,4216.410153,4267.179383,4235.897332,4231.281948,4234.871691
82,0,4214.871692,4201.025538,4184.615282,4212.307589,4200.512718,4242.051178,4213.33323,4282.563998,4217.435794,4214.358871,4262.051178,4241.025537,4230.769127,4237.435794
83,0,4210.256307,4201.538359,4181.538359,4209.743487,4217.948615,4241.025537,4211.281948,4279.487075,4216.922974,4214.358871,4263.589639,4242.051178,4237.435794,4243.58964
84,0,4222.051179,4211.794769,4193.333231,4214.871692,4230.256307,4247.692204,4215.384512,4280.512716,4223.58964,4216.922974,4271.281947,4248.205024,4246.153742,4243.58964
85,0,4234.358871,4218.974256,4204.102461,4220.512717,4231.281948,4248.205024,4216.410153,4282.563998,4230.256307,4211.794769,4276.410152,4257.948614,4247.692204,4243.58964
86,0,4236.410153,4217.948615,4205.640923,4221.025538,4221.538358,4245.128101,4213.846051,4289.230664,4231.794768,4212.307589,4277.948613,4267.179383,4250.769127,4248.717845
87,0,4232.307589,4214.358871,4202.564,4219.999897,4197.435795,4247.179383,4213.33323,4295.38451,4237.948614,4217.435794,4281.538357,4266.153742,4251.794768,4248.717845
88,0,4228.205025,4215.384512,4199.999897,4219.487076,4202.051179,4248.717845,4219.487076,4294.358869,4246.153742,4211.794769,4280.512716,4265.640921,4249.230665,4244.615281
89,0,4227.692204,4216.922974,4201.538359,4219.487076,4243.58964,4249.230665,4227.179384,4294.358869,4248.205024,4208.717846,4278.461434,4275.384511,4254.35887,4246.666563
90,0,4228.205025,4217.435794,4202.564,4219.487076,4258.974255,4257.435793,4230.256307,4296.922972,4248.717845,4216.922974,4282.051177,4277.948613,4257.948614,4248.205024
91,0,4222.563999,4213.846051,4201.538359,4219.487076,4236.922973,4261.538357,4229.743486,4296.922972,4248.717845,4214.871692,4283.076818,4275.897331,4251.281947,4246.153742
92,0,4214.871692,4206.666564,4196.410154,4217.435794,4221.025538,4250.769127,4225.640922,4291.281946,4243.076819,4202.051179,4274.35887,4276.410152,4247.179383,4239.999896
93,0,4214.871692,4203.07682,4191.281949,4214.358871,4223.07682,4248.205024,4221.538358,4283.076818,4240.512717,4197.435795,4269.743485,4274.87169,4247.179383,4232.307589
94,0,4217.435794,4205.640923,4188.717846,4213.846051,4215.384512,4255.897332,4220.512717,4279.487075,4243.076819,4197.948615,4275.897331,4272.307588,4247.179383,4235.384512
95,0,4215.384512,4209.743487,4189.743487,4215.897333,4199.999897,4251.794768,4221.025538,4278.461434,4245.640922,4195.897333,4280.512716,4278.461434,4250.769127,4245.128101
96,0,4220.512717,4213.33323,4193.846051,4216.410153,4211.281948,4247.692204,4219.999897,4281.538357,4246.666563,4203.07682,4279.999895,4291.281946,4258.974255,4248.205024
97,0,4231.794768,4213.846051,4199.999897,4214.358871,4223.07682,4248.717845,4218.461435,4289.230664,4248.717845,4217.435794,4285.1281,4302.051177,4262.051178,4252.307588
98,0,4234.871691,4213.846051,4209.230666,4218.974256,4209.230666,4246.666563,4217.435794,4289.743485,4255.384511,4227.692204,4292.307587,4310.256305,4260.512716,4259.487075
99,0,4237.948614,4219.487076,4216.410153,4231.794768,4224.615281,4252.820409,4218.974256,4290.256305,4266.153742,4234.358871,4296.410151,4318.461433,4262.563998,4264.10246
100,0,4242.563999,4219.487076,4212.82041,4233.33323,4258.974255,4260.512716,4223.07682,4294.358869,4266.153742,4235.897332,4292.820408,4321.538356,4261.538357,4262.563998
101,0,4229.743486,4206.153743,4195.384513,4215.384512,4243.58964,4251.794768,4217.948615,4282.563998,4250.256306,4228.717845,4282.051177,4313.333228,4249.230665,4250.769127
102,0,4211.794769,4196.410154,4181.025539,4203.589641,4214.358871,4244.10246,4212.82041,4268.205024,4242.563999,4226.153743,4273.846049,4307.179382,4241.025537,4240.512717
103,0,4214.871692,4198.461436,4181.538359,4208.717846,4223.07682,4249.743486,4217.435794,4271.794767,4252.820409,4233.84605,4278.974254,4312.307587,4246.153742,4244.10246
104,0,4217.435794,4200.512718,4182.05118,4207.692205,4222.563999,4249.743486,4214.871692,4269.743485,4249.230665,4230.769127,4278.461434,4311.794766,4241.538358,4241.538358
105,0,4206.666564,4195.897333,4178.461436,4198.974256,4198.461436,4244.615281,4207.179384,4257.435793,4231.794768,4223.07682,4266.666562,4305.64092,4226.666563,4230.256307
106,0,4206.153743,4195.897333,4181.538359,4203.589641,4194.871692,4244.615281,4211.281948,4259.487075,4236.410153,4226.666563,4267.692203,4314.358869,4232.307589,4234.358871
107,0,4220.512717,4208.717846,4190.769128,4215.384512,4221.538358,4247.692204,4216.922974,4264.61528,4249.743486,4234.871691,4278.974254,4329.230663,4247.692204,4249.743486
108,0,4231.794768,4219.487076,4195.897333,4217.948615,4241.025537,4249.230665,4213.33323,4261.538357,4247.179383,4243.58964,4281.025536,4332.820407,4249.743486,4259.487075
109,0,4236.410153,4219.487076,4198.461436,4218.974256,4224.102461,4248.205024,4214.358871,4269.743485,4251.794768,4249.230665,4279.487075,4337.948612,4254.35887,4266.153742
110,0,4236.410153,4216.922974,4205.128102,4220.512717,4211.281948,4248.717845,4219.999897,4281.538357,4266.153742,4250.769127,4282.051177,4349.743483,4259.487075,4269.230665
111,0,4233.33323,4218.461435,4211.281948,4220.512717,4228.205025,4254.871691,4218.974256,4280.512716,4265.640921,4255.897332,4281.538357,4352.307586,4252.820409,4265.640921
112,0,4238.461435,4224.102461,4211.794769,4226.153743,4244.10246,4261.538357,4216.410153,4277.435793,4265.640921,4263.589639,4279.999895,4350.769124,4253.333229,4271.281947
113,0,4245.640922,4230.256307,4207.692205,4230.769127,4237.435794,4259.487075,4217.948615,4279.487075,4276.410152,4262.051178,4283.589639,4354.871688,4267.179383,4280.512716
114,0,4239.999896,4226.666563,4201.025538,4224.102461,4224.615281,4250.769127,4218.461435,4276.410152,4274.35887,4257.948614,4281.538357,4349.743483,4262.563998,4273.333229
115,0,4230.256307,4216.410153,4194.871692,4214.871692,4226.666563,4248.717845,4215.897333,4268.205024,4263.076819,4256.410152,4274.87169,4339.999894,4247.179383,4259.999896
116,0,4230.769127,4214.871692,4193.333231,4215.384512,4230.256307,4255.897332,4218.461435,4264.10246,4263.076819,4246.666563,4270.769126,4341.025535,4245.128101,4258.974255
117,0,4238.461435,4224.102461,4200.512718,4222.563999,4232.820409,4261.025537,4224.615281,4264.61528,4266.153742,4243.076819,4272.820408,4347.692201,4250.256306,4266.153742
118,0,4246.666563,4232.307589,4209.230666,4230.256307,4233.33323,4255.384511,4222.051179,4264.61528,4265.128101,4257.948614,4278.461434,4354.871688,4257.948614,4274.35887
119,0,4245.128101,4229.743486,4205.128102,4227.179384,4216.410153,4246.666563,4212.82041,4257.948614,4263.589639,4265.128101,4278.974254,4359.999893,4262.051178,4279.487075
120,0,4235.384512,4225.640922,4198.974256,4218.461435,4208.717846,4244.615281,4208.205025,4248.717845,4262.051178,4250.256306,4273.333229,4357.435791,4258.461434,4274.87169
121,0,4237.948614,4229.743486,4205.640923,4220.512717,4228.717845,4251.281947,4211.794769,4254.871691,4265.128101,4248.717845,4275.897331,4358.974252,4256.922973,4275.897331
122,0,4252.820409,4234.358871,4216.410153,4231.794768,4233.33323,4259.487075,4218.461435,4272.820408,4277.435793,4269.743485,4289.230664,4373.333226,4269.230665,4292.820408
123,0,4253.84605,4231.794768,4216.922974,4231.794768,4224.615281,4261.538357,4221.538358,4282.051177,4287.692203,4273.846049,4297.435792,4382.563995,4277.435793,4299.999895
124,0,4245.128101,4228.205025,4214.871692,4222.563999,4238.974255,4257.435793,4219.999897,4274.35887,4287.179382,4259.487075,4291.281946,4378.974252,4269.743485,4285.1281
125,0,4246.153742,4232.307589,4213.846051,4222.051179,4248.205024,4256.410152,4218.461435,4267.179383,4284.102459,4262.563998,4282.051177,4372.820406,4261.025537,4275.384511
126,0,4243.58964,4231.281948,4205.128102,4223.07682,4231.794768,4261.025537,4219.487076,4263.589639,4280.512716,4266.666562,4272.820408,4363.076816,4254.871691,4275.384511
127,0,4230.256307,4218.974256,4196.922974,4214.358871,4213.33323,4255.384511,4217.948615,4254.871691,4276.410152,4250.256306,4265.128101,4354.871688,4247.179383,4264.61528
128,0,4228.205025,4217.948615,4198.461436,4211.794769,4209.743487,4247.692204,4213.33323,4248.717845,4277.948613,4244.10246,4268.205024,4358.974252,4246.153742,4258.974255
0,0,4235.897332,4228.717845,4197.948615,4215.897333,4221.538358,4253.333229,4213.846051,4253.84605,4281.025536,4257.948614,4275.384511,4362.563996,4254.35887,4269.743485
1,0,4233.84605,4230.256307,4196.922974,4215.897333,4237.435794,4256.922973,4219.487076,4259.999896,4281.025536,4265.128101,4275.897331,4361.538355,4259.999896,4277.948613
2,0,4232.307589,4230.256307,4202.051179,4216.410153,4231.281948,4249.743486,4219.999897,4258.461434,4282.051177,4257.948614,4278.974254,4368.717842,4263.589639,4277.948613
3,0,4239.999896,4233.33323,4202.564,4219.487076,4219.999897,4246.153742,4213.846051,4253.84605,4285.640921,4249.230665,4281.538357,4374.358867,4262.051178,4275.897331
4,0,4244.10246,4228.717845,4203.589641,4216.922974,4222.563999,4252.307588,4212.82041,4255.897332,4290.769126,4253.84605,4282.051177,4375.897329,4260.512716,4278.974254
5,0,4250.256306,4233.33323,4216.410153,4222.051179,4221.025538,4251.281947,4217.435794,4264.10246,4298.974254,4268.717844,4290.769126,4387.6922,4272.307588,4292.307587
6,0,4258.461434,4247.179383,4225.128102,4233.84605,4215.897333,4248.717845,4221.538358,4270.256306,4305.64092,4273.333229,4298.461433,4398.461431,4282.563998,4299.999895
7,0,4253.84605,4248.205024,4219.999897,4231.794768,4213.846051,4255.384511,4226.666563,4272.820408,4308.205023,4263.589639,4295.897331,4399.487072,4280.512716,4296.922972
8,0,4244.615281,4237.435794,4215.897333,4219.999897,4217.948615,4255.897332,4228.717845,4274.87169,4309.743484,4261.025537,4293.846049,4402.051174,4277.948613,4293.846049
9,0,4242.051178,4230.769127,4214.871692,4216.410153,4231.281948,4250.256306,4227.179384,4272.307588,4311.794766,4266.666562,4294.87169,4401.538354,4277.435793,4293.333228
10,0,4243.076819,4231.794768,4214.358871,4218.461435,4242.051178,4254.871691,4227.692204,4264.10246,4311.281946,4265.128101,4293.846049,4395.897328,4272.307588,4292.307587
11,0,4245.640922,4234.358871,4216.410153,4218.461435,4237.948614,4261.538357,4228.717845,4262.563998,4310.769125,4263.076819,4294.358869,4396.922969,4274.35887,4296.922972
12,0,4247.692204,4235.384512,4211.794769,4218.461435,4223.58964,4253.84605,4222.051179,4265.128101,4309.743484,4264.10246,4292.820408,4397.94861,4274.35887,4294.87169
13,0,4239.487076,4231.794768,4203.07682,4218.461435,4199.487077,4245.640922,4213.846051,4259.487075,4304.615279,4259.487075,4288.205023,4392.307585,4262.563998,4279.999895
14,0,4236.922973,4230.256307,4207.179384,4216.410153,4194.358872,4249.230665,4214.358871,4250.769127,4302.563997,4258.461434,4290.256305,4393.846046,4264.10246,4283.076818
15,0,4245.640922,4240.512717,4218.461435,4218.974256,4224.102461,4248.717845,4214.871692,4251.281947,4306.153741,4263.589639,4294.87169,4401.025533,4274.87169,4294.358869
16,0,4248.717845,4246.153742,4221.025538,4222.563999,4229.743486,4247.179383,4215.384512,4257.435793,4307.179382,4259.999896,4293.333228,4403.076815,4270.256306,4288.205023
17,0,4246.666563,4236.410153,4224.102461,4220.512717,4217.948615,4256.410152,4224.615281,4261.025537,4309.743484,4254.871691,4292.820408,4406.666559,4266.666562,4284.102459
18,0,4246.666563,4236.922973,4227.692204,4218.461435,4226.666563,4262.563998,4230.769127,4263.589639,4316.922971,4265.640921,4296.922972,4413.846046,4277.435793,4295.38451
19,0,4246.666563,4245.640922,4221.025538,4222.051179,4221.538358,4252.820409,4221.025538,4265.640921,4319.999894,4264.61528,4295.897331,4412.820405,4278.461434,4295.897331
20,0,4246.153742,4243.076819,4217.435794,4221.538358,4210.256307,4248.205024,4216.922974,4263.076819,4321.025535,4253.84605,4293.846049,4408.717841,4268.717844,4285.1281
21,0,4251.281947,4241.025537,4228.717845,4217.435794,4226.153743,4256.410152,4227.692204,4265.640921,4325.64092,4263.076819,4298.461433,4413.846046,4275.384511,4291.281946
22,0,4251.281947,4239.999896,4235.897332,4216.410153,4227.692204,4255.897332,4228.205025,4259.999896,4320.512715,4266.666562,4298.461433,4416.410148,4279.487075,4295.38451
23,0,4245.640922,4234.358871,4230.256307,4217.435794,4210.769128,4248.717845,4218.461435,4247.692204,4311.794766,4248.205024,4292.307587,4412.307584,4268.717844,4284.102459
24,0,4242.051178,4233.33323,4220.512717,4216.410153,4216.410153,4249.743486,4216.922974,4244.615281,4310.256305,4246.666563,4292.820408,4408.20502,4262.051178,4278.974254
25,0,4239.999896,4232.307589,4216.922974,4212.82041,4211.794769,4249.230665,4211.794769,4239.999896,4306.153741,4249.743486,4295.38451,4405.640918,4262.051178,4279.999895
26,0,4244.10246,4233.33323,4224.615281,4214.871692,4187.692205,4240.512717,4205.128102,4232.307589,4304.615279,4232.820409,4292.820408,4407.179379,4262.051178,4282.051177
27,0,4247.692204,4240.512717,4233.84605,4218.974256,4195.897333,4235.897332,4210.769128,4235.384512,4309.743484,4235.384512,4289.230664,4411.281943,4262.563998,4285.640921
28,0,4245.640922,4240.512717,4233.84605,4218.461435,4232.307589,4245.640922,4219.999897,4246.666563,4309.743484,4251.281947,4292.307587,4413.846046,4267.179383,4288.205023
29,0,4243.076819,4232.307589,4228.205025,4214.358871,4232.307589,4246.666563,4218.974256,4245.640922,4308.717843,4239.999896,4294.87169,4408.20502,4266.666562,4282.563998
30,0,4237.435794,4230.769127,4221.025538,4213.33323,4197.948615,4234.358871,4214.358871,4237.435794,4310.769125,4226.666563,4287.179382,4398.461431,4262.051178,4276.922972
31,0,4231.794768,4232.820409,4217.948615,4212.82041,4200.512718,4236.922973,4214.358871,4235.384512,4312.307587,4234.871691,4278.974254,4395.897328,4261.025537,4274.87169
32,0,4231.281948,4232.307589,4216.922974,4210.769128,4227.179384,4247.179383,4215.384512,4236.410153,4310.256305,4230.256307,4279.999895,4397.94861,4262.051178,4268.717844
33,0,4231.794768,4233.33323,4216.410153,4212.82041,4215.897333,4243.58964,4213.33323,4234.358871,4308.717843,4222.563999,4281.025536,4396.922969,4261.538357,4263.076819
34,0,4229.230666,4233.84605,4217.435794,4215.897333,4202.564,4243.076819,4213.846051,4231.794768,4311.794766,4232.307589,4277.435793,4394.871687,4257.435793,4262.563998
35,0,4230.769127,4233.84605,4219.487076,4215.897333,4221.025538,4248.717845,4213.33323,4233.84605,4317.948612,4239.487076,4276.410152,4395.897328,4252.307588,4265.128101
36,0,4232.820409,4233.84605,4221.538358,4213.33323,4207.179384,4239.999896,4209.230666,4232.820409,4315.89733,4230.256307,4276.922972,4396.410149,4249.743486,4265.640921
37,0,4232.307589,4232.307589,4225.640922,4213.33323,4176.922975,4237.948614,4209.230666,4229.743486,4309.743484,4218.974256,4276.410152,4396.922969,4253.333229,4263.589639
38,0,4236.410153,4239.999896,4230.256307,4217.948615,4205.640923,4247.692204,4214.871692,4232.820409,4311.281946,4225.128102,4278.974254,4398.461431,4259.999896,4264.10246
39,0,4236.410153,4247.179383,4226.666563,4219.487076,4229.230666,4243.58964,4214.871692,4233.84605,4314.358869,4230.256307,4280.512716,4395.897328,4261.025537,4264.61528
40,0,4230.769127,4243.58964,4225.128102,4215.897333,4198.974256,4236.410153,4212.82041,4233.33323,4313.333228,4217.948615,4278.461434,4392.820405,4256.410152,4261.538357
41,0,4236.922973,4241.025537,4239.487076,4221.538358,4204.615282,4245.128101,4219.487076,4247.179383,4323.589638,4216.410153,4277.435793,4401.538354,4257.948614,4261.025537
42,0,4252.307588,4250.256306,4258.461434,4230.256307,4238.974255,4253.84605,4228.717845,4262.563998,4336.41015,4235.384512,4282.051177,4415.897328,4266.666562,4267.179383
43,0,4247.179383,4249.230665,4253.84605,4225.128102,4216.410153,4247.179383,4227.179384,4255.897332,4332.820407,4235.384512,4282.563998,4412.307584,4264.10246,4266.666562
44,0,4229.230666,4232.820409,4230.256307,4212.82041,4184.615282,4237.948614,4223.07682,4242.563999,4322.563997,4214.358871,4271.281947,4393.333226,4250.769127,4255.897332
45,0,4237.948614,4232.820409,4223.58964,4214.358871,4209.230666,4244.10246,4224.615281,4246.666563,4326.15374,4216.410153,4264.10246,4391.281944,4249.230665,4255.384511
46,0,4247.179383,4241.025537,4232.307589,4218.974256,4209.743487,4245.640922,4223.07682,4247.179383,4330.769125,4223.07682,4265.128101,4398.461431,4252.307588,4258.461434
47,0,4230.769127,4234.871691,4237.435794,4215.897333,4177.435795,4234.358871,4215.384512,4234.358871,4323.076817,4208.205025,4262.563998,4391.281944,4246.153742,4246.666563
48,0,4230.769127,4235.384512,4243.076819,4217.948615,4203.589641,4239.999896,4216.410153,4239.487076,4325.128099,4203.07682,4262.563998,4389.743482,4245.128101,4244.10246
49,0,4251.794768,4248.205024,4247.692204,4221.025538,4242.563999,4248.717845,4218.974256,4249.230665,4328.205022,4213.846051,4265.640921,4396.922969,4251.281947,4255.897332
50,0,4251.794768,4247.692204,4239.999896,4217.948615,4223.58964,4239.487076,4214.871692,4237.435794,4315.38451,4212.307589,4262.563998,4390.769123,4247.692204,4252.820409
51,0,4238.974255,4242.563999,4235.897332,4222.051179,4202.051179,4235.384512,4214.358871,4229.230666,4310.769125,4199.999897,4259.999896,4384.102457,4244.10246,4243.58964
52,0,4236.410153,4244.615281,4244.615281,4227.692204,4212.82041,4239.487076,4218.974256,4243.076819,4324.102458,4202.564,4264.10246,4389.230662,4250.769127,4246.153742
53,0,4234.358871,4242.051178,4247.692204,4221.025538,4218.461435,4234.358871,4218.974256,4251.794768,4330.769125,4208.717846,4262.563998,4387.6922,4252.307588,4250.256306
54,0,4234.358871,4242.051178,4244.10246,4215.384512,4221.025538,4232.307589,4215.384512,4244.615281,4325.128099,4205.128102,4256.922973,4381.025534,4249.230665,4247.179383
55,0,4234.871691,4243.58964,4241.025537,4219.487076,4208.205025,4235.384512,4214.871692,4237.948614,4322.563997,4202.051179,4251.794768,4376.410149,4245.640922,4238.974255
56,0,4228.717845,4233.84605,4232.307589,4218.461435,4187.179385,4231.794768,4215.897333,4232.307589,4318.974253,4196.410154,4246.666563,4361.538355,4238.461435,4227.179384
57,0,4228.205025,4230.256307,4225.640922,4212.82041,4204.102461,4230.769127,4214.358871,4229.743486,4317.435792,4196.410154,4248.205024,4351.794765,4237.948614,4225.640922
58,0,4233.84605,4241.538358,4234.358871,4215.897333,4209.230666,4230.256307,4213.846051,4238.461435,4324.615279,4210.769128,4258.974255,4361.025534,4248.717845,4239.999896
59,0,4234.358871,4249.743486,4245.128101,4226.666563,4193.333231,4230.256307,4218.461435,4249.743486,4331.794766,4216.410153,4267.179383,4370.256303,4257.435793,4249.743486
60,0,4229.743486,4248.717845,4247.179383,4228.205025,4208.205025,4234.358871,4224.615281,4247.179383,4329.230663,4203.07682,4265.128101,4362.563996,4257.435793,4245.640922
61,0,4236.410153,4247.692204,4242.563999,4219.999897,4229.230666,4233.84605,4222.051179,4237.435794,4324.102458,4202.564,4261.538357,4348.205022,4262.051178,4241.538358
62,0,4245.128101,4252.307588,4241.538358,4217.948615,4215.897333,4234.871691,4216.922974,4238.461435,4324.102458,4214.871692,4261.025537,4345.640919,4268.717844,4244.615281
63,0,4238.974255,4247.692204,4237.948614,4219.487076,4193.333231,4230.769127,4216.410153,4238.974255,4317.435792,4198.461436,4253.333229,4341.025535,4259.487075,4238.461435
64,0,4227.692204,4234.358871,4232.820409,4215.897333,4191.281949,4219.487076,4214.358871,4230.256307,4306.666561,4178.974257,4243.076819,4328.205022,4242.563999,4222.563999
65,0,4228.205025,4237.948614,4240.512717,4215.897333,4206.153743,4220.512717,4216.922974,4235.897332,4308.205023,4191.281949,4244.10246,4323.076817,4244.10246,4219.487076
66,0,4236.410153,4250.769127,4250.769127,4220.512717,4221.538358,4232.307589,4225.640922,4249.230665,4313.846048,4201.538359,4250.256306,4321.538356,4253.84605,4223.58964
67,0,4232.820409,4245.640922,4245.128101,4218.461435,4213.33323,4230.256307,4226.666563,4243.076819,4304.615279,4191.794769,4245.128101,4306.666561,4246.153742,4220.512717
68,0,4218.461435,4233.84605,4232.820409,4214.358871,4203.07682,4219.487076,4217.948615,4228.717845,4293.333228,4185.640923,4234.871691,4288.717844,4234.358871,4210.769128
69,0,4212.82041,4234.871691,4229.743486,4213.33323,4204.102461,4215.384512,4213.846051,4228.205025,4292.307587,4183.076821,4231.281948,4281.538357,4232.307589,4204.102461
70,0,4218.974256,4235.384512,4232.307589,4211.281948,4201.538359,4215.384512,4216.410153,4232.307589,4293.333228,4181.538359,4232.820409,4279.999895,4233.33323,4202.051179
71,0,4221.538358,4236.410153,4238.461435,4212.307589,4197.948615,4215.897333,4217.435794,4232.307589,4293.333228,4187.692205,4232.820409,4275.384511,4238.974255,4203.589641
72,0,4219.487076,4243.076819,4242.051178,4216.410153,4197.435795,4216.410153,4215.384512,4232.307589,4294.358869,4191.281949,4232.307589,4268.205024,4243.58964,4202.051179
73,0,4220.512717,4243.58964,4236.410153,4216.410153,4212.307589,4217.435794,4215.897333,4234.358871,4291.794767,4186.153744,4231.281948,4258.974255,4238.974255,4201.538359
74,0,4217.948615,4234.358871,4229.743486,4211.794769,4221.025538,4217.948615,4217.948615,4232.820409,4283.589639,4182.564,4226.153743,4251.794768,4233.33323,4199.487077
75,0,4213.846051,4231.281948,4232.820409,4213.846051,4202.051179,4214.358871,4215.384512,4228.717845,4277.435793,4177.435795,4218.461435,4243.58964,4229.230666,4189.743487
76,0,4213.33323,4239.487076,4241.538358,4217.435794,4194.358872,4214.358871,4216.922974,4227.692204,4276.922972,4166.666565,4213.33323,4236.410153,4221.025538,4183.076821
77,0,4216.922974,4243.076819,4246.153742,4216.410153,4218.974256,4217.435794,4227.179384,4231.794768,4278.461434,4167.692206,4213.33323,4229.230666,4215.897333,4182.05118
78,0,4221.538358,4243.076819,4247.692204,4221.025538,4225.640922,4217.435794,4230.256307,4239.999896,4279.487075,4176.922975,4211.794769,4219.487076,4219.999897,4177.948616
79,0,4216.410153,4243.58964,4244.615281,4222.563999,4198.974256,4215.897333,4227.179384,4243.58964,4276.922972,4173.333231,4202.564,4202.051179,4217.948615,4168.717847
80,0,4213.33323,4243.58964,4243.58964,4218.461435,4201.025538,4216.922974,4229.743486,4242.563999,4274.35887,4169.230667,4201.538359,4187.179385,4214.871692,4164.615283
81,0,4224.615281,4247.179383,4248.717845,4221.538358,4234.871691,4220.512717,4233.84605,4246.666563,4278.974254,4179.999898,4212.82041,4188.717846,4223.07682,4173.333231
82,0,4233.33323,4251.281947,4251.281947,4227.692204,4247.179383,4218.974256,4231.794768,4250.769127,4281.538357,4189.743487,4218.461435,4188.205026,4228.717845,4179.487077
83,0,4232.307589,4250.769127,4250.256306,4229.230666,4223.07682,4213.846051,4228.205025,4246.666563,4271.794767,4184.102462,4211.794769,4173.846052,4224.102461,4175.897334
84,0,4228.205025,4249.230665,4250.256306,4227.692204,4197.948615,4211.281948,4229.743486,4244.10246,4264.10246,4171.281949,4206.153743,4156.410155,4217.435794,4170.769129
85,0,4219.999897,4248.205024,4249.230665,4223.07682,4211.281948,4215.897333,4231.281948,4246.153742,4263.076819,4169.230667,4201.025538,4142.051181,4210.769128,4166.153744
86,0,4214.871692,4243.076819,4246.666563,4217.435794,4227.692204,4218.461435,4231.794768,4245.128101,4256.410152,4171.79477,4192.30759,4124.615284,4201.025538,4157.435796
87,0,4215.897333,4240.512717,4247.179383,4216.410153,4217.948615,4210.769128,4231.281948,4244.10246,4250.256306,4167.179385,4185.640923,4105.128105,4197.948615,4152.307591
88,0,4218.461435,4243.58964,4245.640922,4217.948615,4217.435794,4203.589641,4233.33323,4247.692204,4250.769127,4167.179385,4186.666564,4087.692208,4207.692205,4153.846052
89,0,4222.051179,4247.179383,4252.307588,4223.07682,4233.84605,4203.589641,4236.922973,4251.794768,4251.281947,4185.128103,4190.256308,4072.820413,4213.33323,4157.435796
90,0,4224.102461,4247.179383,4261.538357,4228.717845,4227.179384,4200.512718,4234.871691,4249.743486,4250.256306,4182.05118,4187.692205,4054.871696,4207.179384,4152.307591
91,0,4218.461435,4245.640922,4256.922973,4226.666563,4211.794769,4193.333231,4228.205025,4243.076819,4244.615281,4155.384514,4185.128103,4029.230671,4192.82041,4139.487078
92,0,4215.897333,4244.615281,4251.794768,4225.640922,4221.025538,4195.384513,4226.666563,4242.051178,4234.871691,4156.922975,4179.999898,4002.564005,4184.615282,4136.922976
93,0,4224.615281,4247.179383,4259.487075,4230.256307,4234.871691,4203.589641,4232.820409,4247.179383,4231.281948,4175.384513,4173.846052,3979.999903,4191.794769,4142.051181
94,0,4234.358871,4259.487075,4267.692203,4236.410153,4246.666563,4206.666564,4237.948614,4251.794768,4236.922973,4175.897334,4179.999898,3966.153749,4204.615282,4144.102463
95,0,4235.897332,4265.640921,4265.128101,4242.563999,4229.743486,4202.564,4233.84605,4246.666563,4234.871691,4167.692206,4185.128103,3952.307596,4203.589641,4141.53836
96,0,4230.769127,4259.487075,4262.563998,4245.640922,4198.461436,4196.410154,4228.717845,4237.435794,4221.025538,4166.153744,4175.384513,3935.89734,4191.281949,4138.974258
97,0,4231.281948,4262.051178,4272.307588,4246.666563,4217.948615,4198.461436,4231.281948,4239.487076,4213.33323,4171.281949,4168.717847,3925.128109,4188.717846,4134.358873
98,0,4237.435794,4267.179383,4282.051177,4248.717845,4256.410152,4204.615282,4237.435794,4249.743486,4215.384512,4168.717847,4169.230667,3913.333238,4185.128103,4127.692207
99,0,4231.281948,4256.922973,4275.384511,4243.076819,4246.666563,4196.922974,4235.384512,4250.256306,4213.33323,4158.974257,4159.487078,3894.8717,4172.30759,4118.974258
100,0,4215.897333,4243.076819,4262.051178,4231.794768,4223.58964,4184.102462,4230.256307,4245.128101,4202.051179,4159.999898,4150.769129,3875.384521,4165.128103,4109.230669
101,0,4211.794769,4241.538358,4261.538357,4231.794768,4235.897332,4183.589641,4231.281948,4245.640922,4197.948615,4168.205026,4151.79477,3863.589649,4166.666565,4102.051182
102,0,4224.102461,4246.666563,4271.281947,4243.076819,4241.025537,4184.615282,4231.794768,4248.717845,4198.974256,4166.666565,4150.769129,3861.538367,4167.692206,4100.51272
103,0,4231.281948,4249.230665,4280.512716,4248.205024,4226.153743,4179.487077,4230.769127,4249.230665,4192.30759,4163.589642,4149.743488,3859.487085,4165.128103,4103.589643
104,0,4231.794768,4250.256306,4280.512716,4246.666563,4234.358871,4179.999898,4232.307589,4247.692204,4188.717846,4173.846052,4151.79477,3850.256316,4165.640924,4105.128105
105,0,4236.410153,4255.384511,4274.35887,4247.692204,4255.897332,4186.153744,4232.820409,4247.692204,4186.666564,4185.640923,4153.333232,3844.615291,4169.230667,4105.640925
106,0,4242.563999,4258.461434,4274.35887,4249.743486,4249.743486,4185.640923,4230.769127,4249.230665,4175.897334,4187.179385,4154.358873,3847.179393,4167.692206,4109.743489
107,0,4245.128101,4252.820409,4279.487075,4248.717845,4228.205025,4178.461436,4230.769127,4246.153742,4165.640924,4177.948616,4149.230668,3849.743496,4158.461437,4110.25631
108,0,4246.153742,4249.743486,4284.102459,4250.256306,4235.897332,4174.871693,4232.307589,4245.640922,4168.205026,4186.153744,4139.487078,3857.435803,4150.256309,4108.205028
109,0,4240.512717,4247.692204,4282.563998,4249.230665,4254.35887,4176.410154,4232.820409,4248.717845,4165.128103,4200.512718,4136.922976,3862.051188,4146.153745,4105.128105
110,0,4225.128102,4235.897332,4271.794767,4237.948614,4239.487076,4174.358872,4235.897332,4248.205024,4145.640924,4191.281949,4134.358873,3853.333239,4132.820412,4092.307592
111,0,4214.871692,4219.487076,4261.538357,4228.205025,4216.410153,4168.205026,4236.922973,4246.666563,4132.820412,4186.153744,4119.487079,3845.640932,4113.333233,4075.897336
112,0,4212.307589,4213.846051,4255.384511,4227.179384,4216.410153,4162.05118,4233.84605,4246.666563,4136.410155,4199.999897,4108.205028,3849.230675,4104.615284,4069.23067
113,0,4215.897333,4225.640922,4260.512716,4234.358871,4235.384512,4163.589642,4237.435794,4248.205024,4136.922976,4211.281948,4117.948617,3858.974265,4110.76913,4075.384516
114,0,4225.128102,4236.922973,4271.794767,4243.58964,4256.922973,4170.769129,4247.692204,4254.35887,4127.692207,4211.794769,4124.615284,3865.640931,4112.820412,4079.48708
115,0,4229.743486,4232.820409,4275.384511,4244.615281,4264.10246,4169.230667,4248.205024,4256.922973,4121.538361,4216.922974,4114.871694,3864.10247,4104.102464,4075.897336
116,0,4232.307589,4233.84605,4274.35887,4243.076819,4252.820409,4158.461437,4241.025537,4254.35887,4115.897335,4223.07682,4114.358874,3861.538367,4103.076823,4077.435798
117,0,4240.512717,4245.128101,4278.974254,4247.692204,4243.076819,4155.897334,4243.076819,4256.410152,4109.743489,4222.563999,4120.51272,3865.128111,4107.692207,4081.538362
118,0,4245.128101,4240.512717,4282.051177,4249.743486,4248.205024,4159.999898,4250.256306,4257.948614,4105.128105,4226.153743,4113.333233,3864.10247,4102.564002,4080.512721
119,0,4231.794768,4229.230666,4274.87169,4245.128101,4248.717845,4154.871693,4250.769127,4258.974255,4096.410156,4225.640922,4105.128105,3852.307598,4093.846054,4074.871695
120,0,4220.512717,4232.820409,4266.666562,4246.666563,4242.051178,4152.820411,4249.230665,4262.563998,4087.692208,4217.948615,4102.564002,3836.410163,4087.179387,4065.128106
121,0,4221.538358,4232.307589,4266.153742,4244.615281,4240.512717,4154.871693,4249.743486,4256.922973,4084.102464,4214.358871,4094.358874,3822.051189,4078.461439,4050.769132
122,0,4214.871692,4217.948615,4263.589639,4233.84605,4226.666563,4147.692206,4248.205024,4247.692204,4075.384516,4217.435794,4083.076823,3807.692215,4068.205029,4037.948619
123,0,4198.974256,4208.717846,4251.794768,4229.230666,4214.871692,4144.615283,4244.10246,4247.692204,4062.051183,4214.871692,4076.410157,3790.769138,4059.48708,4027.179389
124,0,4192.82041,4211.794769,4241.025537,4230.256307,4238.461435,4151.28195,4246.153742,4250.769127,4060.512721,4211.281948,4073.333234,3781.538369,4059.48708,4022.051184
125,0,4203.07682,4218.461435,4245.640922,4232.307589,4267.692203,4151.28195,4249.743486,4254.35887,4064.615285,4219.487076,4076.922977,3784.615292,4066.153747,4031.794773
126,0,4213.846051,4224.102461,4255.897332,4239.999896,4257.435793,4148.717847,4244.10246,4260.512716,4063.076824,4222.563999,4078.461439,3787.179395,4064.615285,4035.897337
127,0,4216.410153,4230.769127,4262.051178,4248.205024,4242.563999,4149.743488,4242.051178,4262.563998,4053.846055,4215.384512,4071.281952,3781.538369,4057.435798,4025.128107
128,0,4214.358871,4233.84605,4264.61528,4248.205024,4249.230665,4144.102463,4244.615281,4262.051178,4045.640927,4217.948615,4066.153747,3766.666575,4057.948619,4021.025543
0,0,4214.358871,4227.179384,4263.589639,4241.538358,4232.307589,4132.820412,4241.025537,4262.051178,4042.051183,4229.743486,4063.589644,3750.256319,4057.435798,4028.71785
1,0,4218.974256,4221.538358,4262.051178,4242.051178,4208.205025,4135.384514,4238.974255,4262.563998,4038.46144,4232.307589,4062.051183,3742.564011,4050.769132,4033.846055
2,0,4214.358871,4220.512717,4263.589639,4242.051178,4224.615281,4141.53836,4247.692204,4268.205024,4035.897337,4228.717845,4060.512721,3737.435806,4048.71785,4029.230671
3,0,4204.102461,4218.461435,4265.640921,4237.948614,4243.58964,4142.564001,4249.743486,4273.846049,4034.871696,4234.358871,4061.025542,3729.230678,4047.692209,4023.589645
4,0,4208.717846,4217.435794,4264.61528,4237.435794,4243.58964,4147.692206,4249.743486,4276.922972,4032.820414,4238.461435,4060.512721,3724.615294,4045.128106,4021.538363
5,0,4217.948615,4219.999897,4265.128101,4242.563999,4252.307588,4151.28195,4258.461434,4279.487075,4027.179389,4234.871691,4058.461439,3723.076832,4044.102465,4022.051184
6,0,4217.948615,4221.025538,4271.794767,4247.179383,4255.384511,4144.615283,4258.974255,4278.974254,4023.076825,4243.076819,4058.97426,3720.51273,4043.076824,4022.564004
7,0,4212.307589,4218.461435,4276.410152,4245.640922,4249.743486,4138.974258,4248.205024,4278.461434,4020.512722,4251.281947,4057.435798,3715.384525,4041.025542,4021.025543
8,0,4207.692205,4216.922974,4276.410152,4245.640922,4254.871691,4141.02554,4247.692204,4278.461434,4012.307594,4239.487076,4052.307593,3707.179397,4036.922978,4012.307594
9,0,4202.564,4217.948615,4273.846049,4244.10246,4256.922973,4141.02554,4256.922973,4273.333229,4004.615287,4227.179384,4047.692209,3698.461448,4027.692209,4005.128107
10,0,4201.025538,4217.435794,4268.205024,4237.948614,4246.666563,4138.461437,4256.410152,4265.640921,3998.461441,4234.871691,4043.589645,3689.7435,4022.564004,4004.102466
11,0,4203.07682,4211.794769,4264.10246,4231.794768,4231.794768,4133.846053,4247.179383,4263.076819,3985.128108,4237.435794,4037.948619,3677.948628,4019.487081,3997.94862
12,0,4198.974256,4207.179384,4265.640921,4232.820409,4212.307589,4125.128104,4246.666563,4263.076819,3973.333236,4218.974256,4030.769132,3666.153757,4010.256312,3987.69221
13,0,4189.230667,4204.102461,4267.179383,4233.84605,4222.563999,4125.640925,4250.256306,4264.10246,3968.717852,4212.307589,4022.051184,3648.717859,4000.512723,3978.974262
14,0,4187.692205,4205.128102,4262.563998,4230.769127,4255.897332,4137.435796,4249.743486,4260.512716,3959.999903,4224.615281,4016.410158,3626.153757,3999.999902,3970.769134
15,0,4197.948615,4213.846051,4263.076819,4238.461435,4264.61528,4141.53836,4253.333229,4264.10246,3959.999903,4229.230666,4020.512722,3614.871706,4007.69221,3977.4358
16,0,4201.025538,4219.999897,4270.769126,4247.692204,4258.974255,4137.948617,4261.538357,4274.87169,3966.66657,4224.102461,4022.564004,3609.743501,4011.281953,3992.307595
17,0,4195.897333,4216.410153,4267.692203,4245.128101,4252.307588,4135.384514,4255.897332,4270.769126,3959.487083,4224.615281,4011.794774,3591.281963,4006.153748,3989.230672
18,0,4199.999897,4215.384512,4258.461434,4243.076819,4245.128101,4135.384514,4250.256306,4258.974255,3949.230673,4230.256307,4003.589646,3574.358887,4001.025543,3982.051185
19,0,4203.07682,4216.410153,4260.512716,4247.179383,4257.435793,4137.435796,4258.461434,4264.10246,3952.820416,4230.769127,4006.153748,3571.281964,4006.153748,3988.205031
20,0,4198.461436,4214.871692,4264.61528,4247.692204,4269.230665,4139.487078,4263.589639,4274.35887,3957.948621,4232.307589,4008.20503,3570.769143,4010.256312,3991.794774
21,0,4200.512718,4217.948615,4264.10246,4246.666563,4256.922973,4138.461437,4259.487075,4273.333229,3952.820416,4234.358871,4007.69221,3563.076836,4009.230671,3993.333236
22,0,4196.922974,4212.82041,4261.025537,4245.640922,4247.692204,4133.333232,4261.538357,4266.666562,3943.589647,4230.769127,4004.102466,3541.025554,4002.564005,3988.717851
23,0,4186.153744,4203.07682,4258.461434,4243.58964,4245.640922,4130.256309,4267.179383,4264.61528,3937.948622,4229.743486,4000.512723,3515.384529,3991.794774,3975.384518
24,0,4190.256308,4213.846051,4259.999896,4249.230665,4248.717845,4133.333232,4264.61528,4272.307588,3941.538365,4232.307589,4004.102466,3505.128119,3995.897338,3981.025544
25,0,4204.615282,4230.256307,4265.128101,4259.999896,4277.948613,4141.53836,4264.61528,4281.538357,3943.589647,4234.358871,4007.179389,3502.051196,4005.640928,4001.538364
26,0,4212.307589,4231.794768,4272.307588,4264.61528,4303.589638,4145.640924,4270.769126,4278.974254,3942.051186,4243.076819,4004.102466,3493.333248,4007.179389,4006.153748
27,0,4210.256307,4227.179384,4276.410152,4264.61528,4285.640921,4139.999899,4270.256306,4276.410152,3941.538365,4251.281947,4006.666569,3479.999915,4007.179389,4002.564005
28,0,4204.615282,4223.58964,4270.256306,4263.076819,4255.897332,4137.948617,4262.051178,4277.948613,3940.512724,4247.692204,4008.717851,3453.333249,4008.20503,4004.102466
29,0,4198.974256,4217.435794,4261.538357,4261.538357,4254.871691,4139.999899,4263.076819,4276.410152,3940.512724,4247.692204,4001.025543,3413.33325,4006.666569,3999.487082
30,0,4200.512718,4217.948615,4265.128101,4259.999896,4267.179383,4137.948617,4273.846049,4278.974254,3941.538365,4243.076819,3996.410159,3383.07684,4005.128107,3998.461441
31,0,4202.564,4225.128102,4272.307588,4261.025537,4269.230665,4141.02554,4278.461434,4288.205023,3941.538365,4232.820409,3997.94862,3358.974277,4005.128107,4004.102466
32,0,4199.487077,4230.769127,4275.897331,4268.205024,4279.487075,4152.820411,4282.051177,4293.846049,3946.15375,4240.512717,3998.461441,3332.820431,4007.179389,4005.128107
33,0,4201.538359,4233.33323,4282.051177,4274.87169,4306.666561,4160.512719,4292.307587,4295.897331,3954.871698,4253.333229,3995.897338,3310.256329,4013.333235,4007.69221
34,0,4207.179384,4231.281948,4286.666562,4274.87169,4318.461433,4155.897334,4297.948613,4294.87169,3950.769134,4248.717845,3989.743492,3289.743509,4012.307594,4011.281953
35,0,4212.82041,4235.384512,4289.743485,4275.897331,4301.538356,4149.230668,4292.307587,4292.307587,3943.076827,4244.10246,3990.256313,3277.948638,4012.307594,4016.410158
36,0,4219.999897,4246.153742,4294.87169,4285.640921,4284.61528,4149.743488,4289.743485,4294.358869,3952.307596,4249.230665,3999.999902,3287.179407,4023.589645,4025.128107
37,0,4229.230666,4251.794768,4297.948613,4295.38451,4278.461434,4150.769129,4289.230664,4296.410151,3959.487083,4248.717845,4007.69221,3298.461458,4030.769132,4034.871696
38,0,4233.84605,4251.281947,4296.922972,4296.922972,4281.025536,4144.102463,4282.563998,4290.769126,3952.820416,4246.666563,4006.153748,3298.461458,4029.743491,4039.487081
39,0,4227.692204,4252.307588,4295.38451,4294.87169,4300.512715,4138.974258,4279.487075,4288.205023,3952.820416,4246.153742,4004.615287,3287.179407,4029.743491,4039.487081
40,0,4220.512717,4253.333229,4296.922972,4293.846049,4311.281946,4141.02554,4282.051177,4294.358869,3960.512724,4248.205024,4008.717851,3256.922997,4031.281953,4036.410158
41,0,4218.974256,4250.769127,4297.948613,4297.435792,4296.410151,4141.02554,4282.563998,4296.922972,3961.025544,4250.256306,4013.846056,3229.743511,4035.384517,4037.435799
42,0,4217.435794,4251.281947,4291.281946,4299.487074,4293.333228,4138.974258,4284.61528,4293.846049,3959.487083,4252.820409,4013.846056,3233.846075,4039.487081,4041.538363
43,0,4205.128102,4246.153742,4279.487075,4290.769126,4294.87169,4138.461437,4288.717844,4293.846049,3959.487083,4248.205024,4007.69221,3246.153767,4033.333235,4033.846055
44,0,4193.846051,4233.84605,4273.846049,4278.974254,4292.307587,4135.384514,4292.307587,4295.897331,3959.487083,4235.384512,4001.538364,3243.589664,4022.051184,4020.512722
45,0,4193.333231,4230.256307,4276.410152,4277.948613,4296.922972,4137.435796,4293.333228,4295.897331,3965.640929,4240.512717,4000.512723,3245.128126,4019.487081,4016.922979
46,0,4188.717846,4230.769127,4275.897331,4280.512716,4293.846049,4136.410155,4292.820408,4294.87169,3973.333236,4248.717845,4002.051184,3256.922997,4021.538363,4020.512722
47,0,4188.205026,4229.743486,4274.87169,4276.922972,4280.512716,4126.666566,4291.281946,4292.820408,3973.846057,4239.999896,4002.051184,3268.205048,4018.974261,4025.640927
