title:V                                                                               , recorded:07.07.20 12.12.17, sampling:128, subject:B                                                                               , labels:COUNTER INTERPOLATED AF3 F7 F3 FC5 T7 P7 O1 O2 P8 T8 FC6 F4 F8 AF4,, units:emotiv,,,,,,,,,
3,0,4201.025538,4199.999897,4201.538359,4199.999897,4202.051179,4184.615282,4190.256308,4186.153744,4187.179385,4198.974256,4083.589644,4189.743487,4194.871692,4185.128103
4,0,4202.564,4199.487077,4198.974256,4199.999897,4197.435795,4184.615282,4194.358872,4181.538359,4190.256308,4194.358872,4070.769131,4186.666564,4189.230667,4182.05118
5,0,4187.692205,4198.974256,4197.435795,4201.538359,4190.256308,4188.205026,4198.974256,4191.794769,4199.999897,4196.922974,4075.384516,4186.666564,4194.871692,4183.589641
6,0,4198.461436,4202.564,4202.051179,4204.102461,4196.410154,4187.179385,4202.051179,4200.512718,4202.564,4208.205025,4092.307592,4191.281949,4206.666564,4190.256308
7,0,4202.564,4199.999897,4199.487077,4200.512718,4201.025538,4188.717846,4198.974256,4193.846051,4202.051179,4206.666564,4092.307592,4189.743487,4202.564,4188.717846
8,0,4181.538359,4189.230667,4190.769128,4192.30759,4198.974256,4193.846051,4198.461436,4185.640923,4202.051179,4194.358872,4085.128105,4183.076821,4190.256308,4178.461436
9,0,4184.615282,4187.179385,4189.230667,4188.717846,4192.82041,4194.358872,4200.512718,4189.230667,4202.564,4198.461436,4086.153746,4185.128103,4193.333231,4175.897334
10,0,4201.025538,4188.717846,4195.384513,4190.769128,4183.589641,4190.256308,4200.512718,4191.281949,4202.051179,4204.615282,4083.076823,4190.256308,4198.974256,4182.05118
11,0,4191.794769,4187.692205,4197.435795,4192.82041,4183.076821,4188.717846,4199.999897,4185.640923,4197.948615,4190.256308,4077.948618,4186.153744,4189.743487,4184.615282
12,0,4180.512718,4192.30759,4194.358872,4192.30759,4192.30759,4190.256308,4201.025538,4184.102462,4196.410154,4184.615282,4083.589644,4183.076821,4185.128103,4184.102462
13,0,4185.128103,4196.922974,4193.846051,4193.846051,4197.948615,4195.897333,4202.564,4187.179385,4201.025538,4202.051179,4088.717849,4187.179385,4189.743487,4184.615282
14,0,4191.794769,4194.871692,4194.358872,4197.948615,4201.025538,4200.512718,4199.487077,4185.640923,4197.435795,4203.07682,4077.435798,4187.692205,4186.666564,4179.999898
15,0,4201.538359,4198.461436,4196.410154,4199.487077,4199.487077,4193.846051,4198.461436,4183.076821,4193.333231,4185.640923,4071.794772,4184.615282,4181.025539,4181.025539
16,0,4206.153743,4199.999897,4198.461436,4197.948615,4190.769128,4184.102462,4200.512718,4187.179385,4197.435795,4181.025539,4079.9999,4186.666564,4184.615282,4186.666564
17,0,4201.025538,4193.333231,4197.948615,4197.435795,4183.589641,4184.102462,4199.487077,4195.384513,4200.512718,4196.410154,4088.205028,4193.333231,4192.82041,4185.128103
18,0,4202.564,4197.435795,4201.025538,4199.487077,4183.589641,4188.205026,4200.512718,4199.999897,4208.205025,4208.717846,4096.922977,4201.025538,4199.999897,4191.794769
19,0,4201.538359,4204.615282,4203.589641,4199.999897,4185.128103,4188.205026,4203.07682,4202.051179,4215.897333,4208.717846,4102.051182,4205.128102,4204.615282,4202.051179
20,0,4198.461436,4199.999897,4201.025538,4195.384513,4187.179385,4185.128103,4201.025538,4202.564,4209.230666,4208.205025,4093.846054,4203.07682,4202.051179,4200.512718
21,0,4207.692205,4195.384513,4198.461436,4189.743487,4187.692205,4185.640923,4197.948615,4197.435795,4201.025538,4206.666564,4088.205028,4201.025538,4197.435795,4199.999897
22,0,4209.230666,4190.256308,4195.897333,4186.666564,4184.102462,4185.128103,4196.410154,4191.281949,4203.07682,4199.999897,4092.820413,4198.974256,4197.435795,4198.461436
23,0,4195.897333,4183.076821,4188.717846,4185.640923,4182.564,4183.076821,4193.846051,4190.769128,4203.589641,4201.538359,4094.871695,4191.794769,4196.922974,4186.666564
24,0,4195.897333,4184.102462,4183.076821,4185.640923,4186.666564,4185.640923,4189.230667,4189.230667,4199.487077,4199.999897,4089.230669,4189.743487,4189.743487,4179.487077
25,0,4200.512718,4190.769128,4188.205026,4186.153744,4188.205026,4185.128103,4186.153744,4184.102462,4197.948615,4183.076821,4088.205028,4196.410154,4183.589641,4184.615282
26,0,4184.615282,4190.256308,4190.256308,4186.153744,4183.076821,4184.615282,4189.743487,4183.076821,4198.461436,4183.589641,4091.281951,4198.461436,4184.102462,4187.692205
27,0,4182.05118,4186.153744,4187.179385,4193.333231,4183.076821,4191.281949,4198.461436,4188.205026,4200.512718,4204.102461,4092.820413,4195.897333,4187.179385,4187.179385
28,0,4201.538359,4186.666564,4191.794769,4195.384513,4186.666564,4192.30759,4202.051179,4194.871692,4203.589641,4206.666564,4091.794772,4197.948615,4186.153744,4187.179385
29,0,4209.743487,4191.281949,4199.999897,4188.717846,4186.153744,4189.743487,4199.487077,4200.512718,4208.717846,4199.487077,4095.897336,4199.487077,4184.102462,4184.615282
30,0,4205.128102,4199.487077,4202.051179,4194.871692,4192.30759,4194.871692,4200.512718,4200.512718,4211.794769,4202.564,4108.717848,4202.051179,4193.333231,4187.692205
31,0,4206.153743,4199.487077,4201.538359,4202.051179,4199.999897,4200.512718,4202.564,4199.487077,4206.666564,4206.153743,4107.692207,4205.128102,4199.487077,4194.358872
32,0,4206.666564,4191.794769,4201.538359,4190.769128,4200.512718,4201.025538,4201.025538,4199.487077,4204.615282,4202.564,4093.846054,4200.512718,4190.769128,4191.794769
33,0,4196.922974,4189.743487,4200.512718,4184.102462,4195.897333,4202.564,4201.538359,4199.999897,4205.128102,4199.487077,4087.692208,4196.922974,4185.128103,4184.102462
34,0,4190.769128,4191.281949,4194.871692,4190.769128,4188.205026,4194.358872,4201.538359,4196.922974,4201.025538,4197.948615,4091.281951,4196.410154,4186.666564,4178.974257
35,0,4187.692205,4185.128103,4189.230667,4189.230667,4187.179385,4187.692205,4198.974256,4192.82041,4197.948615,4192.30759,4090.769131,4190.769128,4183.076821,4173.846052
36,0,4187.179385,4181.025539,4186.153744,4183.076821,4194.358872,4197.435795,4199.999897,4195.897333,4198.461436,4184.102462,4085.640926,4187.692205,4178.974257,4167.692206
37,0,4194.358872,4184.102462,4188.717846,4185.128103,4193.333231,4202.051179,4201.538359,4201.025538,4200.512718,4184.615282,4090.769131,4193.846051,4182.05118,4171.79477
38,0,4202.564,4186.666564,4196.410154,4188.205026,4188.205026,4197.948615,4201.025538,4198.974256,4202.051179,4196.922974,4103.589643,4201.025538,4190.769128,4181.025539
39,0,4206.666564,4187.692205,4197.948615,4188.717846,4190.769128,4198.461436,4200.512718,4197.435795,4199.999897,4205.640923,4108.717848,4202.564,4198.461436,4183.589641
40,0,4203.589641,4189.230667,4191.794769,4189.230667,4186.153744,4200.512718,4197.948615,4198.974256,4198.461436,4201.538359,4105.128105,4199.999897,4196.410154,4181.025539
41,0,4199.487077,4189.743487,4194.358872,4192.82041,4187.179385,4199.999897,4196.410154,4198.974256,4202.051179,4201.025538,4111.794771,4202.564,4196.410154,4184.102462
42,0,4203.589641,4187.179385,4204.615282,4192.30759,4200.512718,4197.435795,4194.871692,4198.974256,4206.153743,4210.256307,4124.615284,4209.230666,4206.153743,4190.256308
43,0,4210.769128,4185.128103,4202.051179,4187.692205,4197.435795,4193.333231,4190.769128,4202.564,4204.615282,4207.692205,4121.538361,4206.153743,4202.051179,4184.615282
44,0,4199.487077,4184.102462,4192.30759,4186.153744,4186.153744,4196.922974,4191.794769,4199.487077,4201.025538,4194.358872,4113.333233,4198.974256,4187.179385,4174.358872
45,0,4185.640923,4176.410154,4189.743487,4185.128103,4183.589641,4201.025538,4197.435795,4189.743487,4201.538359,4197.435795,4116.922976,4194.871692,4185.640923,4171.79477
46,0,4190.769128,4172.30759,4188.717846,4182.05118,4186.153744,4192.30759,4191.281949,4182.05118,4197.435795,4202.051179,4121.538361,4189.230667,4187.179385,4169.230667
47,0,4194.358872,4180.512718,4185.128103,4182.564,4195.384513,4186.153744,4182.05118,4180.512718,4186.153744,4191.281949,4125.128104,4188.717846,4184.102462,4166.666565
48,0,4184.615282,4187.179385,4185.128103,4183.589641,4193.846051,4194.358872,4187.179385,4185.128103,4188.717846,4190.256308,4140.512719,4196.922974,4187.692205,4173.846052
49,0,4189.230667,4185.128103,4192.30759,4184.102462,4182.564,4199.487077,4192.82041,4191.281949,4201.538359,4197.948615,4158.461437,4199.999897,4190.769128,4182.564
50,0,4209.230666,4185.640923,4199.487077,4190.256308,4188.205026,4199.487077,4193.846051,4194.871692,4201.025538,4197.948615,4170.256308,4198.461436,4189.743487,4182.05118
51,0,4219.487076,4194.871692,4201.538359,4199.999897,4206.153743,4203.07682,4199.487077,4200.512718,4201.025538,4208.717846,4186.153744,4202.564,4197.435795,4183.589641
52,0,4215.897333,4202.051179,4198.461436,4200.512718,4204.102461,4205.128102,4203.589641,4205.640923,4211.794769,4222.051179,4209.743487,4204.615282,4202.051179,4190.769128
53,0,4211.794769,4197.435795,4191.794769,4194.358872,4195.384513,4202.564,4199.999897,4205.128102,4208.717846,4208.717846,4223.58964,4196.410154,4190.769128,4182.564
54,0,4197.948615,4189.743487,4190.256308,4196.922974,4207.179384,4201.538359,4198.974256,4204.615282,4198.974256,4197.948615,4236.410153,4191.281949,4184.615282,4168.205026
55,0,4188.205026,4188.717846,4191.281949,4195.384513,4210.256307,4201.025538,4201.025538,4205.128102,4198.974256,4208.205025,4254.871691,4193.846051,4190.256308,4171.79477
56,0,4192.82041,4188.205026,4188.717846,4185.128103,4192.30759,4200.512718,4200.512718,4200.512718,4200.512718,4203.07682,4259.487075,4191.281949,4182.05118,4168.205026
57,0,4188.205026,4181.025539,4185.640923,4184.102462,4188.205026,4201.538359,4199.999897,4198.461436,4196.922974,4186.666564,4258.461434,4188.717846,4171.79477,4154.358873
58,0,4185.640923,4171.281949,4184.102462,4181.025539,4201.538359,4201.538359,4198.461436,4197.435795,4187.692205,4192.82041,4273.846049,4193.333231,4182.05118,4165.640924
59,0,4206.153743,4171.79477,4187.179385,4175.384513,4197.948615,4198.974256,4196.410154,4197.435795,4186.666564,4203.07682,4291.794767,4199.999897,4198.974256,4193.846051
60,0,4223.58964,4184.102462,4194.871692,4181.538359,4189.743487,4199.999897,4198.974256,4199.999897,4196.922974,4197.948615,4299.487074,4205.640923,4207.692205,4201.538359
61,0,4217.948615,4187.179385,4202.564,4188.205026,4197.435795,4202.051179,4201.538359,4199.999897,4202.051179,4202.564,4313.846048,4213.846051,4212.307589,4199.487077
62,0,4214.871692,4184.102462,4205.128102,4187.179385,4204.615282,4202.051179,4200.512718,4206.153743,4204.102461,4220.512717,4331.794766,4217.435794,4219.487076,4208.205025
63,0,4227.179384,4193.333231,4207.692205,4195.897333,4204.615282,4201.025538,4202.564,4215.897333,4215.384512,4225.128102,4339.999894,4215.897333,4225.640922,4216.410153
64,0,4231.794768,4204.102461,4209.743487,4203.589641,4205.640923,4204.615282,4204.102461,4211.281948,4215.384512,4218.461435,4335.384509,4218.974256,4223.58964,4211.794769
65,0,4214.871692,4201.025538,4203.589641,4191.794769,4207.692205,4207.179384,4199.487077,4198.461436,4203.07682,4213.846051,4320.512715,4215.897333,4218.461435,4200.512718
66,0,4199.487077,4191.794769,4197.948615,4185.640923,4205.640923,4203.07682,4197.435795,4200.512718,4207.692205,4218.461435,4307.179382,4204.102461,4212.82041,4197.948615
67,0,4217.948615,4188.205026,4197.435795,4189.230667,4201.538359,4198.974256,4199.999897,4211.281948,4217.948615,4221.538358,4299.999895,4199.487077,4206.153743,4200.512718
68,0,4235.384512,4188.717846,4197.948615,4185.128103,4197.948615,4201.538359,4201.538359,4211.281948,4214.871692,4216.410153,4294.87169,4208.205025,4204.102461,4199.487077
69,0,4230.769127,4191.281949,4200.512718,4184.615282,4202.051179,4204.102461,4204.102461,4212.307589,4214.871692,4213.33323,4295.897331,4217.948615,4216.922974,4204.615282
70,0,4226.153743,4196.922974,4204.102461,4194.358872,4209.743487,4205.128102,4209.230666,4213.846051,4215.897333,4219.487076,4294.87169,4214.358871,4221.025538,4210.256307
71,0,4225.128102,4194.358872,4199.999897,4190.256308,4206.153743,4206.153743,4205.128102,4206.666564,4207.692205,4211.794769,4277.435793,4201.538359,4204.102461,4201.025538
72,0,4217.948615,4184.615282,4195.384513,4181.538359,4200.512718,4207.692205,4199.487077,4202.564,4205.640923,4200.512718,4272.820408,4198.974256,4200.512718,4194.871692
73,0,4219.487076,4192.82041,4203.07682,4191.281949,4201.538359,4205.128102,4203.07682,4208.205025,4208.717846,4210.769128,4291.281946,4210.769128,4217.435794,4208.205025
74,0,4224.615281,4205.640923,4205.640923,4196.410154,4202.051179,4195.897333,4199.999897,4207.179384,4203.589641,4215.384512,4287.179382,4208.717846,4218.461435,4212.307589
75,0,4213.33323,4189.230667,4193.333231,4182.564,4196.410154,4191.794769,4189.743487,4195.897333,4197.435795,4201.025538,4264.10246,4194.358872,4196.410154,4195.897333
76,0,4213.846051,4178.974257,4190.256308,4179.999898,4195.897333,4198.461436,4191.794769,4198.461436,4201.538359,4202.051179,4268.717844,4194.871692,4194.358872,4193.333231
77,0,4231.281948,4198.461436,4201.538359,4195.384513,4201.538359,4201.025538,4200.512718,4209.230666,4210.256307,4215.897333,4287.179382,4207.692205,4214.358871,4203.589641
78,0,4233.84605,4204.102461,4203.589641,4196.922974,4199.999897,4197.948615,4199.999897,4212.82041,4216.410153,4226.666563,4288.717844,4213.33323,4218.461435,4202.564
79,0,4231.794768,4197.435795,4198.461436,4190.769128,4199.487077,4203.07682,4201.538359,4214.358871,4218.461435,4233.33323,4292.307587,4217.435794,4215.384512,4207.692205
80,0,4228.717845,4202.051179,4206.153743,4198.461436,4204.615282,4207.692205,4206.153743,4210.769128,4212.307589,4223.07682,4296.922972,4222.051179,4219.999897,4222.051179
81,0,4217.435794,4199.999897,4211.281948,4198.974256,4198.974256,4197.435795,4203.589641,4203.07682,4203.07682,4201.538359,4283.589639,4215.384512,4214.871692,4216.922974
82,0,4220.512717,4189.743487,4206.666564,4189.230667,4189.230667,4193.333231,4199.487077,4198.461436,4199.487077,4198.461436,4270.256306,4211.281948,4203.07682,4208.205025
83,0,4228.205025,4189.230667,4205.640923,4189.230667,4194.871692,4198.974256,4199.487077,4196.410154,4196.410154,4205.128102,4264.61528,4213.846051,4199.487077,4207.692205
84,0,4218.974256,4189.743487,4208.205025,4190.769128,4202.564,4199.999897,4197.948615,4192.30759,4191.794769,4199.999897,4259.487075,4211.281948,4201.538359,4205.640923
85,0,4218.974256,4184.615282,4205.128102,4184.615282,4201.025538,4197.435795,4194.871692,4193.333231,4195.384513,4198.974256,4254.871691,4205.128102,4197.948615,4197.435795
86,0,4221.538358,4182.564,4201.538359,4187.179385,4193.333231,4195.384513,4195.384513,4199.487077,4200.512718,4200.512718,4248.717845,4204.615282,4184.102462,4186.666564
87,0,4211.281948,4183.589641,4206.666564,4190.256308,4187.692205,4192.82041,4199.487077,4201.025538,4201.025538,4198.461436,4253.333229,4208.205025,4187.692205,4187.692205
88,0,4222.051179,4185.640923,4214.871692,4187.179385,4190.256308,4193.846051,4197.948615,4206.666564,4208.205025,4203.589641,4275.897331,4216.922974,4222.051179,4211.794769
89,0,4241.538358,4188.205026,4218.461435,4190.256308,4195.897333,4199.999897,4196.410154,4216.410153,4215.897333,4219.999897,4295.897331,4228.717845,4250.769127,4235.384512
90,0,4233.84605,4188.717846,4218.974256,4192.30759,4193.333231,4201.025538,4201.538359,4221.538358,4217.948615,4237.435794,4292.820408,4235.897332,4248.717845,4236.922973
91,0,4225.128102,4187.179385,4218.974256,4186.153744,4187.692205,4199.487077,4199.999897,4215.897333,4214.358871,4237.435794,4282.563998,4233.33323,4238.461435,4232.307589
92,0,4231.794768,4182.05118,4214.358871,4183.589641,4189.230667,4198.461436,4190.256308,4203.589641,4208.205025,4222.051179,4278.974254,4222.563999,4234.358871,4229.743486
93,0,4231.794768,4179.999898,4205.128102,4184.615282,4196.410154,4198.974256,4191.794769,4200.512718,4208.205025,4208.717846,4272.307588,4215.384512,4232.820409,4223.07682
94,0,4214.871692,4183.076821,4204.102461,4185.128103,4204.615282,4200.512718,4201.025538,4202.051179,4211.794769,4213.846051,4263.589639,4216.410153,4233.33323,4215.384512
95,0,4200.512718,4176.410154,4203.07682,4184.615282,4198.974256,4201.025538,4201.025538,4202.051179,4212.307589,4228.717845,4253.333229,4213.33323,4229.743486,4206.666564
96,0,4210.256307,4169.743488,4200.512718,4179.487077,4187.692205,4201.025538,4196.922974,4210.256307,4217.948615,4233.33323,4244.10246,4209.743487,4230.769127,4208.205025
97,0,4226.666563,4181.025539,4204.102461,4179.999898,4196.410154,4202.051179,4201.025538,4222.051179,4223.58964,4234.358871,4244.10246,4217.435794,4241.025537,4217.435794
98,0,4214.358871,4186.666564,4205.640923,4183.589641,4209.743487,4202.051179,4203.589641,4218.974256,4217.948615,4230.769127,4242.563999,4218.974256,4239.999896,4213.33323
99,0,4193.846051,4173.333231,4197.948615,4178.461436,4204.615282,4201.538359,4199.487077,4213.33323,4214.358871,4220.512717,4232.820409,4208.205025,4232.307589,4207.692205
100,0,4203.07682,4166.666565,4193.846051,4172.820411,4194.871692,4202.564,4198.461436,4217.435794,4217.435794,4215.384512,4222.563999,4203.589641,4230.256307,4211.281948
101,0,4211.794769,4171.281949,4199.999897,4174.358872,4196.410154,4199.487077,4198.974256,4213.33323,4214.358871,4218.461435,4216.922974,4205.128102,4225.640922,4206.666564
102,0,4203.589641,4173.333231,4199.999897,4179.487077,4202.051179,4200.512718,4199.999897,4205.128102,4212.82041,4221.538358,4212.82041,4205.128102,4216.410153,4193.846051
103,0,4200.512718,4169.743488,4192.30759,4179.999898,4201.538359,4209.230666,4202.564,4209.230666,4215.384512,4218.974256,4213.846051,4202.564,4214.358871,4192.30759
104,0,4195.897333,4163.589642,4190.769128,4170.769129,4194.871692,4211.281948,4202.051179,4214.871692,4215.384512,4216.410153,4223.07682,4202.051179,4215.384512,4195.897333
105,0,4195.897333,4163.589642,4197.948615,4168.717847,4192.82041,4208.717846,4201.538359,4213.33323,4214.358871,4221.538358,4239.999896,4207.179384,4218.461435,4196.922974
106,0,4215.897333,4177.948616,4205.128102,4183.589641,4202.051179,4208.717846,4208.205025,4215.897333,4218.461435,4231.794768,4264.61528,4216.922974,4231.794768,4206.666564
107,0,4219.999897,4187.692205,4206.666564,4190.769128,4205.640923,4204.615282,4210.769128,4220.512717,4221.538358,4224.615281,4284.61528,4217.948615,4234.358871,4212.307589
108,0,4205.128102,4183.076821,4208.717846,4185.640923,4200.512718,4203.07682,4204.615282,4215.384512,4217.948615,4213.846051,4298.461433,4213.846051,4219.999897,4203.07682
109,0,4215.384512,4183.076821,4212.82041,4190.256308,4209.230666,4207.692205,4203.07682,4214.358871,4215.897333,4222.051179,4321.538356,4215.897333,4217.948615,4203.589641
110,0,4232.820409,4191.281949,4214.358871,4197.948615,4216.922974,4206.153743,4204.615282,4217.435794,4217.948615,4224.615281,4353.846047,4220.512717,4229.230666,4213.33323
111,0,4233.84605,4193.846051,4210.769128,4198.461436,4205.128102,4199.999897,4203.07682,4215.384512,4218.461435,4222.051179,4387.6922,4224.102461,4236.410153,4219.999897
112,0,4224.102461,4184.615282,4203.07682,4187.692205,4194.358872,4201.025538,4200.512718,4215.384512,4217.948615,4230.256307,4413.333225,4223.58964,4234.871691,4218.461435
113,0,4210.256307,4176.922975,4201.025538,4178.461436,4198.974256,4200.512718,4199.999897,4219.999897,4218.461435,4227.179384,4432.307584,4215.384512,4227.179384,4207.692205
114,0,4213.33323,4190.256308,4202.051179,4188.205026,4210.256307,4201.538359,4201.025538,4216.922974,4213.846051,4215.384512,4450.256301,4206.666564,4218.461435,4203.589641
115,0,4230.256307,4210.256307,4201.538359,4199.999897,4206.666564,4205.640923,4201.538359,4205.128102,4206.153743,4214.871692,4463.589634,4201.025538,4205.640923,4208.205025
116,0,4236.922973,4215.384512,4204.615282,4199.999897,4196.410154,4203.589641,4198.461436,4198.974256,4202.564,4211.794769,4476.922967,4200.512718,4195.384513,4212.82041
117,0,4254.35887,4223.07682,4215.897333,4206.153743,4206.153743,4202.051179,4200.512718,4205.640923,4205.128102,4203.07682,4508.205018,4211.281948,4210.256307,4232.820409
118,0,4284.61528,4232.307589,4221.538358,4216.410153,4215.384512,4204.615282,4203.07682,4208.717846,4204.102461,4205.128102,4547.179376,4222.051179,4232.307589,4271.794767
119,0,4299.487074,4228.717845,4219.999897,4215.384512,4203.589641,4200.512718,4192.82041,4200.512718,4200.512718,4204.615282,4569.230657,4220.512717,4234.871691,4296.410151
120,0,4313.846048,4233.84605,4227.692204,4214.871692,4199.999897,4195.897333,4184.615282,4194.358872,4197.435795,4197.948615,4587.692196,4223.07682,4238.974255,4316.410151
121,0,4347.179381,4249.743486,4240.512717,4225.640922,4207.179384,4199.999897,4195.384513,4202.051179,4199.487077,4204.615282,4617.435785,4242.051178,4254.871691,4351.794765
122,0,4364.615278,4253.84605,4244.10246,4234.358871,4199.999897,4202.051179,4205.640923,4208.717846,4202.564,4216.922974,4636.410143,4248.205024,4256.922973,4365.128098
123,0,4347.179381,4249.230665,4237.435794,4230.769127,4193.846051,4197.948615,4197.435795,4203.589641,4198.974256,4204.615282,4636.922964,4233.84605,4242.563999,4347.692201
124,0,4327.692202,4241.025537,4230.769127,4219.999897,4197.435795,4195.384513,4190.769128,4197.948615,4197.435795,4186.153744,4636.922964,4227.692204,4233.33323,4328.717843
125,0,4316.922971,4229.743486,4227.692204,4213.33323,4196.410154,4198.461436,4196.922974,4201.538359,4202.564,4195.897333,4643.07681,4227.692204,4230.256307,4314.871689
126,0,4303.076818,4230.256307,4225.640922,4216.922974,4197.435795,4202.051179,4201.025538,4202.564,4203.589641,4209.230666,4652.820399,4220.512717,4223.58964,4297.948613
127,0,4292.307587,4237.435794,4226.153743,4221.025538,4203.07682,4201.538359,4199.487077,4201.538359,4201.025538,4202.051179,4661.025527,4217.948615,4215.897333,4282.051177
128,0,4285.640921,4231.281948,4224.102461,4217.948615,4198.974256,4198.974256,4197.435795,4203.07682,4202.564,4195.897333,4664.615271,4217.948615,4217.435794,4269.743485
0,0,4274.35887,4219.487076,4218.461435,4214.358871,4198.461436,4200.512718,4198.974256,4201.538359,4203.589641,4201.538359,4661.025527,4215.897333,4215.384512,4256.922973
1,0,4261.025537,4218.461435,4218.461435,4215.384512,4206.666564,4202.564,4199.487077,4199.999897,4203.07682,4206.153743,4652.307579,4215.897333,4206.153743,4247.179383
2,0,4246.666563,4219.487076,4214.358871,4213.33323,4197.948615,4201.538359,4199.487077,4198.461436,4196.410154,4195.384513,4639.487066,4208.205025,4200.512718,4232.820409
3,0,4231.281948,4214.358871,4203.07682,4205.128102,4182.564,4199.487077,4198.461436,4189.743487,4188.717846,4179.999898,4619.999887,4196.410154,4191.281949,4217.948615
4,0,4226.666563,4213.846051,4198.974256,4201.538359,4189.743487,4199.999897,4197.435795,4185.640923,4194.871692,4188.205026,4600.512708,4198.974256,4184.102462,4212.82041
5,0,4223.58964,4213.846051,4201.025538,4201.538359,4196.410154,4201.025538,4195.384513,4188.205026,4197.435795,4195.384513,4584.102452,4198.974256,4185.128103,4206.666564
6,0,4209.743487,4205.640923,4200.512718,4200.512718,4182.564,4198.974256,4193.333231,4185.128103,4185.640923,4179.999898,4570.769119,4190.769128,4184.102462,4196.922974
7,0,4205.640923,4207.179384,4203.07682,4201.538359,4184.615282,4198.974256,4197.435795,4187.179385,4189.230667,4183.589641,4564.615273,4194.871692,4183.589641,4203.589641
8,0,4212.82041,4216.410153,4209.230666,4204.102461,4203.589641,4204.102461,4203.589641,4199.487077,4205.640923,4201.025538,4564.615273,4204.615282,4189.230667,4214.871692
9,0,4218.461435,4209.230666,4206.666564,4203.589641,4201.538359,4204.102461,4203.07682,4201.025538,4203.589641,4193.846051,4559.487068,4202.564,4189.743487,4206.153743
10,0,4217.435794,4197.948615,4201.538359,4202.564,4194.871692,4199.999897,4198.974256,4194.871692,4195.384513,4183.589641,4546.153735,4198.974256,4183.589641,4194.358872
11,0,4212.82041,4204.102461,4199.999897,4204.102461,4195.384513,4201.025538,4201.025538,4197.948615,4201.025538,4192.82041,4537.948607,4200.512718,4184.615282,4193.333231
12,0,4212.82041,4208.205025,4202.051179,4202.564,4193.846051,4202.051179,4203.07682,4203.07682,4205.640923,4199.487077,4539.487068,4203.07682,4186.666564,4196.922974
13,0,4208.717846,4200.512718,4201.538359,4198.974256,4188.717846,4202.564,4202.051179,4203.07682,4202.051179,4196.410154,4531.794761,4201.538359,4186.153744,4197.948615
14,0,4203.07682,4197.435795,4200.512718,4198.461436,4185.640923,4206.153743,4208.205025,4203.07682,4200.512718,4194.358872,4511.794761,4199.999897,4189.743487,4200.512718
15,0,4211.794769,4204.102461,4204.102461,4201.025538,4190.256308,4205.640923,4213.846051,4207.692205,4204.615282,4197.948615,4502.051172,4208.205025,4199.999897,4207.692205
16,0,4221.025538,4205.128102,4206.666564,4202.564,4200.512718,4204.102461,4210.769128,4209.743487,4208.205025,4204.102461,4495.384505,4215.384512,4204.615282,4209.230666
17,0,4199.487077,4198.974256,4203.07682,4202.564,4203.589641,4205.640923,4206.666564,4204.102461,4204.102461,4198.974256,4475.384506,4207.179384,4195.384513,4200.512718
18,0,4185.640923,4201.538359,4202.051179,4202.051179,4198.461436,4202.564,4205.640923,4203.589641,4199.999897,4197.948615,4466.153737,4202.564,4191.281949,4198.461436
19,0,4207.692205,4203.589641,4201.025538,4203.589641,4198.974256,4196.922974,4199.999897,4209.743487,4203.589641,4210.256307,4473.846044,4209.743487,4198.461436,4202.564
20,0,4224.615281,4200.512718,4198.974256,4202.564,4200.512718,4202.051179,4199.487077,4210.769128,4211.281948,4211.794769,4472.820403,4213.846051,4202.564,4201.025538
21,0,4216.410153,4205.640923,4200.512718,4199.999897,4199.999897,4209.230666,4209.743487,4207.179384,4211.794769,4200.512718,4472.307583,4212.82041,4203.07682,4204.615282
22,0,4209.743487,4215.384512,4202.051179,4205.128102,4198.461436,4207.179384,4211.794769,4211.281948,4208.717846,4196.922974,4486.153736,4217.435794,4209.230666,4215.897333
23,0,4218.461435,4213.33323,4201.025538,4208.717846,4189.743487,4201.025538,4204.102461,4214.871692,4214.358871,4203.589641,4492.820403,4216.922974,4212.82041,4216.922974
24,0,4212.307589,4209.743487,4201.538359,4204.615282,4189.230667,4199.487077,4202.051179,4208.205025,4216.410153,4203.589641,4489.74348,4208.717846,4205.640923,4207.179384
25,0,4186.153744,4210.769128,4201.025538,4205.128102,4200.512718,4202.564,4204.102461,4202.051179,4205.640923,4198.974256,4494.358864,4201.538359,4195.897333,4199.999897
26,0,4186.666564,4204.615282,4198.461436,4206.666564,4201.538359,4202.564,4201.025538,4201.025538,4198.461436,4201.538359,4504.102454,4200.512718,4193.333231,4199.487077
27,0,4212.307589,4198.461436,4198.974256,4198.974256,4189.230667,4196.922974,4197.435795,4199.999897,4201.025538,4204.102461,4508.717838,4202.564,4198.461436,4201.025538
28,0,4213.846051,4199.999897,4198.461436,4194.871692,4184.102462,4195.384513,4197.948615,4198.461436,4202.564,4195.897333,4509.230659,4202.564,4198.974256,4201.538359
29,0,4197.435795,4198.974256,4197.435795,4199.487077,4186.153744,4197.948615,4198.974256,4198.974256,4199.999897,4187.179385,4509.743479,4201.025538,4192.30759,4199.487077
30,0,4200.512718,4199.999897,4199.487077,4202.564,4187.179385,4202.051179,4206.153743,4207.179384,4203.07682,4195.897333,4504.615274,4202.051179,4189.230667,4201.025538
31,0,4209.743487,4203.07682,4200.512718,4202.564,4189.743487,4208.205025,4215.384512,4213.846051,4208.205025,4205.128102,4496.410146,4204.615282,4191.281949,4198.974256
32,0,4196.922974,4199.487077,4196.410154,4199.999897,4195.897333,4211.281948,4211.281948,4206.666564,4206.666564,4195.384513,4485.128095,4201.025538,4188.717846,4187.692205
33,0,4178.461436,4195.897333,4193.333231,4197.435795,4198.461436,4207.179384,4205.640923,4199.487077,4200.512718,4190.769128,4474.871685,4196.410154,4184.615282,4188.205026
34,0,4188.205026,4199.999897,4195.897333,4197.948615,4199.487077,4202.051179,4207.179384,4203.589641,4197.435795,4203.07682,4474.358865,4200.512718,4190.256308,4202.051179
35,0,4214.358871,4203.589641,4200.512718,4202.051179,4204.615282,4202.564,4206.666564,4205.128102,4201.538359,4204.615282,4487.179377,4205.640923,4198.974256,4205.128102
36,0,4214.871692,4202.051179,4196.410154,4203.07682,4197.435795,4204.102461,4203.589641,4201.538359,4202.564,4187.692205,4500.51271,4201.025538,4195.384513,4196.410154
37,0,4198.461436,4198.974256,4188.717846,4199.999897,4189.230667,4202.564,4203.07682,4201.025538,4193.333231,4183.589641,4507.692197,4195.897333,4185.640923,4191.281949
38,0,4197.948615,4197.948615,4184.102462,4199.487077,4198.461436,4199.999897,4201.538359,4197.435795,4184.102462,4194.358872,4513.333223,4198.461436,4184.102462,4192.30759
39,0,4194.358872,4192.30759,4184.615282,4195.897333,4202.564,4201.025538,4197.435795,4187.179385,4184.102462,4192.30759,4513.846043,4194.871692,4182.05118,4189.230667
40,0,4183.589641,4185.128103,4192.30759,4191.794769,4187.179385,4197.435795,4196.410154,4183.589641,4188.205026,4183.589641,4516.410146,4192.30759,4179.999898,4185.128103
41,0,4188.205026,4191.281949,4201.025538,4197.948615,4181.025539,4189.230667,4197.435795,4191.794769,4186.153744,4186.153744,4523.076812,4199.999897,4183.589641,4190.769128
42,0,4200.512718,4203.07682,4204.102461,4203.589641,4194.871692,4193.333231,4199.999897,4198.461436,4182.564,4190.256308,4524.102453,4204.102461,4187.179385,4201.025538
43,0,4208.717846,4206.153743,4203.07682,4201.025538,4199.487077,4202.564,4200.512718,4198.974256,4189.743487,4190.769128,4525.640915,4207.179384,4193.846051,4203.589641
44,0,4213.846051,4201.538359,4202.564,4202.564,4189.230667,4201.025538,4201.025538,4202.564,4198.974256,4198.461436,4526.153735,4214.358871,4202.051179,4202.564
45,0,4214.358871,4201.025538,4201.025538,4204.615282,4188.205026,4198.461436,4203.589641,4204.102461,4196.410154,4203.07682,4511.794761,4211.281948,4196.922974,4203.07682
46,0,4210.256307,4204.102461,4200.512718,4200.512718,4205.128102,4201.538359,4203.07682,4201.025538,4190.256308,4188.717846,4489.230659,4201.025538,4188.205026,4199.999897
47,0,4194.358872,4198.461436,4193.846051,4195.897333,4204.615282,4201.538359,4198.974256,4197.948615,4189.230667,4181.025539,4476.922967,4199.487077,4186.666564,4194.871692
48,0,4180.512718,4185.640923,4186.666564,4194.358872,4183.076821,4200.512718,4200.512718,4196.410154,4189.743487,4192.82041,4472.820403,4199.999897,4185.640923,4193.333231
49,0,4194.358872,4187.692205,4192.82041,4194.871692,4190.256308,4202.051179,4204.615282,4199.487077,4194.871692,4204.615282,4475.384506,4201.538359,4189.743487,4197.948615
50,0,4207.179384,4200.512718,4198.974256,4201.025538,4203.07682,4200.512718,4202.051179,4197.948615,4197.435795,4198.461436,4475.897326,4202.564,4196.410154,4201.538359
51,0,4190.769128,4201.025538,4193.846051,4199.487077,4189.230667,4197.435795,4196.410154,4193.846051,4196.410154,4190.256308,4466.666557,4200.512718,4192.30759,4199.999897
52,0,4185.640923,4195.384513,4190.256308,4189.230667,4188.205026,4199.487077,4196.922974,4196.410154,4197.948615,4190.256308,4464.102455,4196.922974,4187.179385,4196.410154
53,0,4202.564,4197.435795,4193.333231,4187.692205,4199.999897,4201.025538,4197.435795,4193.333231,4191.281949,4186.153744,4471.281942,4193.846051,4186.666564,4188.717846
54,0,4206.153743,4199.999897,4194.358872,4194.871692,4191.281949,4195.384513,4194.358872,4186.153744,4181.538359,4190.256308,4473.846044,4195.384513,4187.692205,4188.205026
55,0,4190.769128,4194.358872,4190.256308,4192.82041,4191.794769,4189.743487,4195.897333,4189.743487,4186.666564,4198.974256,4473.333224,4198.461436,4188.205026,4193.333231
56,0,4184.102462,4187.692205,4185.640923,4186.153744,4204.615282,4193.333231,4198.974256,4193.846051,4189.230667,4190.256308,4483.076813,4192.30759,4185.640923,4188.205026
57,0,4190.256308,4186.666564,4185.640923,4186.666564,4193.333231,4199.487077,4198.974256,4191.794769,4183.076821,4181.538359,4488.717839,4187.692205,4183.076821,4182.05118
58,0,4197.948615,4187.692205,4188.717846,4185.640923,4178.461436,4202.564,4199.999897,4195.897333,4192.30759,4187.179385,4489.230659,4193.846051,4184.615282,4186.153744
59,0,4201.025538,4187.692205,4193.333231,4188.717846,4185.640923,4201.538359,4204.102461,4202.051179,4201.025538,4189.743487,4505.640915,4199.487077,4187.179385,4188.205026
60,0,4194.871692,4193.333231,4195.897333,4196.922974,4198.461436,4199.999897,4204.102461,4200.512718,4192.30759,4190.769128,4521.02553,4200.512718,4186.153744,4188.717846
61,0,4187.179385,4196.922974,4194.871692,4194.358872,4199.999897,4199.999897,4202.564,4197.948615,4187.179385,4198.461436,4519.999889,4199.999897,4183.589641,4187.692205
62,0,4190.769128,4196.922974,4197.948615,4190.769128,4190.256308,4199.999897,4202.051179,4196.410154,4191.281949,4192.82041,4525.128094,4197.948615,4183.076821,4187.179385
63,0,4202.564,4198.974256,4203.589641,4193.846051,4191.281949,4201.025538,4203.07682,4196.410154,4188.717846,4182.564,4540.512709,4199.487077,4185.640923,4191.281949
64,0,4202.564,4193.333231,4198.461436,4191.281949,4207.692205,4200.512718,4203.589641,4194.358872,4186.666564,4182.564,4547.692196,4196.922974,4185.128103,4190.769128
65,0,4194.358872,4184.102462,4190.256308,4183.589641,4198.974256,4198.974256,4200.512718,4190.256308,4192.30759,4182.05118,4550.769119,4189.230667,4182.05118,4184.102462
66,0,4196.410154,4192.30759,4189.743487,4184.615282,4182.05118,4200.512718,4199.999897,4189.230667,4188.717846,4184.615282,4563.076811,4188.205026,4184.102462,4185.128103
67,0,4202.564,4202.564,4192.82041,4190.256308,4193.333231,4201.025538,4199.487077,4190.256308,4186.153744,4191.281949,4570.769119,4189.743487,4186.153744,4191.794769
68,0,4193.846051,4192.82041,4191.281949,4187.179385,4197.948615,4202.051179,4201.538359,4196.922974,4197.435795,4194.871692,4571.281939,4185.640923,4185.640923,4187.692205
69,0,4185.128103,4187.179385,4190.769128,4183.589641,4185.640923,4206.153743,4209.743487,4206.153743,4204.102461,4195.384513,4581.025529,4184.102462,4186.666564,4181.538359
70,0,4197.435795,4200.512718,4194.358872,4191.281949,4194.871692,4207.692205,4211.794769,4206.666564,4199.487077,4194.871692,4585.128093,4187.179385,4184.615282,4185.128103
71,0,4198.461436,4205.128102,4192.30759,4194.871692,4210.256307,4202.564,4202.564,4195.897333,4190.769128,4187.692205,4573.333222,4184.615282,4177.948616,4185.640923
72,0,4176.410154,4195.897333,4187.179385,4184.615282,4202.051179,4200.512718,4198.461436,4191.281949,4187.179385,4177.948616,4574.871683,4180.512718,4177.948616,4180.512718
73,0,4182.05118,4196.922974,4185.640923,4183.589641,4205.128102,4205.640923,4203.07682,4197.435795,4193.846051,4189.230667,4589.743478,4184.615282,4185.640923,4179.999898
74,0,4206.153743,4205.640923,4187.692205,4195.384513,4216.410153,4209.230666,4203.589641,4204.102461,4204.102461,4211.794769,4591.79476,4192.82041,4187.692205,4184.102462
75,0,4205.128102,4205.128102,4190.769128,4199.999897,4206.666564,4207.692205,4204.102461,4204.102461,4202.051179,4212.82041,4595.897324,4195.897333,4186.153744,4189.230667
76,0,4193.846051,4201.025538,4191.794769,4196.410154,4197.435795,4206.666564,4205.128102,4199.487077,4196.922974,4194.358872,4601.025529,4189.230667,4188.717846,4187.692205
77,0,4196.922974,4202.051179,4193.846051,4197.435795,4199.999897,4207.692205,4204.102461,4199.999897,4201.538359,4190.769128,4594.358862,4187.179385,4188.205026,4182.05118
78,0,4199.999897,4203.589641,4197.948615,4202.051179,4204.615282,4207.179384,4202.564,4203.07682,4201.025538,4195.897333,4595.384503,4193.846051,4185.640923,4184.102462
79,0,4186.666564,4201.538359,4196.922974,4197.948615,4203.589641,4203.07682,4202.051179,4201.025538,4194.871692,4192.30759,4602.56399,4192.30759,4183.076821,4187.692205
80,0,4176.410154,4196.922974,4191.281949,4191.281949,4203.07682,4201.025538,4206.666564,4203.07682,4202.051179,4198.974256,4593.846042,4183.076821,4178.974257,4182.564
81,0,4191.281949,4198.974256,4191.794769,4194.871692,4210.256307,4203.07682,4213.33323,4213.846051,4215.897333,4217.435794,4587.179375,4186.666564,4181.538359,4183.076821
82,0,4205.640923,4199.999897,4195.897333,4199.487077,4208.717846,4209.230666,4216.410153,4219.487076,4218.974256,4218.974256,4592.820401,4193.846051,4186.666564,4188.205026
83,0,4198.974256,4195.384513,4194.871692,4196.410154,4202.051179,4213.33323,4217.948615,4214.871692,4211.281948,4205.128102,4599.487067,4189.230667,4185.128103,4187.692205
84,0,4198.461436,4204.102461,4198.461436,4197.948615,4202.564,4214.871692,4218.461435,4214.871692,4208.717846,4206.153743,4609.230657,4192.30759,4191.794769,4194.358872
85,0,4207.179384,4215.897333,4204.615282,4204.102461,4208.717846,4217.948615,4218.974256,4221.025538,4216.922974,4218.974256,4622.051169,4202.564,4202.051179,4201.538359
86,0,4195.384513,4208.205025,4199.999897,4202.564,4209.230666,4215.897333,4215.384512,4218.461435,4215.897333,4216.922974,4619.487067,4194.871692,4192.30759,4193.846051
87,0,4187.692205,4197.435795,4189.230667,4192.82041,4207.179384,4207.179384,4206.153743,4205.128102,4202.051179,4203.07682,4606.153734,4181.538359,4179.999898,4185.640923
88,0,4191.794769,4197.435795,4183.076821,4185.640923,4198.461436,4199.999897,4197.948615,4198.461436,4194.871692,4196.410154,4609.743477,4181.538359,4182.564,4185.640923
89,0,4187.692205,4201.538359,4189.230667,4191.281949,4191.794769,4199.999897,4200.512718,4204.102461,4201.025538,4198.974256,4625.640913,4185.128103,4185.128103,4188.205026
90,0,4192.82041,4203.07682,4195.384513,4199.487077,4212.82041,4203.07682,4205.640923,4204.615282,4202.564,4197.948615,4625.640913,4183.589641,4184.102462,4191.794769
91,0,4203.07682,4199.487077,4191.794769,4197.948615,4215.384512,4207.179384,4206.153743,4199.487077,4195.384513,4196.922974,4617.435785,4181.538359,4182.05118,4191.281949
92,0,4195.384513,4202.051179,4192.30759,4196.922974,4191.794769,4208.205025,4208.717846,4204.615282,4201.025538,4201.025538,4625.128092,4183.076821,4184.615282,4190.769128
93,0,4196.922974,4216.922974,4201.025538,4202.051179,4199.999897,4204.615282,4213.846051,4217.435794,4215.897333,4204.102461,4638.461425,4194.358872,4198.974256,4201.025538
94,0,4215.897333,4218.461435,4205.128102,4203.07682,4221.025538,4207.692205,4216.922974,4221.025538,4213.846051,4201.538359,4638.461425,4199.999897,4205.128102,4210.256307
95,0,4211.794769,4202.051179,4199.999897,4198.974256,4208.717846,4210.769128,4215.897333,4210.769128,4199.487077,4198.461436,4629.743477,4189.230667,4186.666564,4197.435795
96,0,4186.153744,4198.974256,4197.435795,4195.897333,4195.384513,4204.102461,4211.794769,4207.692205,4198.461436,4199.999897,4628.205015,4184.102462,4175.384513,4182.05118
97,0,4182.564,4203.589641,4197.435795,4195.897333,4201.538359,4198.974256,4210.256307,4213.846051,4202.564,4202.564,4636.410143,4188.205026,4181.538359,4186.153744
98,0,4199.487077,4199.487077,4197.948615,4193.333231,4202.564,4211.281948,4215.384512,4217.948615,4203.589641,4205.128102,4641.538348,4188.717846,4188.205026,4197.948615
99,0,4199.999897,4199.487077,4200.512718,4193.333231,4208.717846,4216.410153,4216.410153,4214.358871,4207.179384,4204.615282,4643.58963,4192.82041,4191.794769,4200.512718
100,0,4189.743487,4204.102461,4197.948615,4194.358872,4216.922974,4202.564,4207.179384,4206.666564,4206.153743,4201.538359,4645.640912,4197.948615,4191.281949,4201.538359
101,0,4200.512718,4202.051179,4196.410154,4194.358872,4208.205025,4203.589641,4203.07682,4205.640923,4205.128102,4200.512718,4650.769117,4191.794769,4189.230667,4203.589641
102,0,4206.666564,4198.974256,4194.358872,4192.82041,4201.025538,4214.358871,4203.589641,4206.153743,4205.128102,4196.922974,4649.743476,4184.102462,4186.153744,4194.358872
103,0,4178.461436,4197.948615,4188.717846,4188.717846,4200.512718,4210.769128,4204.102461,4199.999897,4198.974256,4193.333231,4641.025528,4181.025539,4176.922975,4182.564
104,0,4165.128103,4197.948615,4190.769128,4188.205026,4197.948615,4208.205025,4209.230666,4199.999897,4199.999897,4202.051179,4641.538348,4183.589641,4175.897334,4182.564
105,0,4185.640923,4201.025538,4200.512718,4194.871692,4198.974256,4216.922974,4215.897333,4207.179384,4205.128102,4208.205025,4646.153733,4190.769128,4183.589641,4186.666564
106,0,4184.615282,4197.948615,4195.384513,4195.384513,4201.025538,4214.871692,4213.33323,4199.999897,4198.461436,4189.230667,4633.846041,4185.640923,4175.384513,4181.025539
107,0,4164.102462,4186.666564,4182.564,4185.128103,4196.922974,4205.640923,4210.769128,4191.794769,4194.871692,4174.358872,4617.435785,4172.820411,4162.05118,4173.333231
108,0,4165.640924,4188.717846,4187.692205,4190.256308,4198.461436,4207.179384,4214.871692,4196.922974,4197.435795,4182.05118,4618.461426,4175.897334,4166.666565,4173.846052
109,0,4181.538359,4202.051179,4194.358872,4203.07682,4202.051179,4210.769128,4217.948615,4196.410154,4195.897333,4183.589641,4614.358862,4179.999898,4171.79477,4175.384513
110,0,4177.948616,4199.999897,4187.179385,4194.358872,4200.512718,4209.230666,4213.846051,4188.205026,4195.897333,4181.025539,4602.56399,4173.333231,4164.615283,4170.769129
111,0,4158.974257,4191.281949,4179.999898,4182.564,4202.051179,4204.102461,4205.640923,4184.615282,4192.30759,4186.666564,4600.512708,4168.717847,4156.922975,4168.717847
112,0,4158.974257,4188.205026,4180.512718,4184.615282,4197.435795,4202.051179,4202.051179,4185.128103,4184.102462,4181.538359,4596.410144,4169.230667,4154.358873,4169.230667
113,0,4167.179385,4187.692205,4184.102462,4187.692205,4185.640923,4202.051179,4205.128102,4185.128103,4187.179385,4165.128103,4584.102452,4172.820411,4157.435796,4172.30759
114,0,4168.717847,4191.281949,4187.179385,4183.076821,4180.512718,4202.051179,4209.230666,4182.564,4192.82041,4164.102462,4583.076811,4180.512718,4164.102462,4179.487077
115,0,4174.871693,4197.948615,4190.256308,4187.692205,4187.692205,4201.025538,4206.666564,4188.717846,4195.897333,4184.615282,4590.769119,4185.640923,4172.820411,4187.179385
116,0,4187.692205,4199.487077,4194.871692,4198.974256,4190.769128,4202.051179,4201.538359,4201.025538,4201.025538,4197.948615,4584.615273,4187.179385,4181.538359,4196.410154
117,0,4189.230667,4198.461436,4194.358872,4198.974256,4190.769128,4202.564,4201.025538,4194.871692,4196.410154,4191.281949,4574.871683,4189.230667,4184.102462,4199.487077
118,0,4178.461436,4197.948615,4193.846051,4190.769128,4193.846051,4201.538359,4202.564,4186.153744,4192.82041,4182.05118,4569.743478,4187.692205,4182.05118,4193.846051
119,0,4173.333231,4197.948615,4198.974256,4187.179385,4191.794769,4199.999897,4202.564,4198.974256,4203.07682,4187.692205,4562.563991,4186.666564,4183.589641,4194.871692
120,0,4172.820411,4196.410154,4196.922974,4186.666564,4193.333231,4199.999897,4201.538359,4202.564,4205.640923,4185.640923,4551.79476,4188.205026,4182.05118,4197.948615
121,0,4181.538359,4195.897333,4191.281949,4189.230667,4201.025538,4200.512718,4202.051179,4190.256308,4195.897333,4179.999898,4545.128094,4190.769128,4179.999898,4196.410154
122,0,4195.897333,4198.461436,4198.461436,4196.922974,4199.487077,4199.999897,4204.102461,4194.871692,4197.948615,4193.333231,4543.589632,4196.922974,4190.769128,4204.615282
123,0,4194.358872,4196.922974,4203.589641,4194.358872,4185.128103,4203.07682,4207.692205,4206.153743,4206.666564,4203.07682,4528.717838,4201.025538,4191.794769,4204.615282
124,0,4178.974257,4189.743487,4195.897333,4185.128103,4184.615282,4204.615282,4210.256307,4198.461436,4201.025538,4190.769128,4512.820402,4195.897333,4177.435795,4189.230667
125,0,4179.487077,4192.82041,4193.333231,4189.230667,4196.922974,4199.487077,4209.743487,4197.435795,4199.999897,4183.589641,4514.871684,4196.922974,4186.153744,4199.999897
126,0,4199.999897,4198.974256,4203.07682,4196.922974,4195.897333,4197.948615,4210.769128,4209.743487,4207.692205,4192.30759,4515.384505,4208.205025,4211.281948,4228.205025
127,0,4195.897333,4198.974256,4211.281948,4196.410154,4191.281949,4204.102461,4214.871692,4208.717846,4207.692205,4196.410154,4503.589633,4215.897333,4217.948615,4232.820409
128,0,4183.589641,4200.512718,4211.281948,4198.461436,4197.435795,4206.153743,4217.435794,4207.179384,4209.743487,4206.153743,4493.846044,4216.410153,4215.384512,4230.256307
0,0,4198.461436,4198.461436,4209.743487,4202.564,4200.512718,4203.07682,4214.871692,4214.358871,4213.846051,4217.948615,4477.435788,4216.922974,4211.794769,4231.794768
1,0,4210.256307,4194.358872,4210.256307,4197.435795,4196.922974,4203.589641,4215.384512,4212.307589,4206.153743,4209.230666,4450.256301,4217.948615,4204.102461,4223.07682
2,0,4199.999897,4195.897333,4209.743487,4188.717846,4202.564,4205.640923,4216.410153,4201.538359,4197.948615,4189.743487,4434.871686,4215.384512,4206.666564,4216.922974
3,0,4190.769128,4196.922974,4203.589641,4188.717846,4201.538359,4205.128102,4209.743487,4200.512718,4202.564,4189.230667,4421.538353,4211.281948,4208.717846,4220.512717
4,0,4198.974256,4193.333231,4203.07682,4188.717846,4187.692205,4202.051179,4202.564,4202.564,4205.640923,4204.615282,4396.410149,4206.666564,4202.051179,4219.487076
5,0,4192.82041,4190.256308,4204.615282,4185.128103,4183.589641,4193.846051,4199.999897,4199.487077,4201.025538,4201.538359,4372.820406,4204.615282,4199.999897,4214.871692
6,0,4167.692206,4186.153744,4204.615282,4184.102462,4186.666564,4184.102462,4199.487077,4197.435795,4197.435795,4185.128103,4347.692201,4207.692205,4195.897333,4213.846051
7,0,4173.846052,4186.666564,4208.205025,4186.666564,4184.615282,4188.205026,4200.512718,4199.487077,4198.974256,4184.102462,4322.051176,4213.33323,4191.281949,4213.33323
8,0,4205.128102,4189.743487,4209.743487,4189.230667,4187.179385,4198.461436,4203.07682,4201.025538,4198.461436,4188.205026,4303.589638,4215.897333,4196.410154,4215.897333
9,0,4202.564,4188.205026,4202.564,4187.179385,4199.999897,4201.025538,4202.564,4192.82041,4190.769128,4184.615282,4283.076818,4209.743487,4195.384513,4217.435794
10,0,4186.153744,4191.794769,4199.487077,4187.692205,4198.974256,4199.487077,4198.974256,4188.205026,4192.82041,4188.717846,4262.051178,4206.666564,4190.769128,4214.358871
11,0,4197.948615,4200.512718,4205.128102,4193.333231,4189.230667,4203.589641,4203.589641,4197.948615,4203.07682,4194.871692,4246.666563,4211.281948,4200.512718,4216.410153
12,0,4188.717846,4198.461436,4205.640923,4192.30759,4191.281949,4205.128102,4207.179384,4202.051179,4203.07682,4193.333231,4231.794768,4208.205025,4204.615282,4217.948615
13,0,4170.256308,4195.384513,4197.948615,4189.743487,4203.589641,4204.615282,4201.538359,4197.948615,4202.051179,4201.025538,4219.487076,4203.07682,4197.948615,4214.871692
14,0,4189.743487,4199.999897,4199.999897,4195.897333,4202.564,4206.666564,4205.640923,4198.461436,4205.128102,4199.999897,4206.153743,4209.230666,4198.974256,4214.871692
15,0,4209.743487,4204.615282,4205.640923,4200.512718,4196.922974,4206.666564,4214.871692,4199.999897,4201.025538,4188.717846,4186.666564,4213.846051,4204.102461,4218.461435
16,0,4202.051179,4203.07682,4204.102461,4197.948615,4210.769128,4205.640923,4208.717846,4196.410154,4194.871692,4188.205026,4166.666565,4204.615282,4201.025538,4218.974256
17,0,4191.281949,4202.051179,4203.07682,4199.487077,4215.897333,4209.743487,4203.07682,4194.358872,4195.384513,4194.358872,4144.102463,4201.025538,4200.512718,4215.384512
18,0,4198.461436,4205.128102,4207.179384,4202.051179,4205.640923,4215.384512,4212.82041,4199.999897,4205.640923,4213.846051,4122.051181,4209.743487,4209.230666,4218.461435
19,0,4205.640923,4211.281948,4211.281948,4201.538359,4213.33323,4216.922974,4216.410153,4207.692205,4214.358871,4231.794768,4111.794771,4217.948615,4219.487076,4229.743486
20,0,4194.358872,4214.871692,4214.358871,4204.102461,4221.025538,4215.384512,4206.666564,4207.179384,4209.743487,4213.846051,4097.948618,4215.897333,4219.487076,4233.33323
21,0,4187.692205,4209.743487,4211.281948,4204.102461,4208.205025,4209.230666,4202.564,4196.410154,4198.461436,4188.205026,4075.897336,4206.666564,4217.435794,4221.538358
22,0,4203.07682,4201.025538,4200.512718,4199.999897,4206.153743,4201.025538,4202.564,4186.666564,4193.846051,4190.256308,4055.897337,4199.999897,4215.384512,4214.871692
23,0,4212.82041,4198.461436,4197.435795,4197.435795,4211.281948,4198.461436,4201.538359,4188.205026,4197.948615,4198.461436,4037.435799,4201.025538,4211.794769,4218.461435
24,0,4204.615282,4199.999897,4198.461436,4197.435795,4196.922974,4196.410154,4200.512718,4196.922974,4202.564,4197.948615,4024.102466,4204.102461,4214.358871,4217.435794
25,0,4199.487077,4199.999897,4196.410154,4198.974256,4187.179385,4195.897333,4198.974256,4199.487077,4201.538359,4202.564,4018.974261,4204.102461,4213.846051,4214.358871
26,0,4193.846051,4201.538359,4194.358872,4196.922974,4197.435795,4199.999897,4201.025538,4196.922974,4199.999897,4204.615282,4005.640928,4203.07682,4202.564,4216.922974
27,0,4184.102462,4199.999897,4192.82041,4190.769128,4199.999897,4204.615282,4205.128102,4198.461436,4203.589641,4197.948615,3988.205031,4201.538359,4202.564,4216.922974
28,0,4188.205026,4193.333231,4190.769128,4188.717846,4199.999897,4203.589641,4204.102461,4203.589641,4211.281948,4204.615282,3987.17939,4203.07682,4213.846051,4216.410153
29,0,4199.999897,4195.384513,4193.333231,4194.871692,4206.666564,4201.025538,4203.589641,4206.666564,4216.410153,4219.487076,3985.640928,4207.179384,4218.461435,4221.025538
30,0,4202.564,4202.564,4195.384513,4197.435795,4204.102461,4199.999897,4208.205025,4206.153743,4214.358871,4211.794769,3969.743493,4206.666564,4216.410153,4222.563999
31,0,4197.435795,4197.948615,4191.794769,4195.384513,4198.974256,4199.487077,4209.743487,4203.07682,4208.717846,4196.410154,3957.435801,4207.179384,4214.358871,4214.358871
32,0,4201.025538,4198.974256,4193.333231,4198.461436,4206.666564,4204.615282,4210.769128,4204.102461,4211.794769,4213.846051,3961.538365,4212.82041,4216.410153,4214.358871
33,0,4202.564,4208.717846,4199.999897,4201.538359,4215.897333,4206.153743,4215.897333,4203.589641,4215.384512,4225.640922,3958.974262,4216.410153,4219.487076,4229.743486
34,0,4194.871692,4207.692205,4203.589641,4198.974256,4210.769128,4204.102461,4211.281948,4199.487077,4208.717846,4207.179384,3942.564006,4210.769128,4217.948615,4231.794768
35,0,4202.051179,4206.666564,4204.615282,4198.974256,4205.640923,4208.717846,4206.666564,4201.025538,4201.025538,4204.102461,3932.820417,4206.153743,4216.410153,4219.999897
36,0,4217.435794,4211.794769,4204.102461,4201.538359,4203.07682,4212.307589,4210.256307,4199.999897,4199.999897,4209.230666,3927.179391,4203.07682,4212.307589,4214.871692
37,0,4216.922974,4205.640923,4202.564,4199.487077,4193.333231,4205.128102,4207.179384,4193.333231,4201.025538,4197.435795,3919.487084,4199.487077,4206.666564,4216.410153
38,0,4209.743487,4198.974256,4199.999897,4196.410154,4194.871692,4195.384513,4200.512718,4190.256308,4196.410154,4192.82041,3917.435802,4198.461436,4205.640923,4214.358871
39,0,4204.102461,4200.512718,4199.999897,4197.948615,4207.692205,4194.871692,4199.999897,4190.769128,4190.769128,4200.512718,3913.846058,4198.974256,4205.128102,4213.33323
40,0,4197.435795,4199.487077,4203.589641,4199.999897,4203.589641,4198.461436,4199.999897,4188.205026,4195.384513,4200.512718,3906.153751,4200.512718,4206.153743,4213.846051
41,0,4208.205025,4205.640923,4207.179384,4201.538359,4200.512718,4201.538359,4199.487077,4187.692205,4202.564,4197.948615,3905.64093,4203.589641,4215.897333,4215.384512
42,0,4215.897333,4216.410153,4207.179384,4201.538359,4221.025538,4203.07682,4203.07682,4192.82041,4197.435795,4199.999897,3903.589648,4205.640923,4213.846051,4217.948615
43,0,4203.07682,4210.769128,4203.589641,4199.487077,4220.512717,4202.051179,4202.051179,4193.333231,4194.358872,4201.538359,3899.999905,4201.538359,4203.07682,4217.435794
44,0,4199.487077,4201.025538,4201.538359,4196.410154,4196.922974,4198.461436,4197.948615,4186.666564,4199.487077,4201.538359,3899.999905,4199.487077,4206.153743,4212.82041
45,0,4213.33323,4202.051179,4196.922974,4195.384513,4197.435795,4194.871692,4197.948615,4182.564,4193.846051,4197.435795,3892.307597,4200.512718,4206.666564,4203.589641
46,0,4214.358871,4206.153743,4198.461436,4197.948615,4205.640923,4196.410154,4199.487077,4184.102462,4189.230667,4196.410154,3882.051187,4198.974256,4194.871692,4198.974256
47,0,4202.564,4213.33323,4206.666564,4206.153743,4211.794769,4201.025538,4202.051179,4189.230667,4199.487077,4199.999897,3884.102469,4207.692205,4199.487077,4207.692205
48,0,4204.102461,4215.897333,4208.717846,4209.743487,4216.410153,4199.487077,4204.102461,4192.30759,4201.025538,4197.948615,3882.051187,4215.897333,4209.743487,4214.871692
49,0,4214.871692,4209.743487,4203.589641,4205.128102,4205.128102,4196.410154,4203.07682,4193.846051,4197.435795,4198.461436,3877.435803,4209.230666,4207.179384,4214.871692
50,0,4218.461435,4212.307589,4203.589641,4203.07682,4202.051179,4197.948615,4201.538359,4195.384513,4204.102461,4201.025538,3883.076828,4202.051179,4207.179384,4212.307589
51,0,4211.794769,4215.384512,4207.179384,4208.205025,4213.846051,4202.051179,4201.025538,4193.333231,4205.128102,4198.974256,3885.640931,4203.589641,4213.846051,4212.82041
52,0,4215.897333,4211.794769,4207.692205,4212.307589,4212.82041,4202.051179,4201.538359,4191.281949,4199.999897,4207.692205,3885.640931,4207.692205,4218.974256,4223.58964
53,0,4235.897332,4213.33323,4208.717846,4212.307589,4207.179384,4202.564,4203.589641,4194.358872,4203.07682,4211.794769,3892.820418,4210.769128,4224.615281,4242.051178
54,0,4248.205024,4221.025538,4215.384512,4215.897333,4211.281948,4202.564,4204.615282,4198.461436,4201.025538,4201.538359,3897.948623,4215.384512,4234.358871,4264.61528
55,0,4263.076819,4227.179384,4224.102461,4219.487076,4208.205025,4197.948615,4202.564,4194.358872,4190.769128,4205.640923,3904.102469,4222.563999,4252.820409,4296.922972
56,0,4295.38451,4233.84605,4231.794768,4220.512717,4208.717846,4194.358872,4201.025538,4191.794769,4191.794769,4210.256307,3917.435802,4234.871691,4272.307588,4332.820407
57,0,4321.025535,4229.230666,4232.307589,4218.974256,4209.230666,4192.82041,4201.538359,4190.769128,4195.897333,4196.922974,3923.589648,4243.58964,4280.512716,4350.256304
58,0,4323.076817,4219.999897,4231.794768,4216.922974,4194.358872,4193.333231,4199.999897,4187.692205,4194.871692,4200.512718,3926.666571,4245.128101,4286.153741,4362.051175
59,0,4325.128099,4224.615281,4235.384512,4218.461435,4188.205026,4191.794769,4197.948615,4190.256308,4193.333231,4213.33323,3934.871699,4244.615281,4295.897331,4376.410149
60,0,4336.922971,4229.230666,4238.461435,4216.922974,4196.410154,4191.794769,4199.487077,4195.897333,4198.974256,4212.307589,3943.589647,4244.615281,4300.512715,4379.487072
61,0,4332.820407,4228.205025,4241.538358,4215.897333,4199.999897,4193.333231,4201.538359,4196.922974,4205.128102,4211.794769,3954.358878,4246.666563,4302.563997,4381.025534
62,0,4333.333227,4232.820409,4244.615281,4224.102461,4201.025538,4194.358872,4202.051179,4197.435795,4203.589641,4210.769128,3967.17939,4249.743486,4305.64092,4388.717841
63,0,4355.384509,4236.410153,4243.58964,4233.84605,4201.538359,4192.30759,4200.512718,4195.384513,4196.922974,4202.564,3973.846057,4249.743486,4299.999895,4385.640918
64,0,4357.435791,4232.820409,4238.974255,4228.717845,4194.358872,4188.205026,4198.461436,4191.794769,4195.384513,4204.102461,3972.820416,4250.256306,4289.743485,4366.153739
65,0,4328.717843,4231.794768,4238.461435,4224.615281,4193.333231,4190.256308,4198.974256,4193.846051,4197.435795,4207.692205,3972.307595,4247.179383,4279.487075,4345.128099
66,0,4306.666561,4234.358871,4238.461435,4229.230666,4206.153743,4196.922974,4201.538359,4195.384513,4195.384513,4208.205025,3979.487082,4239.999896,4266.153742,4325.128099
67,0,4291.281946,4233.33323,4232.307589,4224.102461,4206.666564,4200.512718,4200.512718,4192.82041,4192.30759,4208.717846,3986.153749,4232.307589,4251.281947,4300.512715
68,0,4274.35887,4230.256307,4226.153743,4217.435794,4201.025538,4200.512718,4201.025538,4196.922974,4192.82041,4204.102461,3986.153749,4229.743486,4238.974255,4277.435793
69,0,4271.281947,4232.307589,4228.205025,4223.58964,4205.640923,4206.153743,4211.794769,4201.538359,4195.897333,4195.384513,3990.769133,4227.179384,4231.794768,4259.999896
70,0,4263.076819,4229.743486,4228.205025,4219.999897,4212.307589,4207.692205,4212.307589,4199.999897,4198.974256,4190.256308,3999.999902,4218.974256,4223.07682,4245.640922
71,0,4240.512717,4216.922974,4221.538358,4206.666564,4211.794769,4199.487077,4203.589641,4198.461436,4200.512718,4197.435795,4005.640928,4212.307589,4213.846051,4232.307589
72,0,4223.58964,4212.307589,4218.461435,4208.205025,4209.230666,4201.538359,4205.128102,4198.974256,4198.974256,4210.256307,4017.435799,4213.33323,4212.82041,4222.051179
73,0,4223.58964,4224.615281,4222.563999,4217.435794,4215.384512,4205.640923,4210.256307,4204.102461,4203.589641,4215.897333,4038.97426,4216.410153,4214.358871,4222.051179
74,0,4232.820409,4230.769127,4225.128102,4217.948615,4216.410153,4198.461436,4203.07682,4212.307589,4211.794769,4216.410153,4059.48708,4219.487076,4217.948615,4226.153743
75,0,4227.179384,4221.025538,4223.58964,4215.384512,4204.615282,4196.410154,4201.025538,4208.205025,4207.179384,4214.871692,4068.717849,4218.974256,4219.999897,4219.999897
76,0,4213.33323,4215.897333,4222.051179,4216.410153,4201.538359,4204.102461,4209.743487,4200.512718,4202.051179,4207.179384,4070.769131,4216.922974,4211.281948,4207.692205
77,0,4218.974256,4218.974256,4219.487076,4213.846051,4214.871692,4205.128102,4209.230666,4202.564,4202.564,4199.487077,4078.461439,4218.461435,4207.692205,4206.153743
78,0,4226.153743,4215.897333,4215.384512,4205.128102,4222.563999,4199.487077,4201.538359,4202.051179,4193.846051,4203.589641,4092.820413,4217.435794,4212.307589,4207.692205
79,0,4207.692205,4212.82041,4210.769128,4201.538359,4219.487076,4203.589641,4203.589641,4198.974256,4188.205026,4206.153743,4104.615284,4213.33323,4211.794769,4202.564
80,0,4203.07682,4214.871692,4209.743487,4205.128102,4213.846051,4208.205025,4209.230666,4201.025538,4197.948615,4204.615282,4106.153746,4213.846051,4206.153743,4201.025538
81,0,4213.846051,4209.230666,4207.179384,4201.538359,4208.205025,4202.564,4205.640923,4196.410154,4198.461436,4200.512718,4095.384515,4209.743487,4199.487077,4194.358872
82,0,4194.871692,4196.922974,4199.999897,4193.333231,4206.153743,4189.743487,4197.948615,4183.589641,4181.025539,4190.256308,4079.9999,4193.333231,4185.128103,4173.333231
83,0,4179.487077,4197.948615,4198.974256,4193.846051,4199.487077,4186.153744,4197.435795,4183.589641,4181.025539,4185.640923,4076.410157,4187.179385,4182.05118,4164.615283
84,0,4188.205026,4203.07682,4204.615282,4197.948615,4189.743487,4190.769128,4198.461436,4193.333231,4192.30759,4188.205026,4079.9999,4194.871692,4191.281949,4174.871693
85,0,4193.846051,4203.589641,4205.640923,4198.461436,4197.948615,4192.30759,4198.461436,4198.974256,4194.358872,4194.358872,4081.538362,4201.538359,4193.846051,4179.999898
86,0,4193.846051,4204.102461,4204.615282,4196.410154,4209.743487,4194.871692,4198.974256,4198.461436,4191.794769,4196.410154,4081.538362,4202.051179,4195.384513,4178.974257
87,0,4197.435795,4203.07682,4206.153743,4195.384513,4211.794769,4198.461436,4199.999897,4195.384513,4191.281949,4194.358872,4073.846054,4197.435795,4194.871692,4178.974257
88,0,4189.743487,4201.025538,4207.179384,4199.487077,4210.256307,4200.512718,4202.051179,4193.846051,4191.281949,4192.82041,4063.589644,4194.358872,4187.179385,4172.30759
89,0,4175.897334,4201.538359,4205.640923,4202.051179,4210.256307,4202.564,4202.564,4192.82041,4192.30759,4196.410154,4062.564003,4197.948615,4185.128103,4166.153744
90,0,4176.410154,4201.025538,4204.102461,4196.410154,4206.153743,4203.589641,4203.07682,4195.384513,4197.435795,4203.589641,4065.128106,4197.435795,4187.692205,4167.692206
91,0,4179.999898,4201.025538,4198.974256,4193.333231,4207.692205,4204.102461,4206.666564,4196.922974,4199.999897,4208.205025,4063.589644,4188.205026,4182.05118,4165.640924
92,0,4174.358872,4201.538359,4191.794769,4194.358872,4215.384512,4203.07682,4206.666564,4188.717846,4195.384513,4193.846051,4062.564003,4182.564,4176.410154,4153.846052
93,0,4162.05118,4199.487077,4190.256308,4191.794769,4210.256307,4204.615282,4201.538359,4181.538359,4189.230667,4172.820411,4065.128106,4183.076821,4175.897334,4148.205027
94,0,4159.487078,4196.410154,4195.897333,4189.743487,4194.358872,4202.564,4203.589641,4187.692205,4190.769128,4180.512718,4074.358875,4185.640923,4179.999898,4156.410155
95,0,4168.205026,4195.384513,4201.025538,4186.666564,4194.871692,4198.461436,4209.743487,4195.384513,4196.922974,4199.999897,4094.871695,4192.30759,4188.205026,4163.076821
96,0,4165.640924,4195.897333,4196.410154,4182.05118,4203.589641,4196.922974,4209.743487,4194.871692,4198.461436,4198.461436,4112.820412,4197.948615,4193.846051,4162.564001
97,0,4159.999898,4194.871692,4190.256308,4184.615282,4197.435795,4195.384513,4202.564,4192.82041,4198.461436,4192.82041,4117.948617,4197.435795,4190.256308,4164.615283
98,0,4171.79477,4195.384513,4191.281949,4189.230667,4190.256308,4193.333231,4199.999897,4189.230667,4199.487077,4193.333231,4125.640925,4194.871692,4191.794769,4171.281949
99,0,4177.948616,4198.461436,4194.871692,4186.153744,4194.358872,4196.410154,4206.153743,4187.179385,4196.922974,4184.615282,4144.615283,4195.897333,4202.564,4174.358872
100,0,4172.30759,4203.589641,4196.922974,4184.102462,4203.589641,4203.07682,4208.717846,4194.871692,4199.487077,4184.102462,4159.999898,4200.512718,4208.717846,4176.410154
101,0,4168.205026,4201.025538,4194.871692,4190.769128,4209.230666,4201.538359,4203.589641,4194.871692,4199.487077,4193.333231,4164.102462,4197.948615,4201.538359,4172.30759
102,0,4158.974257,4192.82041,4185.640923,4185.640923,4201.025538,4199.487077,4202.051179,4185.640923,4189.743487,4191.281949,4165.640924,4186.153744,4190.256308,4160.512719
103,0,4151.79477,4192.30759,4180.512718,4173.846052,4191.794769,4201.025538,4208.205025,4187.692205,4189.743487,4187.179385,4170.256308,4178.974257,4185.640923,4156.410155
104,0,4166.153744,4198.974256,4184.615282,4176.922975,4203.07682,4202.564,4213.846051,4194.358872,4198.974256,4193.846051,4179.487077,4184.102462,4187.692205,4166.666565
105,0,4181.538359,4203.589641,4189.230667,4187.692205,4210.769128,4206.666564,4214.871692,4195.384513,4198.974256,4198.461436,4195.384513,4194.871692,4192.30759,4171.79477
106,0,4174.871693,4204.615282,4194.358872,4189.743487,4203.589641,4207.179384,4213.846051,4201.538359,4200.512718,4199.487077,4217.435794,4198.974256,4202.051179,4171.281949
107,0,4160.512719,4203.589641,4203.589641,4187.692205,4201.538359,4201.025538,4209.743487,4204.615282,4203.07682,4199.999897,4235.384512,4196.922974,4204.615282,4172.30759
108,0,4166.666565,4203.07682,4202.564,4187.692205,4204.615282,4199.999897,4204.102461,4195.384513,4196.922974,4192.30759,4241.025537,4196.410154,4195.384513,4172.820411
109,0,4184.102462,4203.07682,4200.512718,4186.666564,4203.589641,4201.025538,4204.615282,4194.358872,4195.897333,4187.179385,4253.333229,4198.461436,4192.30759,4176.410154
110,0,4187.179385,4199.999897,4203.589641,4185.640923,4198.461436,4199.999897,4206.666564,4199.999897,4199.487077,4198.461436,4276.410152,4201.025538,4196.922974,4178.974257
111,0,4175.897334,4194.358872,4202.051179,4183.589641,4201.025538,4198.974256,4205.128102,4190.256308,4189.743487,4199.487077,4289.230664,4201.538359,4194.871692,4174.871693
112,0,4164.102462,4193.846051,4196.410154,4180.512718,4206.153743,4199.999897,4203.589641,4182.564,4175.897334,4183.589641,4299.487074,4195.384513,4190.769128,4169.743488
113,0,4157.948616,4200.512718,4197.435795,4183.076821,4200.512718,4206.153743,4209.743487,4187.179385,4175.897334,4178.974257,4324.102458,4191.281949,4192.30759,4172.820411
114,0,4166.153744,4204.615282,4200.512718,4187.692205,4195.384513,4207.692205,4216.410153,4187.692205,4177.948616,4189.230667,4349.230663,4193.333231,4195.384513,4173.846052
115,0,4175.897334,4200.512718,4193.333231,4182.564,4200.512718,4198.974256,4210.256307,4184.615282,4176.410154,4197.948615,4371.281944,4189.230667,4198.461436,4173.333231
116,0,4171.281949,4191.794769,4187.179385,4172.30759,4200.512718,4190.256308,4198.974256,4188.205026,4179.487077,4197.435795,4400.512713,4185.640923,4201.025538,4174.871693
117,0,4163.076821,4189.743487,4185.640923,4168.205026,4194.358872,4192.82041,4197.948615,4189.743487,4178.974257,4187.179385,4422.563994,4188.717846,4197.948615,4173.333231
118,0,4173.333231,4201.025538,4189.230667,4176.410154,4203.589641,4194.358872,4201.025538,4183.076821,4170.769129,4178.461436,4441.025532,4186.666564,4195.384513,4178.461436
119,0,4181.025539,4208.717846,4192.82041,4179.999898,4209.743487,4191.794769,4198.974256,4183.076821,4172.820411,4185.640923,4470.769121,4188.205026,4198.461436,4186.666564
120,0,4155.384514,4196.410154,4190.256308,4172.820411,4199.487077,4195.897333,4197.435795,4190.256308,4179.999898,4196.922974,4498.461428,4194.358872,4197.435795,4177.435795
121,0,4156.410155,4196.410154,4193.333231,4176.410154,4198.461436,4201.025538,4201.025538,4191.794769,4179.487077,4201.025538,4526.153735,4195.384513,4201.025538,4174.358872
122,0,4195.897333,4218.461435,4199.487077,4190.256308,4207.179384,4201.538359,4202.564,4187.179385,4178.974257,4194.871692,4555.384504,4193.333231,4202.051179,4187.179385
123,0,4201.025538,4225.128102,4192.82041,4190.256308,4208.717846,4202.564,4202.564,4183.589641,4177.435795,4185.128103,4570.256298,4186.666564,4188.717846,4182.05118
124,0,4174.871693,4214.871692,4181.538359,4182.05118,4205.128102,4201.025538,4198.461436,4181.538359,4174.358872,4182.05118,4578.974247,4175.384513,4175.384513,4163.589642
125,0,4172.820411,4216.410153,4182.564,4183.076821,4210.256307,4198.974256,4196.410154,4181.538359,4179.487077,4185.128103,4607.692195,4177.435795,4179.999898,4165.128103
126,0,4176.922975,4222.051179,4187.692205,4186.666564,4219.999897,4203.07682,4198.974256,4182.564,4177.435795,4184.102462,4636.410143,4185.128103,4182.05118,4170.256308
127,0,4172.820411,4216.922974,4186.153744,4184.615282,4218.461435,4205.640923,4199.487077,4179.999898,4165.128103,4180.512718,4650.769117,4180.512718,4173.846052,4165.640924
128,0,4163.589642,4211.281948,4184.102462,4177.435795,4210.769128,4200.512718,4196.922974,4178.461436,4167.179385,4177.948616,4672.307578,4171.281949,4173.846052,4163.589642
0,0,4144.102463,4207.692205,4183.589641,4167.692206,4212.307589,4195.897333,4196.410154,4181.538359,4176.922975,4177.435795,4705.12809,4167.179385,4172.820411,4162.05118
1,0,4156.410155,4208.205025,4188.717846,4175.384513,4209.230666,4194.871692,4200.512718,4186.153744,4177.948616,4179.487077,4736.410141,4173.846052,4170.256308,4158.974257
2,0,4183.076821,4208.717846,4191.281949,4188.205026,4190.769128,4193.846051,4201.025538,4188.205026,4175.384513,4181.538359,4759.999884,4179.999898,4171.79477,4156.410155
3,0,4176.410154,4205.640923,4188.717846,4183.589641,4187.692205,4194.358872,4198.974256,4188.717846,4177.948616,4186.153744,4781.025524,4175.384513,4171.281949,4160.512719
4,0,4165.128103,4208.205025,4190.256308,4172.30759,4206.666564,4198.461436,4200.512718,4188.717846,4180.512718,4189.743487,4804.615267,4174.871693,4171.281949,4169.743488
5,0,4158.461437,4207.179384,4191.281949,4169.230667,4211.794769,4202.564,4201.538359,4191.281949,4176.922975,4179.999898,4819.999882,4180.512718,4171.281949,4164.615283
6,0,4146.666565,4191.281949,4188.205026,4168.205026,4202.051179,4201.538359,4199.999897,4192.30759,4174.871693,4163.076821,4824.102446,4177.948616,4163.076821,4151.79477
7,0,4152.307591,4187.692205,4183.076821,4167.179385,4202.051179,4199.487077,4199.999897,4190.769128,4176.922975,4167.692206,4827.69219,4173.846052,4156.922975,4156.410155
8,0,4165.128103,4197.948615,4185.640923,4168.717847,4207.179384,4199.487077,4201.538359,4190.256308,4174.871693,4179.999898,4837.9486,4173.333231,4162.05118,4164.615283
9,0,4158.974257,4195.384513,4190.769128,4170.256308,4208.205025,4199.487077,4202.564,4191.794769,4175.384513,4174.358872,4853.333215,4172.30759,4170.256308,4161.025539
10,0,4151.28195,4192.30759,4190.769128,4173.846052,4202.564,4198.974256,4204.615282,4194.871692,4184.615282,4175.897334,4868.71783,4177.948616,4171.79477,4159.999898
11,0,4155.897334,4201.538359,4191.794769,4174.358872,4197.435795,4201.538359,4204.102461,4201.538359,4190.256308,4195.897333,4883.589624,4186.153744,4173.846052,4171.79477
12,0,4164.102462,4204.615282,4196.922974,4173.333231,4204.615282,4204.102461,4204.102461,4202.051179,4184.615282,4190.769128,4896.410137,4185.128103,4174.871693,4178.461436
13,0,4170.256308,4199.999897,4199.487077,4175.384513,4210.769128,4206.666564,4208.717846,4195.384513,4179.487077,4171.79477,4910.769111,4182.564,4175.897334,4175.384513
14,0,4171.281949,4199.999897,4195.384513,4175.384513,4203.589641,4203.07682,4205.640923,4192.30759,4178.974257,4179.999898,4930.76911,4183.589641,4178.461436,4170.256308
15,0,4172.820411,4204.615282,4195.897333,4176.410154,4209.230666,4197.948615,4201.538359,4194.871692,4184.102462,4192.30759,4953.333212,4186.666564,4182.564,4171.281949
16,0,4171.281949,4201.025538,4201.025538,4183.589641,4214.871692,4201.538359,4204.102461,4195.897333,4186.153744,4189.743487,4967.179366,4188.717846,4182.564,4179.487077
17,0,4168.205026,4198.461436,4199.999897,4182.05118,4204.102461,4206.666564,4203.589641,4198.461436,4184.615282,4190.256308,4972.820391,4189.230667,4181.025539,4187.692205
18,0,4172.820411,4205.640923,4198.974256,4181.025539,4201.538359,4201.025538,4198.974256,4200.512718,4187.692205,4191.794769,4978.461417,4189.230667,4187.179385,4186.153744
19,0,4179.487077,4210.769128,4201.538359,4183.076821,4211.281948,4195.897333,4200.512718,4203.07682,4196.922974,4191.794769,4987.692186,4193.846051,4193.846051,4182.564
20,0,4182.05118,4205.640923,4201.538359,4175.384513,4211.281948,4205.128102,4203.589641,4209.230666,4205.128102,4206.666564,5001.025519,4199.487077,4195.897333,4187.692205
21,0,4184.615282,4205.640923,4201.025538,4173.846052,4210.256307,4212.82041,4202.564,4209.743487,4199.487077,4213.33323,5007.179365,4195.897333,4194.871692,4191.281949
22,0,4177.948616,4214.871692,4204.615282,4185.128103,4219.487076,4208.205025,4203.07682,4203.07682,4189.743487,4197.435795,5004.615262,4192.82041,4193.333231,4190.256308
23,0,4166.153744,4210.256307,4206.666564,4187.179385,4218.974256,4201.025538,4203.07682,4198.461436,4189.230667,4188.205026,5002.56398,4195.384513,4192.30759,4191.281949
24,0,4176.410154,4202.051179,4201.538359,4179.487077,4205.640923,4201.025538,4201.025538,4200.512718,4190.256308,4194.358872,4998.974237,4196.410154,4188.717846,4189.230667
25,0,4183.589641,4203.589641,4203.589641,4179.999898,4198.461436,4204.615282,4201.538359,4203.589641,4191.281949,4204.615282,5004.102442,4197.435795,4192.30759,4189.743487
26,0,4179.487077,4208.717846,4210.256307,4185.640923,4207.692205,4206.153743,4203.589641,4208.717846,4202.051179,4208.205025,5022.051159,4203.589641,4205.128102,4200.512718
27,0,4184.615282,4206.666564,4207.179384,4183.589641,4216.410153,4205.128102,4202.051179,4210.256307,4206.153743,4202.564,5025.128082,4203.07682,4203.07682,4199.999897
28,0,4183.076821,4201.025538,4199.487077,4174.358872,4209.230666,4201.025538,4198.974256,4206.153743,4202.051179,4199.487077,5015.384493,4197.948615,4190.769128,4190.256308
29,0,4173.846052,4204.615282,4203.589641,4170.769129,4201.025538,4198.974256,4201.538359,4210.256307,4205.640923,4204.615282,5013.846031,4203.589641,4195.384513,4193.333231
30,0,4184.102462,4208.205025,4206.666564,4174.358872,4206.153743,4198.974256,4203.07682,4213.846051,4207.179384,4209.230666,5007.179365,4208.205025,4203.589641,4202.051179
31,0,4188.717846,4200.512718,4196.922974,4173.846052,4206.666564,4198.974256,4200.512718,4200.512718,4193.846051,4198.974256,4983.076801,4195.384513,4192.30759,4195.897333
32,0,4175.897334,4197.948615,4190.769128,4170.256308,4200.512718,4203.07682,4200.512718,4193.333231,4189.230667,4189.743487,4968.205007,4184.615282,4184.102462,4189.230667
33,0,4177.435795,4199.999897,4195.897333,4167.692206,4207.692205,4203.07682,4202.051179,4203.07682,4196.922974,4188.205026,4966.153725,4190.769128,4193.333231,4194.358872
34,0,4175.897334,4202.564,4197.948615,4172.820411,4215.384512,4198.461436,4200.512718,4205.640923,4203.07682,4188.205026,4964.102443,4199.487077,4198.461436,4201.538359
35,0,4168.717847,4211.281948,4200.512718,4186.666564,4209.230666,4206.153743,4200.512718,4202.564,4205.640923,4202.051179,4960.512699,4200.512718,4195.897333,4206.153743
36,0,4186.153744,4216.922974,4205.128102,4192.30759,4210.769128,4216.410153,4204.102461,4208.717846,4205.128102,4222.563999,4957.435776,4202.564,4200.512718,4209.230666
37,0,4199.487077,4205.640923,4200.512718,4179.487077,4218.461435,4204.615282,4200.512718,4205.128102,4199.487077,4211.794769,4949.230648,4202.051179,4205.128102,4203.589641
38,0,4185.640923,4200.512718,4194.358872,4169.743488,4209.230666,4193.846051,4195.897333,4197.948615,4202.051179,4190.256308,4941.02552,4196.922974,4199.999897,4198.461436
39,0,4179.999898,4205.128102,4199.487077,4171.281949,4202.564,4205.128102,4200.512718,4206.153743,4206.153743,4197.435795,4938.974238,4197.435795,4198.461436,4206.153743
40,0,4188.717846,4203.589641,4205.128102,4173.333231,4206.666564,4212.307589,4203.07682,4209.230666,4199.999897,4202.051179,4933.846033,4203.07682,4199.487077,4208.205025
41,0,4178.974257,4201.538359,4203.07682,4174.871693,4206.153743,4204.615282,4202.564,4203.07682,4199.999897,4195.384513,4926.666546,4204.615282,4195.384513,4203.07682
42,0,4166.153744,4198.974256,4195.384513,4167.692206,4206.153743,4193.333231,4198.974256,4198.974256,4202.051179,4199.487077,4918.461418,4196.922974,4189.230667,4203.07682
43,0,4182.05118,4199.487077,4191.794769,4163.589642,4209.230666,4191.794769,4192.82041,4192.82041,4190.769128,4194.871692,4916.922957,4191.281949,4187.692205,4197.948615
44,0,4199.999897,4207.179384,4200.512718,4178.461436,4209.743487,4201.025538,4193.846051,4187.179385,4187.692205,4185.128103,4933.333213,4196.922974,4193.333231,4194.871692
45,0,4194.871692,4210.256307,4202.564,4186.153744,4209.230666,4203.589641,4198.461436,4191.794769,4198.461436,4188.205026,4946.666546,4204.102461,4198.974256,4203.07682
46,0,4185.128103,4206.153743,4192.30759,4173.333231,4206.666564,4197.948615,4197.948615,4192.82041,4193.846051,4185.128103,4941.538341,4197.948615,4191.794769,4203.589641
47,0,4177.435795,4208.205025,4191.281949,4169.743488,4207.179384,4197.435795,4193.846051,4188.717846,4187.179385,4180.512718,4944.615264,4193.333231,4185.128103,4194.871692
48,0,4173.333231,4211.794769,4199.999897,4178.461436,4209.230666,4199.487077,4194.871692,4189.230667,4193.846051,4189.230667,4957.435776,4194.358872,4188.205026,4192.82041
49,0,4190.256308,4209.743487,4199.999897,4174.358872,4207.692205,4201.025538,4195.897333,4192.30759,4194.358872,4195.384513,4966.153725,4192.30759,4192.30759,4200.512718
50,0,4205.128102,4210.256307,4193.846051,4169.743488,4205.128102,4199.487077,4194.871692,4192.82041,4192.30759,4191.794769,4975.897314,4193.333231,4193.846051,4209.230666
51,0,4194.358872,4211.794769,4193.333231,4172.820411,4208.205025,4192.82041,4188.717846,4193.333231,4197.435795,4187.692205,4981.53834,4197.435795,4198.974256,4212.307589
52,0,4179.487077,4206.153743,4194.358872,4171.79477,4212.82041,4191.281949,4187.179385,4190.769128,4197.948615,4188.205026,4972.307571,4196.410154,4195.384513,4200.512718
53,0,4183.589641,4203.07682,4194.871692,4173.846052,4211.794769,4199.999897,4192.30759,4188.205026,4191.794769,4192.82041,4966.666545,4190.769128,4186.666564,4192.82041
54,0,4190.769128,4208.205025,4195.384513,4177.948616,4204.615282,4202.564,4194.871692,4191.281949,4190.769128,4190.769128,4970.769109,4191.281949,4195.897333,4209.230666
55,0,4195.897333,4215.897333,4201.538359,4181.538359,4204.102461,4199.487077,4196.410154,4196.410154,4198.461436,4186.153744,4973.333212,4200.512718,4215.897333,4232.820409
56,0,4211.794769,4218.974256,4208.717846,4186.666564,4210.769128,4199.487077,4193.846051,4194.871692,4202.564,4195.384513,4968.717827,4205.640923,4217.948615,4237.948614
57,0,4211.794769,4212.82041,4202.051179,4179.999898,4210.256307,4193.333231,4186.153744,4189.230667,4194.358872,4201.025538,4955.384494,4196.922974,4205.640923,4226.666563
58,0,4186.666564,4199.999897,4195.897333,4169.743488,4201.538359,4190.769128,4185.128103,4186.666564,4185.640923,4191.794769,4943.076802,4188.717846,4202.564,4219.487076
59,0,4185.640923,4196.922974,4198.461436,4168.717847,4197.435795,4193.333231,4185.128103,4189.230667,4187.179385,4186.666564,4934.871674,4193.846051,4204.102461,4214.358871
60,0,4205.640923,4202.564,4198.974256,4170.256308,4201.025538,4192.30759,4185.128103,4189.230667,4190.769128,4192.30759,4921.025521,4197.948615,4201.538359,4210.256307
61,0,4199.999897,4206.153743,4199.999897,4174.871693,4207.179384,4193.333231,4192.30759,4188.717846,4192.30759,4197.435795,4902.051162,4195.897333,4203.589641,4212.82041
62,0,4192.82041,4213.33323,4203.07682,4186.666564,4203.589641,4199.487077,4197.435795,4190.769128,4191.794769,4194.871692,4878.97424,4191.281949,4205.128102,4218.461435
63,0,4202.564,4214.871692,4202.564,4187.692205,4201.538359,4200.512718,4193.333231,4188.205026,4188.205026,4185.128103,4855.384497,4184.615282,4199.999897,4219.487076
64,0,4201.538359,4211.281948,4198.974256,4180.512718,4216.922974,4200.512718,4196.410154,4186.666564,4188.717846,4189.743487,4848.71783,4185.128103,4202.051179,4219.999897
65,0,4204.102461,4212.82041,4202.564,4184.615282,4217.435794,4203.589641,4202.564,4193.846051,4195.384513,4203.07682,4855.384497,4194.871692,4208.717846,4226.153743
66,0,4215.384512,4214.358871,4207.179384,4186.666564,4206.153743,4206.153743,4202.564,4203.07682,4201.025538,4196.922974,4848.20501,4202.051179,4208.205025,4227.179384
67,0,4202.051179,4211.281948,4208.205025,4178.974257,4214.358871,4211.281948,4208.717846,4206.153743,4202.564,4197.435795,4826.666549,4200.512718,4206.153743,4218.461435
68,0,4184.615282,4204.102461,4203.589641,4170.256308,4226.153743,4216.410153,4214.358871,4208.205025,4207.692205,4218.461435,4813.333216,4193.333231,4206.666564,4211.794769
69,0,4192.30759,4196.410154,4199.487077,4166.666565,4220.512717,4212.82041,4210.769128,4207.692205,4213.33323,4210.769128,4807.69219,4191.281949,4204.102461,4210.769128
70,0,4195.897333,4199.487077,4201.538359,4172.30759,4210.256307,4206.666564,4208.717846,4207.179384,4209.230666,4195.897333,4801.538344,4199.487077,4209.230666,4216.410153
71,0,4188.717846,4202.564,4201.538359,4175.384513,4199.487077,4203.589641,4208.717846,4204.615282,4205.640923,4211.794769,4789.743473,4202.564,4216.410153,4225.640922
72,0,4189.743487,4197.435795,4196.922974,4170.256308,4197.948615,4201.025538,4202.051179,4201.025538,4212.307589,4224.615281,4776.92296,4198.974256,4210.256307,4228.205025
73,0,4193.846051,4201.025538,4199.487077,4170.769129,4211.794769,4199.487077,4199.999897,4204.102461,4211.281948,4214.871692,4771.794755,4199.487077,4207.692205,4226.153743
74,0,4197.435795,4209.230666,4207.179384,4181.025539,4215.897333,4201.025538,4205.128102,4209.743487,4201.538359,4205.640923,4778.974242,4202.564,4213.33323,4225.640922
75,0,4204.615282,4205.128102,4205.640923,4181.025539,4208.205025,4204.102461,4207.692205,4204.102461,4197.948615,4201.025538,4784.102447,4201.025538,4215.897333,4224.102461
76,0,4199.487077,4205.128102,4202.564,4173.846052,4213.33323,4207.179384,4209.230666,4199.487077,4202.564,4204.615282,4781.538345,4199.999897,4213.33323,4223.07682
77,0,4188.205026,4206.153743,4204.102461,4172.30759,4221.025538,4204.615282,4208.205025,4201.538359,4202.564,4207.179384,4776.92296,4198.461436,4207.179384,4224.102461
78,0,4195.897333,4198.461436,4205.640923,4173.333231,4214.358871,4201.538359,4199.999897,4199.999897,4198.461436,4200.512718,4774.358858,4196.922974,4202.564,4223.07682
79,0,4205.640923,4205.128102,4205.128102,4178.461436,4204.615282,4202.051179,4200.512718,4201.025538,4202.564,4204.102461,4781.538345,4200.512718,4207.179384,4225.640922
80,0,4204.615282,4216.410153,4209.743487,4183.076821,4199.487077,4201.025538,4207.692205,4206.666564,4206.666564,4207.692205,4789.230652,4202.564,4213.33323,4233.33323
81,0,4206.153743,4213.846051,4214.871692,4183.589641,4202.051179,4196.922974,4205.640923,4206.153743,4203.589641,4203.589641,4787.17937,4202.051179,4216.922974,4236.410153
82,0,4212.82041,4211.281948,4210.769128,4178.461436,4212.307589,4199.487077,4206.153743,4205.128102,4203.589641,4209.743487,4786.153729,4205.640923,4218.461435,4232.820409
83,0,4208.717846,4209.743487,4202.051179,4171.79477,4213.846051,4203.07682,4211.281948,4206.666564,4209.743487,4213.846051,4789.230652,4204.102461,4212.82041,4226.153743
84,0,4188.205026,4197.948615,4195.897333,4165.640924,4205.640923,4197.948615,4205.128102,4199.487077,4204.102461,4203.07682,4778.461422,4189.743487,4198.974256,4218.974256
85,0,4177.435795,4194.871692,4192.82041,4166.666565,4213.846051,4195.897333,4198.974256,4193.333231,4199.999897,4206.153743,4768.205012,4181.025539,4196.922974,4215.897333
86,0,4192.30759,4205.640923,4190.769128,4173.333231,4223.07682,4205.640923,4202.564,4198.461436,4208.717846,4216.410153,4774.358858,4185.640923,4207.179384,4216.922974
87,0,4203.07682,4208.205025,4192.82041,4173.846052,4212.82041,4210.256307,4205.640923,4202.564,4210.769128,4213.846051,4779.487063,4189.230667,4210.769128,4219.487076
88,0,4191.281949,4199.999897,4195.384513,4169.743488,4200.512718,4202.564,4201.538359,4199.487077,4207.179384,4205.640923,4770.769114,4188.205026,4203.589641,4219.999897
89,0,4181.538359,4194.871692,4194.358872,4168.205026,4202.564,4197.948615,4201.025538,4200.512718,4210.769128,4205.640923,4760.512704,4185.640923,4202.564,4213.846051
90,0,4178.461436,4197.435795,4192.82041,4169.743488,4209.230666,4203.589641,4207.179384,4205.128102,4213.33323,4215.384512,4761.025525,4183.589641,4203.589641,4206.666564
91,0,4169.230667,4197.948615,4193.846051,4170.769129,4210.256307,4207.179384,4211.281948,4202.051179,4207.179384,4210.769128,4763.076807,4185.128103,4197.435795,4207.692205
92,0,4168.717847,4194.358872,4194.871692,4169.743488,4207.692205,4202.564,4209.743487,4194.358872,4205.128102,4192.82041,4757.948602,4183.589641,4195.897333,4213.846051
93,0,4183.589641,4199.999897,4196.922974,4172.820411,4204.615282,4199.487077,4212.82041,4199.999897,4212.82041,4202.564,4756.41014,4183.589641,4204.615282,4221.025538
94,0,4190.769128,4207.179384,4195.897333,4175.384513,4204.102461,4206.666564,4217.435794,4205.128102,4208.205025,4216.410153,4751.281935,4193.846051,4207.179384,4221.025538
95,0,4185.640923,4198.974256,4193.846051,4171.281949,4205.640923,4210.769128,4215.384512,4193.333231,4198.974256,4199.999897,4738.974243,4195.897333,4198.461436,4214.358871
96,0,4177.948616,4188.205026,4193.333231,4168.205026,4202.051179,4203.589641,4212.307589,4185.128103,4201.025538,4190.769128,4728.205013,4187.692205,4190.769128,4209.743487
97,0,4165.128103,4190.769128,4193.846051,4170.256308,4192.82041,4199.999897,4205.640923,4187.179385,4202.051179,4201.025538,4723.076808,4191.794769,4189.230667,4211.794769
98,0,4169.743488,4198.974256,4200.512718,4172.820411,4201.538359,4203.07682,4201.538359,4188.717846,4196.410154,4198.461436,4721.538346,4204.615282,4195.384513,4218.461435
99,0,4191.794769,4201.025538,4205.640923,4177.948616,4216.410153,4199.487077,4209.230666,4189.230667,4197.435795,4187.692205,4722.051167,4203.07682,4202.564,4222.051179
100,0,4196.922974,4201.025538,4202.051179,4184.615282,4208.717846,4199.487077,4211.794769,4191.794769,4204.615282,4185.640923,4717.948603,4197.948615,4202.051179,4219.999897
101,0,4188.205026,4202.051179,4200.512718,4183.076821,4199.999897,4205.640923,4209.230666,4195.897333,4205.640923,4199.999897,4715.3845,4206.153743,4204.102461,4222.051179
102,0,4186.666564,4205.128102,4205.640923,4178.461436,4208.717846,4206.666564,4213.33323,4203.589641,4208.717846,4219.487076,4727.692192,4215.384512,4217.435794,4233.33323
103,0,4180.512718,4202.051179,4204.102461,4175.897334,4207.179384,4203.07682,4214.358871,4204.102461,4209.230666,4218.461435,4726.153731,4210.256307,4218.461435,4235.384512
104,0,4178.461436,4191.281949,4196.922974,4168.717847,4191.281949,4204.615282,4211.281948,4197.948615,4203.589641,4210.256307,4703.589629,4200.512718,4210.769128,4226.666563
105,0,4196.410154,4192.30759,4201.025538,4171.281949,4190.256308,4207.692205,4213.846051,4201.538359,4206.666564,4215.897333,4698.974244,4206.153743,4219.487076,4229.230666
106,0,4207.179384,4206.666564,4212.307589,4185.128103,4205.128102,4209.230666,4219.487076,4212.82041,4217.948615,4220.512717,4713.846039,4218.461435,4234.358871,4246.153742
107,0,4202.564,4205.640923,4216.410153,4185.640923,4209.743487,4209.230666,4218.461435,4214.358871,4219.487076,4213.33323,4709.743475,4219.999897,4233.33323,4252.307588
108,0,4194.358872,4195.897333,4211.794769,4177.435795,4202.051179,4206.153743,4215.384512,4207.692205,4214.871692,4212.307589,4686.666552,4216.410153,4224.615281,4243.076819
109,0,4182.564,4203.589641,4213.846051,4182.564,4197.948615,4204.615282,4214.358871,4210.769128,4216.410153,4220.512717,4676.410142,4216.410153,4223.07682,4241.538358
110,0,4186.666564,4212.307589,4216.410153,4188.205026,4208.205025,4203.589641,4213.33323,4213.846051,4213.846051,4225.128102,4675.384501,4219.999897,4224.102461,4241.538358
111,0,4201.538359,4204.615282,4213.846051,4184.615282,4207.692205,4203.07682,4213.33323,4203.07682,4209.743487,4221.025538,4664.615271,4219.999897,4224.102461,4236.410153
112,0,4198.974256,4197.435795,4214.871692,4179.487077,4193.846051,4205.640923,4214.871692,4196.922974,4208.717846,4212.307589,4652.307579,4219.487076,4225.128102,4239.487076
113,0,4190.256308,4197.435795,4214.358871,4180.512718,4190.256308,4207.179384,4215.384512,4203.589641,4205.128102,4211.281948,4639.487066,4217.435794,4221.538358,4240.512717
114,0,4198.461436,4198.974256,4210.256307,4184.102462,4200.512718,4212.82041,4216.922974,4206.153743,4210.769128,4221.538358,4623.07681,4216.410153,4212.82041,4234.358871
115,0,4199.487077,4201.538359,4211.281948,4184.615282,4206.666564,4217.948615,4219.487076,4207.692205,4219.999897,4229.743486,4619.999887,4217.948615,4218.974256,4235.384512
116,0,4176.410154,4198.974256,4213.33323,4181.538359,4204.102461,4211.281948,4217.948615,4211.794769,4216.410153,4217.435794,4619.487067,4217.435794,4221.025538,4232.307589
117,0,4168.205026,4188.717846,4207.692205,4179.487077,4208.205025,4208.205025,4215.897333,4209.743487,4213.846051,4201.538359,4599.487067,4215.897333,4206.666564,4218.974256
118,0,4190.256308,4189.743487,4208.205025,4181.538359,4209.743487,4213.33323,4216.922974,4207.692205,4215.897333,4208.717846,4585.128093,4216.922974,4207.692205,4222.563999
119,0,4206.153743,4200.512718,4215.897333,4187.692205,4197.948615,4209.743487,4215.384512,4207.692205,4212.307589,4222.051179,4587.692196,4218.974256,4224.615281,4240.512717
120,0,4196.922974,4201.538359,4217.435794,4186.666564,4193.846051,4203.589641,4214.871692,4205.640923,4208.205025,4222.563999,4581.025529,4217.948615,4229.230666,4245.640922
121,0,4185.128103,4191.281949,4209.230666,4174.358872,4204.102461,4207.179384,4210.256307,4201.538359,4206.153743,4216.922974,4564.615273,4213.846051,4221.538358,4234.358871
122,0,4186.153744,4189.743487,4202.564,4172.30759,4203.589641,4208.717846,4203.07682,4197.435795,4205.640923,4213.33323,4553.846042,4211.794769,4214.358871,4224.102461
123,0,4184.102462,4200.512718,4209.230666,4184.615282,4196.410154,4209.743487,4205.128102,4198.974256,4209.230666,4210.256307,4548.205017,4209.743487,4216.922974,4228.205025
124,0,4184.102462,4203.589641,4218.461435,4188.717846,4206.666564,4212.307589,4211.281948,4200.512718,4205.128102,4207.179384,4539.999889,4208.717846,4221.538358,4233.33323
125,0,4196.410154,4199.487077,4215.384512,4183.589641,4220.512717,4209.743487,4208.717846,4201.025538,4200.512718,4213.846051,4529.230658,4211.794769,4221.538358,4230.256307
126,0,4203.589641,4198.461436,4210.256307,4184.615282,4213.33323,4209.743487,4205.640923,4206.666564,4209.230666,4218.974256,4515.897325,4215.384512,4218.461435,4225.128102
127,0,4197.435795,4199.999897,4213.33323,4187.692205,4201.025538,4213.846051,4210.769128,4214.358871,4217.948615,4217.948615,4508.205018,4210.256307,4221.538358,4224.102461
128,0,4186.153744,4195.384513,4210.256307,4180.512718,4199.487077,4215.384512,4214.358871,4212.82041,4214.358871,4216.922974,4496.410146,4206.666564,4224.102461,4225.128102
0,0,4186.153744,4193.846051,4208.205025,4175.897334,4204.615282,4212.82041,4213.33323,4210.769128,4210.256307,4218.461435,4479.48707,4212.307589,4223.58964,4231.281948
1,0,4185.128103,4197.435795,4211.794769,4182.05118,4208.205025,4210.256307,4210.769128,4213.33323,4212.307589,4216.922974,4461.025532,4213.846051,4224.102461,4233.33323
2,0,4183.076821,4196.922974,4207.692205,4183.589641,4209.743487,4213.846051,4213.33323,4211.281948,4213.846051,4218.974256,4440.512712,4209.230666,4220.512717,4225.640922
3,0,4194.358872,4198.461436,4206.666564,4182.05118,4215.384512,4218.461435,4217.435794,4214.358871,4213.846051,4230.769127,4424.102456,4213.846051,4222.563999,4229.230666
4,0,4202.051179,4197.948615,4210.256307,4184.615282,4218.461435,4218.974256,4215.897333,4217.948615,4216.410153,4227.692204,4402.563995,4215.897333,4226.153743,4232.307589
5,0,4190.769128,4193.846051,4202.051179,4183.076821,4210.256307,4215.897333,4214.358871,4212.307589,4217.948615,4206.666564,4369.230662,4206.666564,4218.461435,4224.102461
6,0,4174.358872,4189.743487,4197.948615,4178.974257,4198.974256,4216.922974,4213.846051,4210.769128,4215.384512,4200.512718,4342.563996,4203.07682,4210.769128,4220.512717
7,0,4182.05118,4188.717846,4209.230666,4178.461436,4201.025538,4214.871692,4214.871692,4216.410153,4215.384512,4214.871692,4332.820407,4209.743487,4212.82041,4225.128102
8,0,4195.897333,4191.281949,4211.281948,4174.871693,4210.769128,4207.179384,4213.33323,4216.410153,4214.871692,4221.025538,4325.64092,4213.33323,4217.948615,4227.179384
9,0,4181.538359,4187.692205,4201.538359,4168.205026,4208.205025,4198.974256,4204.102461,4206.153743,4205.640923,4210.769128,4307.692202,4204.615282,4209.230666,4221.025538
10,0,4163.589642,4179.999898,4195.384513,4167.692206,4197.948615,4195.897333,4195.384513,4193.846051,4193.333231,4198.461436,4285.1281,4192.82041,4195.384513,4212.307589
11,0,4183.076821,4184.615282,4196.410154,4172.30759,4200.512718,4199.487077,4197.435795,4196.410154,4196.410154,4196.410154,4275.897331,4195.897333,4200.512718,4215.897333
12,0,4199.487077,4188.205026,4202.051179,4173.333231,4204.102461,4204.615282,4204.102461,4207.692205,4207.179384,4207.179384,4282.051177,4203.589641,4210.256307,4221.025538
13,0,4174.358872,4178.461436,4201.538359,4171.79477,4201.025538,4211.794769,4205.128102,4209.230666,4206.666564,4211.794769,4283.589639,4204.102461,4206.153743,4210.769128
14,0,4169.743488,4190.256308,4202.051179,4181.538359,4205.640923,4216.922974,4209.743487,4208.205025,4206.153743,4210.256307,4278.461434,4204.102461,4206.153743,4212.307589
15,0,4196.922974,4216.922974,4210.256307,4194.871692,4214.871692,4217.948615,4213.846051,4211.794769,4213.846051,4217.435794,4278.974254,4206.666564,4211.794769,4224.615281
16,0,4203.07682,4214.358871,4212.307589,4194.358872,4213.846051,4215.384512,4208.205025,4210.256307,4214.358871,4217.435794,4276.922972,4202.051179,4201.538359,4215.384512
17,0,4192.82041,4209.230666,4209.230666,4192.30759,4213.846051,4210.769128,4202.051179,4207.179384,4210.256307,4213.33323,4273.846049,4200.512718,4196.410154,4206.666564
18,0,4186.153744,4219.487076,4209.230666,4192.82041,4215.384512,4210.769128,4203.07682,4206.666564,4211.281948,4217.435794,4277.435793,4204.102461,4205.640923,4209.743487
19,0,4185.128103,4215.897333,4204.102461,4187.179385,4217.948615,4211.794769,4203.07682,4199.999897,4209.230666,4216.922974,4278.974254,4197.435795,4201.025538,4202.564
20,0,4181.025539,4205.640923,4195.897333,4186.153744,4220.512717,4207.179384,4199.487077,4192.30759,4200.512718,4210.769128,4279.999895,4189.230667,4193.846051,4195.384513
21,0,4178.461436,4208.205025,4199.487077,4193.846051,4210.256307,4199.999897,4197.948615,4193.846051,4198.461436,4208.717846,4284.61528,4192.82041,4196.410154,4197.435795
22,0,4191.281949,4217.948615,4210.256307,4199.487077,4203.589641,4201.025538,4198.461436,4196.410154,4201.025538,4202.051179,4286.666562,4201.025538,4194.871692,4195.897333
23,0,4211.281948,4226.153743,4215.897333,4201.025538,4213.33323,4211.281948,4200.512718,4198.974256,4201.538359,4195.384513,4293.846049,4206.153743,4197.435795,4200.512718
24,0,4206.153743,4226.666563,4215.897333,4203.07682,4221.025538,4216.922974,4204.102461,4204.102461,4202.564,4205.128102,4312.307587,4207.179384,4206.666564,4213.33323
25,0,4193.846051,4223.07682,4217.435794,4203.589641,4219.999897,4209.230666,4203.589641,4205.128102,4202.564,4207.692205,4321.538356,4202.564,4203.07682,4215.384512
26,0,4203.07682,4222.563999,4215.384512,4201.538359,4216.922974,4206.153743,4201.538359,4202.564,4196.922974,4204.615282,4316.410151,4200.512718,4192.30759,4206.153743
27,0,4199.999897,4215.384512,4204.615282,4194.871692,4209.743487,4207.179384,4199.487077,4199.487077,4195.897333,4208.205025,4314.871689,4197.435795,4190.256308,4198.974256
28,0,4189.743487,4207.179384,4198.974256,4188.205026,4207.692205,4205.640923,4198.974256,4193.846051,4201.538359,4196.410154,4320.512715,4191.281949,4188.717846,4199.999897
29,0,4195.384513,4210.256307,4201.025538,4190.769128,4209.743487,4206.153743,4199.487077,4192.30759,4198.461436,4183.589641,4325.128099,4189.743487,4182.564,4198.461436
30,0,4205.128102,4217.435794,4199.487077,4200.512718,4208.717846,4207.692205,4201.025538,4198.974256,4198.974256,4194.871692,4333.333227,4193.846051,4185.640923,4197.435795
31,0,4201.538359,4221.538358,4201.538359,4205.128102,4212.307589,4210.769128,4202.564,4202.564,4205.640923,4207.179384,4346.66656,4195.384513,4196.410154,4204.615282
32,0,4188.205026,4219.487076,4209.743487,4197.435795,4211.794769,4213.33323,4203.589641,4199.999897,4199.999897,4195.384513,4349.743483,4198.974256,4194.358872,4208.717846
33,0,4189.743487,4215.384512,4210.256307,4194.358872,4204.615282,4207.179384,4201.538359,4200.512718,4193.846051,4190.769128,4346.66656,4201.025538,4184.102462,4202.564
34,0,4205.640923,4216.922974,4210.256307,4202.051179,4208.205025,4199.999897,4201.538359,4200.512718,4196.922974,4204.615282,4353.846047,4197.435795,4183.076821,4199.999897
35,0,4209.230666,4214.871692,4212.307589,4204.102461,4214.358871,4201.025538,4202.051179,4191.794769,4188.717846,4197.948615,4361.538355,4191.794769,4185.128103,4201.538359
36,0,4193.846051,4206.153743,4205.128102,4191.794769,4199.487077,4201.538359,4195.897333,4183.589641,4179.999898,4183.076821,4362.051175,4189.230667,4181.025539,4198.974256
37,0,4183.076821,4198.974256,4196.922974,4182.564,4188.717846,4198.461436,4192.30759,4188.205026,4189.230667,4190.256308,4371.794765,4192.30759,4176.410154,4186.153744
38,0,4185.640923,4201.538359,4206.666564,4190.769128,4204.102461,4202.564,4199.999897,4201.538359,4197.948615,4201.025538,4390.769123,4198.974256,4179.999898,4177.948616
39,0,4187.179385,4205.128102,4215.384512,4195.384513,4212.307589,4203.589641,4203.07682,4206.153743,4199.487077,4196.922974,4405.128097,4199.999897,4192.82041,4195.897333
40,0,4183.076821,4199.487077,4207.692205,4185.640923,4201.025538,4201.538359,4197.435795,4198.461436,4202.051179,4202.051179,4415.897328,4198.461436,4204.102461,4215.897333
41,0,4190.256308,4192.82041,4204.615282,4182.05118,4197.948615,4201.538359,4196.922974,4195.384513,4197.435795,4210.769128,4431.794763,4200.512718,4204.102461,4216.410153
42,0,4207.692205,4195.384513,4208.717846,4192.82041,4203.07682,4202.051179,4201.538359,4195.897333,4187.179385,4195.897333,4450.256301,4203.589641,4201.538359,4214.358871
43,0,4202.564,4192.82041,4205.640923,4191.281949,4203.07682,4203.07682,4202.051179,4193.846051,4188.205026,4187.692205,4459.48707,4199.487077,4203.589641,4217.948615
44,0,4187.692205,4182.05118,4198.461436,4174.358872,4207.692205,4202.051179,4199.487077,4190.769128,4191.281949,4195.384513,4465.640916,4189.230667,4199.999897,4211.794769
45,0,4186.666564,4183.589641,4197.435795,4175.384513,4205.128102,4201.538359,4196.922974,4189.743487,4189.230667,4193.846051,4485.128095,4184.615282,4191.281949,4204.615282
46,0,4174.871693,4191.281949,4201.538359,4188.205026,4194.871692,4202.564,4197.435795,4190.256308,4193.333231,4187.692205,4505.128095,4188.205026,4191.281949,4204.102461
47,0,4166.666565,4188.717846,4201.025538,4183.589641,4197.435795,4197.435795,4194.871692,4188.717846,4196.410154,4191.794769,4510.76912,4187.692205,4189.230667,4198.974256
48,0,4189.230667,4182.05118,4194.871692,4168.205026,4203.07682,4190.769128,4186.153744,4183.589641,4186.153744,4192.82041,4516.922966,4183.076821,4182.05118,4202.051179
49,0,4201.538359,4182.05118,4193.333231,4169.230667,4201.025538,4194.871692,4184.615282,4183.076821,4181.538359,4184.615282,4538.974248,4187.692205,4190.769128,4214.358871
50,0,4194.871692,4186.153744,4201.025538,4184.615282,4196.410154,4201.538359,4193.846051,4193.846051,4195.897333,4188.717846,4563.589632,4198.461436,4205.128102,4218.461435
51,0,4188.205026,4186.666564,4204.102461,4186.666564,4206.153743,4202.564,4200.512718,4203.589641,4205.128102,4204.102461,4577.435786,4199.999897,4200.512718,4216.410153
52,0,4173.333231,4182.05118,4200.512718,4174.358872,4205.640923,4203.07682,4198.461436,4198.461436,4195.897333,4203.07682,4579.999888,4194.358872,4192.30759,4214.871692
53,0,4178.974257,4183.076821,4198.974256,4170.769129,4187.179385,4204.102461,4198.974256,4197.435795,4196.410154,4195.897333,4586.153734,4195.897333,4199.999897,4214.358871
54,0,4203.07682,4188.205026,4202.051179,4177.948616,4191.794769,4204.102461,4203.07682,4209.743487,4212.307589,4210.769128,4601.025529,4201.538359,4205.640923,4213.846051
55,0,4195.384513,4186.666564,4203.589641,4181.538359,4215.384512,4205.640923,4203.07682,4216.410153,4215.897333,4224.615281,4608.205016,4197.948615,4203.07682,4216.410153
56,0,4189.230667,4186.666564,4202.564,4181.538359,4216.922974,4210.769128,4201.538359,4205.128102,4205.128102,4213.33323,4607.692195,4193.846051,4201.025538,4216.922974
57,0,4199.999897,4190.769128,4202.564,4181.025539,4209.230666,4211.281948,4201.025538,4197.435795,4198.974256,4203.07682,4609.743477,4195.384513,4200.512718,4216.410153
58,0,4182.564,4189.230667,4202.051179,4185.640923,4211.281948,4203.589641,4199.999897,4202.051179,4196.922974,4205.640923,4617.435785,4198.461436,4201.538359,4219.487076
59,0,4169.230667,4183.589641,4202.564,4183.589641,4202.564,4201.025538,4199.999897,4202.051179,4197.435795,4206.153743,4621.538349,4201.538359,4201.025538,4218.974256
60,0,4192.30759,4185.128103,4207.692205,4173.846052,4201.538359,4205.128102,4197.435795,4199.999897,4198.974256,4210.256307,4622.051169,4199.487077,4195.384513,4214.358871
61,0,4205.640923,4188.717846,4207.179384,4177.948616,4208.205025,4201.538359,4194.871692,4202.051179,4199.487077,4214.871692,4632.8204,4195.384513,4194.871692,4213.33323
62,0,4194.871692,4190.769128,4198.974256,4190.256308,4205.128102,4199.487077,4197.435795,4202.051179,4197.948615,4204.615282,4648.717835,4197.948615,4204.615282,4217.948615
63,0,4175.384513,4186.666564,4200.512718,4184.102462,4200.512718,4208.205025,4200.512718,4200.512718,4200.512718,4195.897333,4651.281938,4201.025538,4201.025538,4214.358871
64,0,4165.640924,4174.871693,4205.128102,4170.256308,4203.07682,4206.666564,4199.487077,4203.589641,4203.07682,4201.538359,4648.717835,4193.846051,4187.179385,4206.153743
65,0,4177.435795,4171.281949,4195.897333,4168.205026,4204.102461,4198.974256,4199.487077,4203.07682,4199.999897,4205.640923,4660.512707,4188.205026,4187.179385,4204.615282
66,0,4191.281949,4183.589641,4192.30759,4174.358872,4203.07682,4201.538359,4202.051179,4205.640923,4205.128102,4210.769128,4681.025527,4195.897333,4202.051179,4214.358871
67,0,4188.717846,4190.769128,4204.102461,4183.589641,4205.128102,4203.589641,4203.07682,4210.769128,4210.256307,4223.58964,4693.333219,4202.564,4207.692205,4225.640922
68,0,4193.333231,4188.717846,4207.179384,4184.102462,4203.07682,4201.538359,4201.025538,4209.230666,4204.615282,4221.025538,4698.461424,4201.025538,4202.051179,4223.07682
69,0,4199.487077,4193.333231,4200.512718,4183.589641,4205.640923,4203.07682,4200.512718,4207.692205,4202.564,4207.692205,4707.692193,4198.461436,4204.615282,4219.487076
70,0,4184.102462,4199.487077,4203.07682,4190.769128,4213.33323,4204.615282,4201.538359,4213.846051,4206.666564,4206.153743,4720.512705,4201.025538,4212.307589,4225.128102
71,0,4190.769128,4203.589641,4211.281948,4192.82041,4207.692205,4201.538359,4202.051179,4216.922974,4209.230666,4211.794769,4728.205013,4207.692205,4214.358871,4233.33323
72,0,4224.615281,4211.794769,4213.33323,4194.358872,4198.974256,4203.07682,4202.564,4213.846051,4208.717846,4213.33323,4731.794756,4212.307589,4217.948615,4239.999896
73,0,4226.153743,4205.128102,4211.281948,4193.333231,4203.589641,4206.666564,4203.589641,4214.358871,4210.256307,4216.410153,4728.717833,4207.179384,4215.384512,4236.922973
74,0,4213.33323,4196.410154,4212.82041,4189.230667,4206.666564,4205.128102,4203.589641,4216.410153,4212.307589,4223.07682,4728.717833,4206.666564,4221.538358,4247.692204
75,0,4243.58964,4208.205025,4223.07682,4193.333231,4201.025538,4202.051179,4201.025538,4214.358871,4212.82041,4230.256307,4746.15373,4222.051179,4255.384511,4296.922972
76,0,4287.692203,4222.563999,4234.358871,4204.615282,4208.205025,4201.025538,4200.512718,4215.897333,4213.846051,4239.999896,4767.179371,4241.025537,4294.87169,4357.435791
77,0,4307.179382,4219.487076,4239.999896,4204.102461,4207.692205,4202.051179,4202.564,4217.435794,4215.384512,4237.435794,4769.743473,4252.820409,4312.820407,4390.256303
78,0,4328.205022,4217.435794,4243.58964,4201.025538,4194.871692,4201.538359,4201.025538,4216.922974,4216.410153,4230.769127,4766.15373,4261.025537,4323.076817,4416.410148
79,0,4345.640919,4220.512717,4249.743486,4210.769128,4201.025538,4201.538359,4200.512718,4217.948615,4216.922974,4233.33323,4766.15373,4265.128101,4337.435791,4448.71784
80,0,4343.589637,4218.974256,4250.769127,4213.33323,4205.128102,4201.538359,4201.538359,4217.435794,4216.922974,4233.33323,4754.358858,4268.717844,4344.102458,4456.410147
81,0,4344.615278,4218.461435,4248.205024,4205.640923,4191.281949,4202.051179,4201.538359,4217.435794,4209.743487,4233.33323,4734.358859,4268.205024,4341.025535,4442.051173
82,0,4336.922971,4214.358871,4248.717845,4201.538359,4191.794769,4202.564,4201.538359,4219.999897,4206.153743,4235.384512,4710.256295,4263.589639,4329.743484,4423.076815
83,0,4313.333228,4206.153743,4245.128101,4200.512718,4203.589641,4200.512718,4203.589641,4223.58964,4215.384512,4241.538358,4681.025527,4264.61528,4318.974253,4402.051174
84,0,4295.897331,4206.153743,4236.410153,4198.461436,4197.435795,4199.999897,4203.07682,4222.563999,4215.897333,4243.076819,4648.717835,4262.051178,4309.743484,4380.512713
85,0,4277.435793,4209.743487,4232.820409,4197.435795,4198.461436,4200.512718,4202.051179,4220.512717,4209.230666,4236.410153,4614.871682,4252.307588,4294.87169,4358.974252
86,0,4251.794768,4203.07682,4230.256307,4201.025538,4209.230666,4199.999897,4202.051179,4218.974256,4211.281948,4225.128102,4575.897324,4244.10246,4276.922972,4335.384509
87,0,4245.640922,4198.461436,4219.487076,4197.948615,4204.615282,4200.512718,4201.538359,4212.307589,4211.794769,4213.33323,4537.948607,4237.948614,4260.512716,4310.769125
88,0,4246.153742,4202.051179,4213.846051,4191.794769,4195.897333,4201.538359,4201.538359,4207.179384,4206.153743,4209.230666,4507.692197,4232.820409,4250.256306,4296.922972
89,0,4231.281948,4197.435795,4216.410153,4190.256308,4194.358872,4199.999897,4201.538359,4204.102461,4202.051179,4209.230666,4483.076813,4227.692204,4245.640922,4286.153741
90,0,4214.871692,4191.794769,4210.256307,4189.743487,4194.871692,4199.487077,4201.538359,4199.999897,4199.999897,4211.281948,4462.563993,4219.999897,4239.487076,4268.717844
91,0,4198.974256,4192.82041,4200.512718,4186.666564,4195.384513,4198.461436,4200.512718,4196.922974,4197.948615,4210.256307,4439.487071,4212.82041,4228.205025,4255.384511
92,0,4192.30759,4188.717846,4202.564,4186.666564,4190.256308,4197.948615,4201.538359,4197.435795,4197.948615,4201.538359,4417.435789,4214.871692,4224.615281,4251.794768
93,0,4205.128102,4177.948616,4204.102461,4185.128103,4183.076821,4201.025538,4202.564,4199.487077,4200.512718,4196.410154,4399.999892,4214.358871,4226.153743,4246.666563
94,0,4206.666564,4173.846052,4197.948615,4175.897334,4186.666564,4201.025538,4202.051179,4197.435795,4201.025538,4199.487077,4380.512713,4210.769128,4221.025538,4241.538358
95,0,4192.82041,4179.999898,4198.461436,4175.897334,4187.692205,4198.974256,4201.025538,4198.974256,4198.974256,4201.538359,4368.205021,4212.307589,4219.999897,4242.563999
96,0,4193.333231,4185.128103,4203.07682,4188.205026,4184.102462,4199.487077,4203.07682,4201.538359,4193.846051,4188.205026,4367.17938,4211.281948,4219.487076,4236.410153
97,0,4184.102462,4185.640923,4203.589641,4188.717846,4192.82041,4201.538359,4207.692205,4199.487077,4190.769128,4182.564,4366.153739,4206.666564,4214.358871,4226.666563
98,0,4173.333231,4184.615282,4204.102461,4183.076821,4195.897333,4202.051179,4207.692205,4202.564,4194.871692,4198.461436,4361.538355,4206.666564,4213.33323,4228.717845
99,0,4187.692205,4182.05118,4204.102461,4183.589641,4183.589641,4198.461436,4204.615282,4205.640923,4197.948615,4207.179384,4358.461432,4210.256307,4216.410153,4229.743486
100,0,4195.897333,4180.512718,4200.512718,4185.128103,4184.102462,4199.999897,4210.256307,4204.615282,4201.538359,4202.564,4365.640919,4211.794769,4214.358871,4227.179384
101,0,4190.769128,4184.615282,4201.025538,4183.076821,4197.435795,4208.205025,4217.948615,4210.256307,4206.153743,4201.538359,4378.461431,4215.897333,4214.358871,4230.256307
102,0,4187.692205,4181.025539,4201.538359,4178.461436,4203.07682,4209.230666,4215.384512,4216.410153,4207.692205,4208.717846,4380.512713,4216.410153,4218.461435,4228.717845
103,0,4170.769129,4174.358872,4197.948615,4177.435795,4201.538359,4201.025538,4211.281948,4209.743487,4203.07682,4206.666564,4378.461431,4210.769128,4214.871692,4218.461435
104,0,4167.179385,4183.076821,4201.025538,4185.128103,4198.461436,4203.07682,4214.358871,4205.128102,4203.07682,4203.589641,4391.281944,4212.82041,4214.871692,4220.512717
105,0,4195.384513,4189.230667,4205.640923,4189.230667,4194.871692,4207.692205,4216.922974,4212.82041,4208.205025,4214.358871,4406.666559,4218.974256,4223.58964,4228.717845
106,0,4206.666564,4185.640923,4204.102461,4188.205026,4196.410154,4207.692205,4217.948615,4217.948615,4209.230666,4229.230666,4414.358866,4219.487076,4229.230666,4231.794768
107,0,4193.333231,4185.128103,4203.07682,4187.692205,4197.435795,4208.205025,4217.435794,4216.922974,4200.512718,4225.128102,4412.307584,4215.897333,4222.563999,4230.256307
108,0,4177.435795,4180.512718,4202.051179,4180.512718,4190.769128,4205.128102,4214.871692,4213.846051,4189.743487,4209.230666,4399.487072,4210.256307,4210.256307,4224.102461
109,0,4168.205026,4174.358872,4201.538359,4175.897334,4187.179385,4199.999897,4212.82041,4213.846051,4190.769128,4209.230666,4393.333226,4209.230666,4206.666564,4217.948615
110,0,4184.615282,4180.512718,4203.589641,4186.153744,4193.846051,4202.051179,4214.871692,4218.974256,4201.538359,4216.410153,4401.538354,4213.33323,4211.281948,4216.922974
111,0,4194.871692,4184.102462,4202.564,4189.230667,4203.589641,4202.564,4215.384512,4218.461435,4202.564,4210.769128,4398.974251,4207.179384,4214.871692,4216.922974
112,0,4184.102462,4176.410154,4197.435795,4183.589641,4201.538359,4201.025538,4212.82041,4214.358871,4199.487077,4209.743487,4385.640918,4196.922974,4212.307589,4214.358871
113,0,4181.025539,4179.487077,4198.974256,4186.666564,4189.743487,4207.179384,4215.897333,4217.435794,4205.128102,4219.487076,4373.333226,4201.538359,4213.846051,4215.897333
114,0,4175.384513,4185.640923,4203.589641,4189.743487,4185.640923,4210.769128,4217.948615,4219.999897,4208.717846,4217.435794,4344.102458,4205.128102,4213.33323,4216.922974
115,0,4169.230667,4179.999898,4196.922974,4182.564,4189.743487,4205.128102,4213.846051,4212.82041,4201.538359,4209.743487,4307.692202,4197.435795,4201.538359,4206.153743
116,0,4192.82041,4180.512718,4190.769128,4182.05118,4192.82041,4204.615282,4207.179384,4205.128102,4193.333231,4209.230666,4286.153741,4194.358872,4196.410154,4202.564
117,0,4205.128102,4187.692205,4195.384513,4190.256308,4197.948615,4205.640923,4204.615282,4204.102461,4193.333231,4209.230666,4268.205024,4198.974256,4205.640923,4215.384512
118,0,4171.79477,4176.922975,4194.871692,4186.153744,4204.102461,4202.051179,4203.589641,4206.666564,4198.461436,4208.717846,4236.922973,4200.512718,4202.051179,4211.281948
119,0,4163.076821,4169.743488,4184.615282,4179.999898,4197.948615,4198.974256,4199.487077,4202.564,4192.30759,4200.512718,4197.435795,4192.30759,4186.666564,4194.871692
120,0,4190.256308,4190.769128,4185.128103,4192.82041,4195.384513,4196.410154,4194.358872,4190.769128,4180.512718,4183.076821,4155.384514,4185.128103,4180.512718,4201.538359
121,0,4203.07682,4210.256307,4195.897333,4202.564,4202.564,4195.384513,4192.82041,4185.128103,4181.025539,4178.461436,4118.461438,4189.230667,4175.897334,4215.384512
122,0,4206.666564,4213.33323,4200.512718,4202.564,4193.846051,4198.974256,4194.871692,4189.230667,4184.615282,4185.640923,4079.48708,4195.384513,4159.999898,4213.33323
123,0,4216.922974,4219.999897,4204.102461,4208.205025,4180.512718,4197.435795,4196.922974,4193.846051,4182.564,4185.128103,4038.46144,4198.461436,4153.333232,4213.846051
124,0,4221.025538,4221.538358,4210.256307,4208.717846,4183.076821,4193.333231,4199.487077,4196.922974,4185.128103,4184.102462,4007.179389,4204.102461,4162.05118,4217.435794
125,0,4218.461435,4212.82041,4209.743487,4199.999897,4192.30759,4196.922974,4201.538359,4202.051179,4188.717846,4187.692205,3969.230672,4207.692205,4163.589642,4213.33323
126,0,4215.384512,4210.769128,4204.615282,4201.025538,4193.333231,4200.512718,4202.051179,4203.07682,4184.615282,4186.153744,3915.89734,4203.07682,4155.384514,4208.205025
127,0,4206.666564,4212.82041,4201.538359,4206.153743,4195.384513,4201.538359,4202.564,4199.999897,4182.05118,4184.615282,3876.410162,4198.974256,4157.435796,4207.692205
128,0,4196.410154,4211.794769,4201.538359,4201.025538,4197.435795,4199.487077,4199.999897,4197.435795,4175.897334,4186.153744,3843.076829,4196.922974,4161.025539,4203.589641
0,0,4199.487077,4208.205025,4199.487077,4196.410154,4191.794769,4198.974256,4198.974256,4196.922974,4168.717847,4191.281949,3793.333241,4193.846051,4154.358873,4195.897333
1,0,4211.281948,4208.205025,4200.512718,4197.948615,4190.769128,4198.461436,4202.564,4196.922974,4173.333231,4199.999897,3746.153755,4194.358872,4155.384514,4193.846051
2,0,4209.230666,4214.358871,4201.025538,4201.025538,4201.538359,4196.410154,4202.564,4198.461436,4178.974257,4198.461436,3714.358884,4199.999897,4168.205026,4200.512718
3,0,4196.922974,4214.871692,4197.435795,4202.051179,4203.07682,4194.871692,4199.999897,4199.999897,4176.410154,4185.640923,3684.615295,4201.025538,4170.256308,4202.051179
4,0,4197.435795,4211.794769,4195.384513,4200.512718,4188.205026,4194.871692,4199.487077,4200.512718,4175.384513,4188.205026,3655.897346,4195.384513,4167.692206,4196.922974
5,0,4208.205025,4215.384512,4201.025538,4203.589641,4187.179385,4197.948615,4201.025538,4202.051179,4181.025539,4201.538359,3632.307603,4196.410154,4174.871693,4205.640923
6,0,4209.230666,4217.435794,4201.025538,4205.128102,4203.07682,4201.538359,4201.025538,4201.025538,4181.538359,4201.025538,3606.153758,4200.512718,4185.640923,4213.33323
7,0,4204.102461,4214.871692,4197.435795,4201.025538,4205.128102,4202.051179,4198.974256,4199.999897,4178.461436,4197.948615,3576.410169,4201.025538,4185.640923,4205.128102
8,0,4207.179384,4219.487076,4204.102461,4207.692205,4199.999897,4201.538359,4199.487077,4205.128102,4184.615282,4203.589641,3556.410169,4205.640923,4182.564,4206.666564
9,0,4216.922974,4222.051179,4209.743487,4218.461435,4201.538359,4204.102461,4202.564,4207.179384,4189.230667,4203.07682,3542.051195,4209.230666,4184.102462,4217.948615
10,0,4221.538358,4214.871692,4204.102461,4208.205025,4203.589641,4204.615282,4203.07682,4202.564,4185.128103,4198.461436,3525.128119,4203.589641,4185.640923,4216.922974
11,0,4206.153743,4215.384512,4198.461436,4199.487077,4201.025538,4199.487077,4199.487077,4201.025538,4180.512718,4196.410154,3508.205042,4199.487077,4186.153744,4213.846051
12,0,4197.435795,4214.871692,4201.025538,4208.205025,4198.461436,4199.487077,4199.487077,4203.07682,4183.076821,4190.769128,3488.205043,4202.051179,4182.564,4216.410153
13,0,4206.666564,4211.281948,4205.640923,4207.692205,4203.07682,4204.102461,4204.102461,4205.640923,4189.230667,4201.025538,3477.435812,4205.640923,4183.076821,4215.897333
14,0,4210.256307,4216.922974,4207.179384,4203.589641,4203.07682,4204.615282,4204.102461,4204.615282,4184.102462,4209.230666,3471.794787,4206.666564,4187.692205,4211.281948
15,0,4199.487077,4207.692205,4199.487077,4198.461436,4195.384513,4199.487077,4198.461436,4196.410154,4172.820411,4188.205026,3449.230685,4197.435795,4172.30759,4193.846051
16,0,4185.640923,4186.153744,4187.692205,4185.640923,4196.410154,4197.948615,4196.410154,4192.30759,4169.743488,4174.871693,3421.538378,4184.102462,4150.769129,4173.333231
17,0,4188.205026,4197.948615,4185.128103,4190.256308,4203.07682,4203.07682,4199.487077,4199.487077,4175.384513,4182.05118,3415.384532,4183.589641,4159.487078,4178.461436
18,0,4194.871692,4221.538358,4187.692205,4207.692205,4202.564,4205.128102,4201.025538,4202.564,4178.461436,4181.025539,3417.948634,4186.153744,4175.384513,4190.256308
19,0,4190.769128,4213.846051,4184.615282,4203.589641,4196.922974,4203.07682,4198.461436,4196.410154,4177.435795,4176.922975,3411.281968,4182.05118,4171.79477,4185.640923
20,0,4172.820411,4201.025538,4179.487077,4193.846051,4199.999897,4202.051179,4196.922974,4196.410154,4177.435795,4188.205026,3402.051199,4180.512718,4165.640924,4175.384513
21,0,4159.487078,4205.128102,4183.589641,4198.974256,4208.717846,4204.102461,4200.512718,4196.410154,4176.922975,4195.897333,3394.871712,4183.076821,4166.666565,4169.230667
22,0,4175.384513,4208.717846,4187.692205,4201.538359,4208.205025,4202.564,4200.512718,4195.384513,4175.897334,4191.281949,3400.512737,4184.102462,4168.205026,4174.871693
23,0,4193.846051,4209.743487,4185.640923,4198.974256,4201.025538,4197.948615,4190.256308,4194.358872,4173.846052,4184.102462,3408.205045,4182.564,4169.230667,4183.589641
24,0,4193.846051,4212.82041,4189.743487,4202.051179,4200.512718,4198.461436,4185.128103,4190.256308,4174.358872,4181.025539,3408.205045,4186.153744,4174.358872,4185.128103
25,0,4193.333231,4214.871692,4197.948615,4206.666564,4204.615282,4202.051179,4191.794769,4192.82041,4180.512718,4192.30759,3421.025557,4192.30759,4185.128103,4189.743487
26,0,4192.30759,4216.922974,4199.999897,4204.615282,4203.07682,4199.487077,4192.82041,4198.974256,4184.615282,4204.615282,3433.333249,4193.333231,4188.205026,4192.30759
27,0,4178.461436,4215.384512,4197.948615,4199.487077,4201.538359,4197.435795,4188.717846,4191.794769,4184.102462,4197.435795,3430.256326,4189.743487,4181.538359,4187.692205
28,0,4190.769128,4216.922974,4198.461436,4207.692205,4207.692205,4203.07682,4193.333231,4184.615282,4177.948616,4187.692205,3429.230685,4190.256308,4184.102462,4196.410154
29,0,4216.410153,4219.999897,4201.538359,4212.307589,4205.640923,4205.128102,4202.051179,4194.871692,4176.410154,4182.05118,3431.794788,4195.384513,4189.230667,4201.538359
30,0,4202.051179,4217.435794,4198.974256,4202.564,4205.640923,4202.564,4201.538359,4204.615282,4185.640923,4185.128103,3432.820429,4193.846051,4185.128103,4186.153744
31,0,4183.076821,4212.82041,4189.743487,4195.384513,4212.82041,4204.102461,4199.999897,4199.999897,4192.30759,4202.564,3445.640941,4186.153744,4182.05118,4177.435795
32,0,4193.333231,4213.846051,4189.743487,4199.999897,4210.256307,4207.179384,4202.564,4198.974256,4193.846051,4216.922974,3463.076838,4183.589641,4185.640923,4186.153744
33,0,4190.769128,4216.922974,4199.487077,4208.205025,4202.051179,4206.153743,4203.07682,4201.025538,4191.794769,4203.589641,3463.076838,4188.205026,4186.153744,4187.692205
34,0,4178.974257,4216.410153,4201.025538,4208.205025,4210.769128,4206.153743,4200.512718,4200.512718,4189.230667,4184.102462,3462.564018,4187.692205,4182.564,4186.153744
35,0,4191.794769,4211.281948,4196.410154,4202.564,4221.538358,4204.615282,4198.461436,4197.435795,4188.717846,4184.615282,3475.897351,4182.564,4181.025539,4186.153744
36,0,4204.102461,4208.205025,4196.922974,4199.999897,4210.256307,4201.538359,4199.999897,4201.025538,4197.435795,4194.358872,3494.871709,4186.666564,4185.128103,4188.717846
37,0,4194.871692,4207.179384,4197.435795,4202.051179,4204.102461,4205.128102,4202.051179,4207.179384,4205.128102,4203.07682,3504.615299,4189.743487,4182.05118,4189.230667
38,0,4184.615282,4203.07682,4196.922974,4198.974256,4209.743487,4207.179384,4199.999897,4204.615282,4197.948615,4207.692205,3509.743504,4185.640923,4167.692206,4178.461436
39,0,4186.666564,4202.051179,4199.487077,4196.922974,4209.743487,4203.07682,4199.487077,4201.025538,4191.794769,4204.102461,3527.692221,4184.615282,4170.769129,4173.846052
40,0,4187.692205,4207.692205,4199.487077,4199.999897,4215.384512,4205.128102,4203.589641,4207.179384,4201.025538,4201.025538,3551.794785,4192.30759,4188.717846,4185.128103
41,0,4181.538359,4210.256307,4198.461436,4201.025538,4217.948615,4213.846051,4205.640923,4209.230666,4205.640923,4203.589641,3573.846066,4200.512718,4189.743487,4190.769128
42,0,4179.487077,4207.179384,4201.025538,4198.461436,4209.230666,4213.33323,4203.07682,4202.564,4199.487077,4202.051179,3592.820425,4196.410154,4179.487077,4183.076821
43,0,4184.615282,4204.102461,4202.564,4193.846051,4207.179384,4204.615282,4203.07682,4202.051179,4201.538359,4197.435795,3609.743501,4190.769128,4183.589641,4182.564
44,0,4184.615282,4201.025538,4202.564,4196.922974,4215.897333,4204.615282,4203.589641,4203.589641,4203.589641,4203.07682,3630.769142,4192.30759,4185.640923,4184.102462
45,0,4177.435795,4201.025538,4196.922974,4198.461436,4221.025538,4214.358871,4203.07682,4198.974256,4194.871692,4206.153743,3647.692218,4191.794769,4172.30759,4174.871693
46,0,4169.230667,4197.948615,4189.230667,4190.769128,4212.82041,4215.897333,4203.589641,4197.948615,4195.384513,4198.461436,3656.410167,4184.102462,4165.128103,4167.179385
47,0,4166.666565,4195.384513,4190.256308,4187.179385,4205.128102,4207.179384,4203.07682,4204.615282,4203.07682,4197.435795,3676.922987,4183.589641,4171.281949,4168.205026
48,0,4166.153744,4196.410154,4195.384513,4189.230667,4204.102461,4203.589641,4203.07682,4206.666564,4202.051179,4199.999897,3711.281961,4184.615282,4177.435795,4169.743488
49,0,4167.179385,4193.333231,4191.794769,4184.615282,4207.179384,4204.102461,4202.564,4203.07682,4202.051179,4202.051179,3732.307601,4178.461436,4179.487077,4168.717847
50,0,4171.79477,4191.281949,4186.666564,4185.640923,4209.743487,4202.051179,4200.512718,4201.025538,4199.487077,4207.692205,3745.128114,4177.948616,4179.999898,4168.205026
51,0,4176.922975,4197.435795,4187.692205,4193.846051,4208.205025,4206.153743,4201.025538,4203.07682,4190.256308,4201.538359,3768.717857,4181.025539,4177.948616,4168.717847
52,0,4170.769129,4201.025538,4188.205026,4191.794769,4208.205025,4212.307589,4203.589641,4204.102461,4193.846051,4182.05118,3793.333241,4179.999898,4177.435795,4167.692206
53,0,4167.179385,4199.999897,4187.179385,4193.333231,4212.307589,4208.717846,4202.564,4202.051179,4202.564,4181.025539,3801.025548,4181.538359,4177.435795,4165.640924
54,0,4171.281949,4199.999897,4188.717846,4197.435795,4212.82041,4201.025538,4198.974256,4199.487077,4195.897333,4197.948615,3808.205035,4183.589641,4175.384513,4167.179385
55,0,4165.640924,4197.435795,4193.333231,4191.281949,4202.051179,4198.974256,4199.999897,4201.538359,4193.333231,4201.025538,3832.820419,4184.102462,4176.922975,4174.358872
56,0,4168.717847,4195.897333,4200.512718,4184.615282,4204.102461,4201.025538,4200.512718,4204.615282,4199.487077,4194.358872,3853.84606,4186.153744,4179.999898,4181.538359
