title:V                                                                               , recorded:07.07.20 13.05.46, sampling:128, subject:B                                                                               , labels:COUNTER INTERPOLATED AF3 F7 F3 FC5 T7 P7 O1 O2 P8 T8 FC6 F4 F8 AF4,, units:emotiv,,,,,,,,,
106,0,4230.256307,4224.102461,4218.461435,4239.999896,4215.384512,4217.948615,4225.640922,4220.512717,4226.666563,4211.281948,4198.974256,4216.922974,4219.487076,4226.153743
107,0,4227.692204,4222.563999,4218.974256,4236.922973,4221.025538,4222.563999,4228.717845,4224.615281,4226.666563,4216.922974,4199.999897,4220.512717,4221.025538,4225.128102
108,0,4233.84605,4231.281948,4223.58964,4238.974255,4230.256307,4228.717845,4231.794768,4227.179384,4227.692204,4226.666563,4195.897333,4225.128102,4223.58964,4229.230666
109,0,4232.307589,4230.769127,4224.102461,4241.025537,4227.179384,4229.743486,4230.769127,4226.666563,4229.230666,4219.999897,4193.846051,4219.999897,4220.512717,4230.256307
110,0,4227.179384,4222.563999,4220.512717,4239.999896,4223.58964,4228.717845,4230.256307,4225.640922,4226.666563,4216.922974,4193.333231,4216.922974,4220.512717,4227.179384
111,0,4226.666563,4223.58964,4219.487076,4238.974255,4227.179384,4223.58964,4230.769127,4222.051179,4222.563999,4215.384512,4197.948615,4219.487076,4219.999897,4224.615281
112,0,4231.281948,4230.256307,4223.07682,4241.538358,4228.205025,4223.58964,4231.794768,4226.153743,4224.615281,4211.794769,4203.589641,4222.563999,4216.922974,4228.717845
113,0,4224.615281,4218.461435,4217.435794,4235.897332,4214.358871,4223.58964,4227.179384,4223.07682,4224.615281,4203.07682,4188.205026,4213.33323,4210.256307,4222.563999
114,0,4223.58964,4217.948615,4219.487076,4238.974255,4216.922974,4224.102461,4227.692204,4228.717845,4229.743486,4217.948615,4192.30759,4218.461435,4217.435794,4224.615281
115,0,4222.563999,4222.051179,4222.563999,4239.487076,4223.58964,4218.461435,4228.205025,4230.256307,4228.717845,4213.846051,4204.102461,4223.58964,4221.025538,4223.07682
116,0,4228.717845,4225.128102,4227.692204,4241.025537,4227.692204,4226.153743,4234.871691,4235.384512,4229.743486,4206.153743,4205.640923,4226.666563,4221.538358,4225.128102
117,0,4222.051179,4214.871692,4218.461435,4237.435794,4213.33323,4221.025538,4228.205025,4225.640922,4226.153743,4206.153743,4192.30759,4217.435794,4211.794769,4216.410153
118,0,4223.07682,4223.07682,4217.435794,4241.538358,4214.871692,4223.58964,4226.666563,4227.692204,4230.769127,4223.58964,4198.461436,4218.461435,4217.948615,4219.999897
119,0,4221.538358,4223.58964,4217.435794,4237.948614,4217.435794,4227.179384,4226.666563,4227.179384,4229.743486,4219.487076,4197.948615,4217.948615,4218.974256,4218.461435
120,0,4231.281948,4226.666563,4225.128102,4241.025537,4226.666563,4231.281948,4232.307589,4231.281948,4232.307589,4222.563999,4199.999897,4223.58964,4224.102461,4229.230666
121,0,4224.102461,4219.999897,4220.512717,4239.487076,4219.487076,4219.487076,4228.717845,4226.153743,4227.179384,4221.025538,4190.256308,4218.461435,4220.512717,4223.58964
122,0,4227.179384,4223.58964,4224.615281,4242.051178,4225.128102,4230.256307,4234.358871,4235.897332,4232.307589,4219.999897,4201.025538,4225.128102,4226.666563,4226.666563
123,0,4227.179384,4221.538358,4227.179384,4238.974255,4225.640922,4232.820409,4234.871691,4236.922973,4229.743486,4211.281948,4208.205025,4225.128102,4221.538358,4227.179384
124,0,4230.769127,4228.205025,4231.281948,4245.128101,4228.205025,4228.205025,4235.384512,4234.358871,4226.666563,4217.435794,4205.128102,4226.666563,4222.563999,4232.820409
125,0,4223.58964,4224.615281,4223.07682,4245.128101,4219.999897,4222.051179,4231.281948,4226.153743,4223.07682,4213.33323,4191.281949,4221.025538,4223.07682,4226.153743
126,0,4224.615281,4226.666563,4218.461435,4243.076819,4221.025538,4228.205025,4232.820409,4230.256307,4230.256307,4213.846051,4196.922974,4221.025538,4228.717845,4221.538358
127,0,4222.563999,4229.230666,4216.922974,4238.974255,4223.58964,4226.153743,4230.256307,4231.281948,4230.256307,4212.82041,4203.07682,4219.999897,4228.205025,4220.512717
128,0,4222.563999,4231.281948,4221.025538,4239.999896,4226.666563,4227.179384,4231.794768,4231.281948,4228.717845,4211.281948,4199.487077,4221.538358,4225.640922,4223.58964
0,0,4227.692204,4230.256307,4223.07682,4243.076819,4224.615281,4231.281948,4235.384512,4234.358871,4230.256307,4218.974256,4198.461436,4226.153743,4227.692204,4227.692204
1,0,4228.717845,4229.230666,4218.461435,4243.58964,4220.512717,4228.205025,4231.281948,4232.307589,4231.281948,4220.512717,4202.051179,4224.102461,4227.692204,4223.58964
2,0,4227.692204,4234.871691,4217.435794,4246.153742,4229.230666,4229.230666,4228.717845,4233.84605,4234.358871,4224.615281,4210.256307,4221.538358,4229.230666,4226.153743
3,0,4225.128102,4233.84605,4220.512717,4246.153742,4230.769127,4228.205025,4230.769127,4232.307589,4231.794768,4219.487076,4206.153743,4217.948615,4229.743486,4227.692204
4,0,4232.820409,4237.435794,4228.205025,4247.179383,4232.307589,4234.871691,4238.461435,4236.922973,4234.358871,4217.435794,4207.179384,4223.07682,4232.820409,4231.794768
5,0,4227.692204,4231.281948,4222.563999,4241.538358,4228.717845,4232.820409,4234.871691,4234.358871,4233.84605,4214.871692,4208.205025,4223.58964,4232.820409,4220.512717
6,0,4231.281948,4237.435794,4227.179384,4247.692204,4235.897332,4237.435794,4238.974255,4243.076819,4236.410153,4234.358871,4218.461435,4232.820409,4242.563999,4232.820409
7,0,4229.230666,4231.794768,4225.640922,4247.692204,4227.179384,4229.743486,4236.410153,4234.871691,4230.256307,4230.256307,4206.153743,4225.640922,4234.358871,4236.922973
8,0,4237.435794,4235.897332,4230.769127,4249.743486,4227.179384,4230.769127,4236.410153,4233.84605,4231.794768,4224.102461,4205.640923,4226.153743,4232.307589,4238.461435
9,0,4236.922973,4233.84605,4227.692204,4248.205024,4224.102461,4226.153743,4234.358871,4232.307589,4229.743486,4215.384512,4208.205025,4225.640922,4232.307589,4231.281948
10,0,4240.512717,4236.410153,4232.820409,4252.307588,4232.820409,4234.871691,4239.487076,4237.948614,4232.307589,4222.051179,4217.435794,4232.307589,4240.512717,4239.487076
11,0,4232.307589,4229.743486,4230.769127,4248.205024,4234.358871,4233.33323,4236.410153,4232.307589,4228.205025,4222.563999,4207.692205,4225.128102,4236.410153,4231.281948
12,0,4231.794768,4235.897332,4230.769127,4248.717845,4236.922973,4234.358871,4236.410153,4235.384512,4227.692204,4227.179384,4207.179384,4224.615281,4234.358871,4229.743486
13,0,4228.205025,4234.871691,4224.615281,4247.179383,4226.666563,4226.153743,4230.769127,4231.281948,4221.025538,4214.358871,4206.153743,4221.538358,4229.743486,4230.256307
14,0,4232.307589,4237.948614,4225.640922,4249.743486,4223.58964,4227.179384,4231.794768,4230.256307,4224.615281,4214.871692,4209.230666,4224.102461,4236.410153,4230.256307
15,0,4231.794768,4237.948614,4227.179384,4248.205024,4223.58964,4228.717845,4233.33323,4230.769127,4228.205025,4225.640922,4206.666564,4224.615281,4240.512717,4224.615281
16,0,4227.179384,4237.948614,4225.640922,4243.076819,4230.256307,4232.307589,4232.820409,4230.256307,4228.717845,4220.512717,4203.589641,4222.051179,4238.461435,4226.153743
17,0,4229.230666,4239.487076,4226.153743,4244.10246,4234.871691,4230.769127,4231.281948,4229.230666,4228.205025,4212.82041,4206.153743,4220.512717,4237.948614,4233.84605
18,0,4237.435794,4245.640922,4230.769127,4251.794768,4234.871691,4231.281948,4235.384512,4235.384512,4230.769127,4224.615281,4211.794769,4225.128102,4241.025537,4234.871691
19,0,4235.897332,4245.640922,4230.769127,4250.256306,4232.307589,4236.410153,4240.512717,4239.999896,4230.256307,4234.358871,4210.769128,4226.153743,4239.487076,4228.205025
20,0,4226.153743,4233.33323,4223.07682,4243.58964,4221.538358,4227.692204,4231.794768,4227.692204,4224.615281,4211.794769,4203.589641,4218.461435,4231.281948,4219.487076
21,0,4236.922973,4238.461435,4228.717845,4252.820409,4224.615281,4226.153743,4231.281948,4226.666563,4226.666563,4208.717846,4213.846051,4222.563999,4238.461435,4232.820409
22,0,4243.58964,4245.128101,4235.897332,4255.897332,4228.717845,4230.256307,4233.84605,4231.281948,4229.230666,4224.102461,4216.922974,4225.128102,4247.692204,4241.538358
23,0,4245.640922,4246.666563,4241.538358,4255.897332,4232.307589,4234.871691,4239.487076,4239.487076,4234.871691,4235.384512,4216.410153,4228.205025,4250.769127,4244.615281
24,0,4231.794768,4227.692204,4227.692204,4248.717845,4219.487076,4224.615281,4235.897332,4230.256307,4229.743486,4215.897333,4204.615282,4217.435794,4232.820409,4230.769127
25,0,4225.640922,4225.128102,4221.538358,4247.179383,4224.102461,4227.179384,4234.358871,4227.692204,4228.205025,4212.82041,4206.666564,4215.897333,4230.769127,4227.179384
26,0,4219.487076,4222.563999,4217.435794,4241.025537,4222.051179,4221.538358,4223.07682,4217.948615,4223.07682,4211.281948,4203.589641,4207.179384,4229.230666,4215.384512
27,0,4231.281948,4231.281948,4224.615281,4246.666563,4227.179384,4225.128102,4229.743486,4226.666563,4228.205025,4219.999897,4207.692205,4211.794769,4234.871691,4223.07682
28,0,4226.666563,4226.666563,4220.512717,4244.615281,4225.640922,4223.58964,4232.820409,4226.666563,4225.640922,4213.33323,4201.538359,4210.769128,4234.358871,4224.102461
29,0,4223.07682,4228.205025,4219.999897,4245.128101,4230.256307,4224.615281,4229.230666,4222.563999,4223.07682,4212.82041,4201.025538,4209.230666,4237.435794,4221.025538
30,0,4218.974256,4225.128102,4217.435794,4243.076819,4217.948615,4213.846051,4223.07682,4216.410153,4217.435794,4209.743487,4198.974256,4202.051179,4229.230666,4210.769128
31,0,4226.153743,4233.84605,4224.615281,4246.666563,4218.461435,4219.999897,4229.743486,4224.102461,4225.128102,4216.410153,4210.256307,4207.692205,4230.769127,4221.025538
32,0,4226.666563,4234.358871,4226.153743,4246.666563,4228.205025,4224.102461,4228.717845,4223.07682,4228.205025,4219.487076,4212.307589,4211.794769,4232.307589,4226.666563
33,0,4230.256307,4235.384512,4228.717845,4250.256306,4235.384512,4224.615281,4230.256307,4224.615281,4227.179384,4220.512717,4208.205025,4214.358871,4232.820409,4227.179384
34,0,4230.256307,4232.820409,4228.717845,4249.743486,4225.640922,4221.538358,4233.84605,4231.281948,4227.692204,4223.58964,4207.692205,4215.384512,4235.897332,4226.153743
35,0,4235.897332,4234.358871,4232.307589,4248.717845,4221.025538,4226.153743,4235.384512,4234.358871,4234.871691,4228.205025,4218.461435,4221.025538,4248.205024,4235.384512
36,0,4246.666563,4239.487076,4241.025537,4254.35887,4226.666563,4233.84605,4237.948614,4234.871691,4235.897332,4234.358871,4227.692204,4228.717845,4255.384511,4245.640922
37,0,4245.640922,4237.435794,4240.512717,4255.384511,4223.58964,4228.205025,4235.384512,4231.281948,4227.179384,4231.794768,4222.563999,4227.692204,4246.666563,4239.999896
38,0,4240.512717,4235.384512,4237.948614,4254.35887,4220.512717,4222.563999,4233.33323,4230.256307,4226.153743,4224.102461,4218.974256,4223.07682,4242.563999,4234.358871
39,0,4231.281948,4228.205025,4233.33323,4250.256306,4215.897333,4218.461435,4230.769127,4226.666563,4225.640922,4209.743487,4208.717846,4215.384512,4237.948614,4225.128102
40,0,4224.615281,4222.563999,4231.794768,4246.153742,4224.102461,4222.051179,4231.794768,4231.794768,4228.205025,4217.948615,4204.615282,4216.922974,4233.84605,4223.07682
41,0,4213.846051,4211.281948,4220.512717,4235.384512,4223.07682,4214.871692,4226.666563,4223.58964,4224.615281,4218.974256,4199.999897,4209.743487,4223.58964,4219.999897
42,0,4218.974256,4216.922974,4223.07682,4242.051178,4219.999897,4217.948615,4232.820409,4223.58964,4228.205025,4213.33323,4211.281948,4210.256307,4228.205025,4227.692204
43,0,4216.410153,4213.33323,4224.615281,4242.563999,4211.794769,4215.897333,4231.281948,4224.615281,4228.205025,4204.102461,4208.717846,4208.205025,4228.717845,4214.358871
44,0,4221.025538,4215.897333,4227.179384,4237.948614,4226.153743,4223.07682,4229.230666,4233.84605,4231.794768,4217.435794,4209.230666,4211.794769,4233.33323,4213.846051
45,0,4220.512717,4216.410153,4222.563999,4232.820409,4222.051179,4216.922974,4224.102461,4225.128102,4224.102461,4214.871692,4204.615282,4206.153743,4225.640922,4218.461435
46,0,4229.230666,4225.128102,4228.205025,4242.051178,4217.948615,4218.974256,4229.230666,4224.615281,4224.615281,4212.82041,4205.640923,4211.281948,4225.640922,4227.179384
47,0,4219.487076,4215.384512,4221.538358,4236.410153,4216.922974,4218.974256,4227.179384,4224.102461,4226.153743,4208.717846,4196.922974,4210.256307,4223.58964,4212.82041
48,0,4217.948615,4217.435794,4216.922974,4234.358871,4230.769127,4226.666563,4229.743486,4230.256307,4231.281948,4218.974256,4203.589641,4209.743487,4232.307589,4211.281948
49,0,4222.051179,4221.025538,4216.922974,4239.999896,4227.179384,4221.538358,4228.205025,4226.666563,4225.640922,4217.435794,4206.666564,4205.640923,4231.281948,4213.846051
50,0,4226.666563,4223.07682,4227.179384,4245.128101,4228.205025,4221.538358,4230.769127,4229.230666,4227.179384,4216.922974,4210.769128,4211.794769,4231.281948,4218.974256
51,0,4216.922974,4216.922974,4222.563999,4238.461435,4224.102461,4219.999897,4230.256307,4227.692204,4227.179384,4216.410153,4209.230666,4209.743487,4231.281948,4217.435794
52,0,4218.461435,4228.717845,4219.999897,4240.512717,4221.025538,4223.07682,4231.794768,4227.692204,4228.717845,4219.999897,4210.769128,4206.666564,4235.897332,4219.999897
53,0,4224.102461,4237.435794,4224.102461,4247.179383,4221.025538,4224.102461,4233.33323,4231.794768,4229.230666,4217.435794,4210.256307,4206.666564,4236.922973,4219.487076
54,0,4224.102461,4231.794768,4226.153743,4248.205024,4223.58964,4224.102461,4234.871691,4235.384512,4232.307589,4215.897333,4212.82041,4209.743487,4238.461435,4221.538358
55,0,4219.999897,4224.102461,4220.512717,4239.999896,4219.999897,4218.461435,4232.307589,4232.307589,4230.769127,4219.999897,4213.846051,4211.794769,4239.487076,4221.538358
56,0,4221.025538,4223.58964,4217.948615,4237.435794,4217.435794,4216.410153,4229.743486,4226.666563,4227.179384,4219.487076,4213.33323,4210.256307,4235.384512,4215.384512
57,0,4228.205025,4233.33323,4226.153743,4249.230665,4229.230666,4228.717845,4236.410153,4234.871691,4233.84605,4228.205025,4223.07682,4214.358871,4239.999896,4222.051179
58,0,4222.563999,4230.256307,4223.58964,4248.717845,4230.256307,4226.666563,4232.307589,4235.384512,4233.33323,4222.051179,4221.538358,4210.256307,4236.410153,4222.051179
59,0,4216.922974,4227.692204,4222.051179,4239.999896,4228.205025,4218.974256,4229.743486,4233.84605,4230.769127,4221.025538,4215.384512,4208.205025,4231.281948,4215.384512
60,0,4213.33323,4223.07682,4219.487076,4235.384512,4222.051179,4216.922974,4230.769127,4228.717845,4227.692204,4221.025538,4208.717846,4205.128102,4232.820409,4206.666564
61,0,4225.640922,4232.307589,4226.153743,4245.128101,4232.307589,4232.307589,4235.897332,4233.84605,4233.33323,4228.717845,4221.538358,4210.256307,4241.538358,4222.051179
62,0,4224.102461,4231.794768,4220.512717,4243.076819,4229.743486,4225.640922,4225.128102,4225.128102,4228.717845,4220.512717,4218.974256,4203.07682,4228.717845,4220.512717
63,0,4223.58964,4235.384512,4222.563999,4245.640922,4226.153743,4222.563999,4227.692204,4226.666563,4228.205025,4226.153743,4215.897333,4204.615282,4234.358871,4218.974256
64,0,4213.33323,4224.102461,4217.948615,4239.487076,4218.461435,4219.999897,4228.717845,4224.615281,4221.538358,4219.487076,4209.743487,4200.512718,4241.538358,4210.256307
65,0,4217.948615,4227.179384,4218.461435,4238.461435,4232.820409,4225.128102,4230.256307,4228.717845,4223.07682,4218.461435,4220.512717,4208.205025,4243.076819,4217.948615
66,0,4214.871692,4224.102461,4214.358871,4235.897332,4228.717845,4219.999897,4224.615281,4219.487076,4223.07682,4214.871692,4216.922974,4206.153743,4232.820409,4215.384512
67,0,4211.794769,4216.922974,4217.948615,4236.922973,4217.435794,4225.128102,4226.153743,4221.538358,4224.615281,4214.358871,4220.512717,4204.615282,4234.358871,4211.281948
68,0,4204.615282,4205.128102,4213.846051,4229.743486,4208.717846,4221.538358,4226.153743,4225.640922,4219.487076,4207.692205,4218.461435,4202.564,4233.33323,4200.512718
69,0,4208.717846,4211.281948,4214.358871,4228.717845,4218.974256,4219.999897,4228.205025,4229.743486,4224.102461,4215.897333,4215.384512,4207.179384,4234.358871,4204.615282
70,0,4212.307589,4214.358871,4215.384512,4231.281948,4218.974256,4213.33323,4223.58964,4223.07682,4226.153743,4222.051179,4212.307589,4202.051179,4231.281948,4210.769128
71,0,4219.999897,4216.922974,4219.487076,4236.922973,4212.307589,4212.307589,4220.512717,4219.487076,4223.58964,4217.948615,4216.410153,4199.487077,4233.33323,4213.33323
72,0,4221.025538,4218.974256,4222.563999,4237.435794,4214.871692,4214.358871,4221.538358,4220.512717,4219.999897,4209.230666,4215.897333,4205.640923,4233.84605,4213.846051
73,0,4215.384512,4215.897333,4219.999897,4231.281948,4222.051179,4214.358871,4221.025538,4216.922974,4217.948615,4202.051179,4218.461435,4206.153743,4228.205025,4209.743487
74,0,4208.205025,4210.256307,4214.871692,4225.640922,4214.358871,4211.794769,4220.512717,4215.897333,4217.435794,4202.564,4218.974256,4199.487077,4224.102461,4201.025538
75,0,4202.051179,4203.07682,4208.717846,4222.051179,4201.538359,4211.281948,4221.025538,4215.384512,4215.897333,4205.640923,4204.615282,4192.30759,4224.102461,4195.384513
76,0,4214.358871,4212.307589,4214.358871,4230.769127,4216.922974,4223.07682,4226.666563,4224.615281,4218.974256,4219.999897,4211.281948,4198.974256,4230.769127,4212.82041
77,0,4217.948615,4218.461435,4221.025538,4235.384512,4221.538358,4221.538358,4223.58964,4221.538358,4219.487076,4220.512717,4217.948615,4202.564,4227.179384,4217.435794
78,0,4219.999897,4224.102461,4228.717845,4238.974255,4217.948615,4220.512717,4225.640922,4224.615281,4223.58964,4221.025538,4223.58964,4210.256307,4235.384512,4218.974256
79,0,4215.384512,4219.999897,4218.461435,4233.84605,4216.410153,4214.358871,4221.538358,4225.128102,4219.487076,4212.82041,4221.538358,4205.640923,4238.974255,4216.410153
80,0,4224.615281,4228.717845,4219.487076,4237.435794,4230.769127,4217.948615,4221.025538,4230.769127,4224.615281,4222.051179,4229.743486,4209.743487,4246.666563,4230.256307
81,0,4225.640922,4227.179384,4223.07682,4237.948614,4227.692204,4215.384512,4218.461435,4223.58964,4223.58964,4218.461435,4229.230666,4209.743487,4244.10246,4228.717845
82,0,4229.230666,4229.230666,4225.640922,4240.512717,4230.769127,4220.512717,4224.102461,4228.205025,4221.538358,4215.897333,4235.384512,4212.82041,4245.640922,4227.179384
83,0,4211.281948,4214.871692,4212.307589,4230.256307,4217.948615,4208.717846,4217.948615,4219.999897,4212.82041,4204.102461,4223.07682,4199.999897,4230.256307,4209.230666
84,0,4202.051179,4210.769128,4209.743487,4227.179384,4210.256307,4207.179384,4217.948615,4212.82041,4216.922974,4202.564,4215.384512,4194.871692,4225.640922,4203.589641
85,0,4204.102461,4209.230666,4207.179384,4227.179384,4208.205025,4206.666564,4218.461435,4210.256307,4215.384512,4195.384513,4212.82041,4194.871692,4228.717845,4204.615282
86,0,4216.922974,4219.487076,4213.846051,4232.307589,4214.358871,4210.769128,4220.512717,4216.922974,4215.897333,4203.589641,4217.948615,4201.538359,4235.897332,4213.846051
87,0,4216.410153,4218.974256,4218.461435,4231.281948,4207.692205,4205.128102,4215.897333,4214.358871,4215.897333,4210.256307,4216.922974,4201.538359,4232.820409,4211.794769
88,0,4216.410153,4215.897333,4220.512717,4232.820409,4209.230666,4207.692205,4212.82041,4214.871692,4214.871692,4203.589641,4224.615281,4201.538359,4231.281948,4210.769128
89,0,4214.871692,4212.82041,4214.358871,4230.256307,4212.307589,4208.205025,4210.769128,4214.871692,4214.871692,4197.435795,4224.102461,4199.999897,4230.256307,4206.666564
90,0,4219.999897,4217.948615,4221.025538,4232.307589,4215.384512,4209.743487,4216.922974,4216.922974,4225.640922,4207.179384,4227.692204,4208.205025,4237.435794,4212.82041
91,0,4225.128102,4223.58964,4231.281948,4237.948614,4218.461435,4210.769128,4222.563999,4223.07682,4228.717845,4218.461435,4235.897332,4215.897333,4243.58964,4224.615281
92,0,4213.846051,4214.358871,4219.999897,4230.256307,4208.717846,4204.615282,4217.435794,4219.999897,4217.435794,4211.794769,4224.615281,4204.615282,4234.358871,4216.410153
93,0,4203.589641,4207.179384,4209.743487,4222.563999,4201.538359,4203.07682,4213.846051,4214.358871,4210.769128,4203.07682,4216.410153,4194.358872,4227.179384,4203.589641
94,0,4207.179384,4209.743487,4213.33323,4225.640922,4202.564,4203.589641,4212.307589,4209.743487,4212.307589,4196.922974,4221.025538,4194.871692,4225.640922,4201.538359
95,0,4215.384512,4216.922974,4219.999897,4232.820409,4211.794769,4208.717846,4214.871692,4216.922974,4217.948615,4202.564,4228.205025,4203.07682,4230.769127,4213.33323
96,0,4203.07682,4207.179384,4208.205025,4223.07682,4203.07682,4203.07682,4209.230666,4208.205025,4208.205025,4191.794769,4213.33323,4192.82041,4225.128102,4202.564
97,0,4207.179384,4212.82041,4212.82041,4226.666563,4206.153743,4205.640923,4210.769128,4209.230666,4209.230666,4194.358872,4218.461435,4196.922974,4230.769127,4201.025538
98,0,4212.307589,4219.487076,4215.897333,4233.84605,4208.717846,4202.051179,4210.256307,4213.846051,4216.410153,4197.948615,4225.640922,4201.538359,4231.281948,4206.153743
99,0,4216.922974,4229.743486,4215.897333,4236.410153,4216.922974,4210.256307,4214.358871,4218.461435,4222.051179,4203.589641,4229.230666,4206.153743,4236.410153,4219.999897
100,0,4211.794769,4226.666563,4206.666564,4226.666563,4206.666564,4204.615282,4206.666564,4202.051179,4207.692205,4189.743487,4219.999897,4195.897333,4230.256307,4214.871692
101,0,4227.179384,4239.999896,4214.358871,4234.358871,4210.256307,4207.692205,4207.692205,4202.564,4207.692205,4195.384513,4222.563999,4199.999897,4233.33323,4229.230666
102,0,4241.025537,4250.256306,4219.487076,4241.025537,4214.871692,4207.179384,4207.692205,4207.692205,4214.358871,4202.564,4225.640922,4206.153743,4245.128101,4251.794768
103,0,4257.948614,4267.179383,4227.179384,4245.640922,4218.974256,4208.205025,4208.205025,4211.281948,4219.487076,4203.589641,4241.025537,4216.922974,4265.640921,4275.384511
104,0,4263.076819,4267.692203,4225.128102,4243.58964,4210.256307,4203.589641,4204.102461,4207.692205,4212.82041,4195.384513,4241.538358,4216.410153,4263.076819,4284.102459
105,0,4272.307588,4267.692203,4228.205025,4250.769127,4212.307589,4212.307589,4209.743487,4213.33323,4215.897333,4206.666564,4243.58964,4223.58964,4262.563998,4302.563997
106,0,4276.410152,4264.10246,4233.33323,4252.307588,4213.33323,4211.281948,4214.358871,4212.82041,4218.461435,4208.717846,4248.717845,4229.230666,4267.179383,4311.281946
107,0,4281.025536,4262.051178,4242.051178,4248.205024,4216.410153,4206.666564,4215.384512,4214.871692,4219.487076,4201.025538,4259.487075,4232.820409,4273.333229,4308.205023
108,0,4279.999895,4259.999896,4247.179383,4248.205024,4216.922974,4205.640923,4214.871692,4221.538358,4220.512717,4206.153743,4261.025537,4234.358871,4283.589639,4308.205023
109,0,4275.384511,4258.974255,4241.025537,4250.256306,4216.410153,4207.179384,4216.410153,4225.128102,4224.102461,4216.922974,4257.435793,4232.820409,4288.205023,4310.256305
110,0,4268.205024,4253.84605,4235.897332,4248.717845,4221.025538,4212.307589,4217.948615,4225.128102,4224.102461,4214.871692,4259.487075,4230.769127,4277.948613,4296.410151
111,0,4256.922973,4244.615281,4236.410153,4245.640922,4225.128102,4217.948615,4217.948615,4221.538358,4222.051179,4212.307589,4255.384511,4227.179384,4267.179383,4274.87169
112,0,4248.205024,4243.076819,4236.410153,4248.205024,4226.153743,4219.999897,4222.051179,4228.205025,4227.179384,4225.128102,4250.769127,4224.615281,4268.717844,4269.743485
113,0,4237.435794,4234.871691,4221.538358,4240.512717,4218.461435,4211.794769,4218.461435,4229.743486,4226.153743,4224.102461,4243.076819,4215.384512,4259.999896,4255.384511
114,0,4237.435794,4231.794768,4222.051179,4236.410153,4223.07682,4218.461435,4223.07682,4235.384512,4226.153743,4225.128102,4249.230665,4217.948615,4257.948614,4244.615281
115,0,4229.743486,4226.153743,4224.102461,4235.384512,4221.025538,4218.461435,4224.102461,4225.640922,4222.563999,4213.846051,4244.10246,4215.897333,4248.717845,4232.820409
116,0,4232.820409,4235.384512,4227.692204,4246.153742,4229.743486,4219.999897,4225.128102,4223.58964,4226.153743,4217.435794,4242.563999,4222.563999,4247.692204,4235.897332
117,0,4229.230666,4231.281948,4227.179384,4244.10246,4230.769127,4217.948615,4222.563999,4221.025538,4226.153743,4223.58964,4242.051178,4228.717845,4249.743486,4231.794768
118,0,4230.769127,4230.256307,4234.358871,4241.025537,4237.435794,4229.230666,4229.743486,4228.717845,4227.692204,4227.692204,4251.281947,4237.435794,4253.333229,4233.84605
119,0,4222.563999,4222.051179,4225.640922,4236.410153,4231.281948,4223.07682,4224.615281,4220.512717,4219.999897,4211.794769,4239.487076,4231.281948,4239.487076,4219.999897
120,0,4225.640922,4228.717845,4227.179384,4241.538358,4233.33323,4220.512717,4224.102461,4222.563999,4224.615281,4221.025538,4239.487076,4236.922973,4243.58964,4219.999897
121,0,4221.538358,4224.615281,4230.256307,4237.435794,4226.666563,4218.974256,4226.153743,4228.717845,4226.666563,4223.07682,4239.487076,4237.435794,4247.692204,4220.512717
122,0,4222.051179,4222.563999,4231.794768,4238.974255,4228.717845,4228.205025,4231.281948,4238.461435,4231.794768,4217.948615,4241.538358,4237.435794,4248.205024,4221.538358
123,0,4215.897333,4217.435794,4225.128102,4238.461435,4228.717845,4225.128102,4228.717845,4235.897332,4229.230666,4219.999897,4239.487076,4235.897332,4238.974255,4208.205025
124,0,4213.846051,4217.948615,4226.666563,4238.461435,4230.769127,4228.205025,4232.307589,4238.974255,4230.769127,4233.84605,4243.076819,4239.487076,4233.33323,4203.07682
125,0,4209.743487,4212.82041,4223.58964,4234.871691,4228.717845,4228.717845,4232.307589,4239.999896,4229.230666,4228.205025,4236.922973,4232.820409,4231.794768,4204.102461
126,0,4206.666564,4211.281948,4217.435794,4235.384512,4232.307589,4228.205025,4229.743486,4235.384512,4230.256307,4213.846051,4233.33323,4226.153743,4233.33323,4198.461436
127,0,4201.538359,4209.230666,4214.358871,4236.922973,4232.820409,4223.58964,4226.153743,4225.640922,4227.692204,4210.256307,4234.871691,4224.615281,4226.666563,4187.692205
128,0,4203.07682,4209.743487,4216.922974,4236.410153,4231.794768,4220.512717,4224.615281,4218.461435,4223.07682,4209.743487,4228.717845,4223.58964,4227.179384,4191.794769
0,0,4208.205025,4213.846051,4220.512717,4233.33323,4232.307589,4223.58964,4228.205025,4222.563999,4225.128102,4215.384512,4228.205025,4225.640922,4234.358871,4198.974256
1,0,4202.564,4210.256307,4216.922974,4230.769127,4224.615281,4217.435794,4221.538358,4219.487076,4221.025538,4212.82041,4231.794768,4222.051179,4226.666563,4189.230667
2,0,4205.128102,4215.897333,4218.974256,4235.897332,4229.230666,4218.461435,4215.897333,4215.897333,4219.487076,4212.82041,4233.84605,4222.051179,4227.692204,4194.871692
3,0,4209.230666,4216.922974,4216.922974,4232.307589,4232.820409,4224.102461,4218.461435,4216.410153,4222.051179,4208.205025,4227.179384,4218.461435,4232.820409,4199.487077
4,0,4218.461435,4224.102461,4225.640922,4235.897332,4239.487076,4235.384512,4233.84605,4233.84605,4229.743486,4216.410153,4234.871691,4228.205025,4236.922973,4202.051179
5,0,4213.846051,4218.461435,4231.794768,4237.435794,4232.820409,4227.692204,4235.897332,4234.358871,4228.205025,4216.410153,4236.410153,4229.743486,4228.205025,4199.487077
6,0,4215.384512,4215.897333,4235.384512,4238.461435,4232.820409,4230.769127,4237.435794,4240.512717,4231.794768,4224.615281,4240.512717,4229.230666,4235.384512,4211.281948
7,0,4204.615282,4205.128102,4221.538358,4229.743486,4225.128102,4232.820409,4235.897332,4238.974255,4227.179384,4222.563999,4228.717845,4211.281948,4231.794768,4199.999897
8,0,4207.692205,4213.33323,4223.58964,4230.256307,4232.307589,4242.051178,4242.051178,4243.076819,4229.230666,4223.58964,4234.358871,4209.230666,4228.205025,4197.435795
9,0,4209.230666,4210.769128,4223.07682,4227.179384,4229.743486,4231.794768,4236.410153,4236.410153,4228.717845,4216.922974,4235.384512,4210.769128,4226.666563,4197.435795
10,0,4207.692205,4206.666564,4219.487076,4226.666563,4228.205025,4226.666563,4230.256307,4234.358871,4232.307589,4222.051179,4232.820409,4213.33323,4235.384512,4202.051179
11,0,4195.897333,4202.564,4213.846051,4222.563999,4219.999897,4222.563999,4222.563999,4226.153743,4223.07682,4214.871692,4224.102461,4206.666564,4228.717845,4195.384513
12,0,4202.564,4211.794769,4217.948615,4227.179384,4221.538358,4230.256307,4226.153743,4227.692204,4222.051179,4216.922974,4231.794768,4210.256307,4227.692204,4198.461436
13,0,4207.692205,4212.82041,4215.897333,4228.717845,4223.07682,4225.128102,4224.102461,4229.230666,4226.153743,4225.640922,4229.743486,4208.717846,4231.281948,4195.897333
14,0,4208.717846,4216.410153,4220.512717,4230.769127,4231.281948,4223.07682,4222.563999,4229.743486,4229.743486,4229.230666,4230.256307,4208.717846,4235.384512,4197.948615
15,0,4210.256307,4217.948615,4226.666563,4232.307589,4232.307589,4227.692204,4226.153743,4230.256307,4228.717845,4222.051179,4240.512717,4214.871692,4236.922973,4201.538359
16,0,4216.410153,4221.538358,4228.717845,4235.897332,4231.281948,4236.410153,4233.33323,4234.358871,4229.743486,4221.538358,4239.999896,4221.538358,4241.538358,4207.179384
17,0,4218.974256,4223.58964,4226.666563,4235.384512,4235.384512,4238.461435,4235.384512,4234.871691,4229.230666,4226.153743,4228.717845,4215.384512,4239.999896,4213.846051
18,0,4214.871692,4222.051179,4225.128102,4233.84605,4237.948614,4233.84605,4232.820409,4232.820409,4227.179384,4222.563999,4231.794768,4210.769128,4233.84605,4213.33323
19,0,4215.897333,4225.128102,4231.281948,4236.922973,4238.974255,4237.435794,4236.922973,4239.999896,4229.743486,4227.692204,4241.538358,4220.512717,4237.435794,4217.435794
20,0,4214.358871,4219.999897,4229.743486,4232.307589,4232.820409,4238.461435,4236.410153,4236.410153,4228.205025,4226.153743,4233.84605,4221.025538,4234.871691,4215.384512
21,0,4221.538358,4223.07682,4234.358871,4235.897332,4237.948614,4236.410153,4233.84605,4238.974255,4229.230666,4228.717845,4239.999896,4226.666563,4237.435794,4222.563999
22,0,4219.487076,4221.538358,4235.897332,4235.384512,4231.281948,4226.666563,4229.743486,4239.999896,4227.692204,4226.666563,4244.615281,4229.230666,4239.487076,4221.025538
23,0,4217.948615,4224.615281,4238.974255,4235.384512,4226.666563,4231.281948,4237.435794,4249.230665,4232.820409,4238.974255,4242.563999,4230.256307,4246.666563,4223.58964
24,0,4207.179384,4213.846051,4229.230666,4231.794768,4222.563999,4228.205025,4234.358871,4242.051178,4227.179384,4231.281948,4227.179384,4219.487076,4236.410153,4206.666564
25,0,4209.743487,4221.025538,4230.256307,4236.410153,4232.820409,4232.307589,4234.871691,4241.025537,4226.666563,4222.051179,4232.307589,4223.58964,4233.33323,4203.07682
26,0,4205.640923,4222.051179,4226.666563,4230.769127,4226.153743,4227.692204,4232.820409,4232.820409,4224.102461,4211.794769,4230.256307,4217.435794,4225.640922,4199.999897
27,0,4207.692205,4223.07682,4223.58964,4229.230666,4229.743486,4233.84605,4236.922973,4236.410153,4229.230666,4223.58964,4228.717845,4211.794769,4226.666563,4203.07682
28,0,4207.179384,4222.051179,4220.512717,4230.256307,4232.820409,4234.358871,4236.410153,4239.999896,4228.717845,4225.128102,4226.153743,4210.256307,4230.769127,4201.025538
29,0,4222.563999,4238.974255,4233.33323,4238.974255,4243.58964,4240.512717,4241.538358,4248.717845,4235.897332,4234.358871,4240.512717,4224.615281,4243.58964,4214.358871
30,0,4226.153743,4239.999896,4235.897332,4238.974255,4244.10246,4234.358871,4234.871691,4243.076819,4236.922973,4243.076819,4245.128101,4225.640922,4245.128101,4224.615281
31,0,4224.102461,4233.33323,4229.743486,4236.410153,4245.128101,4233.33323,4231.794768,4243.58964,4236.410153,4248.717845,4246.153742,4225.128102,4247.179383,4231.794768
32,0,4219.487076,4229.230666,4224.102461,4230.769127,4237.948614,4233.33323,4234.358871,4244.10246,4233.84605,4241.538358,4245.640922,4223.58964,4247.692204,4227.692204
33,0,4221.538358,4231.794768,4227.692204,4233.84605,4231.281948,4232.307589,4236.922973,4240.512717,4231.281948,4233.84605,4252.820409,4221.538358,4248.205024,4226.666563
34,0,4216.922974,4221.025538,4228.205025,4233.33323,4226.153743,4228.205025,4231.794768,4231.281948,4225.128102,4222.051179,4247.692204,4214.358871,4243.076819,4221.538358
35,0,4212.82041,4213.846051,4226.666563,4231.281948,4228.205025,4228.717845,4231.281948,4226.666563,4225.640922,4218.974256,4236.922973,4215.384512,4236.922973,4215.897333
36,0,4219.487076,4229.230666,4229.743486,4238.461435,4234.871691,4236.922973,4236.922973,4231.794768,4230.256307,4234.358871,4242.051178,4223.07682,4241.538358,4222.051179
37,0,4224.102461,4238.461435,4230.769127,4241.538358,4240.512717,4244.615281,4237.948614,4236.922973,4231.794768,4239.999896,4247.179383,4219.999897,4247.692204,4223.07682
38,0,4226.666563,4231.794768,4235.384512,4240.512717,4251.281947,4248.717845,4243.076819,4244.615281,4233.84605,4240.512717,4249.230665,4224.615281,4251.281947,4222.563999
39,0,4219.487076,4217.435794,4235.384512,4235.384512,4241.025537,4238.974255,4242.563999,4238.461435,4229.230666,4226.153743,4241.538358,4224.615281,4239.999896,4217.435794
40,0,4218.461435,4220.512717,4236.410153,4236.410153,4231.794768,4233.84605,4239.487076,4235.897332,4228.717845,4224.615281,4241.538358,4222.051179,4234.358871,4216.410153
41,0,4213.33323,4219.999897,4227.692204,4231.794768,4229.743486,4228.205025,4230.769127,4229.230666,4225.128102,4227.179384,4237.948614,4213.33323,4231.794768,4204.615282
42,0,4221.538358,4227.179384,4229.743486,4237.948614,4246.153742,4241.538358,4237.435794,4236.922973,4229.743486,4241.538358,4247.179383,4217.435794,4241.538358,4212.307589
43,0,4217.948615,4226.153743,4226.153743,4238.974255,4245.640922,4242.563999,4236.410153,4237.948614,4231.281948,4232.820409,4241.025537,4210.256307,4239.487076,4208.717846
44,0,4216.410153,4232.820409,4225.640922,4238.461435,4245.640922,4239.999896,4234.358871,4238.974255,4237.435794,4234.358871,4237.435794,4210.256307,4240.512717,4206.153743
45,0,4208.717846,4222.563999,4218.974256,4226.153743,4232.307589,4228.717845,4230.256307,4230.769127,4231.794768,4232.307589,4231.794768,4208.717846,4232.820409,4202.051179
46,0,4214.358871,4221.025538,4224.615281,4225.640922,4226.666563,4231.794768,4236.922973,4237.435794,4230.256307,4232.307589,4238.974255,4216.922974,4237.948614,4215.384512
47,0,4216.410153,4223.58964,4228.717845,4232.307589,4225.640922,4229.743486,4235.897332,4238.974255,4225.640922,4224.102461,4237.948614,4216.410153,4238.974255,4216.922974
48,0,4221.025538,4231.281948,4235.384512,4239.487076,4237.435794,4237.435794,4238.974255,4242.051178,4231.281948,4227.179384,4241.025537,4219.487076,4238.974255,4217.948615
49,0,4212.307589,4216.410153,4227.692204,4229.230666,4235.384512,4236.410153,4235.897332,4236.410153,4229.230666,4223.07682,4233.84605,4214.358871,4233.33323,4211.281948
50,0,4207.692205,4209.743487,4223.58964,4226.666563,4236.922973,4233.84605,4235.384512,4238.461435,4225.640922,4223.07682,4232.307589,4214.358871,4236.410153,4209.230666
51,0,4207.179384,4213.33323,4225.640922,4230.256307,4239.999896,4233.84605,4236.410153,4238.974255,4225.128102,4226.153743,4235.384512,4216.922974,4235.384512,4208.717846
52,0,4207.692205,4213.33323,4226.153743,4229.230666,4237.435794,4237.948614,4237.948614,4234.358871,4228.717845,4230.256307,4241.025537,4220.512717,4232.820409,4208.717846
53,0,4202.051179,4206.153743,4219.487076,4224.615281,4230.256307,4237.435794,4234.358871,4231.281948,4228.205025,4227.692204,4241.538358,4216.922974,4234.358871,4207.179384
54,0,4201.025538,4205.128102,4216.922974,4223.58964,4230.256307,4235.897332,4231.794768,4231.281948,4227.179384,4227.179384,4235.897332,4212.82041,4237.435794,4207.692205
55,0,4209.230666,4212.82041,4223.07682,4226.153743,4232.820409,4234.871691,4234.871691,4234.358871,4232.820409,4239.487076,4234.871691,4216.922974,4240.512717,4214.871692
56,0,4213.33323,4214.358871,4225.128102,4226.666563,4227.692204,4230.256307,4233.84605,4232.307589,4232.820409,4230.769127,4235.384512,4216.410153,4238.461435,4214.358871
57,0,4222.563999,4222.051179,4230.256307,4232.307589,4239.999896,4241.025537,4236.922973,4239.487076,4233.33323,4229.743486,4240.512717,4219.999897,4243.076819,4222.563999
58,0,4216.922974,4217.948615,4226.666563,4230.256307,4242.051178,4244.10246,4236.922973,4238.461435,4233.33323,4240.512717,4232.820409,4215.897333,4242.563999,4222.051179
59,0,4212.307589,4214.358871,4226.153743,4230.769127,4243.076819,4245.640922,4243.076819,4243.076819,4238.974255,4242.563999,4238.974255,4217.435794,4243.076819,4218.461435
60,0,4206.153743,4208.717846,4218.974256,4225.640922,4238.974255,4240.512717,4238.974255,4240.512717,4238.461435,4225.128102,4241.025537,4213.846051,4237.435794,4208.205025
61,0,4216.922974,4224.615281,4223.07682,4232.307589,4246.666563,4245.640922,4239.999896,4242.051178,4239.487076,4239.487076,4243.076819,4218.461435,4243.58964,4227.179384
62,0,4215.897333,4227.179384,4222.563999,4234.358871,4241.538358,4239.999896,4236.922973,4233.33323,4230.256307,4241.025537,4234.871691,4212.82041,4242.563999,4233.33323
63,0,4221.025538,4229.230666,4227.692204,4236.410153,4245.640922,4244.615281,4241.025537,4239.487076,4233.84605,4237.948614,4243.58964,4218.461435,4247.692204,4233.84605
64,0,4221.025538,4227.179384,4224.615281,4231.794768,4246.666563,4244.615281,4238.461435,4238.461435,4238.461435,4239.999896,4247.692204,4219.487076,4248.205024,4229.230666
65,0,4224.102461,4235.384512,4226.153743,4234.871691,4252.820409,4249.743486,4240.512717,4235.384512,4238.974255,4247.692204,4251.281947,4221.538358,4254.871691,4237.435794
66,0,4219.999897,4231.794768,4225.640922,4235.384512,4243.58964,4241.538358,4235.897332,4228.205025,4230.769127,4234.358871,4240.512717,4215.897333,4253.84605,4232.307589
67,0,4227.692204,4237.435794,4229.230666,4241.025537,4246.666563,4239.487076,4235.384512,4233.33323,4236.410153,4234.358871,4237.435794,4217.435794,4252.820409,4234.358871
68,0,4228.717845,4235.384512,4226.666563,4239.487076,4251.281947,4237.948614,4233.84605,4232.820409,4235.384512,4241.025537,4237.948614,4217.948615,4247.692204,4237.948614
69,0,4224.615281,4228.717845,4229.230666,4234.358871,4249.230665,4240.512717,4234.358871,4230.256307,4230.769127,4244.10246,4241.538358,4217.435794,4251.281947,4235.384512
70,0,4218.461435,4223.07682,4230.769127,4230.769127,4241.025537,4235.897332,4234.871691,4231.281948,4229.743486,4232.820409,4239.999896,4211.794769,4250.769127,4228.717845
71,0,4218.461435,4223.58964,4226.666563,4232.307589,4243.076819,4231.794768,4236.410153,4230.769127,4230.256307,4225.640922,4239.999896,4210.769128,4246.153742,4230.769127
72,0,4219.487076,4225.128102,4222.563999,4232.307589,4248.205024,4235.897332,4237.435794,4231.281948,4229.230666,4239.999896,4241.025537,4215.384512,4250.256306,4236.922973
73,0,4216.922974,4222.051179,4221.538358,4231.281948,4242.051178,4238.974255,4235.384512,4231.281948,4231.281948,4246.666563,4240.512717,4217.948615,4256.922973,4235.897332
74,0,4221.538358,4222.051179,4225.640922,4232.307589,4239.487076,4238.974255,4237.948614,4233.84605,4234.358871,4242.051178,4243.076819,4218.461435,4256.922973,4236.410153
75,0,4223.58964,4219.999897,4227.692204,4230.769127,4236.410153,4236.922973,4241.025537,4233.84605,4233.33323,4236.922973,4244.10246,4217.948615,4251.794768,4232.820409
76,0,4229.743486,4230.769127,4233.33323,4236.922973,4249.743486,4249.230665,4249.743486,4249.230665,4243.076819,4249.230665,4254.35887,4228.205025,4259.487075,4244.615281
77,0,4225.128102,4233.84605,4230.256307,4238.461435,4258.461434,4253.333229,4248.205024,4250.769127,4241.025537,4242.563999,4247.179383,4224.615281,4256.922973,4246.666563
78,0,4227.692204,4234.871691,4232.820409,4239.999896,4255.897332,4252.307588,4247.692204,4249.230665,4237.435794,4239.487076,4245.640922,4224.102461,4254.871691,4244.615281
79,0,4220.512717,4222.563999,4227.179384,4231.794768,4243.58964,4242.051178,4243.076819,4241.538358,4234.871691,4241.025537,4243.58964,4218.974256,4247.692204,4232.820409
80,0,4222.051179,4226.666563,4227.692204,4233.33323,4259.999896,4250.769127,4248.205024,4242.563999,4239.487076,4255.897332,4248.717845,4220.512717,4249.743486,4235.897332
81,0,4217.948615,4228.717845,4222.563999,4234.871691,4262.051178,4248.717845,4242.051178,4230.769127,4233.33323,4243.58964,4238.974255,4213.33323,4245.128101,4227.692204
82,0,4228.205025,4237.948614,4230.769127,4243.076819,4259.487075,4250.256306,4243.076819,4237.948614,4237.435794,4246.153742,4247.179383,4221.538358,4255.897332,4236.922973
83,0,4230.256307,4232.820409,4232.820409,4243.076819,4253.333229,4244.615281,4244.615281,4242.563999,4238.974255,4249.743486,4252.307588,4224.102461,4262.563998,4241.538358
84,0,4232.307589,4241.538358,4234.358871,4244.10246,4256.410152,4246.153742,4246.666563,4239.487076,4238.461435,4244.10246,4252.307588,4221.538358,4262.051178,4243.076819
85,0,4228.717845,4246.153742,4227.692204,4240.512717,4248.205024,4241.025537,4240.512717,4230.769127,4232.307589,4232.307589,4242.051178,4214.358871,4248.205024,4236.410153
86,0,4234.871691,4250.256306,4230.256307,4243.58964,4252.820409,4244.10246,4242.051178,4238.461435,4236.922973,4244.615281,4250.256306,4223.07682,4251.281947,4245.640922
87,0,4234.358871,4245.128101,4230.256307,4242.051178,4252.820409,4242.051178,4241.025537,4239.487076,4237.948614,4244.615281,4253.333229,4223.07682,4253.333229,4243.076819
88,0,4233.33323,4244.10246,4229.743486,4239.487076,4253.84605,4246.153742,4241.538358,4234.358871,4233.84605,4233.33323,4247.692204,4216.922974,4246.666563,4231.281948
89,0,4234.358871,4245.640922,4233.33323,4244.615281,4258.974255,4250.769127,4246.666563,4233.33323,4234.358871,4238.461435,4242.563999,4218.974256,4244.615281,4230.256307
90,0,4236.410153,4246.666563,4234.871691,4248.717845,4255.384511,4247.179383,4248.717845,4237.948614,4240.512717,4244.10246,4244.10246,4225.128102,4250.769127,4238.461435
91,0,4238.974255,4246.666563,4235.384512,4248.205024,4248.717845,4245.128101,4247.179383,4243.076819,4242.563999,4236.922973,4252.307588,4228.717845,4254.871691,4246.153742
92,0,4232.307589,4242.563999,4229.743486,4244.615281,4249.230665,4246.666563,4244.615281,4238.974255,4239.487076,4234.358871,4245.640922,4226.666563,4247.692204,4234.358871
93,0,4225.128102,4238.974255,4225.128102,4243.076819,4255.384511,4246.153742,4242.563999,4234.358871,4238.974255,4239.999896,4238.461435,4220.512717,4239.999896,4223.07682
94,0,4216.410153,4229.743486,4221.025538,4237.435794,4248.717845,4231.281948,4233.33323,4220.512717,4228.717845,4218.974256,4234.358871,4207.179384,4230.256307,4219.999897
95,0,4225.128102,4237.948614,4230.769127,4243.58964,4253.333229,4233.84605,4234.358871,4220.512717,4228.717845,4225.128102,4239.487076,4215.897333,4242.051178,4233.84605
96,0,4231.794768,4242.563999,4232.820409,4243.58964,4253.333229,4237.435794,4234.358871,4225.128102,4232.307589,4244.615281,4235.897332,4223.58964,4251.794768,4231.794768
97,0,4241.538358,4247.179383,4236.410153,4244.10246,4253.84605,4244.10246,4239.487076,4234.871691,4233.84605,4243.076819,4247.179383,4228.717845,4249.743486,4237.435794
98,0,4237.435794,4239.999896,4234.358871,4241.538358,4243.58964,4235.384512,4237.948614,4224.102461,4226.153743,4221.538358,4247.692204,4226.153743,4238.974255,4239.487076
99,0,4249.230665,4252.820409,4244.615281,4249.230665,4256.410152,4240.512717,4243.58964,4230.256307,4233.33323,4244.10246,4251.281947,4234.358871,4259.999896,4251.281947
100,0,4246.153742,4252.820409,4243.076819,4249.743486,4257.435793,4238.974255,4239.999896,4235.384512,4235.897332,4254.35887,4248.717845,4228.205025,4264.10246,4248.717845
101,0,4237.435794,4249.230665,4238.461435,4246.666563,4252.820409,4239.999896,4239.487076,4235.897332,4233.33323,4241.538358,4247.692204,4224.615281,4250.256306,4244.10246
102,0,4229.230666,4241.025537,4230.256307,4237.435794,4245.640922,4231.794768,4233.33323,4226.153743,4224.615281,4225.640922,4235.897332,4221.538358,4239.999896,4226.153743
103,0,4240.512717,4248.205024,4239.487076,4243.58964,4251.281947,4235.897332,4234.358871,4232.307589,4231.281948,4227.179384,4243.58964,4229.743486,4249.230665,4232.307589
104,0,4241.025537,4245.640922,4243.076819,4245.128101,4243.076819,4235.897332,4233.84605,4229.743486,4229.743486,4222.563999,4245.640922,4228.717845,4245.640922,4243.58964
105,0,4243.58964,4245.128101,4242.563999,4242.051178,4243.076819,4238.461435,4238.461435,4227.692204,4228.717845,4231.794768,4248.205024,4231.794768,4245.128101,4248.205024
106,0,4248.205024,4246.666563,4245.128101,4245.640922,4246.153742,4242.051178,4243.58964,4234.358871,4233.84605,4241.538358,4249.743486,4236.410153,4253.84605,4243.076819
107,0,4246.666563,4247.692204,4247.692204,4252.820409,4248.205024,4245.128101,4243.58964,4239.999896,4237.435794,4232.820409,4246.666563,4235.897332,4253.84605,4238.974255
108,0,4238.461435,4243.076819,4243.58964,4246.666563,4254.35887,4239.487076,4235.897332,4233.33323,4230.769127,4221.538358,4240.512717,4230.256307,4242.563999,4238.974255
109,0,4236.410153,4242.563999,4240.512717,4243.076819,4261.025537,4238.974255,4233.33323,4228.717845,4229.743486,4230.769127,4237.435794,4227.179384,4237.948614,4233.84605
110,0,4237.435794,4244.10246,4239.999896,4249.230665,4258.974255,4245.640922,4238.974255,4233.33323,4234.871691,4237.948614,4232.307589,4227.179384,4239.999896,4229.743486
111,0,4231.281948,4236.410153,4232.307589,4242.051178,4248.717845,4239.487076,4237.435794,4223.58964,4226.153743,4212.307589,4227.179384,4218.461435,4236.922973,4227.692204
112,0,4234.871691,4240.512717,4235.897332,4241.025537,4251.794768,4235.384512,4237.948614,4223.58964,4226.153743,4214.358871,4243.076819,4218.974256,4243.58964,4235.897332
113,0,4233.84605,4241.538358,4237.948614,4244.615281,4244.615281,4233.84605,4237.435794,4231.281948,4231.794768,4236.410153,4244.615281,4221.025538,4245.640922,4232.820409
114,0,4238.461435,4243.076819,4242.051178,4247.692204,4243.58964,4244.615281,4244.10246,4242.563999,4238.461435,4250.769127,4242.051178,4225.128102,4247.692204,4234.358871
115,0,4237.948614,4236.410153,4238.461435,4242.563999,4247.179383,4247.179383,4244.615281,4232.307589,4235.384512,4240.512717,4240.512717,4222.051179,4246.153742,4232.307589
116,0,4249.230665,4245.128101,4244.615281,4248.717845,4259.487075,4251.794768,4248.205024,4236.410153,4238.461435,4243.58964,4254.871691,4232.820409,4261.025537,4248.205024
117,0,4244.10246,4239.999896,4240.512717,4244.615281,4249.743486,4242.051178,4244.615281,4238.974255,4236.922973,4235.897332,4250.769127,4230.256307,4263.076819,4249.230665
118,0,4238.974255,4236.922973,4241.025537,4241.538358,4251.281947,4244.10246,4245.640922,4241.538358,4242.051178,4239.487076,4251.281947,4226.153743,4260.512716,4244.615281
119,0,4232.307589,4229.743486,4236.922973,4238.974255,4247.692204,4243.076819,4239.999896,4231.281948,4234.871691,4235.384512,4246.666563,4221.538358,4249.230665,4230.769127
120,0,4239.487076,4231.794768,4240.512717,4241.538358,4244.615281,4245.640922,4241.025537,4234.358871,4231.281948,4231.794768,4244.10246,4227.692204,4248.205024,4235.897332
121,0,4230.256307,4221.025538,4235.384512,4232.820409,4233.84605,4233.84605,4238.461435,4233.84605,4233.33323,4226.666563,4233.33323,4222.051179,4241.025537,4232.820409
122,0,4223.07682,4218.461435,4230.256307,4229.230666,4237.948614,4231.281948,4239.487076,4234.358871,4238.461435,4233.33323,4232.820409,4219.487076,4237.948614,4231.794768
123,0,4226.666563,4223.58964,4229.230666,4232.820409,4240.512717,4233.33323,4238.974255,4231.281948,4232.307589,4228.205025,4231.281948,4220.512717,4242.051178,4232.307589
124,0,4238.974255,4236.410153,4239.487076,4242.051178,4246.153742,4239.999896,4241.025537,4231.281948,4232.820409,4225.640922,4231.281948,4227.179384,4251.794768,4240.512717
125,0,4238.974255,4234.358871,4242.563999,4242.563999,4247.179383,4242.563999,4242.563999,4228.205025,4235.384512,4229.743486,4232.820409,4227.179384,4248.717845,4241.025537
126,0,4237.435794,4232.820409,4242.563999,4243.076819,4249.230665,4247.692204,4245.128101,4229.743486,4233.84605,4230.256307,4232.307589,4226.153743,4241.538358,4240.512717
127,0,4243.58964,4240.512717,4248.205024,4247.692204,4252.820409,4247.179383,4244.615281,4234.358871,4234.358871,4228.205025,4232.820409,4229.743486,4246.153742,4245.640922
128,0,4248.205024,4242.051178,4250.256306,4250.256306,4250.256306,4240.512717,4242.051178,4235.897332,4236.922973,4231.794768,4237.948614,4229.743486,4255.384511,4244.10246
0,0,4252.307588,4249.230665,4252.820409,4254.871691,4262.051178,4248.717845,4247.692204,4241.025537,4237.948614,4245.640922,4242.563999,4230.256307,4262.051178,4245.128101
1,0,4250.769127,4251.281947,4251.794768,4252.820409,4268.205024,4251.794768,4247.692204,4235.384512,4233.84605,4235.897332,4234.358871,4225.128102,4254.871691,4247.179383
2,0,4253.333229,4251.281947,4251.794768,4248.717845,4261.025537,4246.153742,4244.10246,4238.461435,4238.974255,4233.84605,4238.974255,4224.102461,4254.35887,4253.84605
3,0,4242.563999,4239.999896,4238.974255,4239.487076,4242.563999,4236.410153,4234.358871,4235.384512,4236.410153,4240.512717,4235.897332,4217.435794,4253.84605,4240.512717
4,0,4242.563999,4242.563999,4237.435794,4242.051178,4248.717845,4242.051178,4235.897332,4234.358871,4234.358871,4244.10246,4232.307589,4221.025538,4261.025537,4240.512717
5,0,4242.051178,4241.538358,4237.948614,4243.58964,4248.717845,4237.435794,4237.948614,4228.717845,4231.281948,4225.640922,4228.205025,4218.461435,4254.871691,4244.615281
6,0,4249.743486,4247.692204,4246.666563,4251.281947,4249.230665,4244.10246,4248.205024,4244.10246,4244.10246,4242.563999,4243.58964,4226.666563,4255.897332,4257.435793
7,0,4243.076819,4238.974255,4241.538358,4248.205024,4241.025537,4241.538358,4244.615281,4242.563999,4243.076819,4253.333229,4239.487076,4223.07682,4256.410152,4250.769127
8,0,4245.128101,4236.410153,4244.615281,4245.640922,4249.743486,4241.538358,4241.538358,4242.563999,4238.461435,4241.025537,4234.871691,4222.051179,4263.076819,4250.769127
9,0,4244.10246,4233.33323,4244.615281,4243.58964,4251.794768,4236.410153,4235.384512,4238.974255,4234.871691,4229.743486,4235.384512,4220.512717,4256.410152,4247.179383
10,0,4247.692204,4241.025537,4244.10246,4247.692204,4250.256306,4238.974255,4237.435794,4236.410153,4239.487076,4248.205024,4243.58964,4223.07682,4254.35887,4247.692204
11,0,4240.512717,4235.897332,4233.84605,4241.538358,4243.58964,4229.743486,4233.33323,4228.205025,4234.358871,4248.717845,4230.769127,4214.358871,4253.333229,4242.051178
12,0,4242.051178,4239.487076,4233.84605,4243.58964,4248.205024,4231.794768,4232.820409,4229.230666,4233.33323,4236.922973,4227.692204,4214.871692,4258.974255,4250.256306
13,0,4246.666563,4244.10246,4239.487076,4248.717845,4248.205024,4237.435794,4232.307589,4225.640922,4233.84605,4234.871691,4230.769127,4216.922974,4258.461434,4252.820409
14,0,4250.769127,4250.256306,4244.10246,4252.307588,4252.820409,4242.051178,4234.871691,4223.58964,4233.84605,4239.999896,4235.897332,4222.051179,4261.025537,4250.256306
15,0,4246.153742,4248.205024,4238.974255,4249.743486,4255.384511,4238.974255,4235.384512,4223.07682,4227.692204,4231.794768,4235.897332,4220.512717,4255.384511,4246.153742
16,0,4238.974255,4239.487076,4230.769127,4243.076819,4247.179383,4232.307589,4230.769127,4219.999897,4226.153743,4222.051179,4234.358871,4215.384512,4244.615281,4243.076819
17,0,4239.487076,4235.897332,4231.794768,4240.512717,4236.922973,4233.33323,4232.307589,4224.102461,4235.897332,4229.743486,4232.307589,4218.461435,4247.179383,4245.128101
18,0,4236.922973,4231.794768,4231.281948,4238.974255,4230.769127,4231.794768,4232.307589,4227.692204,4238.974255,4228.717845,4221.025538,4219.999897,4251.281947,4238.974255
19,0,4237.948614,4230.256307,4233.33323,4237.948614,4238.461435,4230.769127,4231.794768,4232.307589,4233.84605,4223.58964,4226.153743,4223.58964,4250.256306,4240.512717
20,0,4238.461435,4227.692204,4232.307589,4235.384512,4241.538358,4226.666563,4230.256307,4229.230666,4231.794768,4227.692204,4235.384512,4222.051179,4246.666563,4242.051178
21,0,4243.076819,4236.922973,4234.871691,4239.999896,4242.563999,4233.84605,4235.384512,4233.84605,4239.487076,4250.769127,4239.487076,4226.153743,4256.410152,4247.179383
22,0,4227.692204,4228.205025,4224.102461,4231.794768,4233.84605,4230.769127,4230.769127,4229.743486,4234.358871,4239.999896,4218.974256,4217.948615,4250.256306,4232.820409
23,0,4227.179384,4226.153743,4223.07682,4233.33323,4242.563999,4235.384512,4233.33323,4233.33323,4235.384512,4230.769127,4217.435794,4215.384512,4243.58964,4231.281948
24,0,4234.358871,4231.281948,4225.128102,4236.922973,4245.128101,4235.897332,4235.897332,4230.256307,4234.871691,4233.33323,4220.512717,4213.846051,4241.025537,4234.871691
25,0,4250.769127,4248.717845,4238.461435,4243.58964,4255.384511,4243.076819,4241.538358,4236.922973,4240.512717,4247.692204,4225.640922,4227.179384,4255.897332,4250.769127
26,0,4245.640922,4239.487076,4237.435794,4237.948614,4246.153742,4237.948614,4235.384512,4233.33323,4236.410153,4236.922973,4215.897333,4224.615281,4255.384511,4244.10246
27,0,4238.974255,4235.897332,4232.820409,4238.461435,4243.58964,4238.974255,4237.948614,4231.281948,4233.84605,4225.640922,4211.794769,4216.922974,4251.281947,4235.384512
28,0,4228.205025,4228.205025,4223.07682,4231.794768,4239.999896,4232.307589,4233.33323,4222.563999,4227.179384,4217.435794,4198.974256,4209.743487,4242.051178,4224.102461
29,0,4227.692204,4222.051179,4224.615281,4226.666563,4235.384512,4228.717845,4229.230666,4224.615281,4229.230666,4223.58964,4194.358872,4215.384512,4241.538358,4227.179384
30,0,4225.640922,4217.948615,4225.640922,4226.666563,4223.07682,4224.102461,4226.153743,4222.563999,4228.205025,4215.897333,4192.30759,4212.82041,4236.922973,4225.640922
31,0,4232.307589,4227.692204,4230.256307,4233.84605,4233.84605,4229.743486,4230.256307,4224.615281,4228.717845,4215.384512,4200.512718,4216.922974,4234.358871,4228.205025
32,0,4235.897332,4230.769127,4228.717845,4234.871691,4244.10246,4232.307589,4230.256307,4225.128102,4229.230666,4228.717845,4204.615282,4222.563999,4235.897332,4231.281948
33,0,4232.820409,4231.794768,4227.179384,4233.84605,4239.487076,4236.922973,4232.820409,4228.205025,4236.410153,4239.999896,4206.153743,4225.128102,4247.179383,4234.871691
34,0,4226.666563,4229.743486,4225.640922,4231.794768,4235.897332,4237.435794,4235.897332,4233.84605,4239.999896,4235.897332,4204.102461,4223.58964,4250.769127,4231.281948
35,0,4222.563999,4221.538358,4219.487076,4227.179384,4238.974255,4232.820409,4232.820409,4229.230666,4233.33323,4227.179384,4195.897333,4216.410153,4239.999896,4224.102461
36,0,4226.666563,4225.640922,4221.025538,4229.743486,4238.461435,4232.820409,4231.794768,4224.615281,4231.794768,4233.33323,4197.435795,4217.948615,4243.076819,4235.897332
37,0,4234.871691,4236.410153,4231.281948,4233.33323,4229.230666,4232.307589,4231.281948,4226.666563,4234.358871,4235.897332,4206.666564,4226.666563,4249.743486,4248.717845
38,0,4242.563999,4240.512717,4240.512717,4235.384512,4233.84605,4232.307589,4232.820409,4233.84605,4234.358871,4235.384512,4215.384512,4233.33323,4250.769127,4252.307588
39,0,4235.384512,4229.743486,4231.281948,4229.230666,4232.307589,4224.102461,4228.205025,4221.025538,4225.128102,4221.025538,4199.487077,4223.58964,4244.615281,4236.922973
40,0,4241.538358,4240.512717,4235.384512,4233.33323,4237.948614,4233.84605,4233.84605,4224.615281,4231.794768,4233.84605,4202.051179,4229.230666,4255.384511,4245.128101
41,0,4245.128101,4248.717845,4241.025537,4237.435794,4240.512717,4236.922973,4232.820409,4232.307589,4235.897332,4243.58964,4211.281948,4235.384512,4261.538357,4255.897332
42,0,4251.794768,4251.281947,4245.640922,4244.10246,4250.256306,4235.384512,4231.281948,4236.922973,4232.307589,4239.487076,4216.410153,4237.948614,4263.589639,4258.461434
43,0,4240.512717,4236.410153,4234.871691,4234.871691,4238.461435,4219.999897,4224.102461,4226.153743,4221.538358,4213.846051,4199.487077,4223.07682,4249.743486,4236.410153
44,0,4238.461435,4236.922973,4235.384512,4232.820409,4234.871691,4223.07682,4226.153743,4228.717845,4226.666563,4216.922974,4197.948615,4219.999897,4252.307588,4239.999896
45,0,4235.897332,4233.33323,4234.871691,4230.769127,4229.743486,4220.512717,4222.563999,4224.102461,4226.153743,4225.128102,4194.358872,4215.384512,4250.769127,4241.538358
46,0,4238.461435,4234.871691,4236.410153,4232.307589,4233.84605,4225.640922,4226.666563,4226.666563,4226.153743,4229.230666,4200.512718,4215.897333,4248.717845,4236.922973
47,0,4228.205025,4225.640922,4229.230666,4226.666563,4229.743486,4223.07682,4224.615281,4222.563999,4224.102461,4220.512717,4199.999897,4206.666564,4242.563999,4225.128102
48,0,4224.102461,4223.58964,4224.615281,4223.58964,4228.205025,4221.538358,4222.051179,4223.07682,4226.666563,4225.640922,4191.281949,4203.07682,4242.563999,4227.179384
49,0,4218.461435,4222.051179,4218.974256,4219.487076,4228.717845,4221.538358,4220.512717,4221.025538,4224.102461,4227.179384,4176.410154,4198.974256,4238.461435,4221.538358
50,0,4219.999897,4224.615281,4221.025538,4223.07682,4237.435794,4228.205025,4224.615281,4220.512717,4225.640922,4226.666563,4184.102462,4198.461436,4244.10246,4217.948615
51,0,4218.974256,4218.461435,4219.487076,4218.461435,4233.33323,4224.102461,4221.538358,4222.051179,4225.128102,4224.615281,4192.82041,4195.384513,4243.076819,4218.461435
52,0,4211.794769,4211.794769,4214.358871,4207.692205,4225.128102,4223.07682,4216.922974,4224.615281,4225.128102,4225.128102,4185.640923,4192.82041,4238.461435,4213.846051
53,0,4209.743487,4213.846051,4217.435794,4210.256307,4226.153743,4229.230666,4223.07682,4229.743486,4229.743486,4236.410153,4180.512718,4194.871692,4246.666563,4213.33323
54,0,4214.871692,4217.435794,4221.025538,4214.871692,4227.179384,4228.717845,4222.563999,4225.640922,4230.769127,4232.820409,4186.153744,4195.384513,4248.717845,4217.948615
55,0,4221.538358,4223.58964,4220.512717,4211.794769,4228.717845,4230.256307,4186.666564,4223.07682,4228.717845,4223.07682,4190.769128,4195.897333,4241.538358,4224.102461
56,0,4218.461435,4226.666563,4217.435794,4211.281948,4225.128102,4223.58964,4130.256309,4217.948615,4221.538358,4218.974256,4184.615282,4191.281949,4241.025537,4219.487076
57,0,4222.563999,4235.384512,4223.58964,4224.102461,4229.743486,4223.07682,4115.897335,4217.435794,4219.999897,4224.102461,4187.179385,4194.358872,4252.307588,4220.512717
58,0,4219.487076,4232.820409,4223.07682,4223.07682,4230.256307,4220.512717,4125.640925,4210.256307,4218.461435,4213.846051,4182.05118,4188.717846,4243.076819,4212.307589
59,0,4231.281948,4242.563999,4232.820409,4224.615281,4240.512717,4226.666563,4134.871694,4217.948615,4224.615281,4224.615281,4194.358872,4194.871692,4247.692204,4225.128102
60,0,4233.84605,4243.58964,4231.794768,4225.128102,4232.307589,4223.58964,4135.384514,4215.897333,4219.487076,4226.666563,4195.897333,4195.897333,4252.820409,4235.384512
61,0,4235.384512,4248.205024,4232.820409,4230.769127,4235.384512,4231.794768,4147.692206,4218.974256,4219.999897,4219.999897,4195.384513,4204.102461,4257.435793,4243.076819
62,0,4230.256307,4243.58964,4228.717845,4226.153743,4237.435794,4227.179384,4147.692206,4217.948615,4218.974256,4208.717846,4188.205026,4199.999897,4250.769127,4233.33323
63,0,4236.410153,4245.640922,4232.820409,4227.692204,4241.025537,4226.153743,4150.256309,4221.538358,4221.538358,4224.615281,4195.897333,4203.07682,4250.256306,4234.358871
64,0,4229.230666,4238.461435,4230.769127,4222.563999,4223.58964,4222.051179,4148.717847,4215.897333,4216.922974,4223.58964,4190.256308,4199.999897,4240.512717,4226.666563
65,0,4228.205025,4238.974255,4231.281948,4221.538358,4223.58964,4224.615281,4151.28195,4219.999897,4221.025538,4214.871692,4185.640923,4200.512718,4244.615281,4226.666563
66,0,4224.615281,4232.820409,4222.051179,4218.461435,4230.256307,4215.384512,4149.230668,4216.410153,4219.487076,4210.256307,4179.487077,4196.410154,4246.153742,4224.102461
67,0,4224.615281,4236.410153,4219.999897,4220.512717,4231.794768,4217.435794,4150.769129,4214.358871,4218.461435,4221.538358,4180.512718,4197.948615,4243.58964,4226.666563
68,0,4225.640922,4238.461435,4225.640922,4223.07682,4226.666563,4221.538358,4156.410155,4216.410153,4218.461435,4222.563999,4185.640923,4199.487077,4245.128101,4227.692204
69,0,4232.307589,4235.384512,4231.281948,4226.153743,4230.256307,4224.102461,4162.564001,4218.974256,4221.538358,4216.922974,4193.846051,4203.589641,4251.281947,4235.897332
70,0,4231.281948,4233.84605,4228.717845,4221.538358,4227.179384,4220.512717,4158.974257,4216.922974,4218.974256,4221.025538,4189.743487,4204.102461,4244.615281,4238.461435
71,0,4227.179384,4233.84605,4226.153743,4215.897333,4222.051179,4219.999897,4156.922975,4215.384512,4216.922974,4220.512717,4181.025539,4202.564,4242.563999,4231.281948
72,0,4230.769127,4233.84605,4230.256307,4222.051179,4231.281948,4226.153743,4164.615283,4217.435794,4220.512717,4215.897333,4184.615282,4206.666564,4253.84605,4232.820409
73,0,4225.128102,4228.717845,4227.692204,4222.051179,4227.179384,4219.487076,4164.615283,4211.794769,4216.922974,4213.846051,4187.692205,4206.153743,4251.281947,4231.794768
74,0,4222.051179,4226.666563,4224.615281,4214.358871,4212.82041,4212.307589,4160.512719,4210.256307,4211.281948,4218.974256,4190.256308,4205.640923,4243.076819,4227.692204
75,0,4223.58964,4221.538358,4220.512717,4212.82041,4210.769128,4209.230666,4158.461437,4207.692205,4211.281948,4213.846051,4186.666564,4205.128102,4240.512717,4218.461435
76,0,4228.717845,4227.692204,4224.102461,4223.58964,4225.128102,4218.974256,4165.128103,4214.358871,4218.974256,4216.410153,4186.153744,4211.794769,4247.692204,4228.717845
77,0,4217.435794,4224.615281,4216.410153,4217.435794,4214.871692,4215.897333,4161.025539,4208.205025,4210.769128,4205.128102,4178.974257,4203.07682,4235.384512,4223.58964
78,0,4222.563999,4229.230666,4218.461435,4217.435794,4215.384512,4216.922974,4163.076821,4208.717846,4209.743487,4205.128102,4184.102462,4200.512718,4232.820409,4218.974256
79,0,4223.07682,4226.666563,4218.974256,4218.461435,4215.384512,4209.230666,4161.53836,4199.999897,4208.717846,4197.948615,4178.461436,4198.461436,4236.410153,4214.871692
80,0,4230.769127,4239.999896,4226.666563,4226.153743,4230.256307,4218.974256,4170.769129,4209.743487,4216.922974,4207.179384,4187.692205,4210.769128,4248.205024,4232.307589
81,0,4229.230666,4241.025537,4222.563999,4223.07682,4233.84605,4221.538358,4172.820411,4214.358871,4216.922974,4211.794769,4187.692205,4208.717846,4243.58964,4229.230666
82,0,4230.256307,4239.487076,4222.563999,4223.07682,4236.922973,4220.512717,4173.846052,4215.897333,4216.410153,4215.897333,4188.205026,4208.205025,4247.692204,4223.07682
83,0,4222.051179,4229.743486,4217.948615,4219.487076,4231.794768,4215.384512,4169.743488,4208.717846,4212.307589,4211.794769,4188.205026,4207.179384,4245.640922,4217.435794
84,0,4226.666563,4234.358871,4217.948615,4222.563999,4232.820409,4225.640922,4174.871693,4213.846051,4219.487076,4221.538358,4198.461436,4212.82041,4245.640922,4224.102461
85,0,4230.769127,4236.410153,4220.512717,4223.58964,4222.563999,4222.563999,4175.384513,4215.897333,4222.563999,4228.205025,4195.384513,4210.769128,4251.281947,4226.666563
86,0,4233.84605,4238.974255,4227.692204,4226.153743,4224.102461,4221.025538,4173.846052,4217.435794,4221.538358,4228.717845,4197.948615,4212.82041,4256.922973,4231.281948
87,0,4224.615281,4229.743486,4221.538358,4220.512717,4228.717845,4218.974256,4172.30759,4212.307589,4212.82041,4214.871692,4202.051179,4209.743487,4244.10246,4223.07682
88,0,4218.974256,4222.051179,4213.846051,4216.922974,4219.487076,4212.82041,4172.30759,4207.692205,4211.281948,4204.102461,4193.846051,4206.153743,4236.410153,4214.358871
89,0,4221.538358,4223.07682,4215.384512,4219.999897,4213.33323,4209.230666,4170.256308,4210.769128,4215.897333,4214.358871,4186.153744,4207.692205,4242.563999,4216.922974
90,0,4211.794769,4214.871692,4209.743487,4213.33323,4215.384512,4213.846051,4169.743488,4207.692205,4213.846051,4214.358871,4183.076821,4202.051179,4237.435794,4211.794769
91,0,4201.025538,4207.692205,4202.564,4205.128102,4216.410153,4216.922974,4173.846052,4204.102461,4208.717846,4202.051179,4189.230667,4196.410154,4232.820409,4206.666564
92,0,4213.33323,4217.948615,4210.256307,4209.230666,4219.487076,4214.358871,4175.897334,4206.666564,4212.307589,4206.153743,4198.974256,4201.538359,4241.025537,4211.794769
93,0,4230.256307,4232.820409,4223.07682,4218.974256,4228.717845,4219.487076,4180.512718,4219.487076,4224.615281,4229.743486,4207.179384,4212.82041,4249.230665,4224.102461
94,0,4216.410153,4221.538358,4214.871692,4212.82041,4221.025538,4211.281948,4177.948616,4212.82041,4221.538358,4227.179384,4199.999897,4205.640923,4240.512717,4213.33323
95,0,4216.410153,4225.640922,4214.871692,4216.410153,4223.58964,4214.871692,4181.025539,4211.794769,4217.948615,4226.153743,4202.564,4201.538359,4245.640922,4216.922974
96,0,4216.922974,4227.179384,4211.794769,4216.922974,4218.461435,4217.435794,4179.487077,4208.717846,4212.82041,4219.487076,4193.846051,4192.82041,4242.563999,4214.871692
97,0,4219.487076,4226.666563,4211.794769,4218.974256,4217.435794,4218.974256,4183.589641,4211.794769,4217.435794,4222.051179,4195.384513,4195.897333,4237.435794,4215.897333
98,0,4210.256307,4215.897333,4209.230666,4216.410153,4210.769128,4207.692205,4181.538359,4205.128102,4214.871692,4213.846051,4193.333231,4193.846051,4231.794768,4210.256307
99,0,4210.256307,4218.974256,4213.33323,4215.897333,4216.922974,4214.358871,4184.102462,4209.230666,4215.897333,4212.307589,4195.384513,4193.333231,4239.487076,4210.256307
100,0,4203.589641,4213.846051,4202.051179,4205.640923,4212.307589,4211.794769,4178.461436,4203.589641,4211.281948,4206.666564,4186.153744,4183.589641,4235.897332,4198.974256
101,0,4211.281948,4220.512717,4206.153743,4211.281948,4216.410153,4209.743487,4179.487077,4203.589641,4214.871692,4215.384512,4192.82041,4187.692205,4237.948614,4208.205025
102,0,4208.205025,4217.435794,4207.179384,4212.307589,4212.307589,4205.128102,4177.435795,4200.512718,4211.794769,4214.358871,4190.256308,4184.615282,4230.769127,4207.692205
103,0,4205.640923,4216.410153,4205.128102,4210.769128,4215.897333,4211.794769,4179.999898,4206.666564,4215.384512,4214.358871,4188.205026,4185.640923,4232.307589,4205.128102
104,0,4206.666564,4218.461435,4207.692205,4213.33323,4220.512717,4214.871692,4183.076821,4210.769128,4217.948615,4212.307589,4189.743487,4191.794769,4240.512717,4211.794769
105,0,4208.717846,4221.538358,4216.410153,4218.461435,4224.615281,4215.384512,4186.666564,4209.230666,4215.897333,4211.281948,4196.922974,4197.948615,4238.974255,4218.461435
106,0,4201.025538,4210.256307,4209.230666,4202.564,4215.384512,4202.564,4180.512718,4197.435795,4208.205025,4207.179384,4193.333231,4192.82041,4219.999897,4204.615282
107,0,4199.487077,4206.666564,4199.999897,4184.615282,4207.179384,4199.999897,4181.025539,4194.871692,4209.230666,4204.102461,4185.640923,4186.153744,4218.974256,4196.922974
108,0,4204.102461,4213.33323,4207.179384,4185.128103,4209.743487,4211.794769,4191.281949,4206.153743,4216.922974,4209.230666,4186.153744,4188.205026,4232.820409,4202.564
109,0,4202.051179,4209.230666,4210.256307,4185.128103,4211.794769,4212.82041,4191.794769,4203.07682,4214.358871,4209.230666,4190.769128,4187.692205,4229.230666,4202.051179
110,0,4205.640923,4209.743487,4207.179384,4180.512718,4215.897333,4212.82041,4190.769128,4199.999897,4214.358871,4211.281948,4197.435795,4189.230667,4225.128102,4207.692205
111,0,4210.256307,4211.794769,4207.179384,4179.487077,4213.33323,4213.33323,4194.358872,4209.230666,4219.487076,4211.281948,4198.461436,4193.333231,4230.769127,4214.358871
112,0,4213.846051,4213.846051,4216.922974,4186.666564,4216.922974,4216.922974,4199.999897,4220.512717,4222.563999,4221.538358,4203.07682,4201.538359,4236.410153,4218.461435
113,0,4199.487077,4201.025538,4207.692205,4182.05118,4210.256307,4208.205025,4191.281949,4206.153743,4211.794769,4212.307589,4193.846051,4187.692205,4221.538358,4198.461436
114,0,4201.538359,4205.128102,4207.179384,4182.05118,4213.846051,4212.307589,4193.846051,4207.179384,4212.82041,4206.666564,4195.384513,4185.640923,4227.179384,4203.07682
115,0,4202.051179,4202.051179,4207.179384,4179.487077,4203.07682,4206.153743,4192.30759,4208.717846,4214.358871,4203.589641,4192.82041,4188.205026,4233.84605,4210.769128
116,0,4198.974256,4197.435795,4205.128102,4179.487077,4197.435795,4201.538359,4191.794769,4208.205025,4215.384512,4212.307589,4194.358872,4187.692205,4230.769127,4207.179384
117,0,4186.153744,4188.717846,4195.384513,4174.871693,4193.846051,4196.410154,4188.717846,4197.435795,4207.179384,4199.487077,4183.076821,4175.384513,4216.410153,4187.692205
118,0,4192.82041,4197.948615,4202.564,4181.538359,4207.179384,4209.743487,4194.358872,4201.025538,4208.717846,4194.358872,4185.128103,4182.05118,4222.563999,4193.846051
119,0,4193.846051,4194.871692,4202.564,4181.025539,4203.07682,4207.692205,4189.743487,4196.410154,4209.230666,4195.384513,4186.153744,4181.538359,4218.974256,4194.358872
120,0,4199.999897,4199.999897,4208.205025,4183.076821,4204.615282,4204.102461,4192.30759,4201.025538,4218.461435,4209.743487,4197.435795,4186.666564,4219.487076,4203.07682
121,0,4199.999897,4201.025538,4208.205025,4183.076821,4206.666564,4199.999897,4194.871692,4205.128102,4216.922974,4210.769128,4201.538359,4190.256308,4225.640922,4208.717846
122,0,4205.128102,4204.102461,4210.256307,4189.743487,4210.256307,4213.33323,4197.948615,4210.256307,4216.410153,4210.256307,4197.948615,4193.846051,4235.384512,4210.256307
123,0,4205.128102,4204.615282,4211.281948,4191.281949,4205.640923,4215.897333,4197.948615,4209.230666,4217.948615,4209.743487,4194.871692,4193.846051,4229.230666,4206.666564
124,0,4203.589641,4205.640923,4210.769128,4189.743487,4209.743487,4208.717846,4199.487077,4206.666564,4217.948615,4209.743487,4199.999897,4195.384513,4220.512717,4206.666564
125,0,4196.410154,4200.512718,4203.589641,4187.692205,4214.358871,4208.205025,4198.974256,4205.128102,4211.794769,4205.640923,4195.897333,4189.230667,4221.025538,4202.564
126,0,4192.82041,4195.897333,4202.564,4186.666564,4207.692205,4211.794769,4198.461436,4205.128102,4210.256307,4203.589641,4189.743487,4188.205026,4229.230666,4200.512718
127,0,4196.922974,4195.897333,4208.205025,4186.153744,4198.461436,4210.769128,4201.025538,4207.692205,4213.846051,4207.692205,4193.846051,4197.435795,4236.410153,4207.692205
128,0,4193.846051,4190.256308,4202.564,4184.102462,4190.769128,4204.615282,4198.974256,4206.153743,4211.794769,4203.589641,4187.179385,4193.846051,4226.153743,4205.640923
0,0,4197.948615,4194.358872,4203.07682,4190.256308,4194.871692,4206.153743,4198.974256,4209.743487,4209.743487,4204.615282,4185.128103,4190.769128,4218.461435,4204.615282
1,0,4196.410154,4191.794769,4203.07682,4189.230667,4194.358872,4197.435795,4195.384513,4202.564,4202.564,4194.871692,4184.615282,4189.743487,4216.922974,4194.358872
2,0,4196.922974,4193.846051,4205.640923,4190.256308,4201.538359,4203.07682,4198.461436,4201.025538,4204.102461,4197.435795,4189.230667,4194.871692,4227.179384,4195.897333
3,0,4195.897333,4195.897333,4202.564,4193.846051,4203.07682,4211.281948,4198.974256,4198.461436,4207.692205,4199.487077,4184.102462,4190.769128,4224.615281,4199.487077
4,0,4207.692205,4208.205025,4209.743487,4204.102461,4211.794769,4219.487076,4208.717846,4211.794769,4218.461435,4214.358871,4195.384513,4199.487077,4225.128102,4215.384512
5,0,4201.538359,4199.999897,4207.692205,4198.461436,4207.692205,4213.33323,4212.307589,4214.358871,4215.897333,4212.82041,4194.358872,4200.512718,4224.102461,4210.769128
6,0,4204.102461,4201.538359,4212.82041,4199.999897,4214.358871,4222.051179,4219.487076,4219.999897,4217.435794,4215.897333,4195.384513,4205.128102,4229.230666,4211.281948
7,0,4209.230666,4202.051179,4214.871692,4203.07682,4210.769128,4221.025538,4216.922974,4216.410153,4216.410153,4206.666564,4193.333231,4205.640923,4229.743486,4211.281948
8,0,4213.846051,4207.179384,4215.897333,4207.692205,4208.717846,4217.435794,4216.922974,4215.384512,4219.487076,4208.717846,4197.948615,4210.256307,4237.948614,4217.435794
9,0,4197.435795,4196.410154,4202.564,4200.512718,4197.948615,4206.153743,4208.717846,4202.564,4209.743487,4204.615282,4187.179385,4198.461436,4226.153743,4203.07682
10,0,4199.999897,4198.974256,4204.615282,4202.564,4207.692205,4212.82041,4209.743487,4199.999897,4205.128102,4203.07682,4186.153744,4192.82041,4219.487076,4201.025538
11,0,4210.769128,4207.179384,4214.871692,4209.743487,4218.974256,4215.897333,4213.33323,4201.538359,4207.179384,4204.102461,4189.743487,4197.948615,4224.615281,4209.743487
12,0,4214.358871,4212.82041,4219.999897,4214.871692,4218.461435,4215.897333,4214.358871,4206.153743,4214.358871,4209.743487,4193.846051,4207.692205,4229.743486,4215.384512
13,0,4204.102461,4201.025538,4211.281948,4208.717846,4204.615282,4211.281948,4212.82041,4205.128102,4212.307589,4204.615282,4187.692205,4201.025538,4219.999897,4204.102461
14,0,4202.564,4196.410154,4209.743487,4204.615282,4199.999897,4210.769128,4213.33323,4204.615282,4211.794769,4201.538359,4190.256308,4196.410154,4217.948615,4202.564
15,0,4208.205025,4202.051179,4216.410153,4208.717846,4202.564,4210.256307,4213.33323,4207.179384,4214.358871,4207.179384,4201.538359,4205.640923,4229.230666,4215.384512
16,0,4207.179384,4203.07682,4216.922974,4213.33323,4202.564,4210.256307,4214.871692,4209.230666,4214.358871,4202.564,4202.564,4208.205025,4233.84605,4219.487076
17,0,4204.102461,4202.051179,4214.358871,4212.82041,4204.615282,4211.794769,4217.948615,4213.846051,4212.82041,4203.07682,4194.871692,4202.564,4232.820409,4212.307589
18,0,4201.025538,4201.025538,4209.230666,4209.230666,4203.589641,4209.230666,4212.307589,4208.205025,4210.769128,4211.281948,4192.30759,4197.948615,4224.102461,4195.384513
19,0,4206.153743,4205.640923,4213.846051,4216.410153,4209.743487,4211.794769,4212.307589,4207.692205,4213.846051,4224.102461,4203.589641,4205.128102,4225.128102,4202.051179
20,0,4202.051179,4199.487077,4212.307589,4215.897333,4206.153743,4204.102461,4210.256307,4203.07682,4210.769128,4213.846051,4194.871692,4204.102461,4227.179384,4209.743487
21,0,4205.640923,4202.564,4212.82041,4213.33323,4203.07682,4205.128102,4211.281948,4205.640923,4210.256307,4208.717846,4190.769128,4208.717846,4233.84605,4216.410153
22,0,4202.564,4197.948615,4206.153743,4207.179384,4190.256308,4201.025538,4206.153743,4196.410154,4204.615282,4195.384513,4192.82041,4203.589641,4226.666563,4206.153743
23,0,4208.717846,4205.128102,4212.307589,4214.358871,4199.487077,4206.666564,4211.794769,4199.487077,4208.717846,4194.871692,4205.128102,4205.640923,4226.666563,4210.256307
24,0,4203.589641,4208.205025,4211.794769,4216.410153,4202.051179,4203.07682,4207.692205,4196.922974,4204.615282,4192.82041,4195.897333,4202.564,4221.538358,4207.179384
25,0,4206.666564,4215.897333,4213.846051,4220.512717,4207.692205,4206.666564,4205.640923,4198.461436,4205.640923,4196.922974,4195.897333,4206.666564,4227.179384,4211.281948
26,0,4205.128102,4208.717846,4210.769128,4216.410153,4201.538359,4201.538359,4203.07682,4193.333231,4205.128102,4191.281949,4197.435795,4205.128102,4227.692204,4211.794769
27,0,4210.256307,4213.33323,4214.871692,4217.435794,4203.589641,4205.128102,4209.230666,4196.922974,4207.179384,4200.512718,4198.461436,4209.230666,4229.230666,4218.974256
28,0,4204.615282,4212.307589,4213.846051,4211.794769,4196.410154,4202.564,4209.230666,4191.281949,4202.051179,4195.384513,4185.640923,4202.564,4223.58964,4211.281948
29,0,4210.256307,4211.281948,4220.512717,4213.33323,4197.948615,4206.666564,4212.82041,4198.461436,4208.717846,4190.769128,4196.410154,4208.205025,4230.256307,4218.461435
30,0,4217.948615,4209.230666,4221.025538,4216.922974,4196.410154,4206.666564,4214.871692,4205.640923,4212.307589,4196.410154,4211.281948,4216.410153,4231.794768,4226.153743
31,0,4215.897333,4211.281948,4219.487076,4215.897333,4192.82041,4205.640923,4216.410153,4204.615282,4211.794769,4205.128102,4207.179384,4214.358871,4228.205025,4221.025538
32,0,4200.512718,4201.025538,4214.358871,4206.666564,4188.717846,4199.999897,4211.794769,4197.948615,4209.743487,4199.999897,4193.333231,4203.589641,4223.07682,4205.128102
33,0,4192.30759,4191.281949,4207.179384,4199.999897,4191.794769,4195.384513,4207.692205,4194.871692,4206.153743,4199.487077,4189.743487,4199.487077,4219.487076,4196.410154
34,0,4193.846051,4192.82041,4204.102461,4201.025538,4195.384513,4195.897333,4210.256307,4197.948615,4203.07682,4206.153743,4189.743487,4200.512718,4221.025538,4198.974256
35,0,4192.82041,4194.358872,4202.564,4202.051179,4187.179385,4192.30759,4209.230666,4196.922974,4205.128102,4200.512718,4189.230667,4196.410154,4223.07682,4201.538359
36,0,4192.30759,4196.922974,4202.564,4203.589641,4185.128103,4192.82041,4209.230666,4193.846051,4207.179384,4194.358872,4192.82041,4194.871692,4219.999897,4202.051179
37,0,4186.153744,4190.256308,4195.897333,4198.461436,4188.205026,4193.333231,4206.666564,4182.564,4198.974256,4178.461436,4183.589641,4190.769128,4212.307589,4192.30759
38,0,4195.897333,4196.922974,4203.07682,4204.615282,4199.487077,4199.487077,4210.256307,4191.794769,4201.538359,4185.640923,4187.179385,4196.410154,4217.948615,4198.974256
39,0,4201.025538,4199.487077,4208.205025,4209.230666,4198.974256,4197.435795,4211.794769,4198.974256,4205.128102,4193.333231,4191.794769,4198.974256,4215.897333,4201.025538
40,0,4202.564,4205.128102,4212.82041,4211.794769,4203.07682,4207.179384,4219.487076,4203.07682,4209.230666,4199.999897,4199.999897,4205.128102,4222.051179,4206.666564
41,0,4186.153744,4194.358872,4199.999897,4198.461436,4190.256308,4203.589641,4210.256307,4192.30759,4202.051179,4193.333231,4188.205026,4194.358872,4219.487076,4195.897333
42,0,4184.615282,4190.769128,4196.410154,4194.871692,4189.743487,4204.615282,4210.769128,4197.948615,4206.153743,4201.538359,4186.666564,4190.769128,4219.487076,4193.333231
43,0,4183.589641,4185.128103,4197.948615,4195.384513,4189.230667,4202.564,4216.410153,4201.538359,4207.692205,4195.384513,4185.128103,4187.179385,4212.307589,4188.717846
44,0,4194.871692,4193.846051,4208.205025,4204.102461,4199.487077,4214.358871,4226.153743,4209.743487,4213.33323,4196.410154,4199.487077,4199.487077,4217.435794,4197.435795
45,0,4199.487077,4192.82041,4207.692205,4203.07682,4196.922974,4210.769128,4223.58964,4208.205025,4212.82041,4199.999897,4204.615282,4205.128102,4220.512717,4200.512718
46,0,4201.025538,4197.435795,4208.717846,4202.564,4192.30759,4208.205025,4224.102461,4211.794769,4216.410153,4209.743487,4205.128102,4207.179384,4226.153743,4211.794769
47,0,4192.82041,4195.384513,4205.128102,4200.512718,4181.025539,4202.564,4219.999897,4210.256307,4212.82041,4206.153743,4199.487077,4200.512718,4225.128102,4207.692205
48,0,4197.948615,4195.897333,4210.256307,4204.102461,4189.743487,4207.179384,4221.538358,4215.897333,4214.358871,4208.205025,4204.102461,4202.564,4225.640922,4204.102461
49,0,4198.461436,4191.794769,4209.230666,4202.051179,4197.948615,4209.230666,4225.640922,4217.435794,4217.948615,4216.410153,4205.640923,4203.589641,4217.948615,4205.640923
50,0,4196.410154,4193.846051,4204.615282,4201.538359,4197.435795,4212.307589,4227.692204,4210.769128,4217.948615,4215.897333,4202.051179,4202.051179,4216.410153,4203.07682
51,0,4196.410154,4199.487077,4200.512718,4204.615282,4195.897333,4212.307589,4222.051179,4203.07682,4210.769128,4198.461436,4197.948615,4198.974256,4218.974256,4192.82041
52,0,4198.461436,4203.589641,4202.564,4207.179384,4198.974256,4209.743487,4218.461435,4200.512718,4207.692205,4194.871692,4201.538359,4199.999897,4217.948615,4197.948615
53,0,4201.538359,4200.512718,4206.666564,4206.153743,4204.102461,4212.307589,4223.58964,4202.564,4209.230666,4207.692205,4203.07682,4204.615282,4219.999897,4213.33323
54,0,4192.82041,4187.179385,4201.538359,4198.461436,4194.871692,4208.717846,4221.025538,4196.922974,4204.102461,4196.922974,4194.871692,4196.922974,4216.922974,4202.051179
55,0,4185.128103,4187.179385,4198.974256,4196.922974,4187.692205,4206.153743,4217.948615,4197.948615,4205.128102,4188.717846,4194.871692,4189.230667,4206.666564,4189.230667
56,0,4182.564,4184.615282,4194.871692,4197.435795,4185.128103,4199.487077,4215.384512,4194.358872,4204.615282,4190.256308,4189.230667,4184.615282,4197.948615,4185.640923
57,0,4197.948615,4193.333231,4203.589641,4206.153743,4198.974256,4204.615282,4219.487076,4200.512718,4204.615282,4197.948615,4199.487077,4198.461436,4216.410153,4204.102461
58,0,4201.538359,4198.461436,4205.640923,4207.179384,4195.897333,4204.102461,4216.922974,4198.974256,4203.589641,4192.82041,4209.230666,4204.102461,4223.07682,4209.230666
59,0,4207.179384,4209.743487,4212.307589,4214.871692,4200.512718,4211.281948,4222.563999,4208.717846,4218.974256,4211.281948,4218.974256,4210.769128,4223.07682,4213.33323
60,0,4201.025538,4204.615282,4207.692205,4212.307589,4203.589641,4209.743487,4221.538358,4211.794769,4218.974256,4218.461435,4209.743487,4206.153743,4218.461435,4203.07682
61,0,4201.025538,4202.564,4207.692205,4211.794769,4209.230666,4215.384512,4226.666563,4218.974256,4216.922974,4219.999897,4214.358871,4206.666564,4224.615281,4206.153743
62,0,4193.846051,4191.281949,4202.564,4205.640923,4195.897333,4209.743487,4226.666563,4211.281948,4215.384512,4208.205025,4214.358871,4201.025538,4222.051179,4204.102461
63,0,4199.487077,4195.897333,4206.153743,4203.07682,4201.025538,4212.307589,4226.153743,4208.717846,4217.948615,4211.794769,4212.307589,4205.640923,4224.615281,4206.666564
64,0,4197.948615,4195.897333,4202.051179,4195.897333,4203.589641,4205.640923,4216.410153,4197.435795,4205.640923,4206.666564,4200.512718,4198.974256,4219.487076,4201.025538
65,0,4201.025538,4198.974256,4201.538359,4198.974256,4199.487077,4202.564,4213.33323,4192.82041,4201.025538,4202.564,4202.051179,4193.846051,4222.563999,4202.564
66,0,4202.051179,4199.487077,4201.538359,4200.512718,4190.769128,4198.974256,4211.794769,4194.358872,4202.564,4199.487077,4206.666564,4195.384513,4224.102461,4202.051179
67,0,4210.769128,4206.666564,4210.769128,4203.589641,4197.948615,4205.640923,4215.384512,4205.128102,4210.769128,4204.615282,4218.461435,4208.205025,4226.666563,4209.743487
68,0,4210.256307,4205.640923,4213.846051,4203.07682,4200.512718,4206.666564,4217.948615,4206.153743,4212.82041,4206.666564,4222.051179,4210.256307,4224.615281,4212.82041
69,0,4197.948615,4196.410154,4203.589641,4196.922974,4197.948615,4206.666564,4217.435794,4201.025538,4210.256307,4202.564,4215.897333,4202.564,4219.999897,4203.589641
70,0,4191.281949,4189.230667,4197.435795,4193.333231,4197.435795,4205.640923,4215.897333,4201.538359,4206.666564,4198.461436,4206.153743,4195.897333,4215.897333,4194.871692
71,0,4197.435795,4188.205026,4204.102461,4197.948615,4193.846051,4202.051179,4216.410153,4203.07682,4206.666564,4193.846051,4203.07682,4198.461436,4210.769128,4194.358872
72,0,4205.640923,4194.871692,4211.794769,4203.07682,4191.794769,4202.564,4218.461435,4204.102461,4207.179384,4193.333231,4207.692205,4205.128102,4210.769128,4199.999897
73,0,4202.051179,4193.333231,4207.179384,4199.487077,4189.743487,4199.999897,4216.410153,4195.897333,4202.051179,4187.692205,4201.538359,4201.538359,4209.743487,4193.333231
74,0,4202.051179,4194.358872,4210.256307,4204.615282,4198.974256,4206.666564,4222.051179,4199.487077,4204.102461,4195.384513,4206.153743,4206.153743,4212.82041,4193.846051
75,0,4200.512718,4189.743487,4208.717846,4204.615282,4192.82041,4206.666564,4223.58964,4198.461436,4204.615282,4191.794769,4211.794769,4207.692205,4204.615282,4196.410154
76,0,4206.666564,4195.897333,4211.794769,4205.640923,4193.333231,4211.794769,4228.205025,4206.153743,4211.281948,4189.743487,4216.922974,4211.794769,4207.692205,4205.640923
77,0,4197.435795,4189.743487,4205.128102,4198.461436,4187.692205,4203.589641,4223.58964,4205.128102,4207.692205,4185.128103,4200.512718,4200.512718,4207.692205,4191.794769
78,0,4193.846051,4190.769128,4200.512718,4196.922974,4190.256308,4206.153743,4222.563999,4207.179384,4207.179384,4197.435795,4198.461436,4196.922974,4207.179384,4188.717846
79,0,4188.717846,4187.692205,4191.281949,4194.358872,4188.717846,4206.153743,4219.487076,4195.384513,4201.538359,4186.666564,4199.999897,4190.769128,4199.999897,4186.153744
80,0,4199.487077,4198.461436,4200.512718,4203.589641,4200.512718,4213.846051,4225.128102,4197.435795,4206.666564,4186.153744,4209.230666,4196.922974,4210.769128,4196.922974
81,0,4199.999897,4196.410154,4201.025538,4204.102461,4198.461436,4206.666564,4220.512717,4198.974256,4206.153743,4192.30759,4206.666564,4196.410154,4210.769128,4196.410154
82,0,4203.589641,4201.025538,4206.153743,4207.692205,4201.538359,4207.692205,4222.563999,4204.102461,4207.692205,4203.07682,4215.384512,4204.102461,4211.794769,4204.615282
83,0,4203.589641,4203.589641,4210.256307,4209.230666,4199.999897,4204.615282,4226.153743,4200.512718,4204.102461,4196.922974,4214.358871,4205.640923,4212.82041,4203.07682
84,0,4209.230666,4204.102461,4213.33323,4207.692205,4201.538359,4206.666564,4228.205025,4203.589641,4207.179384,4195.384513,4213.33323,4206.666564,4217.435794,4204.102461
85,0,4205.640923,4193.333231,4208.717846,4202.564,4198.974256,4204.102461,4225.128102,4203.589641,4206.666564,4195.384513,4212.82041,4205.128102,4215.384512,4203.07682
86,0,4208.205025,4201.025538,4212.82041,4205.128102,4205.640923,4205.640923,4228.717845,4206.666564,4207.179384,4199.999897,4219.487076,4208.717846,4216.410153,4206.153743
87,0,4212.82041,4211.794769,4213.846051,4204.615282,4202.564,4202.564,4226.666563,4206.153743,4206.153743,4194.358872,4219.999897,4209.743487,4216.922974,4210.256307
88,0,4208.205025,4205.640923,4205.128102,4199.487077,4195.384513,4202.051179,4221.025538,4201.538359,4205.640923,4186.666564,4217.435794,4207.692205,4214.358871,4211.794769
89,0,4205.128102,4201.538359,4207.692205,4200.512718,4199.999897,4207.179384,4225.128102,4207.179384,4210.256307,4197.435795,4221.025538,4212.307589,4214.358871,4212.82041
90,0,4208.717846,4204.615282,4215.384512,4202.564,4198.974256,4207.692205,4228.717845,4210.256307,4210.769128,4200.512718,4219.487076,4213.33323,4210.769128,4205.128102
91,0,4209.743487,4201.025538,4214.358871,4202.051179,4194.358872,4211.794769,4230.256307,4210.769128,4208.205025,4197.948615,4218.461435,4208.717846,4205.640923,4197.948615
92,0,4198.974256,4188.717846,4206.666564,4197.948615,4189.743487,4209.230666,4229.743486,4209.230666,4207.179384,4195.897333,4211.794769,4203.589641,4202.051179,4191.281949
93,0,4203.589641,4195.897333,4211.281948,4202.051179,4199.487077,4214.871692,4237.948614,4218.461435,4215.897333,4206.666564,4215.897333,4213.33323,4212.82041,4202.564
94,0,4202.564,4195.897333,4209.230666,4198.974256,4195.897333,4214.871692,4240.512717,4218.461435,4214.871692,4206.666564,4217.435794,4213.846051,4213.33323,4203.07682
95,0,4206.666564,4204.102461,4215.897333,4204.102461,4205.640923,4221.025538,4245.128101,4224.102461,4216.410153,4214.358871,4227.179384,4215.897333,4217.435794,4205.640923
96,0,4202.564,4205.128102,4212.307589,4207.692205,4203.07682,4210.256307,4235.897332,4214.358871,4210.256307,4202.564,4221.538358,4206.153743,4212.82041,4200.512718
97,0,4207.179384,4210.769128,4210.256307,4211.794769,4201.538359,4206.666564,4229.743486,4211.281948,4211.794769,4199.999897,4225.128102,4208.205025,4216.410153,4209.230666
98,0,4204.615282,4204.615282,4209.230666,4206.153743,4196.922974,4203.07682,4225.640922,4209.743487,4209.230666,4201.538359,4222.051179,4208.717846,4213.33323,4206.666564
99,0,4210.256307,4210.256307,4216.922974,4209.743487,4203.589641,4212.307589,4232.307589,4219.487076,4211.281948,4207.179384,4223.58964,4214.358871,4216.410153,4212.307589
100,0,4206.153743,4205.640923,4208.717846,4207.179384,4197.948615,4209.743487,4231.281948,4215.897333,4209.743487,4196.410154,4216.922974,4208.205025,4209.743487,4209.230666
101,0,4207.692205,4204.615282,4208.205025,4205.640923,4202.051179,4208.717846,4236.410153,4218.974256,4217.435794,4200.512718,4221.538358,4211.281948,4210.769128,4212.82041
102,0,4210.256307,4204.102461,4214.871692,4205.640923,4198.974256,4206.666564,4238.461435,4223.07682,4219.999897,4207.692205,4227.179384,4216.410153,4217.435794,4215.384512
103,0,4218.461435,4212.307589,4222.563999,4212.307589,4199.999897,4218.974256,4243.076819,4232.820409,4223.58964,4216.410153,4235.384512,4225.128102,4226.666563,4223.58964
104,0,4217.435794,4210.769128,4218.974256,4211.281948,4202.051179,4222.563999,4242.051178,4233.33323,4221.538358,4214.358871,4232.820409,4225.128102,4219.999897,4219.487076
105,0,4213.846051,4206.666564,4217.435794,4207.692205,4203.07682,4216.922974,4239.487076,4225.640922,4215.384512,4212.307589,4228.205025,4219.999897,4207.179384,4211.794769
106,0,4205.640923,4203.589641,4214.358871,4203.589641,4198.461436,4210.769128,4236.410153,4217.948615,4213.846051,4209.743487,4223.58964,4214.358871,4197.948615,4208.205025
107,0,4201.025538,4199.487077,4208.205025,4199.999897,4196.922974,4208.717846,4235.384512,4214.871692,4215.384512,4200.512718,4222.563999,4210.256307,4194.871692,4206.153743
108,0,4202.051179,4197.435795,4206.666564,4198.974256,4203.589641,4211.794769,4235.384512,4216.410153,4213.33323,4202.564,4227.179384,4211.794769,4196.922974,4204.615282
109,0,4201.025538,4197.948615,4208.717846,4201.025538,4204.615282,4212.82041,4232.820409,4212.82041,4210.769128,4204.102461,4227.692204,4212.82041,4198.974256,4199.487077
110,0,4209.743487,4207.692205,4216.922974,4208.717846,4205.640923,4213.846051,4236.410153,4213.33323,4213.846051,4208.205025,4233.84605,4216.922974,4204.102461,4208.717846
111,0,4210.256307,4206.153743,4214.871692,4208.717846,4204.102461,4207.692205,4233.84605,4212.82041,4211.281948,4207.692205,4232.307589,4215.384512,4204.102461,4213.846051
112,0,4212.307589,4209.743487,4217.435794,4213.33323,4214.358871,4216.410153,4234.358871,4226.153743,4216.410153,4216.410153,4238.461435,4223.07682,4209.230666,4219.487076
113,0,4210.769128,4211.281948,4216.410153,4214.358871,4208.205025,4213.846051,4231.794768,4222.051179,4214.871692,4207.692205,4235.897332,4218.974256,4201.538359,4211.794769
114,0,4223.07682,4218.974256,4225.128102,4220.512717,4208.205025,4214.358871,4235.897332,4217.435794,4214.871692,4213.33323,4240.512717,4223.58964,4206.666564,4221.025538
115,0,4216.922974,4209.230666,4223.58964,4218.461435,4205.640923,4212.307589,4234.358871,4211.281948,4210.769128,4211.794769,4235.384512,4224.102461,4209.230666,4221.025538
116,0,4216.922974,4211.281948,4226.666563,4219.487076,4211.281948,4221.025538,4239.999896,4223.58964,4218.461435,4212.82041,4238.461435,4230.256307,4209.743487,4223.58964
117,0,4216.410153,4210.769128,4223.07682,4216.410153,4205.640923,4216.410153,4240.512717,4224.102461,4218.461435,4209.230666,4230.256307,4224.615281,4197.948615,4220.512717
118,0,4226.153743,4221.538358,4230.256307,4223.58964,4212.82041,4226.153743,4250.256306,4230.769127,4221.538358,4220.512717,4235.384512,4231.281948,4206.153743,4228.205025
119,0,4227.692204,4224.102461,4233.84605,4224.615281,4218.461435,4229.743486,4251.281947,4231.281948,4219.999897,4219.999897,4243.076819,4233.84605,4211.794769,4225.128102
120,0,4230.769127,4227.692204,4235.897332,4225.128102,4223.58964,4229.743486,4248.205024,4229.743486,4223.07682,4226.153743,4246.153742,4234.871691,4211.281948,4230.769127
121,0,4224.615281,4222.051179,4229.743486,4220.512717,4214.358871,4222.563999,4243.58964,4225.640922,4223.07682,4229.743486,4237.435794,4227.692204,4202.564,4229.743486
122,0,4224.615281,4223.07682,4229.230666,4220.512717,4215.897333,4226.666563,4246.153742,4229.230666,4221.538358,4222.051179,4241.025537,4225.640922,4204.615282,4221.025538
123,0,4225.640922,4222.563999,4227.692204,4223.58964,4222.563999,4229.743486,4244.615281,4227.692204,4217.948615,4214.358871,4243.076819,4226.153743,4211.794769,4218.974256
124,0,4225.128102,4222.051179,4226.153743,4225.128102,4221.538358,4227.179384,4242.051178,4225.128102,4218.461435,4221.538358,4241.025537,4226.153743,4211.794769,4228.717845
125,0,4224.102461,4219.487076,4228.717845,4223.58964,4216.922974,4225.640922,4241.538358,4228.205025,4219.999897,4223.07682,4243.58964,4223.58964,4207.179384,4229.230666
126,0,4225.128102,4221.025538,4229.230666,4225.128102,4216.410153,4223.58964,4241.025537,4227.692204,4218.974256,4212.82041,4242.563999,4220.512717,4204.102461,4222.563999
127,0,4222.563999,4224.615281,4224.102461,4224.615281,4215.384512,4217.948615,4237.435794,4222.051179,4215.897333,4217.435794,4237.948614,4219.999897,4203.07682,4224.615281
128,0,4209.743487,4213.846051,4212.82041,4216.410153,4208.205025,4209.230666,4230.256307,4213.846051,4211.794769,4217.435794,4231.281948,4216.410153,4198.461436,4218.974256
0,0,4212.307589,4214.358871,4217.435794,4221.025538,4209.230666,4216.922974,4236.922973,4222.563999,4216.410153,4217.435794,4235.384512,4223.07682,4202.564,4217.948615
1,0,4211.281948,4213.846051,4221.025538,4221.025538,4203.589641,4216.410153,4238.461435,4223.07682,4214.358871,4209.743487,4232.307589,4221.538358,4197.948615,4212.307589
2,0,4213.33323,4218.461435,4222.051179,4218.461435,4210.769128,4216.410153,4237.948614,4223.07682,4215.897333,4210.769128,4240.512717,4222.563999,4200.512718,4221.025538
3,0,4214.358871,4214.358871,4217.435794,4215.897333,4209.743487,4214.871692,4233.84605,4217.435794,4213.846051,4206.153743,4234.871691,4219.999897,4199.999897,4220.512717
4,0,4228.205025,4223.07682,4228.717845,4228.717845,4215.384512,4229.743486,4245.640922,4227.692204,4221.025538,4216.410153,4233.33323,4227.692204,4201.538359,4226.153743
5,0,4224.102461,4218.461435,4229.230666,4226.153743,4213.846051,4228.205025,4245.128101,4227.179384,4221.025538,4215.384512,4232.820409,4225.128102,4199.487077,4225.128102
6,0,4219.999897,4222.051179,4227.179384,4221.025538,4222.563999,4227.692204,4245.128101,4229.743486,4224.102461,4223.58964,4246.666563,4226.153743,4210.256307,4230.769127
7,0,4210.769128,4215.384512,4217.948615,4216.922974,4215.384512,4221.538358,4242.563999,4224.615281,4218.461435,4220.512717,4242.051178,4220.512717,4202.564,4215.384512
8,0,4217.435794,4215.897333,4222.051179,4223.07682,4215.897333,4225.128102,4246.153742,4227.179384,4219.999897,4222.051179,4235.897332,4224.102461,4198.461436,4216.410153
9,0,4216.410153,4213.846051,4218.974256,4221.538358,4215.897333,4220.512717,4244.10246,4225.640922,4220.512717,4219.487076,4231.794768,4222.051179,4201.538359,4223.58964
10,0,4215.384512,4215.384512,4217.948615,4222.563999,4220.512717,4224.615281,4246.153742,4228.717845,4224.615281,4217.435794,4244.615281,4223.58964,4211.794769,4225.128102
11,0,4212.82041,4213.846051,4217.435794,4223.58964,4214.358871,4222.563999,4241.538358,4225.128102,4223.07682,4210.256307,4246.666563,4221.538358,4205.640923,4215.897333
12,0,4213.846051,4217.435794,4216.922974,4222.563999,4206.153743,4218.974256,4237.948614,4224.102461,4222.563999,4214.871692,4238.461435,4220.512717,4199.487077,4215.897333
13,0,4209.230666,4213.846051,4214.358871,4218.461435,4205.640923,4216.922974,4236.410153,4222.563999,4219.487076,4219.999897,4238.974255,4219.487076,4202.051179,4218.974256
14,0,4210.769128,4210.769128,4216.410153,4216.410153,4215.384512,4222.051179,4239.487076,4221.025538,4219.487076,4221.025538,4246.666563,4224.102461,4210.256307,4222.051179
15,0,4218.461435,4215.384512,4223.58964,4220.512717,4222.563999,4228.205025,4245.640922,4227.692204,4226.153743,4226.153743,4248.205024,4228.205025,4215.897333,4226.666563
16,0,4218.461435,4217.948615,4224.615281,4225.128102,4220.512717,4229.743486,4247.179383,4231.281948,4230.769127,4228.205025,4245.640922,4224.615281,4219.487076,4228.717845
17,0,4219.487076,4221.538358,4225.128102,4227.179384,4224.102461,4232.820409,4245.128101,4232.820409,4230.256307,4235.897332,4249.743486,4226.666563,4225.128102,4232.307589
18,0,4216.922974,4221.025538,4221.538358,4224.615281,4216.922974,4225.128102,4239.487076,4226.666563,4223.58964,4229.230666,4246.666563,4225.640922,4214.871692,4225.128102
19,0,4226.666563,4228.717845,4228.205025,4231.794768,4218.974256,4225.640922,4245.128101,4229.743486,4227.179384,4230.769127,4251.794768,4229.743486,4214.358871,4230.256307
20,0,4228.205025,4224.615281,4227.179384,4230.256307,4222.051179,4226.153743,4244.615281,4229.743486,4227.692204,4233.33323,4251.281947,4226.666563,4221.538358,4232.820409
21,0,4230.769127,4229.230666,4229.743486,4229.743486,4232.820409,4236.922973,4247.692204,4238.461435,4233.33323,4244.10246,4261.538357,4232.820409,4228.205025,4243.076819
22,0,4224.102461,4226.666563,4226.666563,4226.153743,4226.153743,4231.794768,4246.153742,4235.897332,4233.33323,4232.820409,4255.897332,4230.256307,4216.410153,4238.461435
23,0,4230.256307,4231.281948,4232.307589,4232.820409,4225.640922,4233.33323,4249.230665,4241.538358,4235.897332,4230.256307,4253.333229,4234.871691,4224.615281,4238.974255
24,0,4228.205025,4225.640922,4233.84605,4232.820409,4220.512717,4231.281948,4246.153742,4241.025537,4231.794768,4233.33323,4249.743486,4235.384512,4229.230666,4232.820409
25,0,4228.717845,4226.153743,4236.922973,4234.358871,4226.153743,4233.33323,4246.153742,4241.025537,4233.84605,4243.076819,4259.999896,4237.435794,4225.128102,4240.512717
26,0,4218.974256,4215.897333,4226.666563,4226.666563,4219.487076,4219.999897,4242.563999,4230.769127,4228.717845,4230.256307,4252.820409,4227.179384,4213.846051,4231.281948
27,0,4222.051179,4218.461435,4230.256307,4225.640922,4222.563999,4223.07682,4250.256306,4239.487076,4234.358871,4232.820409,4248.717845,4230.769127,4222.563999,4227.692204
28,0,4223.58964,4222.051179,4234.358871,4226.666563,4223.58964,4230.769127,4252.307588,4246.666563,4237.435794,4244.615281,4250.769127,4233.84605,4222.563999,4231.281948
29,0,4226.666563,4225.640922,4232.820409,4230.769127,4224.615281,4235.384512,4250.256306,4244.615281,4235.897332,4239.487076,4256.410152,4234.358871,4216.410153,4234.358871
30,0,4219.999897,4215.384512,4224.615281,4223.07682,4213.846051,4227.179384,4245.640922,4235.384512,4231.281948,4222.051179,4252.307588,4230.256307,4213.33323,4223.58964
31,0,4212.82041,4207.692205,4221.538358,4216.922974,4210.256307,4224.102461,4245.128101,4232.307589,4230.256307,4224.102461,4246.153742,4224.615281,4218.461435,4220.512717
32,0,4210.769128,4205.640923,4219.999897,4218.974256,4213.33323,4226.666563,4244.615281,4234.358871,4229.230666,4226.666563,4243.58964,4217.435794,4218.974256,4221.025538
33,0,4214.358871,4208.205025,4218.974256,4222.563999,4217.948615,4232.307589,4248.205024,4234.358871,4228.717845,4220.512717,4242.563999,4219.487076,4213.846051,4217.948615
34,0,4213.846051,4210.769128,4218.974256,4224.102461,4223.07682,4236.410153,4251.281947,4235.384512,4228.205025,4226.153743,4240.512717,4224.102461,4212.307589,4219.999897
35,0,4203.589641,4206.153743,4213.33323,4216.410153,4214.358871,4223.58964,4242.563999,4226.666563,4225.128102,4221.538358,4234.871691,4214.358871,4207.692205,4212.82041
36,0,4206.153743,4210.769128,4214.358871,4214.871692,4214.358871,4218.974256,4235.384512,4221.025538,4226.153743,4213.846051,4236.410153,4212.82041,4208.205025,4210.256307
37,0,4212.307589,4215.384512,4216.922974,4219.487076,4222.051179,4221.538358,4233.33323,4216.410153,4224.615281,4214.871692,4238.974255,4217.948615,4213.846051,4218.461435
38,0,4226.666563,4229.230666,4227.179384,4230.256307,4232.307589,4228.717845,4241.538358,4225.128102,4230.769127,4231.794768,4254.35887,4230.256307,4229.743486,4243.076819
39,0,4222.563999,4225.640922,4222.051179,4223.58964,4218.974256,4222.051179,4234.871691,4221.025538,4226.666563,4219.999897,4250.256306,4224.615281,4227.179384,4234.871691
40,0,4221.538358,4228.205025,4223.07682,4223.58964,4218.974256,4228.717845,4233.84605,4222.051179,4225.640922,4220.512717,4246.153742,4224.102461,4227.692204,4225.640922
41,0,4217.948615,4225.128102,4222.051179,4224.615281,4217.948615,4226.666563,4234.871691,4216.410153,4223.58964,4221.538358,4240.512717,4220.512717,4224.615281,4223.58964
42,0,4223.07682,4225.128102,4223.07682,4227.692204,4226.153743,4230.769127,4242.563999,4221.025538,4229.230666,4224.102461,4247.692204,4223.58964,4222.051179,4231.794768
43,0,4213.846051,4211.281948,4214.358871,4220.512717,4224.102461,4233.33323,4242.051178,4223.07682,4226.153743,4214.871692,4241.025537,4214.871692,4205.128102,4217.435794
44,0,4213.33323,4211.281948,4218.974256,4221.025538,4225.640922,4238.974255,4246.153742,4234.358871,4232.820409,4223.07682,4241.025537,4215.897333,4207.179384,4215.384512
45,0,4209.230666,4206.666564,4217.435794,4218.974256,4217.435794,4226.153743,4242.563999,4232.307589,4230.769127,4223.07682,4235.897332,4213.846051,4214.871692,4216.410153
46,0,4212.307589,4212.307589,4218.974256,4222.051179,4217.435794,4225.128102,4241.538358,4231.794768,4227.692204,4226.666563,4241.025537,4217.435794,4225.128102,4221.025538
47,0,4210.256307,4213.33323,4217.948615,4219.487076,4208.717846,4224.615281,4236.922973,4226.666563,4223.07682,4228.717845,4239.999896,4214.871692,4220.512717,4214.358871
48,0,4210.256307,4214.358871,4218.461435,4219.999897,4208.717846,4222.563999,4236.410153,4219.487076,4224.102461,4222.563999,4238.461435,4213.33323,4216.410153,4212.82041
49,0,4210.769128,4216.922974,4216.410153,4222.563999,4218.974256,4219.487076,4237.948614,4212.82041,4223.58964,4211.794769,4233.33323,4211.281948,4210.769128,4213.33323
50,0,4213.846051,4220.512717,4214.358871,4224.615281,4228.205025,4226.153743,4237.435794,4211.794769,4222.563999,4213.33323,4230.256307,4211.281948,4210.769128,4213.33323
51,0,4214.871692,4217.435794,4213.33323,4225.128102,4225.640922,4226.666563,4233.84605,4215.384512,4224.615281,4217.435794,4230.256307,4211.281948,4215.897333,4211.281948
52,0,4212.82041,4212.82041,4213.33323,4221.025538,4216.922974,4219.487076,4232.820409,4216.922974,4227.692204,4210.256307,4232.307589,4211.281948,4215.897333,4210.256307
53,0,4213.33323,4214.358871,4215.897333,4220.512717,4215.897333,4221.538358,4236.922973,4222.051179,4226.153743,4211.794769,4239.487076,4215.897333,4215.897333,4220.512717
54,0,4209.743487,4207.179384,4217.435794,4219.999897,4212.82041,4221.538358,4233.84605,4219.999897,4221.025538,4214.358871,4237.435794,4214.871692,4217.435794,4219.999897
55,0,4218.461435,4212.82041,4228.717845,4227.692204,4219.999897,4226.153743,4238.461435,4226.153743,4227.692204,4221.538358,4243.076819,4222.563999,4226.666563,4227.179384
56,0,4215.897333,4215.897333,4223.58964,4223.58964,4214.871692,4221.538358,4238.974255,4225.128102,4226.666563,4215.384512,4237.435794,4220.512717,4222.563999,4224.102461
57,0,4206.666564,4217.948615,4213.33323,4217.948615,4212.307589,4223.58964,4238.974255,4225.640922,4225.640922,4218.461435,4234.871691,4215.897333,4215.897333,4216.922974
58,0,4195.897333,4207.692205,4204.615282,4209.230666,4207.692205,4219.999897,4232.820409,4212.82041,4222.051179,4209.743487,4224.102461,4202.051179,4207.692205,4205.640923
59,0,4207.692205,4211.281948,4211.794769,4211.794769,4217.435794,4223.58964,4238.461435,4214.358871,4222.563999,4210.256307,4229.743486,4209.230666,4215.384512,4217.435794
60,0,4210.769128,4210.256307,4211.794769,4211.794769,4216.922974,4216.410153,4239.487076,4214.358871,4216.922974,4205.640923,4233.84605,4216.922974,4212.82041,4217.435794
61,0,4217.435794,4217.948615,4219.487076,4218.974256,4222.051179,4222.051179,4241.025537,4221.025538,4223.07682,4214.871692,4241.538358,4223.58964,4215.384512,4225.128102
62,0,4216.922974,4216.922974,4224.102461,4219.487076,4213.33323,4217.435794,4235.897332,4221.025538,4228.205025,4218.461435,4235.384512,4218.974256,4218.461435,4230.256307
63,0,4225.128102,4222.563999,4234.358871,4222.051179,4213.846051,4214.871692,4234.871691,4224.615281,4229.743486,4222.051179,4237.435794,4225.128102,4226.666563,4235.384512
64,0,4222.563999,4218.974256,4229.230666,4218.461435,4210.256307,4209.743487,4228.717845,4211.794769,4216.410153,4211.281948,4234.871691,4222.051179,4217.948615,4219.999897
65,0,4220.512717,4219.487076,4224.102461,4222.051179,4210.769128,4212.307589,4228.205025,4202.564,4211.794769,4205.128102,4234.871691,4215.897333,4214.871692,4217.435794
66,0,4218.974256,4215.897333,4224.615281,4223.07682,4208.717846,4210.256307,4227.692204,4202.051179,4212.307589,4204.615282,4232.820409,4210.256307,4211.281948,4218.461435
67,0,4217.948615,4211.794769,4225.640922,4219.487076,4214.358871,4216.410153,4232.307589,4213.846051,4218.461435,4201.538359,4236.410153,4216.410153,4207.179384,4214.358871
68,0,4208.205025,4206.153743,4220.512717,4213.33323,4212.307589,4218.974256,4237.948614,4221.538358,4223.07682,4192.30759,4235.384512,4219.487076,4213.846051,4209.743487
69,0,4205.128102,4203.589641,4218.974256,4214.358871,4209.743487,4221.538358,4242.563999,4223.58964,4227.179384,4205.128102,4230.256307,4214.358871,4223.07682,4208.717846
70,0,4210.769128,4204.615282,4219.487076,4218.461435,4218.461435,4227.692204,4246.666563,4230.769127,4232.307589,4229.743486,4234.358871,4213.846051,4220.512717,4206.666564
71,0,4211.281948,4208.717846,4216.410153,4215.384512,4221.025538,4226.153743,4244.10246,4231.281948,4230.769127,4225.128102,4238.461435,4216.410153,4215.384512,4205.128102
72,0,4218.974256,4222.563999,4223.58964,4222.563999,4219.999897,4228.205025,4245.128101,4235.384512,4232.820409,4221.538358,4244.615281,4224.615281,4222.051179,4222.051179
73,0,4226.153743,4224.102461,4230.256307,4228.717845,4214.871692,4223.58964,4241.025537,4232.820409,4231.281948,4221.538358,4243.58964,4226.666563,4221.025538,4227.692204
74,0,4230.256307,4227.179384,4234.358871,4230.256307,4222.563999,4222.051179,4238.974255,4231.794768,4226.666563,4220.512717,4245.128101,4230.769127,4223.58964,4227.692204
75,0,4221.025538,4221.538358,4226.153743,4225.128102,4219.487076,4216.410153,4233.84605,4217.435794,4217.435794,4205.128102,4241.025537,4223.07682,4224.102461,4221.025538
76,0,4227.179384,4225.640922,4231.794768,4230.256307,4221.538358,4225.640922,4238.461435,4220.512717,4225.128102,4215.384512,4251.281947,4227.179384,4229.743486,4227.179384
77,0,4228.205025,4221.538358,4236.922973,4225.640922,4216.410153,4224.615281,4238.974255,4219.487076,4225.640922,4222.563999,4245.128101,4227.179384,4224.102461,4221.538358
78,0,4232.307589,4224.102461,4243.076819,4226.153743,4222.563999,4226.153743,4244.615281,4221.538358,4224.102461,4222.563999,4243.58964,4230.769127,4222.563999,4226.153743
79,0,4221.538358,4216.410153,4231.281948,4223.07682,4209.743487,4218.974256,4239.999896,4219.487076,4222.051179,4204.102461,4236.922973,4223.07682,4211.281948,4216.922974
80,0,4221.538358,4219.487076,4228.205025,4225.128102,4204.102461,4219.999897,4239.999896,4230.256307,4229.743486,4208.717846,4238.461435,4221.538358,4212.307589,4211.794769
81,0,4219.487076,4218.974256,4228.717845,4222.051179,4210.769128,4216.922974,4239.487076,4228.205025,4227.179384,4214.871692,4241.538358,4218.461435,4218.461435,4208.717846
82,0,4223.58964,4226.153743,4236.410153,4228.205025,4228.717845,4222.563999,4243.58964,4229.743486,4231.794768,4218.974256,4254.35887,4228.717845,4231.794768,4223.58964
83,0,4216.410153,4217.948615,4230.769127,4225.640922,4220.512717,4216.922974,4238.461435,4226.153743,4228.717845,4211.794769,4243.58964,4226.666563,4225.128102,4218.974256
84,0,4216.410153,4216.410153,4225.640922,4224.615281,4214.358871,4214.871692,4237.435794,4223.58964,4225.640922,4213.846051,4238.974255,4221.025538,4219.487076,4210.769128
85,0,4219.487076,4223.07682,4224.615281,4226.153743,4218.974256,4217.948615,4234.871691,4222.051179,4225.640922,4215.897333,4248.717845,4220.512717,4223.07682,4214.871692
86,0,4221.025538,4226.153743,4228.205025,4227.692204,4222.563999,4222.051179,4236.410153,4226.666563,4229.230666,4218.461435,4251.794768,4225.640922,4227.179384,4220.512717
87,0,4222.563999,4224.102461,4229.743486,4230.256307,4223.07682,4217.435794,4239.487076,4230.256307,4229.743486,4225.128102,4248.205024,4226.666563,4224.615281,4218.974256
88,0,4224.102461,4230.769127,4227.179384,4235.384512,4224.615281,4218.461435,4237.948614,4224.615281,4226.666563,4224.102461,4244.615281,4220.512717,4224.102461,4221.025538
89,0,4223.58964,4239.487076,4224.615281,4237.435794,4226.666563,4227.179384,4237.948614,4223.58964,4227.179384,4221.025538,4237.948614,4212.82041,4227.179384,4225.640922
90,0,4219.487076,4231.794768,4223.58964,4232.820409,4224.102461,4225.640922,4237.435794,4222.051179,4226.153743,4217.948615,4235.897332,4207.692205,4227.179384,4220.512717
91,0,4226.153743,4228.717845,4229.230666,4234.871691,4227.692204,4228.717845,4241.025537,4223.07682,4226.153743,4225.128102,4246.153742,4215.897333,4233.33323,4224.102461
92,0,4222.051179,4224.102461,4222.563999,4229.743486,4217.435794,4224.102461,4234.358871,4216.410153,4221.538358,4215.897333,4238.974255,4212.82041,4226.153743,4216.410153
93,0,4225.128102,4230.769127,4227.179384,4231.281948,4217.948615,4220.512717,4233.33323,4222.563999,4224.615281,4216.410153,4244.615281,4217.435794,4228.205025,4220.512717
94,0,4225.640922,4228.205025,4229.230666,4232.307589,4216.410153,4213.846051,4233.84605,4218.974256,4222.051179,4212.307589,4249.230665,4218.974256,4229.230666,4225.128102
95,0,4232.820409,4232.820409,4234.358871,4238.461435,4221.538358,4218.974256,4237.948614,4220.512717,4223.58964,4216.922974,4251.794768,4224.615281,4231.794768,4233.84605
96,0,4230.769127,4228.717845,4233.33323,4235.897332,4217.435794,4215.384512,4232.820409,4220.512717,4224.102461,4218.461435,4244.10246,4221.538358,4227.179384,4227.179384
97,0,4235.897332,4234.358871,4239.999896,4239.487076,4224.615281,4221.025538,4235.897332,4231.281948,4230.256307,4229.743486,4252.307588,4228.717845,4235.897332,4231.794768
98,0,4229.230666,4228.717845,4233.33323,4236.922973,4218.461435,4214.871692,4231.794768,4219.999897,4222.051179,4221.025538,4247.179383,4220.512717,4229.743486,4222.563999
99,0,4228.205025,4227.692204,4229.743486,4234.871691,4217.948615,4216.922974,4231.794768,4215.897333,4221.538358,4215.384512,4244.10246,4212.307589,4217.948615,4216.410153
100,0,4222.563999,4219.999897,4225.128102,4227.692204,4214.358871,4217.435794,4232.820409,4221.025538,4223.07682,4213.846051,4243.076819,4208.205025,4215.384512,4213.846051
101,0,4231.281948,4225.128102,4231.794768,4233.33323,4217.948615,4223.58964,4240.512717,4232.820409,4231.281948,4227.692204,4255.384511,4219.487076,4234.871691,4223.07682
102,0,4231.794768,4223.07682,4232.820409,4235.897332,4213.846051,4219.487076,4236.410153,4230.256307,4231.281948,4230.769127,4253.333229,4222.563999,4237.435794,4221.025538
103,0,4230.256307,4223.58964,4231.794768,4234.871691,4214.358871,4226.666563,4237.435794,4229.743486,4231.794768,4230.769127,4250.769127,4219.999897,4231.794768,4219.999897
104,0,4232.820409,4229.743486,4233.33323,4235.384512,4217.435794,4233.33323,4242.563999,4233.33323,4233.84605,4233.84605,4255.897332,4221.025538,4235.384512,4226.666563
105,0,4238.461435,4232.307589,4236.410153,4237.435794,4219.999897,4229.743486,4239.999896,4230.256307,4232.307589,4227.692204,4261.025537,4225.640922,4242.051178,4233.33323
106,0,4233.84605,4229.230666,4234.358871,4234.871691,4221.538358,4218.461435,4231.794768,4220.512717,4224.615281,4216.922974,4251.794768,4221.538358,4233.84605,4226.153743
107,0,4229.743486,4229.743486,4233.84605,4233.84605,4225.128102,4214.871692,4232.307589,4217.435794,4222.051179,4214.358871,4246.153742,4219.487076,4227.692204,4220.512717
108,0,4239.487076,4234.358871,4241.025537,4234.871691,4227.179384,4223.58964,4240.512717,4227.179384,4226.666563,4219.487076,4257.435793,4230.256307,4236.922973,4234.358871
109,0,4237.435794,4224.102461,4237.948614,4227.692204,4213.33323,4217.435794,4234.358871,4221.025538,4222.051179,4212.82041,4255.897332,4228.717845,4236.410153,4229.230666
110,0,4230.256307,4218.461435,4234.871691,4226.666563,4211.794769,4212.307589,4230.256307,4219.487076,4218.974256,4218.461435,4250.256306,4225.640922,4236.410153,4222.051179
111,0,4217.948615,4209.230666,4225.128102,4219.487076,4209.230666,4211.794769,4229.743486,4217.948615,4217.435794,4212.307589,4239.487076,4218.461435,4227.692204,4219.487076
112,0,4225.128102,4214.871692,4227.179384,4222.563999,4211.281948,4223.58964,4236.922973,4223.58964,4227.179384,4218.461435,4247.692204,4218.974256,4227.692204,4226.666563
113,0,4223.58964,4217.435794,4223.07682,4225.128102,4206.666564,4218.461435,4234.358871,4221.538358,4229.743486,4222.563999,4251.794768,4211.794769,4227.179384,4215.897333
114,0,4221.538358,4222.051179,4222.563999,4226.153743,4216.410153,4216.410153,4234.358871,4228.717845,4231.281948,4224.615281,4253.333229,4216.922974,4231.281948,4214.871692
115,0,4214.871692,4211.281948,4217.948615,4218.974256,4207.692205,4209.743487,4226.153743,4218.974256,4225.640922,4211.794769,4234.871691,4212.82041,4223.58964,4206.666564
116,0,4221.538358,4216.922974,4222.563999,4223.58964,4208.205025,4216.410153,4229.230666,4218.461435,4227.179384,4215.384512,4231.794768,4211.281948,4226.153743,4209.743487
117,0,4216.922974,4215.897333,4218.461435,4221.025538,4210.256307,4214.871692,4229.743486,4217.435794,4221.025538,4211.281948,4236.922973,4209.230666,4224.102461,4207.692205
118,0,4224.615281,4218.461435,4223.07682,4222.051179,4213.846051,4215.897333,4228.205025,4215.384512,4219.487076,4214.358871,4243.58964,4217.948615,4228.205025,4213.846051
119,0,4226.153743,4213.846051,4222.563999,4221.025538,4203.589641,4207.692205,4219.487076,4206.666564,4214.358871,4214.871692,4232.307589,4214.358871,4229.743486,4211.794769
120,0,4223.58964,4215.897333,4222.051179,4221.025538,4205.128102,4206.666564,4221.025538,4209.230666,4216.922974,4212.82041,4234.871691,4213.33323,4232.820409,4214.358871
121,0,4224.615281,4214.871692,4221.025538,4220.512717,4207.179384,4206.153743,4224.102461,4209.230666,4216.410153,4208.717846,4236.922973,4214.871692,4230.769127,4212.307589
122,0,4229.743486,4219.487076,4225.640922,4226.153743,4209.743487,4213.33323,4226.666563,4211.281948,4216.922974,4217.435794,4235.384512,4218.974256,4231.794768,4215.384512
123,0,4226.153743,4216.922974,4225.640922,4225.128102,4212.82041,4215.897333,4226.153743,4213.846051,4216.922974,4217.435794,4236.410153,4220.512717,4228.205025,4220.512717
124,0,4227.692204,4215.384512,4225.640922,4223.07682,4214.358871,4212.307589,4227.692204,4216.922974,4222.563999,4212.307589,4243.58964,4225.640922,4232.820409,4223.07682
125,0,4235.384512,4221.538358,4228.205025,4226.666563,4211.794769,4213.33323,4231.281948,4226.153743,4229.230666,4223.07682,4248.717845,4231.794768,4247.179383,4226.153743
126,0,4229.743486,4216.410153,4223.58964,4223.07682,4208.205025,4217.435794,4229.230666,4227.179384,4226.666563,4225.128102,4239.487076,4226.153743,4239.999896,4218.461435
127,0,4221.538358,4208.717846,4218.974256,4216.922974,4206.666564,4219.999897,4227.692204,4224.615281,4223.07682,4223.07682,4232.307589,4222.051179,4229.230666,4213.846051
128,0,4213.846051,4204.615282,4212.82041,4212.82041,4197.948615,4210.769128,4224.102461,4214.871692,4218.461435,4214.871692,4224.102461,4216.922974,4217.435794,4200.512718
0,0,4218.974256,4215.384512,4217.948615,4219.999897,4207.179384,4212.82041,4227.179384,4217.435794,4224.615281,4216.410153,4233.33323,4219.999897,4218.974256,4201.538359
1,0,4216.922974,4212.307589,4215.897333,4220.512717,4210.256307,4208.717846,4222.563999,4214.358871,4222.051179,4206.153743,4232.820409,4215.897333,4226.153743,4206.153743
2,0,4216.922974,4212.307589,4216.410153,4221.025538,4215.897333,4212.307589,4223.58964,4217.948615,4218.974256,4211.281948,4227.692204,4216.410153,4230.256307,4213.33323
3,0,4209.743487,4206.153743,4210.256307,4213.846051,4208.205025,4208.205025,4219.999897,4209.743487,4214.358871,4207.179384,4214.871692,4208.205025,4217.948615,4199.999897
4,0,4215.897333,4212.82041,4216.410153,4217.948615,4210.769128,4214.358871,4226.153743,4212.307589,4222.051179,4206.153743,4228.717845,4214.358871,4226.153743,4202.051179
5,0,4212.307589,4211.281948,4214.358871,4217.948615,4205.128102,4210.769128,4223.07682,4208.717846,4219.487076,4199.999897,4232.307589,4217.948615,4223.58964,4197.435795
6,0,4217.948615,4217.435794,4215.384512,4221.538358,4209.743487,4215.384512,4224.102461,4213.33323,4220.512717,4208.205025,4227.692204,4224.102461,4218.974256,4200.512718
7,0,4219.999897,4217.948615,4214.871692,4221.538358,4211.281948,4216.410153,4225.128102,4211.794769,4221.025538,4205.640923,4218.461435,4220.512717,4223.07682,4202.051179
8,0,4226.153743,4223.07682,4223.07682,4228.205025,4221.538358,4223.58964,4230.256307,4218.461435,4226.666563,4212.307589,4233.84605,4226.153743,4235.897332,4212.82041
9,0,4223.07682,4216.410153,4222.051179,4224.615281,4217.435794,4213.846051,4221.025538,4215.384512,4222.051179,4218.461435,4238.461435,4225.640922,4230.256307,4211.281948
10,0,4226.153743,4214.358871,4217.948615,4219.999897,4208.717846,4209.743487,4217.435794,4211.794769,4221.025538,4218.974256,4233.84605,4225.640922,4230.769127,4209.230666
11,0,4225.640922,4213.846051,4215.897333,4221.025538,4207.179384,4213.846051,4223.07682,4211.281948,4221.025538,4209.743487,4230.256307,4227.692204,4227.692204,4207.692205
12,0,4224.102461,4215.897333,4221.025538,4224.615281,4219.487076,4219.487076,4228.717845,4216.410153,4224.102461,4213.846051,4230.256307,4231.794768,4223.58964,4210.256307
13,0,4219.487076,4212.307589,4218.974256,4219.999897,4217.435794,4217.435794,4226.153743,4217.435794,4223.58964,4220.512717,4227.179384,4227.179384,4226.153743,4205.640923
14,0,4215.897333,4208.205025,4211.794769,4216.922974,4208.717846,4217.948615,4225.128102,4212.307589,4221.025538,4208.205025,4227.692204,4220.512717,4221.538358,4196.410154
15,0,4220.512717,4210.256307,4212.82041,4221.025538,4215.384512,4223.07682,4230.256307,4215.384512,4222.051179,4207.692205,4226.153743,4225.128102,4218.974256,4200.512718
16,0,4219.487076,4208.717846,4216.410153,4218.461435,4218.974256,4218.974256,4229.230666,4215.897333,4223.07682,4215.897333,4214.358871,4227.692204,4222.051179,4202.051179
17,0,4225.640922,4217.435794,4225.128102,4223.58964,4224.102461,4222.051179,4232.307589,4221.025538,4225.128102,4223.07682,4224.102461,4229.743486,4228.205025,4205.640923
18,0,4227.179384,4217.435794,4222.563999,4227.179384,4220.512717,4221.025538,4230.256307,4222.051179,4221.025538,4212.307589,4230.256307,4231.281948,4224.615281,4205.128102
19,0,4231.794768,4222.563999,4226.153743,4227.692204,4224.615281,4222.051179,4228.205025,4224.102461,4219.487076,4215.384512,4230.769127,4250.769127,4231.794768,4214.871692
20,0,4231.281948,4225.640922,4231.794768,4225.128102,4223.07682,4216.922974,4224.102461,4211.794769,4216.922974,4219.487076,4232.307589,4258.461434,4231.281948,4214.871692
21,0,4240.512717,4240.512717,4243.58964,4234.358871,4229.743486,4223.07682,4229.230666,4211.794769,4221.025538,4222.051179,4243.076819,4261.025537,4234.871691,4219.487076
22,0,4234.871691,4234.871691,4234.358871,4231.281948,4219.487076,4211.794769,4220.512717,4204.102461,4214.871692,4204.615282,4228.717845,4253.333229,4235.384512,4216.410153
23,0,4235.384512,4230.769127,4230.256307,4228.205025,4219.487076,4209.743487,4217.435794,4206.153743,4217.948615,4213.846051,4234.871691,4261.025537,4241.025537,4228.205025
24,0,4229.743486,4220.512717,4225.128102,4220.512717,4217.435794,4210.769128,4217.948615,4206.153743,4218.974256,4227.179384,4242.563999,4258.974255,4232.307589,4221.025538
25,0,4230.769127,4225.128102,4225.640922,4222.051179,4222.051179,4217.435794,4223.07682,4215.384512,4223.58964,4232.820409,4241.538358,4255.384511,4234.358871,4217.948615
26,0,4222.563999,4222.563999,4218.461435,4224.102461,4218.974256,4211.794769,4221.538358,4217.948615,4222.051179,4220.512717,4230.769127,4246.153742,4230.256307,4213.846051
27,0,4217.948615,4218.974256,4214.358871,4224.615281,4221.025538,4217.435794,4227.179384,4227.179384,4224.615281,4219.487076,4231.794768,4244.10246,4221.538358,4206.153743
28,0,4211.794769,4209.743487,4213.846051,4216.410153,4215.897333,4219.999897,4227.179384,4231.281948,4225.128102,4219.999897,4226.153743,4242.051178,4212.307589,4192.82041
