title:V                                                                               , recorded:07.07.20 13.08.16, sampling:128, subject:B                                                                               , labels:COUNTER INTERPOLATED AF3 F7 F3 FC5 T7 P7 O1 O2 P8 T8 FC6 F4 F8 AF4,, units:emotiv,,,,,,,,,
6,0,4205.640923,4214.871692,4198.974256,4211.281948,4211.281948,4219.487076,4219.999897,4185.128103,4222.051179,4213.846051,4197.435795,4203.589641,4182.05118,4206.666564
7,0,4201.538359,4211.281948,4194.871692,4209.230666,4211.281948,4221.538358,4223.07682,4187.179385,4225.640922,4210.256307,4203.589641,4206.153743,4182.05118,4206.666564
8,0,4205.640923,4212.82041,4194.358872,4214.358871,4216.410153,4223.58964,4224.102461,4189.743487,4228.205025,4214.358871,4211.281948,4205.128102,4184.102462,4209.743487
9,0,4214.871692,4221.538358,4198.974256,4217.948615,4215.384512,4221.025538,4222.563999,4187.692205,4225.640922,4216.922974,4208.717846,4207.692205,4189.743487,4216.922974
10,0,4223.58964,4232.307589,4206.153743,4221.538358,4217.435794,4220.512717,4223.07682,4187.179385,4225.128102,4223.07682,4211.281948,4219.487076,4193.333231,4229.743486
11,0,4227.179384,4234.871691,4206.153743,4224.102461,4216.410153,4219.999897,4218.974256,4184.102462,4226.153743,4220.512717,4215.897333,4221.025538,4191.281949,4235.384512
12,0,4238.974255,4246.153742,4211.794769,4231.794768,4219.999897,4225.128102,4222.563999,4189.743487,4229.743486,4224.615281,4222.563999,4221.538358,4203.589641,4252.307588
13,0,4233.84605,4240.512717,4202.051179,4226.666563,4208.717846,4215.384512,4218.974256,4181.025539,4222.051179,4210.256307,4208.717846,4213.846051,4201.025538,4252.820409
14,0,4237.948614,4245.128101,4202.051179,4227.179384,4209.743487,4212.307589,4215.897333,4177.435795,4221.025538,4204.615282,4212.82041,4218.461435,4202.564,4261.025537
15,0,4241.025537,4244.10246,4202.051179,4225.128102,4204.102461,4207.179384,4211.281948,4168.717847,4216.922974,4198.461436,4214.358871,4215.897333,4202.564,4265.640921
16,0,4253.333229,4249.230665,4209.743487,4230.769127,4209.230666,4215.384512,4219.999897,4176.410154,4223.07682,4207.179384,4219.999897,4227.179384,4211.794769,4283.076818
17,0,4251.281947,4248.205024,4205.128102,4229.230666,4204.615282,4211.794769,4216.922974,4172.820411,4219.487076,4203.589641,4214.871692,4235.384512,4212.307589,4281.538357
18,0,4255.384511,4259.999896,4206.666564,4233.33323,4213.33323,4214.871692,4214.871692,4172.820411,4217.435794,4208.205025,4221.025538,4246.666563,4215.897333,4282.563998
19,0,4249.743486,4252.307588,4202.051179,4231.281948,4208.717846,4206.666564,4209.743487,4164.102462,4209.743487,4195.897333,4216.410153,4239.487076,4205.128102,4276.922972
20,0,4249.743486,4247.692204,4199.999897,4232.820409,4205.128102,4209.230666,4210.769128,4165.128103,4211.794769,4190.256308,4214.358871,4238.461435,4205.640923,4279.999895
21,0,4236.922973,4236.922973,4191.281949,4225.128102,4195.384513,4200.512718,4204.102461,4162.564001,4209.743487,4188.205026,4203.589641,4235.384512,4202.564,4267.179383
22,0,4236.410153,4237.435794,4196.410154,4224.615281,4201.538359,4199.999897,4205.640923,4167.179385,4213.33323,4197.435795,4207.692205,4239.487076,4203.07682,4262.563998
23,0,4233.33323,4230.256307,4197.948615,4221.538358,4200.512718,4197.948615,4204.615282,4162.05118,4208.717846,4193.333231,4208.717846,4235.897332,4198.461436,4254.35887
24,0,4224.102461,4222.563999,4191.794769,4217.435794,4196.922974,4199.487077,4203.589641,4157.435796,4205.640923,4190.256308,4201.538359,4229.230666,4193.846051,4244.615281
25,0,4214.358871,4217.435794,4184.102462,4213.846051,4196.410154,4199.487077,4199.487077,4156.922975,4206.153743,4193.333231,4191.794769,4222.563999,4188.205026,4232.820409
26,0,4215.384512,4222.563999,4190.256308,4218.461435,4203.589641,4203.589641,4202.051179,4159.999898,4213.33323,4197.435795,4199.487077,4229.230666,4195.384513,4229.230666
27,0,4217.948615,4225.640922,4197.948615,4225.128102,4211.281948,4209.743487,4209.743487,4165.640924,4220.512717,4205.128102,4213.846051,4238.974255,4204.102461,4233.84605
28,0,4209.230666,4212.82041,4190.256308,4219.999897,4209.743487,4212.307589,4210.256307,4166.153744,4217.948615,4206.666564,4210.256307,4230.256307,4197.948615,4221.538358
29,0,4194.358872,4199.487077,4178.461436,4210.769128,4204.102461,4212.307589,4206.666564,4166.153744,4209.230666,4199.487077,4198.461436,4216.922974,4188.717846,4198.974256
30,0,4186.153744,4194.871692,4175.384513,4209.743487,4201.025538,4206.666564,4205.640923,4163.076821,4205.640923,4187.179385,4189.230667,4213.33323,4181.025539,4185.128103
31,0,4201.538359,4211.281948,4190.256308,4223.58964,4215.897333,4214.871692,4218.974256,4179.999898,4221.025538,4207.692205,4205.640923,4230.769127,4190.769128,4204.615282
32,0,4203.07682,4212.307589,4191.281949,4221.538358,4214.871692,4218.461435,4219.487076,4184.102462,4224.102461,4215.384512,4210.256307,4233.84605,4193.333231,4204.102461
33,0,4202.564,4210.769128,4194.871692,4218.461435,4216.410153,4228.205025,4221.538358,4187.179385,4222.563999,4216.922974,4211.281948,4236.410153,4194.871692,4199.487077
34,0,4198.461436,4204.102461,4191.794769,4215.384512,4209.743487,4222.563999,4218.461435,4183.589641,4218.461435,4208.717846,4202.564,4233.84605,4189.230667,4194.358872
35,0,4206.666564,4217.435794,4196.410154,4224.615281,4219.487076,4224.102461,4222.563999,4191.794769,4224.615281,4221.538358,4212.82041,4243.58964,4200.512718,4205.640923
36,0,4201.025538,4214.358871,4191.794769,4222.051179,4218.974256,4218.974256,4217.948615,4183.589641,4221.538358,4220.512717,4214.871692,4238.974255,4197.435795,4199.487077
37,0,4201.025538,4211.794769,4190.256308,4219.487076,4225.640922,4230.256307,4224.102461,4183.076821,4224.615281,4216.922974,4214.871692,4236.410153,4196.922974,4201.025538
38,0,4187.179385,4201.025538,4177.948616,4211.794769,4217.948615,4226.153743,4224.102461,4177.435795,4219.999897,4201.025538,4199.487077,4223.07682,4189.230667,4189.230667
39,0,4187.179385,4206.666564,4179.487077,4216.410153,4218.974256,4226.153743,4225.640922,4185.128103,4221.025538,4209.230666,4203.07682,4223.07682,4189.743487,4185.128103
40,0,4189.230667,4205.640923,4179.487077,4217.948615,4215.384512,4225.128102,4224.615281,4186.666564,4221.538358,4218.461435,4202.564,4225.128102,4184.615282,4182.564
41,0,4192.30759,4211.794769,4185.128103,4221.025538,4219.999897,4230.256307,4229.230666,4188.717846,4225.128102,4219.487076,4201.025538,4229.743486,4187.692205,4187.692205
42,0,4188.205026,4213.33323,4186.153744,4221.025538,4221.538358,4229.743486,4227.179384,4182.564,4219.487076,4212.82041,4201.538359,4227.179384,4190.769128,4187.179385
43,0,4196.922974,4216.410153,4188.205026,4225.128102,4222.051179,4233.33323,4223.58964,4182.05118,4222.563999,4217.435794,4216.922974,4233.84605,4197.435795,4196.922974
44,0,4210.769128,4227.179384,4195.384513,4232.307589,4225.128102,4233.33323,4225.128102,4192.82041,4229.743486,4223.58964,4227.692204,4244.615281,4207.179384,4212.82041
45,0,4213.33323,4232.307589,4202.051179,4232.820409,4223.58964,4227.692204,4225.640922,4197.435795,4229.743486,4222.051179,4221.025538,4245.640922,4208.205025,4216.922974
46,0,4213.846051,4227.692204,4201.538359,4230.256307,4215.384512,4224.615281,4222.563999,4194.871692,4223.58964,4221.025538,4219.999897,4246.153742,4206.666564,4222.051179
47,0,4216.922974,4230.256307,4195.897333,4230.256307,4206.666564,4215.897333,4214.871692,4182.05118,4214.358871,4204.102461,4217.435794,4242.563999,4204.615282,4226.153743
48,0,4234.871691,4252.307588,4201.538359,4236.410153,4214.358871,4216.922974,4216.922974,4182.05118,4215.384512,4203.589641,4218.974256,4242.051178,4211.281948,4245.640922
49,0,4250.256306,4259.487075,4202.564,4235.897332,4212.82041,4217.435794,4216.410153,4183.076821,4218.974256,4210.256307,4223.58964,4241.025537,4218.974256,4271.794767
50,0,4277.435793,4282.051177,4213.846051,4249.230665,4220.512717,4225.640922,4221.538358,4192.30759,4224.615281,4221.025538,4245.128101,4256.922973,4239.487076,4312.307587
51,0,4284.61528,4293.846049,4211.281948,4251.281947,4215.897333,4214.358871,4213.33323,4178.461436,4212.307589,4203.589641,4239.999896,4256.922973,4236.922973,4324.102458
52,0,4290.256305,4298.974254,4213.846051,4251.281947,4217.948615,4211.281948,4212.82041,4173.333231,4209.230666,4203.589641,4237.948614,4258.461434,4237.948614,4335.384509
53,0,4291.794767,4294.87169,4212.82041,4247.692204,4208.717846,4201.538359,4208.717846,4168.717847,4208.717846,4203.589641,4236.410153,4253.333229,4241.025537,4341.538355
54,0,4306.153741,4306.666561,4222.563999,4255.384511,4210.769128,4202.564,4209.230666,4172.30759,4210.256307,4206.153743,4247.179383,4261.538357,4250.769127,4359.487073
55,0,4305.1281,4302.051177,4222.051179,4255.897332,4207.692205,4201.538359,4204.102461,4167.692206,4204.615282,4201.538359,4246.666563,4264.10246,4249.230665,4357.948611
56,0,4311.794766,4312.307587,4230.256307,4263.076819,4222.051179,4214.871692,4212.307589,4181.538359,4214.871692,4218.974256,4252.820409,4272.820408,4257.435793,4361.538355
57,0,4308.717843,4315.38451,4227.692204,4261.538357,4219.999897,4207.692205,4212.307589,4183.076821,4216.922974,4222.563999,4249.743486,4266.666562,4252.307588,4357.435791
58,0,4301.538356,4308.205023,4221.025538,4256.410152,4214.871692,4202.564,4211.281948,4181.025539,4215.897333,4216.922974,4248.717845,4261.538357,4247.179383,4350.769124
59,0,4286.666562,4293.333228,4213.33323,4250.256306,4214.871692,4207.692205,4212.82041,4179.487077,4213.33323,4207.692205,4243.076819,4257.435793,4242.051178,4335.384509
60,0,4282.051177,4289.230664,4215.897333,4250.769127,4222.563999,4221.538358,4219.487076,4188.205026,4215.897333,4212.307589,4245.128101,4259.999896,4238.974255,4326.666561
61,0,4275.897331,4273.333229,4216.922974,4247.692204,4217.948615,4220.512717,4221.025538,4192.82041,4216.922974,4217.948615,4242.563999,4259.487075,4238.461435,4313.846048
62,0,4263.589639,4256.410152,4211.281948,4242.051178,4213.846051,4214.871692,4218.461435,4189.743487,4217.948615,4215.897333,4235.897332,4252.307588,4235.384512,4293.333228
63,0,4251.281947,4251.794768,4207.692205,4237.948614,4219.487076,4215.897333,4216.922974,4189.743487,4215.384512,4214.871692,4238.974255,4249.230665,4227.692204,4281.025536
64,0,4244.615281,4248.205024,4207.179384,4236.410153,4218.974256,4215.897333,4213.33323,4187.179385,4210.769128,4215.897333,4239.487076,4251.794768,4226.153743,4272.820408
65,0,4245.640922,4245.640922,4210.769128,4241.025537,4221.538358,4216.410153,4215.384512,4187.179385,4213.33323,4220.512717,4236.410153,4250.769127,4232.820409,4267.179383
66,0,4228.717845,4233.33323,4204.102461,4233.84605,4213.33323,4207.179384,4211.794769,4181.538359,4214.358871,4207.692205,4230.256307,4238.974255,4221.025538,4242.563999
67,0,4218.461435,4228.205025,4202.051179,4231.281948,4212.82041,4208.205025,4210.256307,4187.692205,4216.922974,4212.82041,4233.33323,4242.563999,4214.871692,4230.256307
68,0,4210.769128,4216.410153,4195.384513,4230.256307,4214.358871,4209.743487,4208.717846,4190.769128,4214.871692,4219.487076,4223.07682,4239.999896,4213.33323,4224.102461
69,0,4212.307589,4218.461435,4197.948615,4234.358871,4229.230666,4227.692204,4221.538358,4204.102461,4226.666563,4230.256307,4230.256307,4241.538358,4221.025538,4227.179384
70,0,4195.897333,4208.205025,4192.30759,4226.153743,4224.615281,4230.256307,4222.563999,4201.025538,4228.717845,4223.58964,4232.307589,4235.384512,4214.871692,4208.205025
71,0,4191.281949,4206.153743,4192.82041,4224.102461,4224.615281,4231.794768,4223.07682,4200.512718,4227.692204,4230.769127,4232.820409,4236.922973,4213.33323,4204.615282
72,0,4190.769128,4203.07682,4189.230667,4221.538358,4216.922974,4222.563999,4217.948615,4193.846051,4218.974256,4225.640922,4225.128102,4232.820409,4210.256307,4200.512718
73,0,4203.07682,4214.358871,4199.999897,4230.769127,4223.58964,4227.179384,4221.538358,4201.025538,4226.153743,4229.230666,4237.435794,4243.076819,4219.487076,4206.153743
74,0,4194.358872,4204.102461,4199.487077,4226.153743,4221.025538,4219.999897,4214.358871,4195.384513,4224.102461,4225.640922,4232.307589,4236.410153,4212.307589,4196.922974
75,0,4191.281949,4203.07682,4198.461436,4221.538358,4224.615281,4218.461435,4212.307589,4197.948615,4223.07682,4230.256307,4228.717845,4229.743486,4210.256307,4195.384513
76,0,4184.102462,4198.974256,4189.743487,4217.948615,4218.461435,4214.871692,4210.256307,4197.948615,4221.538358,4230.256307,4227.179384,4222.563999,4208.205025,4185.640923
77,0,4183.589641,4198.974256,4190.769128,4222.051179,4221.025538,4223.07682,4218.461435,4203.07682,4226.666563,4234.358871,4231.281948,4225.128102,4209.743487,4186.153744
78,0,4181.025539,4194.871692,4189.230667,4217.435794,4220.512717,4228.205025,4223.07682,4203.07682,4224.102461,4231.281948,4227.692204,4224.102461,4211.281948,4186.153744
79,0,4181.538359,4195.897333,4187.692205,4216.410153,4223.07682,4230.769127,4224.615281,4207.179384,4219.999897,4231.281948,4229.743486,4223.07682,4215.384512,4185.128103
80,0,4177.435795,4193.333231,4185.640923,4218.461435,4222.051179,4228.717845,4222.051179,4207.179384,4217.435794,4229.230666,4227.179384,4221.025538,4210.256307,4181.538359
81,0,4173.846052,4190.256308,4183.076821,4214.871692,4217.948615,4227.179384,4222.051179,4204.615282,4221.025538,4222.051179,4223.58964,4217.435794,4206.666564,4178.974257
82,0,4176.922975,4193.333231,4184.102462,4214.358871,4219.999897,4230.769127,4226.666563,4209.743487,4223.58964,4223.07682,4225.128102,4218.461435,4212.82041,4177.948616
83,0,4177.435795,4192.30759,4185.640923,4215.384512,4221.538358,4233.33323,4226.666563,4209.230666,4221.025538,4223.58964,4221.025538,4219.487076,4210.769128,4173.333231
84,0,4176.410154,4191.281949,4188.205026,4213.846051,4222.051179,4230.256307,4223.58964,4206.153743,4222.051179,4223.07682,4224.615281,4218.974256,4207.692205,4178.974257
85,0,4164.102462,4179.487077,4180.512718,4202.051179,4209.743487,4215.897333,4214.358871,4194.871692,4217.435794,4210.769128,4216.410153,4208.717846,4201.538359,4170.769129
86,0,4169.230667,4182.564,4183.076821,4203.589641,4213.846051,4217.948615,4219.999897,4203.589641,4218.461435,4221.538358,4214.871692,4215.897333,4207.179384,4171.281949
87,0,4170.769129,4183.589641,4183.589641,4203.589641,4215.384512,4217.948615,4217.948615,4207.692205,4217.435794,4226.666563,4217.948615,4217.435794,4205.128102,4170.256308
88,0,4173.333231,4187.179385,4186.666564,4203.589641,4218.974256,4226.666563,4217.435794,4210.256307,4224.102461,4231.281948,4229.743486,4219.999897,4205.128102,4180.512718
89,0,4166.153744,4176.922975,4182.564,4197.948615,4212.307589,4226.666563,4218.461435,4206.666564,4222.051179,4221.538358,4219.999897,4215.384512,4201.025538,4174.871693
90,0,4172.30759,4183.076821,4185.640923,4202.564,4225.128102,4238.461435,4230.256307,4221.538358,4226.666563,4225.128102,4223.58964,4219.999897,4211.794769,4175.384513
91,0,4165.128103,4178.974257,4177.948616,4198.461436,4219.487076,4229.743486,4222.563999,4218.974256,4224.102461,4215.384512,4217.948615,4211.281948,4206.666564,4164.615283
92,0,4173.846052,4186.153744,4186.666564,4205.640923,4218.974256,4224.102461,4217.948615,4213.846051,4225.640922,4221.025538,4218.461435,4215.897333,4209.230666,4172.820411
93,0,4177.948616,4189.230667,4190.256308,4206.153743,4215.897333,4216.922974,4214.871692,4202.051179,4217.948615,4223.07682,4217.435794,4214.871692,4210.256307,4175.897334
94,0,4181.538359,4197.948615,4191.794769,4205.128102,4218.974256,4219.487076,4217.948615,4199.999897,4216.922974,4223.58964,4222.563999,4214.871692,4215.384512,4179.487077
95,0,4182.05118,4196.410154,4191.794769,4203.07682,4214.871692,4213.33323,4212.82041,4198.974256,4216.922974,4217.435794,4221.538358,4215.897333,4216.410153,4182.05118
96,0,4191.794769,4200.512718,4199.999897,4208.205025,4223.07682,4219.487076,4213.846051,4206.153743,4223.07682,4223.07682,4230.256307,4224.615281,4225.640922,4196.922974
97,0,4186.666564,4200.512718,4195.384513,4204.102461,4224.102461,4222.563999,4213.846051,4204.102461,4222.051179,4223.58964,4226.153743,4221.025538,4224.615281,4195.384513
98,0,4180.512718,4201.538359,4189.230667,4199.999897,4223.07682,4221.025538,4215.897333,4203.589641,4223.07682,4219.999897,4219.999897,4217.948615,4222.051179,4184.102462
99,0,4183.076821,4201.025538,4190.256308,4203.589641,4225.128102,4222.563999,4218.974256,4211.281948,4223.58964,4223.58964,4228.717845,4222.051179,4225.640922,4187.179385
100,0,4178.461436,4194.871692,4187.179385,4202.564,4221.538358,4222.563999,4218.974256,4210.769128,4218.461435,4222.051179,4226.153743,4218.974256,4222.563999,4187.692205
101,0,4170.256308,4191.281949,4185.640923,4197.948615,4216.410153,4217.948615,4218.974256,4209.230666,4216.922974,4221.025538,4214.871692,4214.871692,4215.384512,4181.025539
102,0,4168.717847,4185.640923,4183.589641,4193.846051,4209.230666,4213.33323,4215.384512,4206.666564,4216.922974,4210.769128,4205.640923,4209.743487,4205.640923,4172.30759
103,0,4178.461436,4190.769128,4187.692205,4198.974256,4217.435794,4219.487076,4217.948615,4211.794769,4220.512717,4208.205025,4208.205025,4212.307589,4206.153743,4181.025539
104,0,4175.384513,4190.256308,4188.717846,4197.948615,4216.922974,4215.384512,4215.384512,4205.128102,4220.512717,4205.640923,4206.666564,4210.256307,4207.179384,4179.999898
105,0,4184.615282,4203.07682,4195.384513,4202.564,4221.538358,4218.974256,4217.948615,4207.179384,4226.153743,4218.461435,4219.999897,4215.384512,4215.897333,4186.153744
106,0,4187.692205,4204.102461,4193.333231,4200.512718,4217.948615,4213.846051,4212.307589,4203.589641,4218.461435,4209.230666,4217.948615,4212.307589,4212.82041,4186.153744
107,0,4199.487077,4211.794769,4207.179384,4208.205025,4228.717845,4220.512717,4215.384512,4211.281948,4219.999897,4216.410153,4221.538358,4223.58964,4223.07682,4202.564
108,0,4197.948615,4210.256307,4209.743487,4207.179384,4225.128102,4216.922974,4212.82041,4210.769128,4218.461435,4227.179384,4222.051179,4227.692204,4225.640922,4201.025538
109,0,4196.410154,4212.82041,4203.07682,4208.205025,4225.128102,4217.948615,4217.435794,4214.871692,4221.025538,4231.281948,4227.179384,4225.640922,4222.563999,4196.410154
110,0,4181.025539,4198.974256,4187.692205,4198.974256,4216.922974,4215.897333,4218.974256,4206.153743,4216.922974,4210.769128,4209.743487,4210.256307,4209.743487,4183.076821
111,0,4183.589641,4201.025538,4191.281949,4198.974256,4224.102461,4227.179384,4223.07682,4208.205025,4221.025538,4214.871692,4207.692205,4212.82041,4212.82041,4184.615282
112,0,4183.076821,4201.538359,4192.82041,4198.974256,4223.07682,4221.025538,4219.999897,4207.179384,4218.461435,4220.512717,4212.82041,4213.33323,4213.33323,4180.512718
113,0,4184.615282,4201.025538,4197.435795,4199.999897,4223.07682,4221.538358,4225.128102,4214.358871,4225.128102,4223.07682,4224.615281,4217.948615,4219.487076,4186.666564
114,0,4182.05118,4194.358872,4193.846051,4193.846051,4216.922974,4223.58964,4222.563999,4213.846051,4225.128102,4217.948615,4217.948615,4213.33323,4217.948615,4185.128103
115,0,4185.640923,4199.999897,4192.82041,4193.846051,4217.435794,4223.07682,4218.461435,4210.769128,4219.999897,4217.948615,4213.33323,4211.794769,4214.871692,4182.564
116,0,4184.615282,4201.538359,4196.410154,4197.435795,4219.487076,4215.384512,4217.435794,4209.230666,4218.461435,4218.974256,4219.487076,4215.897333,4213.33323,4185.128103
117,0,4186.666564,4202.051179,4200.512718,4200.512718,4223.58964,4217.435794,4218.461435,4209.743487,4222.563999,4219.487076,4225.128102,4218.974256,4218.974256,4190.769128
118,0,4191.281949,4206.666564,4200.512718,4200.512718,4226.666563,4222.051179,4216.922974,4210.256307,4223.58964,4219.999897,4223.07682,4219.999897,4226.666563,4194.358872
119,0,4193.846051,4211.281948,4203.589641,4201.538359,4225.640922,4222.563999,4216.410153,4209.743487,4222.051179,4219.999897,4222.051179,4223.58964,4230.769127,4197.948615
120,0,4197.948615,4213.846051,4206.666564,4205.640923,4229.230666,4227.179384,4221.538358,4213.33323,4223.58964,4228.717845,4228.717845,4226.666563,4233.84605,4203.589641
121,0,4190.256308,4203.589641,4194.871692,4200.512718,4221.538358,4219.999897,4215.384512,4205.640923,4218.974256,4219.999897,4221.025538,4216.410153,4224.102461,4191.794769
122,0,4190.769128,4207.179384,4197.435795,4204.615282,4222.563999,4221.538358,4216.922974,4209.743487,4222.051179,4218.461435,4221.025538,4220.512717,4223.58964,4194.871692
123,0,4191.794769,4210.769128,4201.538359,4205.640923,4223.07682,4224.615281,4218.974256,4212.307589,4224.102461,4219.999897,4222.051179,4219.999897,4223.07682,4196.410154
124,0,4199.999897,4217.435794,4206.666564,4206.666564,4234.358871,4233.84605,4226.153743,4221.025538,4229.230666,4234.871691,4230.256307,4223.58964,4230.256307,4202.051179
125,0,4195.897333,4211.281948,4202.564,4202.051179,4229.230666,4226.153743,4224.102461,4218.974256,4227.692204,4230.769127,4225.128102,4222.051179,4228.205025,4196.922974
126,0,4200.512718,4217.948615,4208.205025,4208.717846,4229.743486,4227.692204,4226.666563,4224.615281,4231.794768,4233.33323,4229.230666,4226.666563,4231.794768,4205.640923
127,0,4193.333231,4210.256307,4203.07682,4203.589641,4222.563999,4218.461435,4216.922974,4213.846051,4225.128102,4223.07682,4219.487076,4219.999897,4223.58964,4195.384513
128,0,4194.871692,4210.256307,4204.615282,4206.153743,4232.820409,4225.640922,4219.999897,4215.384512,4226.666563,4225.128102,4223.07682,4225.128102,4228.717845,4194.358872
0,0,4192.30759,4207.692205,4203.589641,4207.179384,4233.33323,4229.743486,4228.717845,4217.948615,4225.640922,4222.563999,4221.538358,4222.563999,4229.230666,4196.922974
1,0,4203.07682,4221.025538,4209.743487,4212.82041,4237.435794,4232.820409,4234.358871,4228.205025,4232.820409,4233.33323,4227.179384,4227.692204,4235.897332,4211.281948
2,0,4206.153743,4225.128102,4209.743487,4213.33323,4233.33323,4226.153743,4225.640922,4226.666563,4232.820409,4237.435794,4227.692204,4230.256307,4236.922973,4211.794769
3,0,4212.82041,4231.794768,4216.410153,4219.487076,4241.025537,4234.871691,4230.256307,4226.666563,4233.84605,4242.051178,4234.358871,4234.871691,4238.974255,4215.384512
4,0,4212.307589,4229.230666,4219.999897,4214.871692,4240.512717,4236.922973,4234.358871,4225.640922,4231.794768,4238.461435,4234.871691,4238.461435,4237.435794,4217.435794
5,0,4210.256307,4225.128102,4218.974256,4207.179384,4233.84605,4230.256307,4229.743486,4228.205025,4233.33323,4231.281948,4238.974255,4240.512717,4243.58964,4218.974256
6,0,4209.230666,4221.538358,4215.897333,4204.102461,4231.281948,4230.769127,4227.692204,4231.281948,4233.33323,4234.358871,4242.563999,4235.897332,4243.58964,4218.461435
7,0,4209.743487,4221.025538,4215.897333,4205.128102,4234.871691,4236.410153,4231.794768,4232.307589,4233.33323,4238.974255,4236.410153,4237.948614,4236.410153,4215.897333
8,0,4208.717846,4219.999897,4214.871692,4203.07682,4231.281948,4231.794768,4229.743486,4227.692204,4232.307589,4232.820409,4226.666563,4237.948614,4235.384512,4213.33323
9,0,4203.07682,4212.307589,4207.179384,4195.384513,4223.07682,4223.07682,4222.051179,4218.974256,4226.666563,4224.615281,4221.538358,4227.179384,4234.871691,4208.717846
10,0,4211.281948,4215.897333,4214.871692,4200.512718,4231.281948,4229.230666,4223.58964,4227.692204,4227.179384,4237.435794,4235.384512,4235.384512,4239.487076,4219.999897
11,0,4212.307589,4217.435794,4216.922974,4204.102461,4229.230666,4226.153743,4221.025538,4226.666563,4225.640922,4234.871691,4236.410153,4241.538358,4237.435794,4218.461435
12,0,4212.307589,4223.58964,4215.897333,4207.692205,4232.307589,4226.153743,4226.153743,4229.230666,4231.281948,4237.948614,4235.384512,4241.538358,4243.58964,4219.999897
13,0,4205.128102,4218.461435,4207.179384,4199.999897,4229.743486,4224.615281,4226.666563,4226.153743,4229.743486,4236.922973,4228.717845,4229.743486,4241.025537,4212.82041
14,0,4205.640923,4221.538358,4210.769128,4199.487077,4233.84605,4231.794768,4228.205025,4228.205025,4230.769127,4238.461435,4234.358871,4232.820409,4241.025537,4214.871692
15,0,4199.487077,4217.948615,4209.230666,4197.435795,4226.153743,4225.128102,4224.615281,4217.948615,4227.692204,4226.153743,4226.666563,4229.743486,4234.358871,4205.640923
16,0,4213.846051,4230.256307,4216.410153,4206.153743,4237.948614,4232.307589,4232.820409,4225.128102,4231.794768,4235.384512,4229.230666,4234.871691,4241.025537,4212.82041
17,0,4209.743487,4221.538358,4208.717846,4201.538359,4233.33323,4223.58964,4224.615281,4218.461435,4224.102461,4225.640922,4221.538358,4226.666563,4233.84605,4206.666564
18,0,4203.589641,4216.410153,4207.179384,4198.461436,4228.717845,4220.512717,4218.974256,4212.82041,4223.07682,4222.563999,4222.051179,4224.102461,4231.794768,4207.179384
19,0,4204.102461,4214.871692,4210.769128,4197.948615,4224.102461,4218.974256,4218.461435,4210.256307,4223.07682,4225.128102,4222.051179,4223.07682,4233.84605,4208.717846
20,0,4221.025538,4227.692204,4221.025538,4210.256307,4233.33323,4230.256307,4226.666563,4219.999897,4228.205025,4235.384512,4232.820409,4232.820409,4245.640922,4222.051179
21,0,4213.33323,4220.512717,4210.769128,4210.769128,4227.692204,4222.051179,4223.07682,4213.846051,4223.07682,4227.692204,4227.179384,4229.230666,4241.538358,4213.846051
22,0,4205.128102,4211.281948,4205.128102,4203.589641,4223.58964,4215.897333,4221.025538,4208.717846,4219.999897,4223.07682,4223.58964,4223.58964,4237.435794,4206.153743
23,0,4210.256307,4211.281948,4212.307589,4204.102461,4223.07682,4217.948615,4220.512717,4211.794769,4219.999897,4226.666563,4226.666563,4227.179384,4242.051178,4211.794769
24,0,4222.563999,4219.487076,4221.025538,4213.33323,4228.717845,4227.179384,4225.640922,4221.538358,4230.769127,4235.384512,4234.871691,4241.025537,4250.256306,4226.153743
25,0,4223.07682,4218.974256,4219.999897,4211.794769,4228.205025,4227.179384,4227.179384,4226.666563,4232.307589,4234.358871,4238.461435,4243.076819,4250.769127,4228.717845
26,0,4214.358871,4210.769128,4214.871692,4205.640923,4223.07682,4222.563999,4227.179384,4222.051179,4224.102461,4224.615281,4230.769127,4233.84605,4248.205024,4219.999897
27,0,4212.82041,4210.256307,4218.461435,4209.743487,4227.179384,4226.153743,4232.820409,4225.128102,4226.666563,4229.743486,4229.743486,4233.84605,4251.281947,4219.999897
28,0,4209.743487,4210.769128,4217.435794,4211.281948,4229.743486,4226.153743,4230.769127,4223.07682,4229.230666,4227.692204,4228.717845,4230.769127,4245.128101,4213.846051
29,0,4208.717846,4210.769128,4215.384512,4209.743487,4229.743486,4229.743486,4229.230666,4222.563999,4227.179384,4226.153743,4228.717845,4229.230666,4241.538358,4212.82041
30,0,4201.538359,4199.487077,4209.743487,4204.615282,4217.948615,4222.051179,4226.153743,4215.897333,4221.538358,4213.846051,4217.435794,4224.615281,4236.922973,4204.102461
31,0,4211.281948,4206.666564,4217.948615,4211.794769,4226.666563,4223.58964,4229.743486,4219.487076,4226.666563,4217.435794,4225.640922,4230.256307,4242.051178,4210.769128
32,0,4209.743487,4205.640923,4215.897333,4213.846051,4223.07682,4219.487076,4225.128102,4211.281948,4219.999897,4213.33323,4224.615281,4227.692204,4236.410153,4209.743487
33,0,4212.307589,4205.640923,4215.897333,4216.922974,4223.58964,4225.640922,4229.743486,4218.461435,4222.051179,4223.58964,4226.153743,4231.281948,4242.563999,4216.410153
34,0,4209.743487,4202.564,4213.33323,4212.82041,4221.538358,4221.025538,4228.205025,4223.07682,4226.153743,4225.128102,4225.128102,4226.666563,4244.10246,4213.846051
35,0,4222.563999,4214.871692,4223.58964,4222.051179,4236.922973,4226.153743,4231.281948,4227.692204,4232.307589,4230.769127,4238.974255,4234.358871,4252.820409,4225.128102
36,0,4218.461435,4207.179384,4218.461435,4217.948615,4231.794768,4223.58964,4227.179384,4216.410153,4226.153743,4226.153743,4232.307589,4231.281948,4248.717845,4218.974256
37,0,4216.922974,4208.717846,4219.999897,4215.384512,4230.769127,4229.743486,4229.230666,4218.461435,4227.179384,4231.281948,4230.256307,4233.84605,4247.179383,4217.435794
38,0,4214.358871,4209.230666,4218.461435,4215.384512,4227.179384,4223.07682,4224.102461,4211.794769,4221.538358,4224.615281,4226.153743,4230.256307,4238.461435,4215.897333
39,0,4219.999897,4212.82041,4218.461435,4217.435794,4230.256307,4221.538358,4224.615281,4211.794769,4222.051179,4219.999897,4229.743486,4233.33323,4239.487076,4222.051179
40,0,4212.82041,4207.692205,4213.846051,4210.769128,4222.051179,4216.922974,4224.102461,4215.384512,4221.538358,4215.384512,4224.615281,4231.794768,4238.461435,4218.974256
41,0,4212.82041,4208.717846,4215.384512,4212.82041,4223.07682,4217.435794,4227.692204,4220.512717,4224.615281,4218.974256,4223.07682,4230.769127,4238.461435,4221.538358
42,0,4212.307589,4207.179384,4214.871692,4215.897333,4225.128102,4218.461435,4229.230666,4218.974256,4226.666563,4218.974256,4224.102461,4225.640922,4237.435794,4219.487076
43,0,4208.717846,4206.153743,4211.794769,4212.82041,4224.102461,4224.102461,4231.794768,4217.948615,4227.692204,4215.384512,4225.640922,4223.58964,4235.897332,4211.281948
44,0,4207.179384,4205.128102,4211.281948,4212.82041,4223.58964,4226.666563,4233.84605,4221.538358,4224.615281,4216.922974,4227.179384,4228.717845,4235.384512,4211.794769
45,0,4209.230666,4205.128102,4210.769128,4214.358871,4225.640922,4223.07682,4227.179384,4216.922974,4218.974256,4217.435794,4224.102461,4228.205025,4236.410153,4215.384512
46,0,4215.384512,4213.846051,4213.846051,4216.922974,4230.256307,4225.640922,4225.640922,4218.461435,4220.512717,4221.538358,4226.153743,4228.205025,4238.461435,4219.487076
47,0,4211.281948,4210.256307,4210.256307,4213.33323,4224.615281,4223.07682,4227.179384,4214.871692,4218.974256,4210.769128,4223.07682,4225.128102,4232.307589,4212.82041
48,0,4219.999897,4216.922974,4218.461435,4221.538358,4233.33323,4229.743486,4233.84605,4221.538358,4226.153743,4217.948615,4230.769127,4233.33323,4241.025537,4221.025538
49,0,4222.051179,4217.435794,4218.974256,4221.025538,4233.84605,4224.102461,4228.717845,4222.563999,4230.769127,4224.102461,4229.743486,4232.307589,4244.615281,4226.666563
50,0,4222.051179,4218.974256,4218.974256,4218.461435,4232.820409,4223.07682,4228.717845,4226.153743,4231.794768,4231.281948,4233.33323,4233.33323,4247.179383,4234.358871
51,0,4209.743487,4208.717846,4212.82041,4213.846051,4221.025538,4222.051179,4225.640922,4217.435794,4223.07682,4216.410153,4227.692204,4224.102461,4239.487076,4221.025538
52,0,4214.871692,4212.82041,4217.435794,4219.487076,4225.128102,4230.256307,4229.230666,4222.051179,4226.666563,4219.999897,4232.820409,4225.640922,4244.615281,4224.102461
53,0,4209.743487,4204.102461,4209.743487,4211.794769,4218.974256,4221.025538,4225.640922,4213.846051,4224.102461,4219.487076,4224.615281,4219.999897,4242.051178,4220.512717
54,0,4212.307589,4210.256307,4212.82041,4213.846051,4222.563999,4226.666563,4230.769127,4215.897333,4224.615281,4220.512717,4225.640922,4223.07682,4245.640922,4222.051179
55,0,4213.846051,4213.846051,4212.307589,4216.410153,4219.487076,4225.640922,4228.205025,4214.871692,4221.025538,4210.769128,4224.102461,4222.051179,4239.999896,4217.948615
56,0,4217.948615,4214.871692,4209.230666,4216.410153,4223.58964,4223.58964,4227.179384,4217.435794,4223.58964,4215.384512,4228.717845,4224.102461,4240.512717,4224.102461
57,0,4208.717846,4204.102461,4201.538359,4209.743487,4219.487076,4217.435794,4222.563999,4211.281948,4223.07682,4217.948615,4224.615281,4218.461435,4238.461435,4218.974256
58,0,4218.461435,4214.871692,4211.794769,4218.974256,4228.717845,4226.666563,4229.230666,4219.999897,4231.794768,4227.692204,4232.307589,4227.179384,4246.666563,4227.179384
59,0,4229.743486,4224.615281,4221.025538,4228.717845,4234.871691,4228.205025,4233.84605,4227.692204,4232.820409,4230.769127,4240.512717,4235.897332,4251.794768,4239.999896
60,0,4230.769127,4223.07682,4225.128102,4226.666563,4233.33323,4225.640922,4234.871691,4228.717845,4231.281948,4227.179384,4243.076819,4238.461435,4251.794768,4241.025537
61,0,4226.666563,4216.922974,4224.102461,4219.487076,4227.179384,4223.58964,4231.794768,4226.666563,4230.256307,4227.692204,4235.384512,4235.384512,4247.179383,4231.794768
62,0,4225.640922,4218.461435,4221.538358,4218.974256,4225.640922,4226.666563,4229.743486,4227.179384,4234.358871,4232.307589,4230.769127,4234.871691,4247.692204,4228.717845
63,0,4225.128102,4224.615281,4223.07682,4226.153743,4230.769127,4232.307589,4233.33323,4234.871691,4239.487076,4236.922973,4236.410153,4235.897332,4248.205024,4229.743486
64,0,4219.487076,4218.974256,4219.487076,4225.640922,4228.205025,4227.692204,4231.281948,4231.281948,4236.922973,4231.794768,4234.871691,4230.256307,4239.487076,4224.615281
65,0,4225.128102,4219.999897,4221.025538,4224.615281,4228.717845,4228.205025,4231.794768,4231.794768,4233.33323,4231.794768,4237.435794,4231.281948,4245.128101,4233.33323
66,0,4223.58964,4216.410153,4219.999897,4223.58964,4221.025538,4224.102461,4226.666563,4226.153743,4227.692204,4222.051179,4233.84605,4229.230666,4248.205024,4230.769127
67,0,4230.769127,4221.025538,4227.692204,4231.281948,4227.179384,4227.692204,4229.230666,4229.230666,4233.84605,4230.256307,4239.999896,4239.999896,4251.794768,4235.897332
68,0,4228.205025,4218.974256,4223.58964,4226.666563,4225.128102,4223.07682,4226.666563,4225.128102,4231.794768,4226.666563,4235.897332,4234.871691,4243.076819,4232.307589
69,0,4224.615281,4222.051179,4220.512717,4221.025538,4224.102461,4229.743486,4231.794768,4230.769127,4232.820409,4227.179384,4236.410153,4229.743486,4242.563999,4231.281948
70,0,4213.846051,4210.256307,4213.33323,4213.33323,4217.435794,4224.102461,4230.256307,4227.179384,4231.281948,4223.58964,4225.640922,4225.128102,4236.410153,4219.487076
71,0,4221.538358,4217.948615,4218.461435,4223.07682,4235.897332,4233.84605,4239.999896,4235.384512,4236.410153,4231.794768,4232.820409,4233.84605,4241.025537,4228.717845
72,0,4215.384512,4217.948615,4212.307589,4224.102461,4233.33323,4232.820409,4238.974255,4229.230666,4230.256307,4221.538358,4230.769127,4225.128102,4236.410153,4225.128102
73,0,4217.948615,4223.07682,4215.384512,4225.640922,4231.281948,4235.384512,4237.435794,4228.717845,4233.84605,4225.640922,4233.33323,4226.153743,4241.538358,4223.07682
74,0,4220.512717,4221.025538,4215.897333,4224.102461,4230.256307,4231.281948,4235.384512,4227.179384,4234.358871,4231.281948,4231.281948,4226.666563,4243.076819,4223.07682
75,0,4229.230666,4228.205025,4219.487076,4234.358871,4234.871691,4231.281948,4237.948614,4231.281948,4236.922973,4235.897332,4241.025537,4231.281948,4249.230665,4236.410153
76,0,4226.666563,4225.640922,4220.512717,4235.384512,4229.743486,4222.563999,4228.717845,4225.128102,4231.281948,4225.128102,4239.999896,4228.205025,4245.640922,4233.84605
77,0,4227.179384,4225.640922,4221.025538,4229.743486,4233.33323,4226.153743,4225.128102,4224.102461,4229.230666,4217.435794,4237.948614,4230.769127,4244.615281,4230.769127
78,0,4222.563999,4221.025538,4213.846051,4225.128102,4231.281948,4227.179384,4224.615281,4218.974256,4224.615281,4215.384512,4234.358871,4226.153743,4238.461435,4231.794768
79,0,4223.07682,4220.512717,4217.435794,4229.743486,4228.205025,4224.102461,4227.692204,4217.948615,4227.179384,4219.999897,4237.948614,4225.128102,4236.410153,4234.358871
80,0,4226.153743,4222.051179,4224.615281,4232.820409,4231.794768,4227.692204,4234.871691,4227.179384,4233.33323,4224.615281,4238.974255,4230.256307,4239.487076,4230.256307
81,0,4219.487076,4214.871692,4216.922974,4224.615281,4231.281948,4233.33323,4235.384512,4229.230666,4234.358871,4221.538358,4229.743486,4225.640922,4235.384512,4220.512717
82,0,4214.871692,4209.743487,4211.281948,4219.999897,4224.615281,4225.640922,4230.256307,4224.102461,4228.717845,4218.461435,4227.692204,4219.999897,4229.743486,4221.538358
83,0,4217.435794,4210.769128,4210.256307,4220.512717,4216.922974,4214.871692,4226.153743,4214.358871,4223.07682,4210.769128,4229.230666,4217.948615,4231.794768,4223.07682
84,0,4227.179384,4217.435794,4216.922974,4226.153743,4222.563999,4225.128102,4231.281948,4223.07682,4231.281948,4222.051179,4239.999896,4228.717845,4245.640922,4232.307589
85,0,4215.897333,4209.743487,4211.281948,4220.512717,4222.563999,4224.102461,4227.179384,4222.563999,4230.256307,4221.025538,4234.358871,4225.640922,4239.487076,4226.153743
86,0,4214.358871,4215.384512,4207.179384,4224.615281,4230.769127,4225.128102,4227.179384,4221.025538,4225.640922,4223.58964,4232.820409,4220.512717,4236.922973,4224.102461
87,0,4215.897333,4216.410153,4203.07682,4226.666563,4227.179384,4221.538358,4225.128102,4214.358871,4223.07682,4222.051179,4232.820409,4216.410153,4238.461435,4218.974256
88,0,4230.256307,4227.179384,4218.461435,4235.384512,4238.461435,4232.307589,4232.307589,4226.666563,4236.922973,4233.33323,4248.717845,4231.281948,4247.179383,4235.897332
89,0,4228.717845,4224.102461,4219.999897,4234.871691,4238.974255,4227.692204,4230.256307,4227.692204,4235.897332,4228.717845,4242.563999,4231.281948,4242.563999,4239.487076
90,0,4231.794768,4228.717845,4219.999897,4237.435794,4242.051178,4230.769127,4234.358871,4234.358871,4234.871691,4229.230666,4240.512717,4231.794768,4243.58964,4238.461435
91,0,4222.051179,4219.999897,4211.281948,4228.717845,4229.230666,4227.179384,4230.769127,4231.281948,4232.307589,4215.384512,4234.871691,4222.051179,4233.33323,4225.128102
92,0,4220.512717,4222.563999,4213.33323,4230.256307,4227.179384,4230.769127,4232.307589,4230.256307,4236.410153,4212.307589,4240.512717,4222.563999,4234.871691,4231.281948
93,0,4219.487076,4222.563999,4213.846051,4232.307589,4223.58964,4224.102461,4227.692204,4221.538358,4230.256307,4212.307589,4236.410153,4221.538358,4234.871691,4231.794768
94,0,4227.692204,4226.153743,4218.974256,4236.410153,4229.230666,4223.07682,4229.743486,4227.179384,4231.281948,4222.563999,4238.974255,4229.230666,4237.948614,4231.794768
95,0,4223.58964,4222.051179,4216.922974,4231.281948,4225.640922,4221.025538,4230.256307,4230.256307,4232.820409,4223.07682,4237.948614,4226.666563,4237.435794,4228.717845
96,0,4221.538358,4223.58964,4215.897333,4229.230666,4223.07682,4222.563999,4231.794768,4229.230666,4233.84605,4222.051179,4242.051178,4225.128102,4239.487076,4234.871691
97,0,4224.615281,4223.07682,4215.384512,4230.769127,4223.58964,4223.58964,4230.769127,4227.179384,4229.230666,4219.999897,4241.538358,4226.153743,4236.410153,4236.922973
98,0,4231.281948,4227.179384,4217.948615,4236.410153,4228.717845,4230.256307,4231.281948,4230.769127,4231.281948,4225.128102,4240.512717,4228.205025,4238.974255,4235.384512
99,0,4232.820409,4233.33323,4217.435794,4237.435794,4232.307589,4233.84605,4235.897332,4237.948614,4238.974255,4234.871691,4243.076819,4230.769127,4243.076819,4239.487076
100,0,4231.794768,4231.281948,4215.384512,4232.820409,4233.84605,4232.820409,4237.948614,4236.922973,4239.999896,4232.307589,4244.10246,4231.281948,4241.025537,4240.512717
101,0,4233.33323,4229.743486,4220.512717,4235.897332,4240.512717,4238.461435,4240.512717,4241.025537,4239.487076,4234.871691,4249.230665,4236.410153,4245.640922,4243.076819
102,0,4227.179384,4227.692204,4221.025538,4237.948614,4236.922973,4234.871691,4236.922973,4235.897332,4234.871691,4234.358871,4243.076819,4232.820409,4241.538358,4235.897332
103,0,4233.33323,4238.974255,4226.666563,4243.58964,4242.051178,4239.487076,4241.025537,4236.922973,4235.897332,4241.025537,4243.58964,4235.384512,4241.025537,4242.563999
104,0,4232.307589,4236.410153,4222.563999,4241.538358,4237.435794,4236.922973,4237.948614,4232.820409,4234.358871,4235.897332,4242.051178,4234.871691,4239.487076,4242.563999
105,0,4244.10246,4241.025537,4228.205025,4246.153742,4244.10246,4242.563999,4240.512717,4242.563999,4242.563999,4245.128101,4257.948614,4245.640922,4250.256306,4254.35887
106,0,4240.512717,4234.358871,4223.07682,4242.051178,4237.948614,4233.84605,4236.410153,4239.999896,4239.999896,4238.974255,4251.281947,4237.435794,4247.692204,4248.205024
107,0,4235.384512,4231.281948,4220.512717,4243.076819,4235.384512,4232.307589,4236.410153,4237.948614,4239.487076,4231.281948,4240.512717,4230.769127,4247.692204,4238.974255
108,0,4220.512717,4217.435794,4210.769128,4234.871691,4225.640922,4225.640922,4228.717845,4225.640922,4231.281948,4212.307589,4228.205025,4220.512717,4235.384512,4221.538358
109,0,4226.153743,4222.563999,4216.922974,4235.384512,4235.384512,4233.33323,4232.820409,4231.794768,4236.410153,4221.025538,4238.461435,4228.717845,4236.410153,4231.794768
110,0,4226.153743,4223.07682,4218.461435,4235.384512,4230.769127,4229.230666,4231.794768,4233.84605,4236.922973,4225.128102,4236.922973,4229.743486,4233.84605,4235.384512
111,0,4228.205025,4227.692204,4221.538358,4241.538358,4228.205025,4229.743486,4234.358871,4237.948614,4238.461435,4227.692204,4238.974255,4233.33323,4233.84605,4235.384512
112,0,4223.58964,4221.025538,4217.435794,4236.922973,4225.128102,4223.58964,4233.84605,4234.871691,4235.384512,4228.205025,4239.999896,4234.358871,4230.256307,4227.692204
113,0,4226.666563,4223.07682,4219.487076,4235.384512,4229.743486,4224.102461,4235.384512,4239.487076,4238.461435,4234.358871,4243.58964,4237.948614,4235.897332,4227.692204
114,0,4225.640922,4224.102461,4219.487076,4237.948614,4228.205025,4225.640922,4231.281948,4238.461435,4237.435794,4228.205025,4237.948614,4232.820409,4236.922973,4227.692204
115,0,4226.153743,4227.179384,4221.025538,4243.076819,4232.820409,4228.205025,4230.769127,4235.384512,4238.461435,4223.58964,4239.999896,4231.794768,4237.435794,4234.871691
116,0,4231.794768,4226.666563,4225.128102,4245.640922,4237.435794,4228.205025,4233.33323,4235.897332,4237.948614,4225.128102,4244.615281,4237.948614,4238.461435,4238.461435
117,0,4238.974255,4224.102461,4228.717845,4244.10246,4234.871691,4231.281948,4234.871691,4236.922973,4236.410153,4223.58964,4241.025537,4241.538358,4235.897332,4235.897332
118,0,4239.487076,4227.692204,4230.769127,4245.128101,4235.897332,4234.358871,4237.435794,4236.410153,4237.948614,4227.692204,4242.051178,4239.999896,4234.358871,4238.974255
119,0,4235.897332,4232.820409,4232.307589,4248.717845,4238.461435,4232.820409,4238.974255,4231.794768,4236.410153,4229.230666,4244.615281,4239.999896,4236.922973,4241.025537
120,0,4245.128101,4242.563999,4241.025537,4255.897332,4247.179383,4240.512717,4243.076819,4239.487076,4234.358871,4233.84605,4251.281947,4249.743486,4247.692204,4249.230665
121,0,4241.025537,4233.33323,4234.358871,4247.692204,4236.410153,4230.256307,4232.307589,4233.33323,4229.230666,4223.07682,4242.563999,4244.10246,4240.512717,4241.025537
122,0,4236.922973,4230.256307,4229.230666,4242.563999,4231.794768,4217.435794,4224.615281,4228.205025,4232.820409,4224.102461,4239.999896,4242.051178,4236.410153,4240.512717
123,0,4228.717845,4227.179384,4223.07682,4237.948614,4228.205025,4208.205025,4223.58964,4221.538358,4230.769127,4219.487076,4232.820409,4237.948614,4229.743486,4233.33323
124,0,4234.871691,4236.922973,4226.153743,4242.051178,4237.435794,4226.153743,4233.84605,4232.820409,4234.358871,4225.640922,4239.999896,4243.58964,4233.84605,4236.410153
125,0,4230.769127,4231.794768,4224.615281,4241.025537,4233.33323,4227.692204,4229.743486,4229.230666,4229.743486,4217.948615,4233.84605,4235.384512,4230.769127,4226.666563
126,0,4235.897332,4236.410153,4231.281948,4246.666563,4241.025537,4231.281948,4233.84605,4232.820409,4233.84605,4224.615281,4232.307589,4235.897332,4233.84605,4228.717845
127,0,4232.307589,4234.358871,4228.205025,4246.153742,4239.999896,4229.743486,4233.84605,4231.794768,4233.84605,4221.025538,4227.692204,4237.435794,4229.230666,4229.230666
128,0,4238.974255,4240.512717,4232.820409,4249.230665,4245.640922,4237.435794,4239.999896,4236.410153,4235.384512,4225.128102,4237.435794,4249.230665,4235.897332,4243.58964
0,0,4235.384512,4234.358871,4233.33323,4244.10246,4233.33323,4230.769127,4238.461435,4229.743486,4230.256307,4223.58964,4235.384512,4245.128101,4235.897332,4239.487076
1,0,4237.948614,4238.974255,4236.410153,4248.205024,4230.256307,4230.769127,4236.922973,4233.84605,4231.794768,4229.743486,4237.435794,4244.10246,4237.948614,4234.871691
2,0,4235.384512,4238.461435,4229.743486,4248.717845,4233.33323,4227.179384,4230.769127,4230.256307,4229.230666,4225.640922,4233.84605,4242.051178,4232.307589,4231.281948
3,0,4238.974255,4240.512717,4231.281948,4250.256306,4243.58964,4234.358871,4235.384512,4229.230666,4234.871691,4229.743486,4239.487076,4247.692204,4236.410153,4238.974255
4,0,4238.974255,4238.974255,4235.897332,4250.256306,4243.076819,4239.999896,4238.974255,4232.820409,4237.948614,4234.871691,4244.10246,4249.230665,4242.051178,4241.025537
5,0,4238.974255,4241.538358,4235.384512,4250.769127,4239.999896,4236.410153,4233.84605,4235.897332,4235.897332,4229.230666,4246.153742,4248.717845,4241.538358,4240.512717
6,0,4235.384512,4244.10246,4229.743486,4249.230665,4241.025537,4229.743486,4229.743486,4234.871691,4233.84605,4224.102461,4243.076819,4248.205024,4236.922973,4238.974255
7,0,4233.33323,4239.487076,4225.640922,4248.205024,4243.076819,4232.307589,4232.307589,4237.948614,4237.435794,4231.794768,4239.487076,4245.640922,4238.461435,4236.410153
8,0,4237.435794,4238.461435,4229.230666,4248.717845,4243.58964,4238.974255,4235.384512,4248.205024,4242.051178,4243.076819,4244.615281,4245.128101,4246.666563,4243.076819
9,0,4230.769127,4233.84605,4226.666563,4242.563999,4231.794768,4232.307589,4229.743486,4239.487076,4237.435794,4232.307589,4239.999896,4239.487076,4241.538358,4236.410153
10,0,4228.205025,4230.769127,4227.179384,4242.051178,4231.281948,4231.794768,4228.717845,4235.384512,4237.435794,4228.717845,4239.487076,4243.58964,4237.435794,4232.820409
11,0,4229.230666,4225.128102,4225.640922,4240.512717,4230.256307,4230.256307,4227.179384,4234.358871,4236.922973,4225.128102,4242.563999,4242.563999,4233.33323,4231.281948
12,0,4237.948614,4237.948614,4232.307589,4248.717845,4239.487076,4241.025537,4234.358871,4245.640922,4244.615281,4234.871691,4252.307588,4248.205024,4243.076819,4237.948614
13,0,4226.666563,4233.33323,4225.640922,4244.615281,4231.794768,4236.410153,4232.820409,4238.461435,4238.974255,4229.743486,4236.410153,4242.563999,4238.974255,4223.07682
14,0,4231.794768,4235.897332,4228.717845,4244.10246,4233.33323,4232.820409,4235.897332,4236.410153,4235.384512,4232.307589,4235.897332,4245.128101,4238.461435,4228.717845
15,0,4234.358871,4233.84605,4230.256307,4241.538358,4227.179384,4219.999897,4229.743486,4226.666563,4228.205025,4222.051179,4238.974255,4244.10246,4233.33323,4234.871691
16,0,4242.563999,4242.563999,4235.897332,4251.281947,4233.33323,4225.640922,4229.230666,4228.717845,4231.794768,4219.487076,4242.563999,4249.743486,4238.461435,4241.025537
17,0,4234.358871,4233.84605,4227.179384,4247.692204,4227.179384,4222.563999,4224.615281,4227.179384,4228.205025,4213.33323,4227.692204,4240.512717,4232.307589,4228.717845
18,0,4231.794768,4232.820409,4228.205025,4243.58964,4229.743486,4224.615281,4228.717845,4232.820409,4232.307589,4219.487076,4230.769127,4239.487076,4233.33323,4231.794768
19,0,4227.692204,4229.230666,4229.743486,4241.025537,4228.717845,4222.563999,4227.692204,4228.205025,4232.307589,4218.461435,4235.384512,4242.563999,4235.384512,4230.769127
20,0,4235.897332,4238.461435,4238.461435,4251.281947,4237.435794,4231.794768,4232.820409,4233.84605,4235.897332,4229.230666,4243.58964,4253.333229,4243.076819,4235.384512
21,0,4236.410153,4238.461435,4234.871691,4253.333229,4235.897332,4230.256307,4233.33323,4237.435794,4233.84605,4229.230666,4236.922973,4247.179383,4236.922973,4235.384512
22,0,4235.384512,4235.384512,4231.281948,4247.692204,4235.897332,4228.205025,4232.307589,4239.487076,4236.410153,4225.128102,4237.435794,4243.076819,4235.897332,4239.487076
23,0,4231.281948,4230.769127,4230.769127,4243.58964,4234.871691,4225.128102,4232.307589,4238.461435,4235.897332,4226.153743,4245.128101,4247.179383,4239.999896,4239.999896
24,0,4233.84605,4233.84605,4231.794768,4248.205024,4237.435794,4225.640922,4235.384512,4237.948614,4233.84605,4230.769127,4246.666563,4253.84605,4243.076819,4238.974255
25,0,4243.076819,4244.10246,4234.358871,4254.35887,4243.076819,4229.743486,4234.871691,4238.974255,4235.384512,4234.358871,4245.640922,4256.922973,4247.179383,4246.153742
26,0,4245.128101,4246.666563,4235.897332,4252.307588,4237.948614,4228.717845,4230.769127,4234.358871,4236.410153,4231.281948,4243.58964,4255.384511,4246.153742,4248.205024
27,0,4240.512717,4239.487076,4235.897332,4249.230665,4236.410153,4230.769127,4234.871691,4237.435794,4236.922973,4233.84605,4242.563999,4257.948614,4243.58964,4243.58964
28,0,4226.666563,4223.07682,4224.615281,4242.051178,4230.769127,4227.179384,4233.33323,4237.435794,4233.84605,4226.153743,4233.33323,4248.205024,4237.435794,4229.230666
29,0,4230.769127,4226.153743,4224.615281,4242.051178,4234.358871,4230.256307,4234.358871,4245.640922,4237.435794,4230.256307,4236.922973,4245.128101,4243.58964,4234.871691
30,0,4233.84605,4226.666563,4226.153743,4238.974255,4232.307589,4226.666563,4231.794768,4242.563999,4234.871691,4229.743486,4234.871691,4248.717845,4242.563999,4234.871691
31,0,4239.487076,4233.33323,4235.384512,4247.179383,4241.538358,4234.358871,4239.487076,4245.640922,4236.410153,4238.974255,4239.999896,4261.538357,4247.179383,4239.999896
32,0,4227.179384,4224.102461,4228.205025,4243.58964,4231.794768,4226.666563,4235.897332,4236.410153,4227.179384,4226.666563,4230.256307,4248.717845,4238.461435,4228.717845
33,0,4230.256307,4229.743486,4226.666563,4243.076819,4231.794768,4226.153743,4236.410153,4239.487076,4227.692204,4219.999897,4232.307589,4244.10246,4236.410153,4228.717845
34,0,4228.205025,4226.153743,4222.051179,4241.025537,4230.769127,4223.07682,4230.769127,4233.33323,4229.230666,4211.794769,4226.666563,4239.999896,4229.743486,4221.538358
35,0,4234.871691,4231.281948,4227.692204,4249.230665,4238.461435,4229.230666,4232.307589,4232.820409,4233.84605,4223.07682,4231.281948,4244.615281,4236.922973,4230.256307
36,0,4231.281948,4229.230666,4226.153743,4246.666563,4231.281948,4218.974256,4227.179384,4225.128102,4224.102461,4220.512717,4223.58964,4241.538358,4237.948614,4230.769127
37,0,4234.871691,4238.974255,4231.794768,4246.153742,4236.410153,4225.128102,4228.717845,4230.769127,4227.692204,4220.512717,4225.128102,4248.205024,4238.461435,4232.307589
38,0,4234.871691,4237.948614,4229.743486,4245.128101,4237.948614,4231.281948,4227.692204,4234.358871,4230.256307,4219.999897,4227.179384,4248.717845,4233.84605,4226.666563
39,0,4237.435794,4236.922973,4229.743486,4247.179383,4240.512717,4233.33323,4232.307589,4239.999896,4229.230666,4229.743486,4232.820409,4248.205024,4238.974255,4229.743486
40,0,4229.230666,4230.769127,4226.153743,4242.051178,4232.820409,4225.128102,4232.307589,4239.487076,4227.692204,4228.205025,4226.153743,4244.10246,4239.487076,4229.230666
41,0,4232.307589,4234.358871,4229.743486,4243.076819,4234.358871,4230.769127,4233.33323,4239.999896,4235.897332,4225.640922,4227.179384,4247.692204,4241.538358,4231.281948
42,0,4236.410153,4237.948614,4232.307589,4246.153742,4240.512717,4235.897332,4233.84605,4239.999896,4235.384512,4229.230666,4232.307589,4250.256306,4239.999896,4232.820409
43,0,4230.769127,4233.33323,4228.717845,4243.58964,4234.358871,4226.153743,4229.230666,4236.410153,4228.205025,4224.102461,4228.205025,4247.179383,4236.410153,4229.743486
44,0,4234.871691,4235.384512,4229.743486,4242.051178,4229.743486,4222.051179,4228.717845,4237.948614,4230.256307,4220.512717,4225.128102,4249.743486,4242.051178,4234.871691
45,0,4237.435794,4236.922973,4229.743486,4242.563999,4231.794768,4226.153743,4229.230666,4233.84605,4230.256307,4215.384512,4218.974256,4248.717845,4242.563999,4235.384512
46,0,4232.307589,4232.820409,4228.205025,4242.051178,4232.307589,4228.717845,4227.692204,4230.256307,4226.153743,4213.33323,4215.897333,4245.640922,4234.871691,4230.256307
47,0,4218.974256,4217.948615,4217.948615,4233.84605,4219.999897,4221.025538,4222.563999,4226.666563,4223.07682,4206.666564,4212.82041,4235.897332,4227.179384,4217.435794
48,0,4219.999897,4221.538358,4218.974256,4236.410153,4227.692204,4227.692204,4229.743486,4238.461435,4231.281948,4215.384512,4221.025538,4242.563999,4238.974255,4226.666563
49,0,4212.82041,4216.922974,4214.358871,4232.820409,4226.153743,4225.128102,4227.692204,4230.769127,4226.666563,4212.307589,4212.82041,4240.512717,4232.307589,4222.051179
50,0,4216.410153,4218.461435,4215.384512,4235.897332,4226.666563,4228.205025,4230.256307,4233.84605,4230.769127,4222.051179,4217.435794,4241.538358,4230.769127,4220.512717
51,0,4212.307589,4213.846051,4210.769128,4233.33323,4223.58964,4227.179384,4231.281948,4236.410153,4233.33323,4219.999897,4214.871692,4234.358871,4232.307589,4216.922974
52,0,4215.384512,4221.025538,4212.307589,4235.384512,4233.84605,4233.84605,4236.410153,4239.487076,4233.33323,4218.461435,4211.281948,4235.384512,4232.307589,4219.487076
53,0,4204.615282,4213.33323,4202.051179,4228.205025,4225.640922,4223.58964,4227.179384,4225.128102,4223.58964,4206.666564,4195.897333,4225.128102,4216.922974,4203.589641
54,0,4208.205025,4218.461435,4205.128102,4230.256307,4228.205025,4225.640922,4227.692204,4228.205025,4228.717845,4215.384512,4206.153743,4230.256307,4227.179384,4211.794769
55,0,4209.743487,4216.922974,4205.640923,4229.230666,4226.153743,4226.153743,4228.717845,4231.281948,4230.769127,4216.922974,4211.281948,4233.84605,4233.84605,4216.922974
56,0,4217.435794,4224.102461,4211.794769,4233.84605,4228.205025,4229.743486,4231.794768,4236.410153,4232.820409,4221.538358,4214.358871,4236.410153,4232.307589,4218.974256
57,0,4216.922974,4225.640922,4214.871692,4235.384512,4223.07682,4219.487076,4226.153743,4229.230666,4227.179384,4220.512717,4207.692205,4231.794768,4228.205025,4215.897333
58,0,4222.563999,4228.717845,4219.487076,4237.435794,4225.128102,4218.461435,4226.153743,4226.666563,4227.692204,4221.025538,4212.307589,4236.922973,4237.948614,4223.58964
59,0,4221.538358,4224.615281,4216.922974,4234.358871,4219.999897,4222.051179,4226.666563,4231.281948,4228.717845,4220.512717,4216.410153,4239.999896,4238.974255,4222.563999
60,0,4217.948615,4221.538358,4213.33323,4231.794768,4213.846051,4221.538358,4223.07682,4233.84605,4229.230666,4215.384512,4212.82041,4238.974255,4233.84605,4218.974256
61,0,4217.435794,4221.025538,4212.82041,4230.769127,4215.897333,4216.922974,4221.025538,4227.179384,4226.153743,4209.230666,4207.179384,4232.820409,4230.769127,4220.512717
62,0,4214.871692,4215.897333,4206.153743,4228.205025,4219.487076,4216.922974,4223.07682,4219.999897,4223.07682,4205.640923,4203.07682,4228.205025,4228.205025,4217.435794
63,0,4212.82041,4217.948615,4205.640923,4231.794768,4219.487076,4222.563999,4226.153743,4224.102461,4223.07682,4211.281948,4208.205025,4233.84605,4232.820409,4218.461435
64,0,4214.358871,4219.999897,4209.230666,4235.384512,4219.487076,4224.615281,4223.07682,4225.128102,4225.128102,4211.794769,4212.307589,4233.33323,4233.33323,4216.922974
65,0,4222.051179,4225.640922,4212.307589,4236.922973,4230.256307,4230.256307,4227.179384,4234.871691,4233.84605,4221.025538,4217.948615,4232.820409,4231.794768,4219.487076
66,0,4213.33323,4221.538358,4201.538359,4228.205025,4224.102461,4224.615281,4227.179384,4233.84605,4233.33323,4218.461435,4203.589641,4225.640922,4226.153743,4210.769128
67,0,4213.33323,4228.205025,4205.128102,4231.281948,4225.640922,4229.230666,4231.794768,4237.435794,4235.897332,4222.563999,4202.564,4230.769127,4234.871691,4215.897333
68,0,4210.769128,4221.025538,4207.179384,4231.281948,4222.563999,4223.58964,4224.615281,4229.743486,4230.769127,4214.871692,4202.051179,4227.692204,4230.256307,4213.33323
69,0,4218.974256,4224.615281,4207.692205,4234.871691,4228.205025,4225.128102,4223.07682,4226.666563,4227.692204,4218.974256,4206.666564,4230.769127,4227.692204,4214.871692
70,0,4215.384512,4221.538358,4199.487077,4230.769127,4218.974256,4218.461435,4215.897333,4213.33323,4220.512717,4210.256307,4198.974256,4223.07682,4222.563999,4205.128102
71,0,4219.487076,4227.692204,4209.230666,4234.358871,4221.538358,4223.07682,4217.948615,4219.487076,4225.640922,4213.33323,4209.743487,4227.179384,4230.769127,4214.358871
72,0,4210.256307,4217.435794,4205.640923,4226.666563,4215.897333,4216.410153,4215.897333,4216.922974,4221.025538,4211.794769,4205.128102,4223.07682,4228.205025,4208.717846
73,0,4212.307589,4216.410153,4205.640923,4227.179384,4223.58964,4222.051179,4219.999897,4219.487076,4224.615281,4218.974256,4205.128102,4226.666563,4228.205025,4208.717846
74,0,4213.846051,4214.871692,4209.230666,4228.717845,4222.051179,4219.487076,4216.410153,4220.512717,4227.179384,4216.410153,4210.256307,4228.205025,4225.640922,4212.307589
75,0,4221.538358,4221.538358,4217.948615,4232.307589,4222.563999,4219.999897,4216.922974,4227.179384,4232.307589,4220.512717,4218.974256,4236.410153,4232.820409,4222.563999
76,0,4219.999897,4221.538358,4214.358871,4229.743486,4219.487076,4217.435794,4214.871692,4224.615281,4228.717845,4221.025538,4210.769128,4235.897332,4234.358871,4217.948615
77,0,4222.051179,4226.666563,4214.871692,4231.794768,4222.051179,4222.051179,4217.435794,4228.205025,4229.743486,4218.974256,4212.82041,4237.948614,4238.461435,4221.025538
78,0,4229.230666,4229.230666,4220.512717,4233.33323,4223.58964,4223.58964,4218.974256,4232.307589,4232.820409,4218.461435,4218.974256,4241.538358,4243.076819,4233.33323
79,0,4231.281948,4224.615281,4222.051179,4233.33323,4223.07682,4222.051179,4217.948615,4230.256307,4231.794768,4222.051179,4211.794769,4239.999896,4238.461435,4231.794768
80,0,4221.538358,4219.999897,4215.897333,4230.769127,4219.999897,4219.999897,4215.897333,4226.153743,4225.128102,4222.051179,4202.051179,4233.33323,4227.692204,4217.435794
81,0,4213.33323,4218.974256,4210.256307,4228.205025,4215.897333,4215.897333,4211.281948,4218.974256,4219.999897,4212.82041,4197.948615,4226.666563,4222.563999,4210.256307
82,0,4222.563999,4227.179384,4216.922974,4232.307589,4224.615281,4222.563999,4214.871692,4223.58964,4227.179384,4218.461435,4204.102461,4233.33323,4231.794768,4219.999897
83,0,4223.58964,4225.128102,4214.358871,4230.769127,4221.538358,4221.025538,4213.33323,4222.563999,4228.205025,4216.922974,4208.205025,4231.794768,4232.307589,4217.435794
84,0,4224.615281,4228.717845,4213.33323,4230.769127,4221.538358,4219.487076,4211.794769,4226.666563,4226.666563,4217.435794,4214.871692,4229.743486,4234.871691,4220.512717
85,0,4219.487076,4222.051179,4211.794769,4226.666563,4219.487076,4215.897333,4209.230666,4227.179384,4224.615281,4214.871692,4205.640923,4225.128102,4231.281948,4220.512717
86,0,4224.615281,4226.153743,4218.974256,4231.794768,4228.717845,4224.615281,4218.974256,4232.307589,4230.769127,4223.07682,4208.717846,4231.794768,4237.435794,4229.743486
87,0,4218.974256,4219.487076,4210.256307,4227.179384,4221.025538,4216.410153,4213.846051,4219.487076,4222.563999,4209.230666,4204.102461,4221.538358,4230.256307,4217.435794
88,0,4222.563999,4223.07682,4214.358871,4225.640922,4222.563999,4215.897333,4210.769128,4223.58964,4223.07682,4214.871692,4206.666564,4220.512717,4231.281948,4215.897333
89,0,4218.974256,4219.999897,4215.897333,4222.051179,4216.410153,4212.307589,4209.743487,4225.128102,4225.128102,4219.487076,4203.07682,4217.435794,4230.769127,4216.922974
90,0,4227.692204,4230.769127,4218.461435,4229.230666,4223.07682,4222.563999,4219.487076,4233.33323,4235.897332,4223.58964,4217.435794,4224.102461,4241.538358,4232.307589
91,0,4224.102461,4226.666563,4212.82041,4223.07682,4223.07682,4223.58964,4217.435794,4230.769127,4233.33323,4215.897333,4213.846051,4218.974256,4238.974255,4225.640922
92,0,4221.025538,4224.615281,4217.948615,4217.948615,4229.230666,4227.179384,4214.871692,4231.281948,4233.33323,4226.153743,4209.230666,4217.435794,4236.922973,4222.051179
93,0,4213.846051,4221.538358,4216.410153,4214.358871,4222.563999,4219.487076,4210.256307,4224.615281,4230.256307,4227.692204,4206.153743,4212.307589,4233.33323,4219.999897
94,0,4223.07682,4229.743486,4221.025538,4215.897333,4224.102461,4223.58964,4216.922974,4228.205025,4233.84605,4223.58964,4208.717846,4216.922974,4237.435794,4224.615281
95,0,4225.128102,4227.692204,4223.58964,4211.281948,4224.102461,4225.128102,4218.974256,4230.769127,4229.743486,4219.487076,4207.179384,4222.051179,4236.410153,4224.615281
96,0,4225.640922,4227.692204,4225.128102,4211.281948,4226.666563,4227.179384,4219.487076,4229.230666,4226.666563,4223.07682,4209.230666,4224.102461,4236.922973,4227.179384
97,0,4226.153743,4230.769127,4222.563999,4209.743487,4227.179384,4227.179384,4217.948615,4226.666563,4229.230666,4221.025538,4208.205025,4218.461435,4236.410153,4223.58964
98,0,4225.128102,4232.307589,4217.948615,4205.128102,4225.640922,4223.07682,4213.33323,4223.07682,4229.230666,4211.281948,4204.102461,4212.82041,4234.358871,4218.461435
99,0,4224.615281,4230.256307,4213.846051,4203.07682,4227.692204,4223.07682,4213.33323,4223.58964,4227.692204,4214.358871,4204.102461,4213.33323,4235.384512,4220.512717
100,0,4222.051179,4223.58964,4209.743487,4196.922974,4224.615281,4223.07682,4212.82041,4221.538358,4228.205025,4219.999897,4204.102461,4209.743487,4233.84605,4217.948615
101,0,4227.692204,4227.692204,4216.410153,4197.948615,4230.256307,4228.205025,4218.974256,4226.666563,4231.281948,4223.58964,4212.307589,4214.358871,4239.487076,4224.102461
102,0,4223.58964,4224.615281,4216.410153,4195.384513,4228.717845,4227.179384,4221.538358,4223.58964,4227.179384,4214.871692,4210.256307,4213.846051,4238.461435,4218.974256
103,0,4226.666563,4230.256307,4222.051179,4198.461436,4231.794768,4233.84605,4226.153743,4233.33323,4233.84605,4228.205025,4214.871692,4221.538358,4245.128101,4226.153743
104,0,4223.07682,4229.230666,4218.974256,4193.846051,4226.153743,4229.743486,4223.58964,4228.717845,4232.820409,4227.692204,4212.82041,4220.512717,4242.563999,4224.102461
105,0,4224.615281,4231.794768,4216.922974,4193.333231,4232.307589,4234.871691,4227.692204,4227.179384,4233.33323,4223.58964,4217.435794,4222.563999,4239.487076,4224.615281
106,0,4212.82041,4219.487076,4210.769128,4185.128103,4224.615281,4227.692204,4222.051179,4221.025538,4229.230666,4210.256307,4209.230666,4213.846051,4231.281948,4212.82041
107,0,4218.974256,4224.615281,4218.974256,4189.743487,4228.205025,4230.769127,4224.102461,4232.307589,4233.33323,4222.563999,4215.897333,4219.999897,4241.538358,4219.999897
108,0,4220.512717,4222.051179,4217.435794,4189.230667,4223.58964,4225.640922,4218.974256,4228.717845,4228.717845,4224.615281,4212.82041,4216.410153,4236.410153,4216.922974
109,0,4228.205025,4228.205025,4221.025538,4192.82041,4228.717845,4230.256307,4221.538358,4228.717845,4230.769127,4228.205025,4215.897333,4217.435794,4234.358871,4219.487076
110,0,4225.128102,4225.640922,4220.512717,4195.384513,4228.205025,4228.205025,4222.051179,4226.153743,4227.179384,4224.102461,4211.794769,4216.410153,4234.358871,4215.897333
111,0,4229.743486,4232.307589,4226.153743,4201.538359,4232.820409,4232.820409,4223.58964,4230.769127,4230.256307,4225.640922,4216.410153,4223.58964,4238.974255,4221.025538
112,0,4230.769127,4234.358871,4223.07682,4196.922974,4227.692204,4229.230666,4217.948615,4228.717845,4232.307589,4223.58964,4216.922974,4224.102461,4234.871691,4224.102461
113,0,4232.307589,4235.897332,4224.102461,4196.922974,4230.769127,4233.84605,4223.07682,4228.717845,4234.358871,4229.743486,4219.999897,4225.128102,4238.974255,4230.256307
114,0,4228.717845,4229.230666,4223.07682,4200.512718,4230.769127,4231.794768,4226.666563,4229.230666,4231.281948,4228.205025,4217.948615,4219.999897,4239.487076,4225.128102
115,0,4232.307589,4230.769127,4223.58964,4201.538359,4227.179384,4224.102461,4219.999897,4230.256307,4233.84605,4219.999897,4217.435794,4219.999897,4239.999896,4223.58964
116,0,4236.410153,4236.922973,4224.615281,4199.999897,4228.205025,4223.07682,4213.846051,4227.179384,4234.358871,4225.128102,4221.538358,4226.666563,4246.666563,4230.256307
117,0,4230.769127,4231.794768,4222.051179,4197.435795,4227.179384,4223.58964,4217.435794,4222.051179,4228.205025,4230.769127,4222.051179,4227.692204,4247.179383,4228.717845
118,0,4227.692204,4227.692204,4218.461435,4198.974256,4223.58964,4220.512717,4221.025538,4226.666563,4225.128102,4221.538358,4214.358871,4222.563999,4242.563999,4227.692204
119,0,4225.640922,4226.666563,4212.307589,4199.999897,4218.461435,4217.435794,4213.33323,4222.563999,4223.07682,4208.717846,4200.512718,4213.846051,4234.358871,4221.025538
120,0,4227.692204,4232.307589,4216.922974,4203.07682,4225.640922,4224.615281,4214.871692,4224.102461,4228.205025,4224.615281,4210.256307,4220.512717,4238.974255,4222.051179
121,0,4217.435794,4221.538358,4210.769128,4192.30759,4218.974256,4217.435794,4214.358871,4219.999897,4224.102461,4218.461435,4209.230666,4214.871692,4236.922973,4212.82041
122,0,4221.538358,4223.58964,4208.205025,4191.281949,4221.538358,4224.102461,4217.948615,4224.102461,4225.128102,4213.846051,4205.640923,4211.794769,4236.922973,4215.384512
123,0,4224.615281,4227.179384,4208.205025,4195.897333,4222.051179,4226.153743,4216.922974,4220.512717,4225.640922,4218.461435,4203.589641,4209.743487,4233.33323,4216.410153
124,0,4236.410153,4243.076819,4222.051179,4207.179384,4236.410153,4231.794768,4225.128102,4230.256307,4233.33323,4235.384512,4218.461435,4222.563999,4244.10246,4231.281948
125,0,4230.769127,4236.410153,4218.974256,4202.564,4230.769127,4228.205025,4222.051179,4227.179384,4226.666563,4221.538358,4209.743487,4219.487076,4238.974255,4226.153743
126,0,4233.84605,4237.435794,4224.102461,4207.692205,4231.281948,4237.948614,4224.615281,4227.692204,4226.666563,4216.410153,4211.794769,4222.563999,4237.435794,4229.743486
127,0,4234.358871,4238.974255,4223.58964,4210.769128,4226.666563,4230.769127,4222.051179,4219.487076,4224.615281,4215.897333,4213.846051,4226.153743,4234.871691,4229.230666
128,0,4241.025537,4247.179383,4222.563999,4211.794769,4231.794768,4228.205025,4223.58964,4220.512717,4225.640922,4223.58964,4217.435794,4231.794768,4243.58964,4235.897332
0,0,4229.743486,4233.33323,4210.256307,4201.025538,4218.974256,4219.999897,4215.897333,4214.871692,4217.435794,4215.897333,4206.153743,4217.435794,4238.461435,4228.717845
1,0,4225.128102,4228.205025,4210.256307,4199.999897,4214.871692,4217.948615,4213.846051,4217.435794,4221.025538,4213.33323,4207.179384,4215.897333,4238.461435,4229.743486
2,0,4227.179384,4229.230666,4214.871692,4205.128102,4221.025538,4215.897333,4215.897333,4225.128102,4226.666563,4213.33323,4213.846051,4222.563999,4239.999896,4230.256307
3,0,4236.922973,4236.410153,4223.07682,4213.33323,4230.769127,4226.666563,4224.102461,4238.974255,4233.84605,4222.563999,4220.512717,4228.205025,4245.128101,4234.871691
4,0,4231.794768,4232.820409,4219.487076,4208.717846,4225.640922,4229.230666,4223.07682,4237.948614,4231.794768,4228.205025,4211.281948,4223.58964,4241.538358,4230.769127
5,0,4224.102461,4223.07682,4209.743487,4200.512718,4219.487076,4223.58964,4217.435794,4227.179384,4227.179384,4224.102461,4201.025538,4219.999897,4235.897332,4221.025538
6,0,4224.102461,4220.512717,4208.717846,4201.538359,4224.615281,4220.512717,4220.512717,4230.256307,4226.153743,4219.487076,4207.692205,4221.025538,4236.410153,4223.58964
7,0,4226.666563,4225.640922,4208.205025,4202.564,4226.153743,4223.58964,4222.051179,4227.692204,4222.563999,4213.33323,4209.230666,4219.487076,4235.384512,4226.153743
8,0,4228.717845,4232.820409,4207.692205,4202.051179,4223.58964,4228.717845,4219.487076,4217.948615,4217.948615,4215.897333,4203.07682,4221.025538,4233.84605,4227.179384
9,0,4221.538358,4226.666563,4203.589641,4201.538359,4217.435794,4219.999897,4213.33323,4206.153743,4208.717846,4208.717846,4195.897333,4213.33323,4224.615281,4219.999897
10,0,4229.743486,4231.794768,4207.692205,4209.230666,4227.692204,4219.487076,4214.358871,4210.256307,4211.281948,4210.256307,4206.153743,4218.461435,4230.769127,4225.640922
11,0,4228.205025,4227.692204,4204.102461,4206.153743,4221.538358,4212.307589,4205.640923,4197.435795,4207.692205,4202.051179,4202.051179,4217.948615,4230.769127,4219.999897
12,0,4230.256307,4231.794768,4207.692205,4208.717846,4222.051179,4213.846051,4204.102461,4193.846051,4207.179384,4209.743487,4206.153743,4221.025538,4234.871691,4225.640922
13,0,4225.128102,4230.769127,4205.640923,4205.640923,4219.999897,4210.256307,4204.102461,4198.974256,4211.281948,4214.871692,4207.692205,4218.974256,4234.871691,4225.640922
14,0,4231.794768,4237.948614,4212.307589,4211.281948,4227.692204,4221.538358,4214.358871,4225.128102,4229.230666,4229.230666,4220.512717,4230.256307,4244.10246,4235.384512
15,0,4222.563999,4226.666563,4207.179384,4205.128102,4219.999897,4218.974256,4213.33323,4233.84605,4230.256307,4219.487076,4210.769128,4225.128102,4234.871691,4226.153743
16,0,4218.461435,4225.128102,4205.640923,4202.564,4222.563999,4219.999897,4216.410153,4241.025537,4232.307589,4214.358871,4201.025538,4220.512717,4229.230666,4218.974256
17,0,4210.769128,4219.487076,4197.948615,4197.435795,4215.897333,4212.307589,4214.358871,4233.84605,4227.692204,4209.743487,4190.769128,4212.307589,4223.58964,4204.615282
18,0,4212.82041,4222.051179,4198.974256,4202.051179,4217.948615,4218.974256,4219.999897,4232.307589,4225.640922,4214.871692,4199.487077,4216.922974,4226.666563,4209.230666
19,0,4209.743487,4218.461435,4194.871692,4200.512718,4215.897333,4221.025538,4221.025538,4223.07682,4218.974256,4207.179384,4196.922974,4215.897333,4221.025538,4207.692205
20,0,4216.410153,4227.692204,4198.461436,4203.07682,4222.563999,4222.563999,4223.58964,4218.974256,4215.897333,4207.179384,4194.871692,4218.974256,4222.563999,4208.205025
21,0,4218.974256,4232.307589,4201.025538,4206.153743,4224.615281,4217.948615,4220.512717,4212.82041,4210.256307,4210.256307,4198.461436,4220.512717,4225.640922,4213.846051
22,0,4224.615281,4232.820409,4204.615282,4212.307589,4228.717845,4223.58964,4220.512717,4207.179384,4211.281948,4212.82041,4207.179384,4226.153743,4230.256307,4225.640922
23,0,4226.666563,4232.307589,4206.153743,4216.922974,4226.666563,4222.563999,4219.487076,4202.051179,4210.256307,4207.692205,4205.640923,4227.692204,4232.820409,4226.153743
24,0,4226.666563,4233.33323,4208.205025,4212.307589,4221.025538,4213.846051,4212.307589,4201.538359,4207.179384,4203.589641,4198.974256,4222.051179,4235.384512,4223.07682
25,0,4230.769127,4238.974255,4212.307589,4210.256307,4225.128102,4214.871692,4212.82041,4215.384512,4218.974256,4216.410153,4204.615282,4224.102461,4238.461435,4230.769127
26,0,4227.179384,4236.922973,4209.230666,4212.307589,4223.07682,4216.410153,4216.410153,4225.640922,4228.205025,4215.897333,4205.640923,4225.128102,4231.281948,4224.615281
27,0,4223.58964,4233.84605,4210.769128,4217.948615,4221.025538,4218.461435,4216.410153,4231.281948,4224.615281,4207.692205,4203.07682,4224.615281,4229.230666,4218.974256
28,0,4215.897333,4219.487076,4204.102461,4210.769128,4211.281948,4210.769128,4210.769128,4221.538358,4215.897333,4196.922974,4191.281949,4214.358871,4224.615281,4210.769128
29,0,4217.948615,4219.487076,4203.07682,4208.717846,4213.846051,4216.410153,4219.487076,4222.563999,4219.999897,4205.640923,4196.410154,4216.922974,4226.666563,4215.384512
30,0,4208.717846,4214.358871,4198.461436,4204.615282,4209.230666,4217.435794,4219.487076,4216.922974,4214.358871,4196.922974,4191.281949,4214.871692,4218.974256,4208.205025
31,0,4219.999897,4224.102461,4209.743487,4214.871692,4220.512717,4227.692204,4223.07682,4222.051179,4215.897333,4202.051179,4195.384513,4223.07682,4226.153743,4219.999897
32,0,4227.692204,4228.205025,4210.769128,4217.435794,4219.999897,4219.487076,4221.538358,4218.974256,4215.384512,4204.615282,4196.922974,4223.58964,4230.256307,4228.717845
33,0,4231.794768,4235.897332,4211.281948,4220.512717,4222.563999,4219.487076,4225.640922,4225.128102,4221.538358,4218.974256,4209.230666,4228.717845,4236.922973,4238.461435
34,0,4219.487076,4224.102461,4201.538359,4213.846051,4214.358871,4213.33323,4218.461435,4217.948615,4217.435794,4214.358871,4203.07682,4218.974256,4231.794768,4227.692204
35,0,4224.615281,4227.179384,4201.025538,4216.410153,4221.025538,4215.384512,4215.897333,4213.846051,4217.948615,4213.33323,4205.128102,4216.922974,4234.871691,4227.179384
36,0,4224.615281,4228.717845,4197.948615,4215.897333,4222.051179,4212.307589,4209.230666,4205.128102,4216.410153,4209.743487,4203.589641,4214.358871,4233.84605,4225.128102
37,0,4227.692204,4233.84605,4202.051179,4221.025538,4226.153743,4216.922974,4212.82041,4210.769128,4221.025538,4213.846051,4205.640923,4219.487076,4237.948614,4231.794768
38,0,4225.128102,4228.717845,4200.512718,4219.487076,4217.948615,4209.743487,4209.230666,4214.358871,4218.974256,4206.666564,4200.512718,4216.410153,4232.307589,4226.666563
39,0,4231.281948,4232.307589,4205.128102,4219.999897,4219.487076,4212.307589,4206.666564,4222.563999,4222.051179,4208.205025,4206.666564,4222.051179,4231.281948,4232.820409
40,0,4232.307589,4232.307589,4206.153743,4219.999897,4223.58964,4219.487076,4213.33323,4229.743486,4223.58964,4219.487076,4210.769128,4225.128102,4235.384512,4242.051178
41,0,4226.153743,4228.205025,4202.051179,4224.102461,4223.07682,4222.051179,4220.512717,4231.794768,4224.102461,4219.999897,4207.179384,4219.487076,4236.922973,4237.435794
42,0,4223.07682,4227.692204,4197.435795,4225.640922,4219.999897,4218.461435,4219.487076,4228.717845,4221.538358,4213.33323,4202.051179,4214.358871,4229.743486,4225.128102
43,0,4222.051179,4224.615281,4197.948615,4221.538358,4220.512717,4218.461435,4219.487076,4224.102461,4221.538358,4210.769128,4200.512718,4214.358871,4223.07682,4221.538358
44,0,4223.07682,4223.58964,4203.589641,4222.051179,4222.051179,4222.563999,4224.102461,4225.128102,4224.102461,4215.897333,4203.589641,4217.948615,4228.205025,4230.256307
45,0,4222.051179,4224.615281,4202.051179,4223.07682,4217.435794,4222.563999,4220.512717,4221.538358,4220.512717,4212.307589,4198.974256,4215.897333,4231.281948,4226.153743
46,0,4225.640922,4232.820409,4202.564,4226.666563,4222.563999,4226.153743,4222.051179,4224.102461,4221.538358,4216.922974,4203.07682,4221.538358,4232.307589,4227.692204
47,0,4216.410153,4224.102461,4195.897333,4223.58964,4218.974256,4217.435794,4220.512717,4217.435794,4219.487076,4208.205025,4199.999897,4214.871692,4222.051179,4223.07682
48,0,4222.051179,4229.743486,4202.051179,4229.743486,4231.281948,4222.563999,4222.563999,4221.538358,4223.58964,4218.461435,4207.179384,4215.897333,4230.769127,4231.794768
49,0,4222.051179,4229.743486,4199.999897,4227.179384,4231.281948,4219.999897,4214.871692,4212.307589,4218.974256,4219.999897,4205.128102,4214.871692,4233.84605,4229.230666
50,0,4226.666563,4236.410153,4202.051179,4229.743486,4233.33323,4226.666563,4217.435794,4214.871692,4224.615281,4222.051179,4206.666564,4218.461435,4234.358871,4232.820409
51,0,4219.487076,4230.256307,4198.974256,4225.640922,4222.563999,4222.051179,4216.922974,4218.974256,4223.58964,4215.384512,4197.948615,4211.281948,4228.717845,4225.128102
52,0,4222.563999,4234.358871,4204.102461,4227.179384,4226.666563,4225.640922,4221.538358,4233.84605,4228.205025,4222.563999,4204.615282,4217.435794,4236.410153,4230.769127
53,0,4214.358871,4222.563999,4199.487077,4219.999897,4217.435794,4215.897333,4216.410153,4231.281948,4225.128102,4214.358871,4198.974256,4213.846051,4229.743486,4224.615281
54,0,4220.512717,4224.102461,4203.07682,4225.128102,4220.512717,4217.435794,4222.051179,4233.33323,4227.692204,4220.512717,4200.512718,4214.871692,4231.281948,4229.230666
55,0,4221.538358,4223.07682,4201.538359,4226.666563,4221.025538,4218.461435,4223.07682,4229.743486,4225.128102,4218.974256,4198.461436,4210.769128,4231.281948,4228.205025
56,0,4223.07682,4225.640922,4204.615282,4228.717845,4224.102461,4225.128102,4225.640922,4233.33323,4227.692204,4218.974256,4204.615282,4216.410153,4234.358871,4230.769127
57,0,4220.512717,4223.07682,4205.128102,4228.717845,4225.128102,4222.051179,4222.563999,4232.820409,4225.128102,4220.512717,4205.640923,4218.461435,4231.281948,4226.666563
58,0,4224.615281,4227.692204,4205.128102,4232.307589,4229.230666,4221.025538,4221.025538,4224.615281,4221.025538,4221.538358,4204.615282,4217.948615,4230.256307,4224.615281
59,0,4223.07682,4227.179384,4201.025538,4229.743486,4225.128102,4218.974256,4218.974256,4212.82041,4215.384512,4210.769128,4196.922974,4212.307589,4228.717845,4222.051179
60,0,4217.948615,4224.615281,4198.461436,4226.153743,4223.07682,4219.487076,4215.897333,4212.82041,4214.871692,4210.256307,4193.846051,4211.281948,4229.743486,4221.538358
61,0,4219.999897,4228.205025,4201.025538,4228.717845,4227.692204,4221.025538,4216.922974,4224.615281,4223.07682,4228.205025,4202.051179,4217.435794,4233.33323,4227.692204
62,0,4222.051179,4227.692204,4204.102461,4231.794768,4226.153743,4221.538358,4218.461435,4229.230666,4230.769127,4231.281948,4205.128102,4216.922974,4234.358871,4230.256307
63,0,4222.563999,4225.128102,4204.615282,4232.820409,4224.615281,4222.563999,4217.435794,4232.820409,4230.769127,4224.615281,4204.615282,4217.435794,4235.384512,4231.281948
64,0,4218.461435,4219.487076,4196.922974,4228.205025,4218.461435,4214.358871,4209.743487,4225.128102,4221.538358,4214.358871,4197.435795,4213.33323,4228.717845,4220.512717
65,0,4227.692204,4229.743486,4206.153743,4234.871691,4228.717845,4221.538358,4218.974256,4230.769127,4224.615281,4227.179384,4208.717846,4222.563999,4236.410153,4229.743486
66,0,4221.538358,4224.102461,4204.615282,4231.281948,4223.07682,4220.512717,4219.999897,4228.205025,4223.58964,4220.512717,4208.205025,4219.487076,4233.33323,4230.256307
67,0,4217.948615,4221.538358,4201.025538,4228.205025,4217.435794,4216.410153,4215.384512,4223.07682,4222.051179,4212.307589,4205.128102,4213.846051,4229.230666,4226.666563
68,0,4213.33323,4218.974256,4195.384513,4227.692204,4210.769128,4205.640923,4210.256307,4213.33323,4214.871692,4204.615282,4194.871692,4204.615282,4221.538358,4213.33323
69,0,4222.051179,4230.256307,4206.666564,4236.922973,4224.615281,4217.948615,4219.487076,4223.07682,4217.435794,4212.82041,4202.564,4213.846051,4226.666563,4224.615281
70,0,4213.33323,4217.948615,4201.025538,4227.692204,4214.358871,4213.33323,4211.794769,4212.307589,4211.794769,4199.999897,4195.897333,4208.717846,4219.999897,4219.999897
71,0,4214.871692,4216.922974,4197.948615,4228.717845,4212.307589,4211.794769,4208.205025,4208.205025,4214.871692,4202.564,4196.922974,4209.743487,4225.128102,4218.461435
72,0,4212.82041,4217.435794,4193.846051,4229.743486,4215.384512,4210.256307,4209.743487,4211.794769,4213.846051,4206.666564,4192.82041,4207.692205,4223.58964,4214.358871
73,0,4221.538358,4225.640922,4203.07682,4232.307589,4224.615281,4218.974256,4217.948615,4225.128102,4218.974256,4216.410153,4202.051179,4211.794769,4225.640922,4224.615281
74,0,4218.461435,4218.461435,4204.102461,4228.205025,4212.82041,4208.205025,4210.769128,4222.051179,4217.948615,4213.846051,4203.589641,4211.794769,4226.153743,4228.717845
75,0,4221.025538,4220.512717,4205.128102,4232.307589,4215.384512,4208.717846,4209.743487,4225.640922,4222.563999,4217.435794,4208.717846,4218.461435,4234.358871,4233.84605
76,0,4226.153743,4227.179384,4204.102461,4235.897332,4221.538358,4216.410153,4212.307589,4228.717845,4225.128102,4220.512717,4212.82041,4220.512717,4235.897332,4231.281948
77,0,4228.717845,4232.307589,4204.615282,4234.871691,4218.461435,4216.922974,4212.307589,4225.128102,4226.153743,4219.487076,4210.256307,4216.922974,4233.33323,4230.256307
78,0,4222.563999,4227.179384,4200.512718,4231.794768,4212.307589,4209.743487,4207.692205,4218.974256,4221.025538,4218.974256,4203.07682,4212.82041,4230.256307,4232.820409
79,0,4218.974256,4223.07682,4197.948615,4230.769127,4216.410153,4213.846051,4206.153743,4216.410153,4217.948615,4219.487076,4205.128102,4215.384512,4234.358871,4233.33323
80,0,4218.974256,4226.666563,4194.871692,4230.769127,4221.538358,4221.538358,4209.230666,4217.948615,4221.025538,4224.615281,4207.179384,4213.33323,4236.410153,4228.717845
81,0,4207.179384,4219.487076,4187.692205,4224.615281,4212.307589,4211.281948,4205.128102,4208.717846,4217.435794,4215.897333,4193.846051,4198.974256,4225.640922,4216.922974
82,0,4205.640923,4219.487076,4190.769128,4226.153743,4211.794769,4209.743487,4204.102461,4207.692205,4211.794769,4212.82041,4196.922974,4201.538359,4228.205025,4219.487076
83,0,4205.128102,4215.897333,4186.153744,4223.07682,4207.692205,4209.230666,4199.487077,4205.128102,4209.743487,4206.666564,4199.999897,4205.128102,4228.717845,4214.871692
84,0,4208.205025,4218.461435,4188.717846,4224.615281,4213.846051,4215.384512,4206.153743,4214.358871,4219.487076,4211.794769,4203.07682,4209.743487,4228.717845,4219.487076
85,0,4203.589641,4212.82041,4189.743487,4221.538358,4212.307589,4212.307589,4206.666564,4213.33323,4216.922974,4206.153743,4194.871692,4202.564,4222.563999,4216.922974
86,0,4215.384512,4222.563999,4196.410154,4228.205025,4219.999897,4220.512717,4209.743487,4218.974256,4221.538358,4215.384512,4203.07682,4209.743487,4232.307589,4226.153743
87,0,4213.846051,4220.512717,4191.794769,4224.102461,4214.871692,4213.846051,4205.640923,4213.33323,4220.512717,4210.769128,4200.512718,4207.179384,4227.692204,4219.999897
88,0,4217.435794,4228.717845,4197.948615,4224.102461,4221.538358,4215.897333,4209.743487,4217.948615,4222.051179,4212.307589,4203.07682,4207.179384,4227.692204,4223.07682
89,0,4211.281948,4223.07682,4193.333231,4221.025538,4213.33323,4207.179384,4202.051179,4208.205025,4214.358871,4202.564,4193.333231,4195.897333,4224.102461,4216.922974
90,0,4214.871692,4223.58964,4192.82041,4228.205025,4212.307589,4206.666564,4201.025538,4203.589641,4216.410153,4206.153743,4194.358872,4196.922974,4223.58964,4217.435794
91,0,4208.717846,4217.948615,4189.230667,4223.07682,4207.179384,4203.07682,4200.512718,4201.025538,4213.33323,4204.615282,4190.256308,4191.794769,4214.358871,4209.743487
92,0,4211.281948,4223.58964,4194.358872,4224.615281,4215.897333,4214.358871,4208.205025,4214.358871,4217.435794,4210.256307,4197.948615,4193.333231,4224.102461,4217.435794
93,0,4209.230666,4220.512717,4193.846051,4224.102461,4217.948615,4216.922974,4210.769128,4216.922974,4216.922974,4208.205025,4197.948615,4193.846051,4227.692204,4215.384512
94,0,4213.33323,4222.051179,4197.948615,4223.58964,4222.563999,4219.487076,4214.871692,4215.384512,4218.461435,4210.256307,4196.410154,4197.435795,4223.58964,4211.794769
95,0,4212.82041,4224.102461,4198.461436,4224.102461,4223.07682,4219.999897,4213.846051,4213.33323,4218.974256,4211.281948,4194.871692,4192.82041,4216.922974,4210.769128
96,0,4211.794769,4226.153743,4196.922974,4227.179384,4223.58964,4220.512717,4211.794769,4216.410153,4218.461435,4208.717846,4200.512718,4193.333231,4217.435794,4213.846051
97,0,4211.281948,4225.640922,4196.410154,4224.102461,4220.512717,4217.435794,4210.769128,4216.410153,4216.922974,4207.692205,4203.589641,4196.410154,4221.538358,4215.897333
98,0,4207.179384,4221.538358,4194.358872,4214.871692,4212.82041,4211.794769,4208.205025,4208.205025,4216.922974,4205.640923,4197.435795,4189.743487,4221.538358,4213.33323
99,0,4211.281948,4224.102461,4199.999897,4214.871692,4215.384512,4213.33323,4211.794769,4212.82041,4217.948615,4213.33323,4206.666564,4191.794769,4225.640922,4218.974256
100,0,4215.897333,4227.692204,4203.07682,4215.897333,4217.435794,4213.846051,4213.33323,4215.384512,4217.948615,4216.410153,4209.743487,4196.410154,4225.128102,4220.512717
101,0,4219.999897,4232.307589,4203.589641,4216.410153,4218.461435,4215.384512,4213.33323,4215.897333,4220.512717,4221.538358,4204.615282,4201.025538,4226.153743,4225.128102
102,0,4206.666564,4219.487076,4194.871692,4208.717846,4208.205025,4204.615282,4205.640923,4206.666564,4213.846051,4209.230666,4193.846051,4192.30759,4216.922974,4214.358871
103,0,4209.230666,4220.512717,4199.487077,4211.281948,4216.410153,4212.82041,4211.281948,4216.922974,4219.487076,4213.33323,4202.564,4194.871692,4220.512717,4216.410153
104,0,4208.205025,4221.025538,4198.461436,4208.717846,4217.435794,4217.435794,4212.307589,4216.922974,4222.563999,4210.769128,4199.487077,4190.256308,4219.487076,4214.358871
105,0,4215.897333,4232.307589,4204.102461,4213.33323,4226.666563,4224.615281,4219.487076,4219.999897,4223.07682,4213.846051,4206.666564,4195.897333,4224.102461,4224.102461
106,0,4210.769128,4229.230666,4199.999897,4209.743487,4221.025538,4214.358871,4215.384512,4212.307589,4214.871692,4208.717846,4204.615282,4191.794769,4217.435794,4217.435794
107,0,4217.948615,4235.897332,4205.128102,4209.230666,4226.666563,4215.897333,4212.82041,4215.897333,4218.974256,4219.487076,4206.666564,4194.871692,4220.512717,4221.025538
108,0,4214.871692,4231.794768,4202.051179,4208.205025,4227.692204,4212.82041,4207.692205,4211.281948,4213.846051,4212.82041,4199.999897,4189.230667,4214.871692,4218.974256
109,0,4214.358871,4236.410153,4205.128102,4213.846051,4235.384512,4220.512717,4215.897333,4215.897333,4214.871692,4211.281948,4206.153743,4190.256308,4214.871692,4222.051179
110,0,4204.102461,4226.153743,4198.974256,4203.07682,4222.563999,4212.82041,4211.281948,4212.307589,4212.82041,4206.153743,4198.461436,4184.615282,4205.640923,4210.256307
111,0,4208.717846,4226.153743,4203.589641,4200.512718,4221.025538,4210.256307,4208.717846,4217.435794,4217.948615,4212.307589,4201.025538,4192.30759,4208.717846,4215.897333
112,0,4216.922974,4231.794768,4211.281948,4206.666564,4228.205025,4213.846051,4213.846051,4223.07682,4222.051179,4217.948615,4207.692205,4200.512718,4214.871692,4225.128102
113,0,4220.512717,4237.948614,4213.846051,4208.205025,4232.307589,4224.615281,4220.512717,4227.179384,4223.07682,4220.512717,4211.794769,4202.564,4216.922974,4229.230666
114,0,4210.769128,4229.230666,4209.230666,4201.025538,4222.563999,4219.999897,4216.922974,4225.128102,4220.512717,4216.922974,4207.179384,4194.358872,4210.256307,4225.640922
115,0,4207.179384,4223.07682,4209.230666,4198.461436,4219.999897,4214.358871,4216.922974,4225.128102,4222.563999,4219.487076,4207.692205,4191.281949,4208.205025,4223.07682
116,0,4208.205025,4224.615281,4208.205025,4199.999897,4225.128102,4217.435794,4218.974256,4226.666563,4223.58964,4222.051179,4211.281948,4195.384513,4209.230666,4222.563999
117,0,4205.128102,4224.102461,4201.538359,4195.897333,4221.538358,4216.922974,4215.384512,4218.974256,4217.948615,4209.743487,4205.640923,4190.769128,4203.589641,4217.435794
118,0,4208.205025,4230.256307,4203.07682,4194.358872,4223.58964,4219.999897,4219.487076,4222.563999,4219.487076,4210.769128,4205.640923,4190.256308,4205.640923,4221.025538
119,0,4202.564,4227.179384,4199.999897,4193.333231,4216.922974,4214.871692,4218.974256,4221.025538,4219.487076,4208.717846,4198.461436,4187.692205,4202.051179,4211.281948
120,0,4207.179384,4231.794768,4201.538359,4200.512718,4223.58964,4220.512717,4219.487076,4223.07682,4219.487076,4213.33323,4199.999897,4192.82041,4202.051179,4209.743487
121,0,4210.256307,4236.410153,4205.128102,4199.999897,4230.769127,4223.58964,4220.512717,4221.538358,4216.410153,4215.897333,4205.128102,4196.922974,4204.102461,4214.871692
122,0,4219.999897,4248.717845,4216.922974,4205.640923,4241.025537,4229.743486,4228.717845,4231.794768,4225.128102,4224.615281,4218.461435,4205.640923,4216.922974,4232.307589
123,0,4209.743487,4234.871691,4208.205025,4201.538359,4225.640922,4217.948615,4218.974256,4219.999897,4222.051179,4213.33323,4205.128102,4193.846051,4205.128102,4218.974256
124,0,4216.922974,4234.358871,4211.281948,4202.051179,4227.179384,4221.538358,4217.435794,4220.512717,4221.025538,4222.051179,4208.717846,4201.538359,4204.615282,4219.999897
125,0,4216.922974,4233.84605,4213.33323,4198.461436,4227.179384,4219.999897,4218.461435,4223.58964,4218.974256,4222.563999,4215.384512,4205.128102,4207.692205,4224.615281
126,0,4219.999897,4238.974255,4215.384512,4205.128102,4233.33323,4224.102461,4224.615281,4233.33323,4227.692204,4225.128102,4223.07682,4209.743487,4211.794769,4231.794768
127,0,4214.358871,4230.769127,4206.153743,4200.512718,4225.640922,4216.410153,4216.410153,4223.07682,4223.07682,4220.512717,4210.256307,4205.640923,4199.999897,4223.07682
128,0,4215.384512,4234.871691,4209.743487,4201.538359,4224.615281,4220.512717,4216.410153,4222.051179,4221.025538,4227.179384,4211.281948,4209.230666,4202.051179,4228.717845
0,0,4207.692205,4226.666563,4207.692205,4198.974256,4216.922974,4214.871692,4213.33323,4221.025538,4218.974256,4218.461435,4208.205025,4202.564,4201.025538,4224.615281
1,0,4212.82041,4228.205025,4209.230666,4201.025538,4223.58964,4218.974256,4215.384512,4219.999897,4222.563999,4217.435794,4209.743487,4207.692205,4202.564,4224.615281
2,0,4216.410153,4233.84605,4215.384512,4203.589641,4227.179384,4219.487076,4217.948615,4215.897333,4221.025538,4224.102461,4214.358871,4215.384512,4203.589641,4228.717845
3,0,4216.922974,4235.897332,4223.07682,4207.179384,4227.692204,4221.025538,4220.512717,4218.461435,4219.999897,4226.153743,4221.538358,4217.435794,4205.640923,4234.871691
4,0,4215.897333,4228.205025,4218.974256,4203.07682,4225.128102,4221.025538,4217.435794,4221.538358,4217.948615,4220.512717,4217.948615,4211.794769,4198.974256,4229.743486
5,0,4215.897333,4226.666563,4210.256307,4197.435795,4224.615281,4220.512717,4214.871692,4222.051179,4218.461435,4217.948615,4210.769128,4208.717846,4195.897333,4221.538358
6,0,4218.974256,4235.384512,4215.384512,4202.564,4227.179384,4222.563999,4221.538358,4229.230666,4223.07682,4224.102461,4216.922974,4213.846051,4203.07682,4227.692204
7,0,4215.384512,4228.205025,4218.974256,4202.051179,4222.051179,4218.974256,4220.512717,4227.179384,4219.487076,4215.897333,4215.384512,4212.307589,4195.897333,4228.205025
8,0,4209.743487,4221.538358,4215.384512,4196.410154,4221.025538,4216.410153,4213.846051,4220.512717,4211.281948,4209.743487,4206.666564,4208.717846,4188.717846,4222.563999
9,0,4201.025538,4218.974256,4201.538359,4190.256308,4215.384512,4207.692205,4207.692205,4209.230666,4207.692205,4201.538359,4195.897333,4201.538359,4184.615282,4210.256307
10,0,4210.769128,4229.230666,4207.692205,4200.512718,4227.692204,4214.871692,4217.435794,4219.999897,4218.461435,4209.230666,4209.230666,4210.769128,4193.846051,4219.999897
11,0,4206.153743,4220.512717,4208.717846,4196.410154,4224.615281,4213.846051,4216.922974,4221.538358,4215.897333,4206.666564,4205.128102,4207.179384,4187.179385,4213.846051
12,0,4203.589641,4216.922974,4204.615282,4190.769128,4219.487076,4213.846051,4214.358871,4221.025538,4214.871692,4212.82041,4202.564,4205.640923,4184.102462,4206.153743
13,0,4196.922974,4209.230666,4194.358872,4185.640923,4208.205025,4201.025538,4205.640923,4206.666564,4208.205025,4202.051179,4197.435795,4199.487077,4181.538359,4196.410154
14,0,4206.153743,4220.512717,4203.07682,4193.846051,4222.051179,4211.281948,4214.871692,4213.846051,4214.358871,4208.717846,4209.743487,4210.256307,4189.230667,4214.358871
15,0,4203.589641,4221.025538,4203.589641,4190.769128,4226.153743,4215.897333,4218.461435,4217.948615,4216.410153,4216.410153,4210.256307,4211.281948,4170.256308,4215.384512
16,0,4207.179384,4228.205025,4206.153743,4194.358872,4229.230666,4218.461435,4220.512717,4224.615281,4221.538358,4225.128102,4212.307589,4213.846051,4194.358872,4213.33323
17,0,4202.051179,4222.051179,4201.538359,4196.922974,4218.974256,4210.769128,4216.410153,4217.435794,4214.871692,4213.846051,4204.615282,4208.717846,4183.076821,4208.205025
18,0,4207.692205,4224.615281,4207.179384,4205.128102,4223.07682,4218.461435,4223.58964,4222.563999,4217.435794,4217.435794,4216.410153,4215.384512,4114.871694,4222.051179
19,0,4205.640923,4218.461435,4202.564,4201.538359,4221.025538,4213.846051,4219.999897,4220.512717,4217.948615,4218.974256,4217.435794,4211.794769,4205.128102,4219.999897
20,0,4201.538359,4214.871692,4198.974256,4197.435795,4222.051179,4212.307589,4216.410153,4217.435794,4217.948615,4215.384512,4208.717846,4207.179384,4474.358865,4213.846051
21,0,4199.487077,4216.410153,4200.512718,4200.512718,4222.563999,4214.358871,4217.948615,4217.948615,4215.897333,4207.692205,4208.205025,4208.717846,4644.102451,4213.846051
22,0,4208.717846,4223.58964,4207.179384,4207.179384,4224.102461,4215.897333,4218.461435,4221.025538,4215.897333,4207.692205,4218.461435,4215.384512,4657.948604,4217.948615
23,0,4212.307589,4225.128102,4208.717846,4208.205025,4222.563999,4212.307589,4215.897333,4219.999897,4213.846051,4215.897333,4217.435794,4215.897333,4659.999886,4221.538358
24,0,4206.666564,4221.538358,4206.666564,4207.692205,4221.025538,4211.794769,4217.435794,4219.487076,4214.871692,4219.999897,4215.384512,4214.871692,4634.358861,4224.102461
25,0,4209.230666,4228.717845,4209.743487,4211.794769,4226.666563,4217.435794,4222.051179,4227.179384,4220.512717,4220.512717,4223.58964,4221.025538,4577.948606,4232.820409
26,0,4212.82041,4231.281948,4208.717846,4212.307589,4224.102461,4214.871692,4219.487076,4223.58964,4217.435794,4214.871692,4216.922974,4219.487076,4535.384504,4228.717845
27,0,4217.435794,4232.820409,4212.82041,4213.846051,4223.58964,4217.948615,4223.07682,4228.205025,4221.025538,4226.153743,4219.999897,4224.102461,4503.076813,4230.256307
28,0,4211.281948,4226.666563,4212.307589,4209.230666,4216.922974,4214.871692,4222.051179,4227.692204,4223.58964,4226.153743,4225.640922,4224.102461,4479.48707,4229.230666
29,0,4223.58964,4237.948614,4223.07682,4218.461435,4231.794768,4221.538358,4224.102461,4236.410153,4229.230666,4237.435794,4236.410153,4232.307589,4470.769121,4242.563999
30,0,4221.025538,4234.358871,4217.948615,4218.974256,4226.666563,4212.307589,4211.794769,4227.692204,4222.051179,4232.820409,4226.153743,4225.640922,4447.179378,4236.410153
31,0,4219.487076,4234.871691,4214.871692,4218.974256,4222.563999,4216.410153,4207.692205,4222.563999,4222.051179,4231.281948,4226.666563,4225.128102,4434.871686,4236.410153
32,0,4214.358871,4230.769127,4212.307589,4214.358871,4218.974256,4217.948615,4206.666564,4214.358871,4214.871692,4224.102461,4224.615281,4219.999897,4420.512712,4232.307589
33,0,4224.615281,4238.461435,4219.999897,4222.051179,4228.717845,4224.615281,4216.922974,4219.487076,4214.871692,4229.743486,4231.281948,4226.153743,4418.46143,4239.487076
34,0,4214.358871,4228.717845,4210.256307,4215.897333,4219.487076,4216.922974,4210.256307,4209.230666,4209.230666,4214.358871,4216.922974,4217.948615,4394.871687,4228.717845
35,0,4212.82041,4230.256307,4209.743487,4215.897333,4221.025538,4218.974256,4208.717846,4208.717846,4209.743487,4210.769128,4214.358871,4217.435794,4383.076816,4227.692204
36,0,4216.922974,4229.743486,4214.358871,4216.922974,4218.461435,4212.82041,4211.281948,4210.256307,4207.692205,4207.179384,4219.487076,4216.922974,4375.897329,4224.615281
37,0,4223.07682,4231.281948,4222.563999,4219.487076,4217.948615,4209.743487,4212.307589,4218.461435,4214.358871,4208.717846,4227.179384,4225.128102,4373.333226,4232.307589
38,0,4213.33323,4225.640922,4215.897333,4214.871692,4210.769128,4202.051179,4198.974256,4215.384512,4213.33323,4208.717846,4220.512717,4222.051179,4360.512714,4230.769127
39,0,4214.871692,4231.794768,4213.846051,4217.435794,4217.948615,4206.153743,4197.435795,4214.358871,4214.358871,4217.948615,4221.025538,4220.512717,4357.948611,4229.743486
40,0,4217.948615,4235.897332,4219.487076,4222.051179,4223.07682,4207.692205,4203.589641,4216.410153,4215.384512,4222.563999,4222.051179,4223.07682,4355.384509,4231.794768
41,0,4216.410153,4236.410153,4219.999897,4221.025538,4224.102461,4208.717846,4204.102461,4216.922974,4216.922974,4221.538358,4221.538358,4223.07682,4347.179381,4234.871691
42,0,4211.281948,4234.871691,4211.281948,4215.384512,4222.051179,4211.281948,4203.07682,4215.897333,4213.33323,4217.948615,4221.538358,4217.435794,4339.487073,4231.281948
43,0,4209.230666,4232.307589,4206.153743,4211.794769,4217.948615,4215.384512,4204.102461,4212.307589,4208.717846,4207.179384,4219.487076,4212.82041,4333.846048,4222.563999
44,0,4212.307589,4232.820409,4209.230666,4214.871692,4222.051179,4219.487076,4206.666564,4216.922974,4212.82041,4209.230666,4218.461435,4214.358871,4331.281945,4224.102461
45,0,4208.717846,4226.666563,4205.128102,4212.307589,4216.922974,4214.358871,4205.640923,4208.717846,4211.794769,4202.564,4213.33323,4211.281948,4326.15374,4222.563999
46,0,4216.410153,4234.358871,4213.846051,4216.410153,4221.025538,4221.025538,4212.307589,4209.743487,4209.743487,4211.794769,4225.640922,4221.025538,4334.358868,4234.358871
47,0,4215.897333,4237.948614,4214.871692,4219.487076,4220.512717,4220.512717,4211.794769,4209.743487,4206.666564,4220.512717,4230.769127,4222.563999,4333.333227,4237.435794
48,0,4225.640922,4254.35887,4222.051179,4230.769127,4235.897332,4229.230666,4215.384512,4216.922974,4214.358871,4231.794768,4237.435794,4228.205025,4342.051176,4249.743486
49,0,4223.07682,4253.333229,4219.487076,4229.230666,4233.84605,4222.563999,4208.205025,4207.692205,4210.769128,4217.435794,4224.615281,4224.102461,4334.871689,4243.58964
50,0,4225.128102,4251.794768,4221.538358,4228.205025,4231.794768,4218.974256,4207.179384,4214.358871,4215.897333,4217.948615,4226.153743,4226.666563,4330.769125,4242.563999
51,0,4219.487076,4241.538358,4216.410153,4218.974256,4218.461435,4208.205025,4205.128102,4219.999897,4217.435794,4214.871692,4223.07682,4218.974256,4324.615279,4232.307589
52,0,4227.179384,4250.256306,4222.051179,4224.102461,4224.102461,4217.435794,4213.846051,4237.948614,4227.692204,4225.640922,4232.307589,4227.692204,4329.743484,4238.974255
53,0,4218.974256,4243.58964,4217.948615,4221.538358,4219.999897,4212.82041,4208.205025,4236.410153,4225.128102,4226.153743,4225.640922,4225.128102,4322.051176,4237.435794
54,0,4216.410153,4241.538358,4215.897333,4222.051179,4218.974256,4210.256307,4204.102461,4226.666563,4218.974256,4222.051179,4224.615281,4221.538358,4321.025535,4237.948614
55,0,4211.281948,4237.948614,4206.666564,4216.922974,4211.794769,4206.666564,4201.025538,4210.256307,4208.205025,4209.230666,4222.563999,4216.410153,4313.333228,4226.666563
56,0,4212.82041,4243.58964,4207.179384,4219.999897,4220.512717,4215.384512,4206.153743,4209.230666,4210.769128,4215.384512,4225.128102,4219.487076,4313.333228,4227.692204
57,0,4208.717846,4238.974255,4209.230666,4220.512717,4225.128102,4217.435794,4208.205025,4202.051179,4207.179384,4213.33323,4216.922974,4213.33323,4309.743484,4225.128102
58,0,4212.307589,4237.435794,4212.307589,4221.538358,4225.640922,4222.051179,4213.846051,4196.410154,4204.615282,4206.666564,4218.461435,4214.871692,4306.153741,4223.58964
59,0,4215.897333,4238.974255,4213.33323,4224.102461,4222.563999,4225.128102,4218.974256,4202.051179,4209.743487,4214.871692,4227.179384,4221.025538,4306.666561,4227.692204
60,0,4214.871692,4241.538358,4213.33323,4225.640922,4224.615281,4223.58964,4217.435794,4209.743487,4215.384512,4222.563999,4226.153743,4217.435794,4309.743484,4230.256307
61,0,4215.384512,4246.153742,4213.846051,4230.256307,4229.230666,4222.051179,4216.922974,4217.948615,4219.999897,4225.640922,4224.102461,4216.410153,4310.769125,4229.743486
62,0,4214.358871,4241.025537,4213.846051,4230.769127,4223.07682,4216.410153,4215.384512,4224.102461,4223.58964,4223.07682,4227.179384,4221.538358,4307.692202,4226.666563
63,0,4217.435794,4239.999896,4217.435794,4230.256307,4219.487076,4213.33323,4215.384512,4236.922973,4226.666563,4228.205025,4234.358871,4232.307589,4310.769125,4237.435794
64,0,4208.717846,4233.84605,4209.743487,4223.58964,4212.82041,4209.743487,4209.743487,4233.84605,4221.538358,4219.999897,4224.102461,4226.153743,4302.051177,4229.230666
65,0,4208.717846,4237.435794,4211.281948,4225.128102,4219.487076,4221.025538,4217.435794,4237.435794,4225.128102,4223.07682,4226.666563,4223.07682,4299.999895,4222.563999
66,0,4201.025538,4227.179384,4206.666564,4218.461435,4213.33323,4216.922974,4216.922974,4229.743486,4222.051179,4215.384512,4221.025538,4214.358871,4291.794767,4212.307589
67,0,4206.666564,4230.769127,4209.743487,4217.435794,4216.922974,4218.974256,4219.999897,4232.307589,4225.640922,4225.640922,4221.025538,4220.512717,4297.948613,4222.563999
68,0,4204.102461,4227.692204,4206.666564,4211.281948,4210.769128,4214.358871,4217.435794,4224.102461,4219.999897,4222.563999,4209.743487,4216.410153,4292.307587,4219.487076
69,0,4207.179384,4230.769127,4209.743487,4214.871692,4210.256307,4220.512717,4217.948615,4219.999897,4218.974256,4216.410153,4212.82041,4215.384512,4289.230664,4218.461435
70,0,4199.999897,4221.025538,4205.128102,4211.794769,4198.974256,4210.769128,4209.743487,4205.128102,4211.281948,4201.538359,4211.794769,4210.769128,4283.076818,4212.82041
71,0,4207.692205,4225.128102,4213.846051,4215.384512,4206.666564,4209.743487,4213.33323,4203.589641,4208.205025,4208.717846,4220.512717,4217.948615,4288.205023,4222.051179
72,0,4202.564,4220.512717,4211.281948,4211.794769,4202.564,4203.589641,4207.692205,4197.948615,4199.487077,4199.999897,4211.281948,4213.33323,4281.538357,4212.307589
73,0,4201.538359,4223.07682,4211.794769,4213.33323,4204.102461,4206.153743,4206.153743,4206.153743,4207.179384,4199.999897,4212.307589,4216.922974,4282.563998,4212.82041
74,0,4199.487077,4220.512717,4209.743487,4211.281948,4205.128102,4203.07682,4207.179384,4216.410153,4213.846051,4207.179384,4215.897333,4215.897333,4279.999895,4211.281948
75,0,4201.538359,4221.538358,4209.743487,4213.33323,4209.743487,4207.179384,4214.871692,4228.205025,4219.487076,4213.33323,4216.410153,4215.384512,4278.974254,4210.769128
76,0,4189.743487,4213.33323,4199.999897,4209.743487,4204.615282,4207.692205,4213.33323,4226.666563,4217.948615,4202.051179,4201.538359,4205.640923,4271.281947,4199.999897
77,0,4185.128103,4212.307589,4197.948615,4208.717846,4205.128102,4213.33323,4214.358871,4228.717845,4219.999897,4196.922974,4202.051179,4204.102461,4267.179383,4196.410154
78,0,4195.897333,4222.051179,4207.179384,4216.410153,4214.871692,4221.025538,4222.563999,4236.922973,4224.615281,4208.205025,4217.435794,4218.461435,4270.769126,4206.666564
79,0,4203.07682,4225.128102,4212.307589,4219.999897,4218.461435,4221.538358,4225.640922,4232.307589,4224.102461,4213.846051,4217.948615,4224.102461,4276.410152,4211.281948
80,0,4202.564,4223.58964,4212.307589,4216.410153,4216.922974,4217.948615,4222.563999,4226.153743,4221.538358,4216.410153,4217.435794,4221.025538,4281.025536,4209.743487
81,0,4199.487077,4220.512717,4208.205025,4210.769128,4212.307589,4214.358871,4214.871692,4219.999897,4216.922974,4209.743487,4213.846051,4215.384512,4275.384511,4203.07682
82,0,4203.589641,4226.153743,4211.281948,4217.435794,4216.410153,4218.974256,4217.948615,4217.948615,4216.410153,4211.794769,4212.307589,4218.974256,4273.333229,4210.256307
83,0,4197.948615,4218.461435,4205.128102,4215.897333,4209.230666,4211.281948,4215.384512,4204.102461,4209.230666,4202.051179,4209.743487,4213.33323,4266.666562,4202.564
84,0,4207.692205,4227.692204,4213.846051,4221.538358,4214.358871,4214.358871,4218.974256,4213.846051,4211.281948,4210.256307,4222.563999,4220.512717,4273.846049,4207.179384
85,0,4207.179384,4227.692204,4214.358871,4224.102461,4211.794769,4210.769128,4214.871692,4216.410153,4212.307589,4209.230666,4214.358871,4218.461435,4270.769126,4206.153743
86,0,4211.281948,4231.794768,4218.461435,4228.717845,4221.538358,4220.512717,4219.999897,4222.051179,4218.974256,4215.897333,4217.435794,4220.512717,4275.384511,4213.33323
87,0,4204.102461,4226.666563,4212.82041,4219.487076,4220.512717,4217.435794,4218.461435,4216.410153,4214.871692,4207.179384,4215.384512,4216.410153,4268.205024,4204.102461
88,0,4209.743487,4233.84605,4217.435794,4227.179384,4225.128102,4222.563999,4223.07682,4221.538358,4217.948615,4208.205025,4222.051179,4223.58964,4269.743485,4210.256307
89,0,4206.153743,4225.128102,4213.846051,4229.230666,4215.897333,4218.461435,4221.025538,4214.871692,4218.461435,4206.666564,4214.871692,4217.948615,4265.640921,4210.256307
90,0,4208.205025,4223.58964,4213.33323,4224.102461,4217.435794,4220.512717,4223.58964,4217.948615,4223.07682,4217.435794,4212.82041,4218.974256,4265.640921,4213.846051
91,0,4199.487077,4216.410153,4206.666564,4216.922974,4210.256307,4213.846051,4220.512717,4213.33323,4212.82041,4205.128102,4205.640923,4217.435794,4257.435793,4206.153743
92,0,4205.640923,4224.102461,4212.307589,4226.153743,4217.435794,4222.051179,4224.615281,4217.435794,4212.307589,4202.564,4217.435794,4226.666563,4262.051178,4212.82041
93,0,4205.128102,4221.538358,4211.281948,4224.615281,4218.974256,4220.512717,4222.563999,4216.922974,4213.33323,4209.230666,4214.358871,4221.025538,4257.948614,4210.256307
94,0,4205.128102,4218.974256,4209.230666,4221.538358,4216.410153,4213.846051,4220.512717,4216.922974,4214.358871,4209.743487,4207.179384,4215.384512,4253.333229,4207.179384
95,0,4209.743487,4221.025538,4213.846051,4224.615281,4215.384512,4210.769128,4221.538358,4225.128102,4215.384512,4205.640923,4215.897333,4223.07682,4259.999896,4216.410153
96,0,4214.871692,4225.640922,4223.07682,4230.769127,4224.615281,4219.999897,4225.640922,4235.384512,4220.512717,4218.974256,4225.640922,4229.230666,4270.769126,4226.153743
97,0,4209.743487,4221.538358,4217.948615,4230.256307,4224.615281,4222.051179,4224.102461,4228.717845,4219.487076,4227.692204,4218.974256,4220.512717,4265.640921,4218.461435
98,0,4202.051179,4217.435794,4209.230666,4227.692204,4214.871692,4214.871692,4217.948615,4216.922974,4214.871692,4214.871692,4212.82041,4212.82041,4255.897332,4206.666564
99,0,4207.179384,4223.58964,4216.410153,4230.256307,4217.948615,4216.410153,4219.487076,4219.487076,4216.410153,4211.794769,4217.435794,4218.461435,4257.435793,4210.769128
100,0,4201.025538,4213.846051,4209.743487,4222.563999,4208.717846,4209.743487,4214.871692,4209.743487,4208.205025,4201.025538,4208.717846,4212.82041,4249.230665,4201.025538
101,0,4197.435795,4210.256307,4204.102461,4219.999897,4205.640923,4211.281948,4215.384512,4208.205025,4205.640923,4199.999897,4210.769128,4210.769128,4248.205024,4200.512718
102,0,4189.743487,4206.666564,4203.07682,4220.512717,4207.179384,4207.692205,4214.358871,4209.230666,4207.692205,4200.512718,4209.743487,4208.717846,4245.640922,4198.461436
103,0,4200.512718,4218.974256,4215.384512,4228.717845,4222.563999,4212.82041,4219.487076,4217.435794,4216.410153,4214.871692,4217.435794,4222.051179,4252.820409,4210.769128
104,0,4205.640923,4224.615281,4216.410153,4224.615281,4217.435794,4210.769128,4216.410153,4211.794769,4213.846051,4213.846051,4217.948615,4226.153743,4254.871691,4212.82041
105,0,4214.358871,4235.384512,4223.58964,4226.666563,4223.58964,4223.58964,4227.692204,4228.717845,4221.538358,4226.153743,4229.230666,4233.84605,4262.051178,4226.153743
106,0,4204.102461,4222.051179,4214.358871,4218.461435,4218.974256,4218.974256,4229.230666,4232.820409,4220.512717,4215.897333,4218.974256,4222.563999,4249.230665,4216.922974
107,0,4207.179384,4224.615281,4214.871692,4218.974256,4223.07682,4222.563999,4232.307589,4233.33323,4220.512717,4210.769128,4217.948615,4224.615281,4247.179383,4216.922974
108,0,4208.205025,4226.153743,4218.461435,4219.487076,4218.461435,4217.435794,4229.230666,4227.692204,4216.922974,4207.692205,4217.435794,4226.666563,4247.179383,4215.897333
109,0,4218.974256,4232.307589,4228.205025,4227.692204,4224.615281,4220.512717,4232.307589,4234.358871,4221.025538,4218.461435,4226.153743,4230.769127,4252.820409,4226.153743
110,0,4210.769128,4222.563999,4220.512717,4221.538358,4219.487076,4218.974256,4229.230666,4229.230666,4216.922974,4213.33323,4217.948615,4222.051179,4243.076819,4218.974256
111,0,4210.256307,4223.07682,4219.999897,4219.487076,4219.487076,4223.07682,4233.33323,4229.743486,4217.435794,4214.358871,4217.435794,4226.153743,4246.666563,4220.512717
112,0,4210.769128,4223.07682,4222.051179,4220.512717,4221.025538,4217.948615,4230.256307,4227.692204,4213.846051,4215.384512,4218.461435,4228.205025,4251.794768,4224.615281
113,0,4210.256307,4227.692204,4221.538358,4224.102461,4224.102461,4222.563999,4225.128102,4224.615281,4213.33323,4214.871692,4217.948615,4225.128102,4248.717845,4222.563999
114,0,4203.589641,4224.615281,4216.410153,4221.538358,4217.435794,4224.615281,4222.051179,4222.563999,4215.384512,4207.692205,4215.384512,4222.051179,4238.974255,4213.33323
115,0,4201.025538,4218.461435,4213.846051,4215.897333,4213.846051,4214.871692,4219.487076,4219.999897,4216.410153,4200.512718,4218.461435,4220.512717,4237.435794,4207.692205
116,0,4202.051179,4216.922974,4216.410153,4216.410153,4219.487076,4210.256307,4217.948615,4218.974256,4214.358871,4207.692205,4218.974256,4218.461435,4234.358871,4208.205025
117,0,4202.564,4218.461435,4217.948615,4217.948615,4219.999897,4217.948615,4217.948615,4219.487076,4216.410153,4215.384512,4216.410153,4219.999897,4223.58964,4209.743487
118,0,4214.358871,4231.794768,4224.615281,4223.07682,4223.58964,4226.666563,4224.615281,4229.230666,4223.07682,4222.563999,4230.769127,4232.307589,4224.102461,4225.128102
119,0,4207.692205,4227.179384,4215.897333,4218.461435,4217.435794,4214.871692,4222.563999,4223.58964,4218.461435,4209.743487,4227.179384,4225.640922,4217.435794,4217.435794
120,0,4203.589641,4223.07682,4210.256307,4220.512717,4219.999897,4217.948615,4224.615281,4225.128102,4219.999897,4214.358871,4218.461435,4220.512717,4210.769128,4209.743487
121,0,4204.615282,4222.563999,4211.281948,4220.512717,4223.07682,4224.102461,4224.615281,4224.102461,4219.999897,4214.358871,4214.358871,4218.461435,4200.512718,4208.717846
122,0,4217.948615,4234.871691,4223.58964,4225.128102,4234.871691,4233.33323,4230.256307,4232.820409,4225.640922,4219.999897,4230.256307,4229.230666,4206.153743,4227.692204
123,0,4209.743487,4222.051179,4216.410153,4214.871692,4221.025538,4219.487076,4225.128102,4226.666563,4219.999897,4210.769128,4222.051179,4224.615281,4201.538359,4222.563999
124,0,4215.384512,4225.640922,4223.07682,4216.922974,4224.102461,4222.051179,4227.692204,4230.256307,4223.07682,4219.999897,4227.692204,4231.281948,4201.538359,4224.615281
125,0,4214.358871,4224.615281,4224.102461,4216.922974,4225.128102,4219.487076,4221.538358,4224.102461,4219.999897,4215.384512,4227.179384,4229.230666,4191.794769,4221.025538
126,0,4215.897333,4223.58964,4224.102461,4219.487076,4228.717845,4222.563999,4223.58964,4229.743486,4222.051179,4212.307589,4227.179384,4231.281948,4193.846051,4227.179384
127,0,4207.692205,4213.33323,4216.922974,4211.794769,4216.410153,4213.846051,4223.07682,4226.666563,4216.410153,4205.640923,4217.435794,4225.640922,4188.205026,4218.974256
128,0,4214.871692,4219.999897,4225.640922,4217.435794,4221.025538,4220.512717,4229.743486,4231.794768,4222.563999,4214.358871,4231.281948,4231.794768,4192.82041,4228.205025
0,0,4213.846051,4217.948615,4226.153743,4216.922974,4216.922974,4220.512717,4226.153743,4230.769127,4221.538358,4209.743487,4234.871691,4232.307589,4190.769128,4229.230666
1,0,4214.358871,4220.512717,4225.128102,4216.410153,4217.948615,4223.58964,4227.692204,4232.307589,4220.512717,4210.256307,4228.717845,4232.820409,4187.692205,4223.07682
2,0,4211.794769,4223.07682,4224.615281,4217.948615,4226.153743,4226.153743,4230.769127,4229.743486,4221.538358,4218.974256,4226.153743,4231.281948,4186.666564,4220.512717
3,0,4214.358871,4227.179384,4226.666563,4217.435794,4231.794768,4230.256307,4230.769127,4230.256307,4223.58964,4224.102461,4234.358871,4232.820409,4189.743487,4228.205025
4,0,4215.384512,4221.538358,4222.563999,4208.205025,4221.025538,4222.563999,4225.128102,4230.256307,4220.512717,4221.025538,4233.33323,4228.717845,4185.640923,4224.615281
5,0,4214.358871,4221.025538,4219.487076,4206.153743,4217.948615,4219.487076,4224.615281,4228.205025,4222.051179,4215.897333,4226.153743,4227.179384,4183.076821,4216.922974
6,0,4218.974256,4233.84605,4225.128102,4217.948615,4234.358871,4232.820409,4230.769127,4234.871691,4227.692204,4221.538358,4233.33323,4234.358871,4187.179385,4226.666563
7,0,4217.948615,4231.794768,4223.07682,4216.922974,4231.794768,4230.769127,4227.179384,4232.820409,4224.615281,4220.512717,4232.307589,4229.230666,4178.974257,4227.179384
8,0,4218.461435,4229.230666,4221.025538,4211.794769,4224.102461,4224.102461,4226.153743,4229.230666,4219.999897,4219.487076,4226.153743,4227.179384,4174.871693,4223.07682
9,0,4216.922974,4228.205025,4218.974256,4209.230666,4222.051179,4224.102461,4226.153743,4224.615281,4216.410153,4207.692205,4221.538358,4226.153743,4169.230667,4215.897333
10,0,4227.179384,4235.384512,4229.230666,4217.435794,4234.871691,4234.358871,4233.33323,4237.948614,4225.640922,4217.948615,4232.307589,4234.871691,4174.358872,4227.692204
11,0,4221.538358,4225.128102,4229.230666,4212.82041,4228.205025,4223.58964,4229.230666,4237.948614,4224.615281,4218.461435,4230.256307,4230.769127,4171.79477,4228.205025
12,0,4225.640922,4235.384512,4237.948614,4216.922974,4231.281948,4229.743486,4233.84605,4244.615281,4225.640922,4220.512717,4242.563999,4239.487076,4177.948616,4237.948614
13,0,4216.410153,4230.256307,4229.230666,4211.281948,4225.640922,4230.769127,4231.794768,4239.487076,4220.512717,4212.82041,4238.974255,4234.871691,4170.769129,4224.615281
14,0,4210.769128,4223.07682,4219.999897,4204.615282,4228.205025,4231.794768,4233.33323,4238.974255,4224.102461,4224.615281,4230.769127,4230.256307,4169.230667,4216.922974
15,0,4202.564,4213.33323,4213.846051,4197.435795,4217.948615,4222.051179,4225.640922,4230.256307,4219.999897,4219.999897,4218.974256,4221.025538,4159.487078,4212.82041
16,0,4215.384512,4228.205025,4228.205025,4208.205025,4223.07682,4231.794768,4230.769127,4239.487076,4225.128102,4222.051179,4232.820409,4229.743486,4164.615283,4228.717845
17,0,4214.358871,4228.717845,4227.692204,4206.153743,4221.025538,4230.256307,4232.307589,4237.948614,4223.07682,4214.358871,4231.281948,4228.717845,4162.05118,4221.538358
18,0,4215.897333,4229.230666,4227.179384,4204.102461,4226.153743,4233.33323,4235.897332,4237.948614,4224.102461,4214.871692,4227.179384,4228.205025,4164.615283,4220.512717
19,0,4212.307589,4223.07682,4225.640922,4202.051179,4221.538358,4226.153743,4228.717845,4232.820409,4222.563999,4215.384512,4223.07682,4220.512717,4162.564001,4221.025538
20,0,4214.871692,4227.179384,4229.230666,4209.230666,4221.538358,4226.153743,4223.58964,4230.256307,4221.538358,4220.512717,4228.205025,4219.999897,4164.102462,4223.07682
21,0,4216.922974,4227.692204,4228.717845,4213.33323,4219.999897,4227.179384,4225.128102,4224.102461,4215.384512,4215.384512,4225.128102,4219.487076,4163.589642,4221.538358
22,0,4220.512717,4224.615281,4229.230666,4211.281948,4219.999897,4226.666563,4228.717845,4222.051179,4214.871692,4207.179384,4218.461435,4218.974256,4164.102462,4222.563999
23,0,4220.512717,4222.051179,4231.281948,4209.743487,4219.999897,4222.051179,4227.179384,4225.128102,4216.922974,4209.230666,4217.948615,4216.410153,4161.025539,4224.102461
24,0,4214.871692,4221.538358,4228.205025,4208.717846,4215.384512,4218.461435,4224.102461,4227.179384,4215.897333,4204.102461,4216.410153,4211.794769,4154.358873,4215.384512
25,0,4215.384512,4223.58964,4225.640922,4209.743487,4218.974256,4224.615281,4227.179384,4231.281948,4215.384512,4196.922974,4217.948615,4211.281948,4155.384514,4211.794769
26,0,4215.897333,4218.974256,4223.58964,4209.230666,4220.512717,4224.615281,4227.179384,4224.102461,4214.871692,4194.871692,4217.435794,4207.179384,4156.410155,4212.82041
27,0,4222.051179,4224.102461,4230.769127,4217.435794,4224.615281,4228.205025,4231.794768,4229.743486,4223.07682,4219.487076,4225.640922,4216.922974,4163.589642,4228.205025
28,0,4215.384512,4216.410153,4225.128102,4211.281948,4213.846051,4218.461435,4225.640922,4230.256307,4221.025538,4219.999897,4222.051179,4215.384512,4158.461437,4220.512717
29,0,4218.974256,4217.435794,4226.666563,4210.256307,4217.948615,4221.538358,4225.640922,4236.410153,4225.128102,4215.897333,4224.615281,4213.33323,4161.025539,4215.897333
30,0,4212.307589,4211.794769,4222.051179,4208.717846,4214.871692,4218.461435,4224.102461,4230.256307,4226.666563,4206.666564,4214.358871,4203.589641,4156.410155,4209.230666
31,0,4212.82041,4218.974256,4223.58964,4212.307589,4221.025538,4222.051179,4227.692204,4232.307589,4229.230666,4213.33323,4215.897333,4206.153743,4161.025539,4214.871692
32,0,4204.102461,4213.33323,4213.33323,4205.128102,4213.33323,4213.33323,4221.538358,4224.102461,4217.948615,4202.564,4211.794769,4198.974256,4155.897334,4206.666564
33,0,4210.256307,4218.461435,4218.974256,4209.230666,4216.922974,4221.025538,4227.692204,4230.769127,4220.512717,4211.281948,4221.538358,4205.640923,4163.076821,4215.897333
34,0,4205.640923,4212.307589,4217.435794,4206.153743,4211.281948,4220.512717,4228.205025,4230.769127,4222.563999,4212.307589,4217.435794,4205.128102,4161.53836,4214.358871
35,0,4212.82041,4217.435794,4222.051179,4208.717846,4219.999897,4227.179384,4231.794768,4238.461435,4229.743486,4218.461435,4222.563999,4210.256307,4169.743488,4218.461435
36,0,4207.692205,4213.33323,4218.461435,4206.153743,4217.435794,4222.563999,4227.179384,4233.84605,4225.640922,4214.358871,4216.922974,4204.615282,4167.179385,4211.281948
37,0,4208.205025,4216.410153,4219.487076,4210.256307,4219.487076,4222.563999,4228.717845,4235.384512,4227.692204,4213.846051,4219.487076,4208.205025,4166.666565,4216.922974
38,0,4211.281948,4219.487076,4224.102461,4214.871692,4221.538358,4220.512717,4229.230666,4237.435794,4226.666563,4211.281948,4222.051179,4214.358871,4167.692206,4223.58964
39,0,4192.30759,4225.128102,4231.281948,4217.948615,4227.692204,4228.205025,4230.769127,4238.461435,4223.07682,4215.897333,4223.58964,4219.999897,4171.79477,4229.230666
40,0,4166.666565,4222.051179,4226.666563,4213.846051,4225.640922,4230.256307,4228.717845,4229.743486,4216.922974,4216.410153,4219.999897,4214.358871,4168.205026,4223.07682
41,0,4229.743486,4218.974256,4221.538358,4214.358871,4222.051179,4225.128102,4227.692204,4224.615281,4217.435794,4209.743487,4216.410153,4208.205025,4164.615283,4214.358871
42,0,4204.102461,4219.487076,4223.58964,4216.410153,4222.051179,4222.051179,4226.666563,4227.179384,4222.563999,4206.666564,4214.871692,4208.717846,4165.640924,4215.384512
43,0,4171.281949,4221.025538,4222.051179,4212.307589,4220.512717,4220.512717,4222.051179,4223.58964,4222.563999,4205.640923,4214.871692,4206.153743,4162.05118,4213.846051
44,0,4664.10245,4227.692204,4221.538358,4219.487076,4225.640922,4227.692204,4225.128102,4231.794768,4222.051179,4213.846051,4223.07682,4207.692205,4162.05118,4215.897333
45,0,5293.333204,4217.948615,4213.33323,4218.461435,4218.461435,4221.025538,4222.563999,4229.743486,4218.974256,4208.205025,4214.358871,4200.512718,4159.487078,4206.666564
46,0,5208.205001,4220.512717,4215.384512,4217.948615,4221.025538,4219.487076,4223.58964,4230.769127,4225.640922,4212.82041,4216.922974,4201.538359,4169.743488,4214.358871
47,0,4727.179372,4222.051179,4215.897333,4216.922974,4221.025538,4221.025538,4222.051179,4226.153743,4223.58964,4212.307589,4220.512717,4203.07682,4170.256308,4216.410153
48,0,4594.358862,4225.640922,4220.512717,4221.538358,4227.179384,4229.230666,4227.179384,4232.820409,4224.615281,4216.922974,4226.666563,4209.743487,4169.230667,4219.999897
49,0,4595.384503,4211.281948,4213.33323,4216.410153,4217.948615,4217.435794,4219.999897,4226.153743,4222.563999,4202.051179,4216.922974,4201.538359,4162.564001,4210.769128
50,0,4502.563992,4223.07682,4225.128102,4225.640922,4229.743486,4223.58964,4226.666563,4234.358871,4229.743486,4209.230666,4229.230666,4212.307589,4173.846052,4224.102461
51,0,4448.205019,4227.179384,4227.179384,4224.615281,4228.717845,4227.692204,4225.640922,4233.84605,4226.153743,4213.33323,4230.769127,4213.846051,4172.820411,4227.179384
52,0,4437.948609,4227.692204,4227.692204,4226.666563,4232.820409,4236.922973,4217.948615,4239.999896,4228.205025,4220.512717,4233.33323,4212.307589,4175.897334,4230.769127
53,0,4411.794764,4215.897333,4220.512717,4225.640922,4228.205025,4231.794768,4202.051179,4234.358871,4224.615281,4213.33323,4224.102461,4202.564,4170.256308,4219.999897
54,0,4404.615277,4225.640922,4227.179384,4231.794768,4235.384512,4234.871691,4201.025538,4236.410153,4226.666563,4221.538358,4227.692204,4210.256307,4170.769129,4224.615281
55,0,4385.640918,4228.205025,4225.128102,4230.256307,4228.205025,4224.102461,4194.871692,4230.769127,4223.07682,4223.07682,4225.128102,4210.769128,4169.230667,4224.102461
56,0,4371.794765,4232.307589,4225.128102,4234.358871,4231.281948,4227.179384,4197.435795,4232.820409,4226.666563,4221.025538,4225.640922,4211.281948,4174.358872,4225.640922
57,0,4354.871688,4226.153743,4222.563999,4227.692204,4232.307589,4230.769127,4201.538359,4233.33323,4226.666563,4213.846051,4222.563999,4209.230666,4168.205026,4220.512717
