title:V                                                                               , recorded:07.07.20 13.39.51, sampling:128, subject:B                                                                               , labels:COUNTER INTERPOLATED AF3 F7 F3 FC5 T7 P7 O1 O2 P8 T8 FC6 F4 F8 AF4,, units:emotiv,,,,,,,,,
77,0,4216.410153,4191.281949,4253.333229,4197.948615,4214.871692,4215.897333,4231.794768,4221.538358,4046.666568,4214.358871,4252.820409,4228.205025,4263.589639,4230.256307
78,0,4195.384513,4182.05118,4250.256306,4191.281949,4212.82041,4215.897333,4232.307589,4230.256307,4041.538363,4220.512717,4246.666563,4231.281948,4258.461434,4212.82041
79,0,4187.692205,4169.230667,4247.179383,4187.179385,4206.153743,4216.922974,4227.179384,4228.205025,4018.46144,4231.794768,4234.871691,4221.538358,4249.230665,4209.743487
80,0,4195.384513,4171.79477,4249.743486,4191.794769,4205.640923,4214.358871,4225.128102,4225.640922,3998.461441,4228.205025,4235.897332,4221.538358,4246.666563,4209.743487
81,0,4195.897333,4185.640923,4262.563998,4197.435795,4210.769128,4214.358871,4229.743486,4225.640922,3983.076826,4221.538358,4245.640922,4238.974255,4252.820409,4211.281948
82,0,4197.948615,4189.743487,4263.589639,4198.461436,4208.717846,4217.435794,4230.769127,4220.512717,3965.640929,4223.58964,4242.051178,4238.461435,4254.871691,4218.461435
83,0,4213.846051,4183.076821,4253.84605,4195.897333,4206.666564,4216.922974,4229.743486,4216.410153,3943.589647,4227.179384,4235.897332,4223.58964,4254.35887,4221.538358
84,0,4217.435794,4180.512718,4251.281947,4194.871692,4208.205025,4214.871692,4231.281948,4212.307589,3929.743494,4225.640922,4236.922973,4218.974256,4250.769127,4216.922974
85,0,4211.794769,4190.769128,4251.794768,4197.435795,4217.435794,4217.948615,4232.820409,4207.179384,3924.102468,4226.666563,4244.615281,4227.179384,4252.307588,4219.999897
86,0,4209.230666,4197.435795,4251.281947,4201.538359,4223.58964,4221.538358,4231.281948,4206.666564,3924.615289,4226.666563,4250.769127,4232.307589,4260.512716,4225.640922
87,0,4199.487077,4197.948615,4256.922973,4203.07682,4219.999897,4223.07682,4230.769127,4210.769128,3929.743494,4235.384512,4247.692204,4233.33323,4262.563998,4223.58964
88,0,4198.461436,4199.487077,4262.563998,4204.102461,4215.897333,4224.102461,4231.281948,4209.743487,3938.461442,4246.153742,4244.10246,4237.435794,4257.948614,4221.025538
89,0,4224.615281,4205.640923,4259.999896,4206.153743,4222.051179,4224.615281,4227.179384,4209.743487,3941.025545,4237.948614,4251.794768,4239.999896,4265.640921,4228.717845
90,0,4238.974255,4207.179384,4256.922973,4206.153743,4225.128102,4225.640922,4225.128102,4212.307589,3943.589647,4228.205025,4258.974255,4229.743486,4273.846049,4239.487076
91,0,4225.640922,4209.230666,4261.538357,4204.102461,4217.948615,4224.615281,4226.666563,4213.33323,3953.846057,4232.820409,4256.410152,4227.179384,4265.640921,4242.051178
92,0,4215.897333,4208.717846,4262.051178,4203.589641,4209.743487,4217.948615,4225.128102,4212.82041,3965.128108,4227.179384,4250.769127,4239.487076,4258.461434,4237.435794
93,0,4227.692204,4210.256307,4261.538357,4206.153743,4214.358871,4215.897333,4223.58964,4212.307589,3970.769134,4223.58964,4256.410152,4245.128101,4269.230665,4244.615281
94,0,4234.871691,4211.794769,4266.666562,4207.692205,4218.974256,4222.563999,4230.769127,4211.794769,3974.871698,4232.820409,4259.999896,4241.025537,4274.87169,4252.307588
95,0,4227.179384,4206.153743,4266.153742,4201.538359,4210.256307,4223.58964,4230.769127,4207.692205,3974.871698,4233.33323,4247.179383,4240.512717,4262.563998,4241.025537
96,0,4217.948615,4200.512718,4253.333229,4198.974256,4204.102461,4216.922974,4219.999897,4199.487077,3966.153749,4218.461435,4236.922973,4234.871691,4251.794768,4224.102461
97,0,4217.435794,4201.538359,4250.256306,4205.128102,4214.871692,4216.410153,4218.461435,4193.846051,3956.92298,4219.999897,4248.717845,4230.769127,4256.922973,4224.102461
98,0,4212.307589,4203.07682,4255.384511,4208.205025,4218.974256,4218.974256,4223.58964,4197.948615,3949.743493,4239.999896,4264.10246,4233.84605,4267.179383,4238.461435
99,0,4207.692205,4202.564,4254.871691,4202.051179,4212.307589,4216.922974,4224.615281,4210.256307,3952.307596,4245.640922,4263.076819,4233.84605,4271.794767,4245.128101
100,0,4215.897333,4204.615282,4258.974255,4200.512718,4217.948615,4218.974256,4229.230666,4221.538358,3959.999903,4244.10246,4257.435793,4235.384512,4273.846049,4241.538358
101,0,4223.07682,4206.666564,4266.666562,4203.07682,4226.153743,4225.640922,4236.922973,4223.58964,3959.487083,4253.333229,4258.974255,4245.640922,4275.897331,4239.999896
102,0,4225.640922,4204.615282,4259.487075,4202.564,4216.922974,4223.07682,4233.84605,4216.410153,3938.974263,4253.84605,4259.487075,4245.640922,4273.333229,4244.10246
103,0,4226.666563,4200.512718,4251.794768,4202.564,4207.692205,4215.897333,4220.512717,4203.07682,3915.38452,4232.820409,4248.717845,4233.84605,4268.205024,4243.076819
104,0,4221.025538,4200.512718,4256.922973,4205.128102,4213.846051,4215.384512,4215.897333,4204.102461,3899.487084,4226.153743,4244.10246,4238.461435,4266.666562,4233.84605
105,0,4217.435794,4206.666564,4262.051178,4206.666564,4219.487076,4219.999897,4222.563999,4219.999897,3918.461443,4246.153742,4255.384511,4245.128101,4267.692203,4233.84605
106,0,4225.640922,4209.743487,4258.974255,4203.589641,4215.897333,4220.512717,4222.051179,4218.461435,3921.538366,4255.384511,4263.589639,4235.384512,4269.230665,4246.153742
107,0,4227.179384,4203.589641,4250.769127,4204.615282,4208.717846,4216.410153,4212.82041,4194.358872,3909.230674,4232.307589,4251.281947,4222.051179,4263.589639,4243.58964
108,0,4224.615281,4204.615282,4254.35887,4209.743487,4215.897333,4217.948615,4218.461435,4192.30759,3901.025546,4222.563999,4243.076819,4231.281948,4262.051178,4234.871691
109,0,4218.974256,4205.640923,4257.435793,4208.717846,4220.512717,4222.563999,4230.256307,4204.102461,3915.89734,4230.769127,4243.58964,4235.384512,4262.563998,4228.205025
110,0,4222.563999,4208.717846,4257.948614,4207.179384,4216.922974,4222.051179,4230.256307,4206.666564,3914.358879,4242.051178,4250.256306,4229.743486,4268.717844,4237.435794
111,0,4232.307589,4213.846051,4265.640921,4212.82041,4214.871692,4223.07682,4228.205025,4211.794769,3916.410161,4251.281947,4254.871691,4235.384512,4275.897331,4255.897332
112,0,4246.153742,4226.153743,4284.61528,4218.461435,4229.743486,4231.281948,4230.769127,4226.153743,3928.717853,4261.538357,4261.025537,4250.769127,4286.153741,4275.384511
113,0,4248.205024,4230.769127,4283.076818,4219.999897,4234.358871,4233.33323,4232.307589,4225.640922,3926.666571,4253.333229,4262.051178,4249.230665,4282.051177,4264.10246
114,0,4245.128101,4231.281948,4272.820408,4219.999897,4231.281948,4227.692204,4227.692204,4212.307589,3908.205033,4253.84605,4257.948614,4244.10246,4273.333229,4246.666563
115,0,4235.384512,4228.205025,4271.281947,4220.512717,4235.897332,4226.666563,4221.025538,4195.897333,3888.717854,4259.487075,4246.153742,4243.58964,4272.820408,4244.10246
116,0,4225.640922,4225.640922,4271.281947,4218.461435,4237.948614,4229.230666,4221.538358,4192.30759,3887.692213,4248.205024,4247.692204,4242.563999,4277.435793,4248.717845
117,0,4228.205025,4223.58964,4265.640921,4217.435794,4228.717845,4230.769127,4230.256307,4201.538359,3894.8717,4247.179383,4256.410152,4242.563999,4278.974254,4249.743486
118,0,4234.358871,4218.974256,4266.153742,4215.897333,4222.563999,4228.717845,4232.820409,4209.743487,3908.717853,4261.538357,4251.281947,4240.512717,4277.948613,4246.153742
119,0,4237.435794,4218.974256,4265.128101,4217.948615,4226.153743,4226.153743,4230.256307,4215.384512,3921.025545,4260.512716,4247.179383,4232.820409,4275.897331,4241.538358
120,0,4240.512717,4222.051179,4263.589639,4218.974256,4227.692204,4226.153743,4230.256307,4219.487076,3933.333237,4251.281947,4250.256306,4234.358871,4274.87169,4239.487076
121,0,4230.769127,4214.358871,4266.666562,4217.948615,4224.615281,4223.58964,4230.769127,4217.435794,3944.615288,4252.307588,4243.076819,4241.025537,4274.35887,4241.025537
122,0,4213.33323,4203.589641,4264.61528,4215.384512,4222.563999,4219.487076,4228.717845,4205.128102,3962.051185,4251.794768,4229.230666,4233.84605,4267.179383,4237.948614
123,0,4222.563999,4212.307589,4257.948614,4214.358871,4223.07682,4218.974256,4229.230666,4198.974256,3976.410159,4254.35887,4232.307589,4230.256307,4265.640921,4237.435794
124,0,4243.076819,4225.640922,4258.461434,4221.538358,4223.07682,4223.58964,4229.743486,4204.102461,4006.153748,4256.922973,4240.512717,4235.897332,4272.820408,4239.487076
125,0,4249.743486,4229.230666,4269.743485,4233.33323,4229.743486,4230.769127,4231.281948,4218.461435,4046.153747,4256.410152,4245.640922,4244.10246,4276.922972,4247.692204
126,0,4248.717845,4225.128102,4273.333229,4233.33323,4231.794768,4231.281948,4232.307589,4223.07682,4071.281952,4261.538357,4245.640922,4246.153742,4273.846049,4250.256306
127,0,4239.999896,4224.615281,4267.692203,4222.051179,4225.640922,4225.128102,4225.640922,4213.846051,4076.922977,4264.10246,4244.10246,4236.922973,4274.35887,4245.128101
128,0,4222.051179,4220.512717,4258.974255,4216.922974,4221.025538,4223.07682,4218.974256,4210.769128,4095.897336,4260.512716,4236.922973,4224.102461,4269.230665,4235.384512
0,0,4217.435794,4210.769128,4253.84605,4219.487076,4225.128102,4223.58964,4223.58964,4213.33323,4118.461438,4259.487075,4224.102461,4223.58964,4260.512716,4222.051179
1,0,4227.692204,4210.769128,4252.820409,4223.07682,4229.230666,4224.615281,4231.794768,4209.743487,4122.564002,4242.051178,4218.461435,4225.640922,4257.435793,4217.948615
2,0,4244.10246,4222.051179,4259.999896,4226.153743,4229.743486,4229.230666,4234.871691,4207.179384,4128.717848,4226.153743,4225.640922,4226.153743,4258.461434,4234.358871
3,0,4254.871691,4228.717845,4269.230665,4232.820409,4227.692204,4232.307589,4235.384512,4216.410153,4158.974257,4246.153742,4234.871691,4237.948614,4263.589639,4248.205024
4,0,4244.615281,4225.640922,4269.230665,4232.820409,4226.666563,4229.743486,4235.384512,4227.692204,4186.153744,4266.153742,4238.974255,4244.615281,4271.794767,4243.076819
5,0,4229.230666,4223.07682,4267.179383,4226.153743,4231.794768,4229.743486,4232.820409,4224.102461,4182.564,4259.999896,4235.384512,4235.384512,4271.281947,4243.58964
6,0,4240.512717,4225.640922,4271.794767,4228.205025,4236.922973,4232.307589,4229.743486,4216.410153,4170.769129,4259.487075,4229.743486,4237.948614,4266.666562,4246.153742
7,0,4255.384511,4231.281948,4271.281947,4237.948614,4241.538358,4232.307589,4231.281948,4220.512717,4165.128103,4269.230665,4236.410153,4246.153742,4271.281947,4243.076819
8,0,4239.487076,4227.692204,4260.512716,4235.897332,4244.10246,4230.256307,4232.820409,4224.102461,4148.717847,4267.179383,4242.051178,4235.384512,4270.256306,4242.563999
9,0,4221.025538,4212.82041,4249.230665,4222.051179,4236.410153,4229.230666,4233.84605,4217.948615,4120.51272,4259.487075,4228.717845,4217.435794,4254.871691,4234.871691
10,0,4227.179384,4205.640923,4247.179383,4216.410153,4224.615281,4227.179384,4243.076819,4222.563999,4098.461438,4251.281947,4220.512717,4216.922974,4245.128101,4226.666563
11,0,4227.692204,4205.128102,4248.717845,4218.461435,4222.563999,4223.07682,4247.179383,4229.743486,4072.820413,4245.128101,4224.615281,4221.538358,4243.076819,4223.07682
12,0,4209.743487,4198.974256,4249.230665,4214.871692,4223.58964,4221.025538,4239.999896,4218.461435,4036.922978,4239.999896,4215.897333,4215.897333,4238.974255,4214.871692
13,0,4201.025538,4199.487077,4255.384511,4211.794769,4223.58964,4222.051179,4237.435794,4212.82041,4021.538363,4236.922973,4211.281948,4214.358871,4242.051178,4214.358871
14,0,4209.743487,4210.256307,4264.10246,4224.102461,4232.307589,4228.205025,4240.512717,4222.051179,4033.846055,4248.205024,4227.179384,4226.666563,4253.333229,4227.692204
15,0,4229.230666,4217.948615,4262.563998,4233.33323,4243.58964,4230.769127,4236.410153,4221.025538,4035.897337,4258.461434,4232.307589,4233.84605,4256.410152,4231.281948
16,0,4239.999896,4213.33323,4252.820409,4223.07682,4235.897332,4226.666563,4231.281948,4217.435794,4039.999901,4248.205024,4224.102461,4222.051179,4251.794768,4222.563999
17,0,4226.666563,4212.82041,4252.820409,4218.974256,4225.128102,4226.666563,4235.897332,4225.128102,4068.717849,4249.743486,4229.743486,4215.384512,4253.84605,4229.743486
18,0,4216.922974,4222.051179,4262.563998,4229.743486,4234.871691,4232.307589,4246.153742,4230.769127,4100.51272,4266.666562,4234.871691,4223.07682,4259.487075,4244.10246
19,0,4231.794768,4227.179384,4267.692203,4233.33323,4245.128101,4232.820409,4247.692204,4225.640922,4123.589643,4263.589639,4232.820409,4230.769127,4261.025537,4243.076819
20,0,4245.128101,4221.025538,4262.051178,4229.743486,4236.922973,4225.128102,4236.922973,4216.410153,4151.79477,4247.692204,4232.820409,4231.281948,4261.538357,4233.33323
21,0,4243.076819,4216.922974,4257.948614,4229.230666,4229.230666,4218.974256,4228.205025,4204.615282,4173.846052,4246.153742,4230.769127,4227.179384,4259.999896,4234.871691
22,0,4237.435794,4222.051179,4261.025537,4230.769127,4233.33323,4222.051179,4232.820409,4204.615282,4202.051179,4251.794768,4231.281948,4227.692204,4261.025537,4245.640922
23,0,4236.410153,4234.358871,4267.692203,4237.948614,4244.615281,4231.281948,4239.999896,4220.512717,4252.820409,4264.10246,4247.692204,4243.076819,4270.769126,4254.871691
24,0,4237.948614,4242.051178,4269.230665,4245.128101,4246.666563,4235.384512,4238.974255,4228.717845,4294.87169,4275.897331,4256.410152,4254.871691,4277.948613,4256.410152
25,0,4237.948614,4231.281948,4261.025537,4239.487076,4235.384512,4231.281948,4231.281948,4223.58964,4324.615279,4264.61528,4242.563999,4237.948614,4270.256306,4247.692204
26,0,4238.974255,4219.999897,4247.692204,4227.179384,4228.205025,4227.179384,4228.717845,4217.948615,4372.820406,4249.743486,4234.871691,4217.435794,4256.922973,4235.384512
27,0,4229.230666,4224.615281,4247.692204,4224.615281,4233.33323,4227.692204,4233.84605,4215.897333,4442.563994,4253.84605,4238.974255,4217.948615,4256.410152,4231.794768
28,0,4219.999897,4228.205025,4252.307588,4230.769127,4235.384512,4227.692204,4234.871691,4216.922974,4552.820401,4256.922973,4238.461435,4225.128102,4263.589639,4233.84605
29,0,4223.07682,4219.999897,4246.153742,4229.230666,4228.717845,4220.512717,4229.743486,4215.384512,4726.666551,4252.307588,4236.410153,4221.025538,4265.128101,4230.769127
30,0,4225.640922,4217.948615,4247.179383,4226.666563,4230.256307,4215.897333,4228.205025,4214.358871,4929.230649,4252.820409,4239.487076,4222.051179,4263.589639,4232.307589
31,0,4232.820409,4225.128102,4257.435793,4230.769127,4234.358871,4221.025538,4230.256307,4215.384512,5122.563977,4247.179383,4240.512717,4228.205025,4263.076819,4238.974255
32,0,4245.128101,4228.205025,4259.999896,4232.820409,4230.769127,4225.640922,4232.820409,4222.051179,5314.358844,4243.076819,4236.922973,4232.820409,4263.589639,4241.025537
33,0,4237.435794,4227.179384,4261.025537,4230.769127,4227.179384,4228.717845,4234.358871,4224.102461,5477.435763,4251.794768,4236.922973,4237.948614,4264.10246,4239.999896
34,0,4227.692204,4224.615281,4266.666562,4232.307589,4229.743486,4230.769127,4233.84605,4215.897333,5563.076787,4249.743486,4236.922973,4238.974255,4262.563998,4242.051178
35,0,4234.871691,4224.102461,4262.563998,4233.33323,4231.281948,4228.717845,4230.769127,4213.846051,5585.640889,4236.410153,4232.820409,4232.307589,4257.435793,4242.563999
36,0,4235.897332,4226.153743,4259.999896,4232.820409,4233.33323,4227.179384,4230.769127,4226.153743,5563.589608,4244.615281,4230.256307,4233.33323,4256.922973,4246.666563
37,0,4229.743486,4222.563999,4265.640921,4232.820409,4234.871691,4229.230666,4231.281948,4227.179384,5481.538327,4254.35887,4233.84605,4234.871691,4261.025537,4248.717845
38,0,4237.948614,4214.871692,4267.692203,4230.256307,4227.179384,4230.769127,4229.743486,4210.769128,5367.179356,4240.512717,4237.948614,4232.307589,4257.435793,4238.461435
39,0,4243.076819,4218.461435,4266.153742,4229.743486,4227.179384,4230.256307,4230.769127,4214.358871,5283.589614,4236.922973,4236.922973,4238.461435,4255.384511,4234.871691
40,0,4228.717845,4225.640922,4268.205024,4231.794768,4230.769127,4229.743486,4231.281948,4223.58964,5213.333206,4243.076819,4233.33323,4242.563999,4254.35887,4242.051178
41,0,4222.051179,4223.58964,4268.717844,4232.820409,4228.205025,4228.205025,4229.743486,4214.871692,5123.589618,4243.58964,4230.769127,4229.743486,4252.307588,4241.538358
42,0,4237.435794,4225.128102,4266.666562,4233.84605,4231.281948,4231.281948,4232.307589,4212.307589,5047.692184,4252.307588,4236.922973,4228.205025,4255.384511,4244.10246
43,0,4247.179383,4224.615281,4265.640921,4234.871691,4239.487076,4232.307589,4234.871691,4225.640922,4998.461416,4258.974255,4241.025537,4238.461435,4258.461434,4250.769127
44,0,4230.769127,4214.871692,4260.512716,4228.205025,4231.281948,4225.128102,4232.307589,4230.769127,4942.051161,4251.794768,4232.307589,4229.743486,4253.84605,4244.615281
45,0,4217.948615,4208.205025,4248.205024,4217.948615,4219.487076,4217.435794,4228.717845,4224.102461,4871.794753,4254.35887,4227.692204,4213.33323,4245.640922,4233.33323
46,0,4216.410153,4210.769128,4243.076819,4221.025538,4220.512717,4217.948615,4228.205025,4213.33323,4797.43578,4251.794768,4232.307589,4211.794769,4242.051178,4228.717845
47,0,4215.384512,4216.922974,4253.84605,4231.794768,4230.769127,4224.615281,4229.230666,4213.33323,4730.256295,4235.384512,4235.384512,4221.538358,4246.153742,4235.384512
48,0,4229.230666,4221.538358,4264.61528,4233.33323,4239.999896,4230.769127,4231.794768,4223.58964,4679.999886,4236.922973,4230.769127,4227.179384,4249.230665,4247.179383
49,0,4243.076819,4220.512717,4262.563998,4229.230666,4235.384512,4231.794768,4231.794768,4224.615281,4630.256297,4245.128101,4229.230666,4222.563999,4241.025537,4249.743486
50,0,4233.33323,4214.358871,4256.410152,4227.179384,4224.615281,4229.743486,4230.256307,4222.051179,4574.358863,4238.974255,4230.256307,4221.538358,4232.820409,4244.615281
51,0,4225.640922,4211.794769,4254.871691,4224.615281,4219.999897,4227.692204,4229.743486,4228.717845,4527.692197,4243.076819,4232.820409,4231.794768,4239.487076,4240.512717
52,0,4243.58964,4221.025538,4258.974255,4228.717845,4221.025538,4227.179384,4229.230666,4223.07682,4478.974249,4252.820409,4238.461435,4238.461435,4246.153742,4250.769127
53,0,4259.999896,4237.435794,4264.10246,4233.33323,4224.615281,4227.692204,4228.205025,4213.846051,4415.384507,4246.666563,4244.615281,4239.999896,4248.717845,4270.256306
54,0,4268.717844,4249.230665,4267.692203,4233.33323,4230.256307,4230.256307,4229.743486,4223.07682,4362.563996,4242.051178,4250.769127,4244.615281,4256.410152,4281.025536
55,0,4292.820408,4261.025537,4274.35887,4241.025537,4229.743486,4230.256307,4227.179384,4224.615281,4316.922971,4246.153742,4246.153742,4248.205024,4261.025537,4287.179382
56,0,4330.769125,4282.051177,4283.589639,4250.769127,4225.128102,4228.205025,4221.538358,4211.281948,4265.640921,4244.10246,4239.487076,4252.820409,4263.589639,4308.717843
57,0,4362.563996,4300.512715,4293.333228,4252.820409,4226.666563,4229.230666,4218.461435,4208.205025,4216.410153,4229.230666,4242.051178,4262.051178,4270.256306,4335.89733
58,0,4390.769123,4312.820407,4301.538356,4257.948614,4227.179384,4230.769127,4219.487076,4210.769128,4173.846052,4223.58964,4250.769127,4270.256306,4272.820408,4353.846047
59,0,4421.025533,4322.563997,4302.563997,4261.538357,4225.640922,4228.205025,4217.948615,4205.640923,4131.794771,4230.256307,4251.794768,4274.87169,4270.256306,4369.230662
60,0,4444.102455,4335.384509,4296.922972,4261.025537,4229.743486,4227.692204,4218.461435,4204.615282,4104.615284,4229.743486,4252.820409,4277.948613,4276.410152,4388.205021
61,0,4442.051173,4339.487073,4294.87169,4262.051178,4230.256307,4228.717845,4219.487076,4208.205025,4100.51272,4224.615281,4258.461434,4276.922972,4281.025536,4394.358867
62,0,4419.999892,4327.179381,4293.846049,4260.512716,4223.07682,4226.153743,4218.461435,4207.179384,4103.589643,4232.307589,4254.871691,4268.717844,4271.794767,4377.43579
63,0,4413.846046,4317.435792,4292.307587,4259.487075,4225.640922,4228.205025,4224.615281,4211.281948,4110.76913,4240.512717,4247.692204,4262.563998,4266.666562,4356.41015
64,0,4411.794764,4315.38451,4288.205023,4262.051178,4231.281948,4233.33323,4233.84605,4217.948615,4121.02554,4234.358871,4246.666563,4264.61528,4268.717844,4350.769124
65,0,4383.589636,4304.102459,4283.589639,4256.410152,4227.179384,4231.281948,4233.84605,4217.435794,4130.76913,4231.281948,4247.179383,4259.487075,4263.589639,4346.66656
66,0,4353.846047,4291.281946,4282.563998,4249.230665,4230.769127,4230.769127,4233.33323,4213.33323,4139.999899,4236.922973,4249.230665,4252.307588,4256.922973,4326.15374
67,0,4336.41015,4279.487075,4276.410152,4249.230665,4233.84605,4231.281948,4231.794768,4209.230666,4146.666565,4232.307589,4247.179383,4253.333229,4250.256306,4291.794767
68,0,4318.974253,4264.61528,4267.692203,4243.58964,4226.153743,4228.717845,4228.205025,4214.358871,4165.128103,4231.281948,4245.640922,4252.307588,4245.640922,4277.435793
69,0,4308.717843,4262.563998,4270.769126,4236.410153,4228.717845,4231.794768,4232.820409,4229.230666,4199.487077,4246.666563,4248.717845,4250.769127,4248.717845,4286.153741
70,0,4294.87169,4259.487075,4268.205024,4235.897332,4233.84605,4232.820409,4237.435794,4235.384512,4222.563999,4252.307588,4247.692204,4248.717845,4248.717845,4277.435793
71,0,4264.10246,4233.84605,4246.153742,4231.794768,4219.999897,4219.487076,4229.230666,4222.563999,4225.128102,4243.58964,4238.461435,4228.717845,4234.358871,4249.743486
72,0,4253.84605,4223.58964,4241.025537,4228.717845,4215.897333,4215.897333,4224.615281,4219.999897,4237.948614,4241.025537,4241.025537,4221.025538,4229.230666,4239.999896
73,0,4264.10246,4236.410153,4261.025537,4231.794768,4233.33323,4227.692204,4229.230666,4232.820409,4271.281947,4241.538358,4251.794768,4241.025537,4238.461435,4238.461435
74,0,4250.769127,4233.84605,4259.999896,4228.205025,4228.205025,4227.179384,4225.128102,4229.743486,4289.230664,4239.999896,4246.153742,4238.461435,4234.358871,4234.871691
75,0,4230.769127,4221.538358,4240.512717,4219.999897,4209.230666,4215.897333,4217.948615,4213.846051,4299.487074,4237.435794,4232.307589,4215.897333,4219.999897,4230.256307
76,0,4235.384512,4221.538358,4240.512717,4222.051179,4215.384512,4216.922974,4221.025538,4211.281948,4329.230663,4226.666563,4229.230666,4221.538358,4221.025538,4222.051179
77,0,4242.563999,4229.743486,4248.205024,4229.230666,4227.692204,4226.666563,4226.153743,4223.58964,4368.717842,4227.179384,4237.948614,4236.922973,4231.281948,4224.102461
78,0,4230.256307,4230.256307,4250.769127,4229.743486,4227.692204,4228.717845,4228.717845,4232.307589,4402.051174,4243.076819,4245.128101,4236.922973,4232.820409,4234.871691
79,0,4221.025538,4225.128102,4252.307588,4229.743486,4230.769127,4226.666563,4230.769127,4236.410153,4436.922968,4250.256306,4245.640922,4234.871691,4230.769127,4226.666563
80,0,4226.666563,4224.102461,4251.281947,4231.281948,4234.871691,4229.230666,4231.281948,4243.58964,4472.820403,4251.281947,4241.025537,4231.281948,4228.205025,4213.846051
81,0,4225.640922,4223.07682,4246.153742,4228.205025,4231.281948,4231.794768,4232.307589,4249.743486,4495.897326,4253.333229,4236.410153,4222.563999,4219.999897,4218.461435
82,0,4217.435794,4218.461435,4244.10246,4227.692204,4231.281948,4231.794768,4234.358871,4248.205024,4498.461428,4245.640922,4236.922973,4219.999897,4214.358871,4218.974256
83,0,4215.897333,4213.846051,4244.10246,4229.230666,4233.33323,4227.692204,4232.307589,4241.538358,4493.333223,4245.128101,4247.179383,4223.58964,4217.948615,4216.410153
84,0,4214.358871,4210.769128,4242.563999,4221.538358,4226.153743,4220.512717,4228.205025,4231.281948,4481.025531,4250.256306,4249.743486,4227.179384,4219.999897,4211.281948
85,0,4217.435794,4212.82041,4245.640922,4215.897333,4223.07682,4223.07682,4228.205025,4227.692204,4458.97425,4241.538358,4236.922973,4231.281948,4218.974256,4203.589641
86,0,4225.640922,4220.512717,4252.307588,4226.666563,4226.153743,4233.33323,4232.820409,4237.948614,4446.666558,4235.384512,4228.717845,4226.666563,4216.922974,4213.846051
87,0,4226.153743,4223.58964,4252.307588,4233.33323,4232.307589,4232.307589,4239.487076,4245.640922,4439.999891,4245.128101,4234.358871,4219.999897,4215.897333,4229.230666
88,0,4225.640922,4219.999897,4249.230665,4229.230666,4240.512717,4229.230666,4238.974255,4243.58964,4413.846046,4253.333229,4243.076819,4226.153743,4222.051179,4219.999897
89,0,4219.487076,4215.384512,4250.256306,4229.743486,4237.948614,4231.281948,4231.794768,4239.999896,4375.897329,4246.666563,4243.58964,4230.769127,4222.051179,4204.615282
90,0,4206.666564,4214.358871,4256.410152,4227.692204,4232.820409,4230.256307,4230.769127,4245.128101,4356.41015,4246.153742,4241.025537,4235.384512,4216.922974,4208.205025
91,0,4208.717846,4221.538358,4263.076819,4222.563999,4239.487076,4229.230666,4236.410153,4252.307588,4336.41015,4259.487075,4245.128101,4245.640922,4221.538358,4210.256307
92,0,4219.999897,4225.128102,4260.512716,4231.281948,4243.58964,4233.33323,4236.922973,4243.58964,4295.38451,4260.512716,4249.230665,4240.512717,4223.58964,4207.179384
93,0,4217.948615,4215.897333,4251.281947,4237.948614,4234.871691,4235.897332,4233.84605,4229.230666,4249.743486,4242.563999,4241.538358,4223.07682,4214.871692,4211.281948
94,0,4218.461435,4212.82041,4246.666563,4231.794768,4232.307589,4235.897332,4235.897332,4231.794768,4222.051179,4234.358871,4231.794768,4220.512717,4214.358871,4216.922974
95,0,4227.179384,4221.538358,4253.333229,4231.281948,4235.384512,4233.33323,4236.410153,4242.563999,4211.281948,4238.974255,4235.897332,4230.769127,4219.999897,4222.563999
96,0,4227.692204,4227.179384,4261.538357,4234.871691,4234.358871,4232.307589,4233.84605,4242.563999,4193.333231,4241.025537,4245.128101,4234.358871,4218.974256,4230.256307
97,0,4227.692204,4231.281948,4262.563998,4233.84605,4239.999896,4234.871691,4234.871691,4243.58964,4166.666565,4249.743486,4247.692204,4232.820409,4221.025538,4232.307589
98,0,4226.153743,4231.281948,4256.922973,4232.820409,4246.666563,4235.897332,4235.384512,4250.256306,4145.640924,4257.948614,4244.10246,4230.256307,4223.07682,4221.538358
99,0,4215.897333,4219.999897,4251.794768,4230.256307,4239.487076,4231.281948,4230.256307,4244.615281,4119.999899,4245.128101,4235.384512,4224.102461,4216.410153,4214.871692
100,0,4204.615282,4212.82041,4250.256306,4228.717845,4232.820409,4228.717845,4229.230666,4236.410153,4090.25631,4234.358871,4235.384512,4221.025538,4215.897333,4216.922974
101,0,4209.743487,4216.410153,4245.128101,4230.256307,4237.435794,4232.307589,4233.33323,4239.487076,4070.769131,4241.538358,4245.640922,4223.07682,4224.615281,4217.948615
102,0,4221.538358,4221.538358,4235.897332,4225.128102,4238.974255,4233.33323,4236.922973,4245.128101,4060.512721,4243.076819,4245.128101,4223.07682,4224.615281,4214.871692
103,0,4210.769128,4215.897333,4232.820409,4214.358871,4231.281948,4229.230666,4233.84605,4235.384512,4041.538363,4235.384512,4232.820409,4216.922974,4213.846051,4202.051179
104,0,4191.281949,4208.717846,4232.820409,4213.33323,4230.256307,4228.205025,4228.717845,4226.153743,4029.743491,4235.897332,4229.230666,4213.846051,4211.794769,4193.846051
105,0,4199.487077,4209.230666,4233.33323,4226.666563,4233.33323,4230.769127,4230.256307,4229.743486,4042.051183,4241.025537,4234.871691,4215.897333,4219.487076,4204.615282
106,0,4214.871692,4213.33323,4232.307589,4228.205025,4233.84605,4230.769127,4231.794768,4232.307589,4067.692208,4237.948614,4234.871691,4213.846051,4221.538358,4212.82041
107,0,4205.128102,4213.33323,4229.230666,4219.999897,4233.33323,4229.230666,4229.230666,4228.717845,4097.948618,4233.84605,4228.205025,4213.33323,4216.410153,4200.512718
108,0,4189.230667,4211.794769,4231.794768,4218.974256,4233.33323,4229.230666,4229.743486,4231.794768,4134.358873,4241.025537,4230.256307,4218.461435,4219.487076,4195.384513
109,0,4192.30759,4216.922974,4236.410153,4222.563999,4235.384512,4229.230666,4231.281948,4241.538358,4175.897334,4250.769127,4243.076819,4218.461435,4227.692204,4207.179384
110,0,4208.717846,4226.153743,4241.538358,4226.666563,4244.10246,4228.717845,4230.256307,4245.640922,4212.82041,4252.307588,4254.35887,4222.051179,4234.358871,4217.948615
111,0,4219.999897,4231.281948,4239.999896,4231.281948,4250.256306,4229.230666,4229.743486,4242.563999,4248.205024,4250.256306,4253.333229,4224.615281,4236.410153,4218.461435
112,0,4214.871692,4225.640922,4234.871691,4231.794768,4244.10246,4230.769127,4229.230666,4235.384512,4290.256305,4250.256306,4241.025537,4222.051179,4228.717845,4210.256307
113,0,4208.717846,4222.563999,4234.871691,4228.205025,4243.076819,4233.33323,4228.205025,4229.230666,4335.89733,4243.076819,4232.820409,4223.58964,4219.999897,4207.179384
114,0,4208.717846,4223.07682,4236.922973,4221.025538,4243.076819,4231.794768,4230.256307,4226.666563,4387.6922,4223.58964,4229.230666,4217.948615,4218.461435,4209.230666
115,0,4208.205025,4221.025538,4231.281948,4214.358871,4236.410153,4227.692204,4230.769127,4229.743486,4461.025532,4211.794769,4223.58964,4209.230666,4217.948615,4205.128102
116,0,4211.794769,4222.563999,4228.205025,4220.512717,4234.871691,4227.692204,4228.717845,4233.33323,4548.205017,4213.33323,4219.487076,4214.358871,4216.410153,4194.871692
117,0,4217.435794,4226.666563,4239.999896,4232.307589,4240.512717,4229.743486,4230.769127,4236.922973,4602.05117,4226.153743,4228.717845,4224.615281,4226.153743,4197.948615
118,0,4212.82041,4223.58964,4245.640922,4231.794768,4238.974255,4229.230666,4231.794768,4238.461435,4594.871683,4235.897332,4240.512717,4225.128102,4238.461435,4213.33323
119,0,4216.410153,4222.563999,4235.384512,4228.717845,4237.435794,4226.666563,4226.153743,4234.871691,4588.717837,4236.410153,4243.58964,4231.281948,4239.999896,4224.102461
120,0,4225.640922,4226.666563,4230.256307,4224.615281,4244.10246,4227.179384,4225.128102,4237.435794,4617.948605,4237.435794,4239.487076,4234.358871,4236.410153,4225.128102
121,0,4214.358871,4222.051179,4235.897332,4217.948615,4242.563999,4230.769127,4229.743486,4250.256306,4629.743477,4239.487076,4234.358871,4221.538358,4230.256307,4218.461435
122,0,4203.589641,4219.487076,4241.538358,4223.58964,4237.948614,4233.33323,4231.281948,4251.794768,4609.230657,4237.948614,4237.948614,4221.538358,4227.179384,4207.179384
123,0,4211.281948,4227.692204,4244.10246,4232.820409,4243.076819,4231.794768,4229.743486,4243.58964,4595.897324,4237.948614,4244.615281,4235.384512,4230.769127,4202.564
124,0,4215.384512,4224.102461,4243.076819,4226.666563,4242.563999,4229.230666,4231.794768,4241.025537,4581.53835,4238.974255,4235.384512,4232.307589,4230.256307,4209.743487
125,0,4214.358871,4212.82041,4234.871691,4216.410153,4234.871691,4227.179384,4228.205025,4239.487076,4545.640914,4228.717845,4219.999897,4214.871692,4222.051179,4213.846051
126,0,4217.948615,4217.435794,4229.230666,4221.025538,4241.025537,4228.205025,4221.538358,4235.897332,4516.410146,4225.640922,4223.58964,4216.410153,4221.538358,4215.384512
127,0,4215.384512,4228.717845,4235.897332,4232.307589,4251.794768,4230.769127,4226.666563,4236.410153,4497.948608,4243.076819,4235.384512,4231.794768,4231.794768,4223.07682
128,0,4212.82041,4228.205025,4241.538358,4228.717845,4247.692204,4231.281948,4231.281948,4238.974255,4475.384506,4245.640922,4236.922973,4230.256307,4235.384512,4223.07682
0,0,4214.358871,4223.07682,4235.897332,4218.974256,4237.435794,4229.743486,4221.538358,4241.025537,4448.205019,4237.948614,4239.487076,4228.205025,4232.307589,4217.948615
1,0,4203.589641,4216.922974,4231.281948,4213.846051,4233.84605,4226.666563,4214.871692,4241.025537,4411.281943,4243.076819,4238.461435,4230.769127,4227.179384,4215.384512
2,0,4199.487077,4215.384512,4232.820409,4215.384512,4234.358871,4226.666563,4224.102461,4240.512717,4366.66656,4244.10246,4228.205025,4221.025538,4226.153743,4214.871692
3,0,4225.128102,4224.615281,4232.307589,4222.563999,4241.538358,4230.256307,4232.820409,4247.692204,4329.230663,4238.461435,4231.794768,4219.487076,4231.281948,4215.897333
4,0,4235.384512,4227.179384,4231.794768,4222.051179,4244.615281,4231.281948,4231.281948,4251.794768,4291.281946,4242.051178,4245.128101,4229.743486,4233.33323,4216.922974
5,0,4212.82041,4221.025538,4232.820409,4219.487076,4237.948614,4227.179384,4228.717845,4247.179383,4252.820409,4243.58964,4242.563999,4227.179384,4230.769127,4215.384512
6,0,4203.07682,4219.487076,4233.33323,4225.640922,4238.461435,4228.717845,4231.281948,4249.743486,4233.84605,4235.897332,4234.358871,4224.102461,4229.743486,4215.384512
7,0,4218.461435,4224.615281,4235.384512,4224.102461,4247.179383,4233.84605,4235.897332,4257.435793,4228.205025,4248.717845,4239.999896,4235.384512,4233.84605,4215.384512
8,0,4223.58964,4226.666563,4237.435794,4215.897333,4245.128101,4233.33323,4234.358871,4253.333229,4203.589641,4261.538357,4245.128101,4235.384512,4232.820409,4219.487076
9,0,4222.563999,4228.717845,4234.358871,4225.640922,4241.025537,4230.256307,4230.769127,4247.692204,4166.153744,4239.999896,4242.051178,4225.640922,4230.769127,4231.281948
10,0,4225.640922,4226.153743,4230.769127,4233.84605,4242.051178,4229.743486,4230.256307,4244.10246,4133.333232,4220.512717,4235.384512,4217.948615,4227.179384,4230.256307
11,0,4217.948615,4221.025538,4232.820409,4222.563999,4241.025537,4230.256307,4229.743486,4239.487076,4105.128105,4231.281948,4234.871691,4216.922974,4225.128102,4222.051179
12,0,4203.589641,4218.461435,4237.435794,4216.922974,4237.435794,4227.692204,4229.743486,4242.563999,4080.512721,4240.512717,4238.461435,4227.179384,4226.153743,4219.487076
13,0,4196.410154,4211.794769,4235.897332,4218.974256,4236.922973,4225.640922,4229.743486,4252.307588,4055.384516,4236.410153,4234.871691,4229.230666,4217.948615,4210.769128
14,0,4201.538359,4209.230666,4231.794768,4215.897333,4236.922973,4228.205025,4230.256307,4254.35887,4017.94862,4239.487076,4232.307589,4217.948615,4213.33323,4210.769128
15,0,4214.871692,4212.82041,4231.794768,4214.871692,4236.922973,4230.256307,4232.820409,4252.820409,3978.461441,4243.076819,4235.897332,4215.384512,4221.025538,4228.717845
16,0,4219.999897,4212.307589,4231.281948,4219.487076,4236.410153,4229.230666,4233.84605,4251.281947,3954.871698,4233.33323,4236.922973,4221.025538,4228.717845,4240.512717
17,0,4214.871692,4210.256307,4231.281948,4221.025538,4231.281948,4226.666563,4229.743486,4244.615281,3932.307596,4222.563999,4236.410153,4220.512717,4226.153743,4230.256307
18,0,4212.307589,4210.256307,4229.230666,4218.461435,4229.230666,4226.666563,4228.205025,4235.897332,3905.12811,4223.58964,4234.871691,4217.948615,4223.07682,4219.999897
19,0,4219.999897,4211.281948,4226.153743,4217.948615,4237.948614,4229.743486,4231.794768,4241.025537,3898.974264,4236.922973,4231.281948,4219.999897,4224.615281,4223.58964
20,0,4223.58964,4216.410153,4221.538358,4218.461435,4242.051178,4233.33323,4232.820409,4248.717845,3907.179392,4246.153742,4231.281948,4216.922974,4227.179384,4226.666563
21,0,4214.358871,4216.922974,4223.07682,4217.435794,4236.410153,4232.307589,4230.256307,4246.666563,3898.461443,4236.410153,4236.922973,4211.281948,4229.230666,4227.692204
22,0,4205.640923,4209.230666,4223.58964,4217.948615,4231.794768,4229.230666,4230.769127,4246.153742,3887.692213,4227.692204,4237.435794,4210.256307,4223.58964,4230.256307
23,0,4205.128102,4206.153743,4222.051179,4217.948615,4229.230666,4227.692204,4232.820409,4247.692204,3886.666572,4234.358871,4236.922973,4217.948615,4220.512717,4224.102461
24,0,4207.692205,4209.230666,4224.615281,4217.435794,4227.179384,4227.179384,4231.794768,4243.076819,3883.076828,4231.794768,4238.974255,4220.512717,4221.538358,4215.897333
25,0,4207.692205,4208.717846,4232.820409,4215.897333,4232.307589,4229.230666,4231.281948,4241.538358,3882.051187,4222.563999,4231.794768,4216.922974,4215.897333,4217.435794
26,0,4208.717846,4207.179384,4234.871691,4214.358871,4233.33323,4227.179384,4230.769127,4243.58964,3889.743495,4226.153743,4224.102461,4217.948615,4210.256307,4213.846051
27,0,4206.153743,4205.640923,4222.051179,4213.846051,4218.461435,4217.435794,4221.538358,4233.84605,3888.205033,4215.897333,4224.102461,4212.82041,4207.692205,4201.538359
28,0,4202.564,4203.589641,4212.82041,4212.307589,4212.82041,4213.846051,4215.384512,4230.769127,3896.922982,4199.487077,4224.615281,4205.128102,4207.692205,4206.153743
29,0,4201.538359,4202.051179,4217.435794,4210.256307,4217.435794,4217.948615,4219.487076,4241.538358,3929.230673,4211.794769,4224.102461,4208.717846,4209.743487,4216.922974
30,0,4198.461436,4199.487077,4217.948615,4212.82041,4217.948615,4218.461435,4219.487076,4244.615281,3955.384519,4218.974256,4230.769127,4209.230666,4212.82041,4212.82041
31,0,4202.051179,4196.922974,4215.384512,4215.384512,4217.948615,4215.897333,4216.922974,4238.461435,3961.025544,4206.666564,4232.307589,4198.461436,4211.794769,4210.256307
32,0,4209.230666,4200.512718,4214.358871,4213.846051,4222.051179,4218.974256,4220.512717,4237.948614,3970.256313,4217.948615,4226.666563,4193.333231,4209.743487,4213.33323
33,0,4205.640923,4204.102461,4216.922974,4215.384512,4223.58964,4223.07682,4223.07682,4247.692204,3988.717851,4231.281948,4228.205025,4196.410154,4212.82041,4207.692205
34,0,4195.384513,4204.102461,4219.487076,4213.33323,4224.102461,4221.025538,4219.999897,4253.333229,3990.256313,4215.384512,4228.717845,4197.435795,4210.256307,4199.999897
35,0,4193.846051,4201.025538,4216.922974,4209.230666,4221.538358,4215.384512,4216.410153,4241.025537,3958.461442,4205.128102,4216.922974,4193.846051,4196.922974,4195.384513
36,0,4202.564,4196.410154,4215.384512,4212.82041,4211.794769,4214.358871,4215.384512,4227.179384,3917.435802,4210.769128,4210.769128,4189.743487,4193.333231,4196.922974
37,0,4205.128102,4196.410154,4218.461435,4216.410153,4210.769128,4216.922974,4218.461435,4234.358871,3895.897341,4211.281948,4217.435794,4193.333231,4203.589641,4203.589641
38,0,4206.153743,4202.564,4221.025538,4214.871692,4219.487076,4215.384512,4218.974256,4242.051178,3883.076828,4217.948615,4226.153743,4201.025538,4211.794769,4212.82041
39,0,4207.179384,4209.230666,4225.128102,4216.410153,4222.563999,4214.871692,4214.871692,4234.871691,3868.717854,4230.769127,4234.358871,4202.051179,4214.871692,4224.615281
40,0,4203.07682,4212.307589,4229.743486,4217.948615,4219.999897,4217.435794,4213.846051,4233.84605,3856.410162,4226.153743,4243.076819,4203.589641,4221.025538,4230.256307
41,0,4208.717846,4209.230666,4222.051179,4215.384512,4219.999897,4217.435794,4216.410153,4237.948614,3846.666573,4209.230666,4241.538358,4205.640923,4216.922974,4217.948615
42,0,4210.256307,4196.922974,4209.743487,4209.743487,4214.871692,4215.384512,4215.897333,4228.717845,3836.922983,4204.615282,4224.102461,4194.358872,4198.461436,4193.846051
43,0,4193.333231,4189.230667,4210.256307,4202.564,4206.666564,4215.897333,4215.897333,4218.974256,3828.205035,4208.717846,4212.82041,4182.05118,4192.30759,4184.102462
44,0,4185.128103,4192.30759,4216.410153,4206.153743,4207.179384,4215.897333,4214.871692,4223.58964,3813.33324,4203.589641,4218.974256,4189.743487,4197.435795,4194.871692
45,0,4204.102461,4199.999897,4222.051179,4216.410153,4211.281948,4215.384512,4212.82041,4231.794768,3803.589651,4212.307589,4230.769127,4201.025538,4203.589641,4216.922974
46,0,4225.128102,4208.205025,4231.281948,4217.435794,4214.358871,4217.948615,4215.384512,4238.461435,3807.692215,4238.974255,4242.051178,4208.205025,4217.435794,4229.230666
47,0,4225.640922,4212.307589,4235.384512,4216.410153,4220.512717,4218.461435,4219.487076,4248.717845,3810.256317,4247.179383,4246.153742,4218.461435,4228.717845,4220.512717
48,0,4215.897333,4211.281948,4228.717845,4218.461435,4223.07682,4218.974256,4218.461435,4250.769127,3796.922984,4235.384512,4236.922973,4217.948615,4221.025538,4215.384512
49,0,4218.461435,4208.205025,4225.128102,4217.948615,4218.974256,4219.999897,4216.410153,4241.025537,3773.333241,4227.179384,4232.820409,4205.128102,4210.769128,4216.922974
50,0,4218.974256,4203.589641,4225.640922,4215.384512,4216.410153,4219.487076,4219.999897,4232.307589,3750.256319,4229.743486,4233.84605,4200.512718,4208.205025,4204.615282
51,0,4196.922974,4195.897333,4220.512717,4210.256307,4212.307589,4215.897333,4218.974256,4227.692204,3733.846063,4225.128102,4219.487076,4201.538359,4196.410154,4190.769128
52,0,4186.666564,4189.743487,4212.307589,4199.999897,4206.153743,4213.33323,4209.743487,4217.435794,3724.102473,4205.640923,4208.205025,4188.717846,4187.179385,4190.769128
53,0,4200.512718,4196.410154,4213.33323,4196.922974,4205.128102,4213.846051,4206.153743,4210.769128,3722.051191,4196.410154,4215.384512,4181.538359,4194.358872,4204.102461
54,0,4200.512718,4201.538359,4222.051179,4209.230666,4209.230666,4214.358871,4208.717846,4220.512717,3737.435806,4208.717846,4215.897333,4193.846051,4198.461436,4205.128102
55,0,4200.512718,4199.999897,4224.615281,4217.435794,4211.794769,4214.358871,4210.769128,4228.717845,3750.769139,4216.410153,4208.205025,4202.051179,4194.358872,4191.794769
56,0,4217.435794,4202.564,4218.461435,4208.717846,4207.692205,4213.846051,4213.846051,4222.051179,3745.640934,4201.538359,4210.256307,4188.717846,4195.897333,4193.333231
57,0,4217.435794,4202.051179,4214.358871,4198.974256,4202.051179,4213.846051,4217.435794,4217.948615,3743.076832,4191.794769,4213.846051,4177.435795,4196.922974,4203.07682
58,0,4200.512718,4197.435795,4215.897333,4203.589641,4204.102461,4214.358871,4218.461435,4230.769127,3761.53837,4206.153743,4218.974256,4188.205026,4194.871692,4200.512718
59,0,4193.846051,4196.410154,4219.487076,4209.230666,4205.640923,4216.922974,4216.922974,4242.563999,3783.589651,4220.512717,4225.128102,4201.025538,4196.410154,4193.846051
60,0,4200.512718,4196.922974,4219.999897,4207.692205,4205.128102,4218.974256,4216.410153,4244.10246,3793.333241,4225.128102,4227.179384,4202.564,4206.153743,4195.384513
61,0,4205.640923,4196.922974,4220.512717,4210.769128,4209.230666,4218.974256,4217.435794,4235.384512,3785.128113,4226.666563,4226.666563,4206.666564,4212.82041,4196.922974
62,0,4207.179384,4201.025538,4221.538358,4212.82041,4210.769128,4217.435794,4215.897333,4220.512717,3762.564011,4222.563999,4221.538358,4207.179384,4206.153743,4203.07682
63,0,4208.205025,4199.487077,4221.025538,4211.281948,4209.743487,4217.435794,4215.897333,4219.487076,3750.769139,4216.410153,4213.33323,4198.461436,4198.461436,4208.717846
64,0,4210.769128,4198.461436,4218.461435,4213.33323,4213.846051,4219.999897,4224.102461,4231.794768,3752.820421,4212.82041,4216.410153,4195.897333,4197.435795,4199.487077
65,0,4204.102461,4204.102461,4215.897333,4215.384512,4216.410153,4220.512717,4232.820409,4233.33323,3748.205037,4206.666564,4222.051179,4198.974256,4194.871692,4190.769128
66,0,4196.410154,4204.615282,4217.948615,4211.281948,4211.794769,4217.948615,4227.692204,4230.256307,3741.53837,4209.230666,4218.461435,4201.025538,4196.922974,4198.974256
67,0,4213.33323,4207.692205,4221.538358,4212.82041,4210.256307,4218.461435,4219.999897,4237.948614,3750.256319,4225.640922,4223.58964,4207.179384,4211.281948,4215.897333
68,0,4236.410153,4215.897333,4224.102461,4219.999897,4214.358871,4221.025538,4217.948615,4245.128101,3765.640934,4234.871691,4233.84605,4213.846051,4218.461435,4219.487076
69,0,4229.743486,4211.281948,4221.538358,4211.281948,4214.871692,4219.999897,4219.999897,4233.84605,3759.487088,4233.84605,4224.615281,4208.205025,4211.794769,4205.128102
70,0,4197.948615,4195.897333,4216.410153,4197.948615,4212.307589,4217.435794,4222.563999,4218.461435,3738.461447,4225.128102,4214.871692,4196.410154,4208.205025,4192.30759
71,0,4184.102462,4194.871692,4213.846051,4197.435795,4209.743487,4218.461435,4224.102461,4217.948615,3735.897345,4214.871692,4222.563999,4194.871692,4208.205025,4194.358872
72,0,4208.205025,4204.102461,4218.461435,4206.666564,4215.384512,4221.025538,4225.640922,4225.128102,3748.717857,4222.563999,4232.307589,4206.666564,4210.256307,4202.564
73,0,4224.615281,4208.717846,4222.563999,4213.33323,4218.974256,4216.922974,4224.102461,4225.128102,3760.512729,4228.717845,4233.33323,4211.794769,4214.358871,4203.589641
74,0,4214.358871,4209.230666,4217.435794,4208.205025,4214.358871,4213.846051,4216.922974,4223.58964,3772.3076,4220.512717,4222.051179,4203.589641,4209.230666,4195.384513
75,0,4211.794769,4213.33323,4214.358871,4206.666564,4217.435794,4222.563999,4217.435794,4235.897332,3802.56401,4223.58964,4213.33323,4196.922974,4205.128102,4191.281949
76,0,4219.999897,4214.871692,4219.487076,4212.307589,4225.640922,4227.179384,4222.563999,4238.461435,3838.461445,4229.230666,4217.948615,4198.461436,4208.205025,4194.871692
77,0,4216.410153,4211.794769,4218.974256,4209.743487,4223.58964,4222.051179,4221.025538,4226.666563,3872.820418,4222.563999,4226.666563,4203.589641,4207.692205,4193.846051
78,0,4211.794769,4210.256307,4217.435794,4205.640923,4214.871692,4218.974256,4216.922974,4224.102461,3917.435802,4222.051179,4226.666563,4209.230666,4204.615282,4187.692205
79,0,4209.230666,4208.717846,4217.435794,4209.743487,4218.461435,4220.512717,4216.410153,4225.128102,3963.076826,4227.179384,4222.051179,4202.564,4202.051179,4186.153744
80,0,4199.999897,4204.615282,4210.769128,4210.769128,4221.025538,4222.051179,4217.948615,4223.07682,4000.512723,4224.102461,4218.461435,4191.794769,4204.102461,4184.615282
81,0,4205.640923,4210.769128,4208.717846,4211.281948,4218.974256,4226.666563,4223.07682,4230.769127,4038.97426,4229.230666,4224.615281,4197.948615,4217.435794,4191.281949
82,0,4209.743487,4213.846051,4217.948615,4216.410153,4223.07682,4230.769127,4225.128102,4232.820409,4067.692208,4239.999896,4227.692204,4202.051179,4216.410153,4193.333231
83,0,4197.435795,4206.153743,4224.615281,4215.897333,4230.256307,4229.230666,4222.563999,4219.999897,4075.384516,4235.897332,4216.922974,4199.487077,4202.051179,4184.615282
84,0,4205.640923,4206.666564,4222.051179,4213.33323,4227.692204,4227.692204,4225.640922,4217.948615,4085.640926,4223.07682,4221.538358,4211.281948,4217.948615,4190.769128
85,0,4224.615281,4212.307589,4222.563999,4218.974256,4223.07682,4229.230666,4233.33323,4236.410153,4112.820412,4226.153743,4245.640922,4227.692204,4249.230665,4216.410153
86,0,4221.025538,4201.538359,4226.666563,4219.999897,4226.153743,4228.717845,4235.384512,4247.692204,4136.410155,4243.58964,4257.435793,4230.769127,4253.333229,4231.794768
87,0,4224.102461,4193.846051,4231.794768,4216.410153,4225.640922,4227.692204,4232.820409,4242.563999,4144.615283,4253.333229,4252.820409,4232.307589,4250.769127,4227.692204
88,0,4239.999896,4203.589641,4230.769127,4216.410153,4223.07682,4226.153743,4226.666563,4237.435794,4150.769129,4248.205024,4247.179383,4234.358871,4256.922973,4221.025538
89,0,4222.051179,4207.179384,4224.615281,4216.410153,4223.58964,4223.07682,4218.461435,4236.410153,4163.589642,4250.256306,4249.230665,4227.692204,4254.35887,4219.487076
90,0,4197.948615,4194.871692,4219.487076,4214.358871,4218.461435,4217.435794,4216.922974,4228.717845,4167.179385,4255.384511,4245.640922,4219.999897,4245.640922,4214.871692
91,0,4208.717846,4188.205026,4218.461435,4211.794769,4217.948615,4216.410153,4221.538358,4223.58964,4165.128103,4241.538358,4241.538358,4218.974256,4241.025537,4211.281948
92,0,4216.922974,4193.333231,4216.922974,4216.922974,4227.692204,4225.128102,4230.256307,4234.358871,4188.717846,4230.769127,4247.179383,4224.615281,4243.076819,4214.871692
93,0,4198.461436,4193.333231,4208.717846,4216.410153,4227.692204,4227.179384,4231.281948,4229.230666,4212.82041,4234.871691,4244.10246,4221.025538,4241.538358,4207.692205
94,0,4182.564,4186.153744,4204.615282,4205.128102,4218.461435,4218.974256,4219.487076,4207.179384,4223.07682,4222.563999,4221.025538,4206.666564,4229.230666,4188.205026
95,0,4196.410154,4190.769128,4211.794769,4206.153743,4220.512717,4221.025538,4215.897333,4207.692205,4254.871691,4213.33323,4215.897333,4207.692205,4226.153743,4196.410154
96,0,4217.948615,4203.07682,4218.461435,4218.461435,4227.692204,4232.307589,4227.179384,4226.666563,4309.230664,4239.487076,4239.487076,4221.538358,4244.615281,4221.025538
97,0,4219.999897,4203.07682,4214.871692,4219.999897,4224.102461,4232.307589,4230.256307,4230.769127,4352.307586,4253.84605,4249.230665,4222.051179,4254.35887,4217.435794
98,0,4213.33323,4198.461436,4212.82041,4213.846051,4219.999897,4224.102461,4227.179384,4234.871691,4395.384508,4246.666563,4244.10246,4217.948615,4249.743486,4205.640923
99,0,4216.922974,4203.589641,4222.563999,4215.384512,4226.153743,4227.692204,4229.743486,4248.717845,4442.563994,4254.35887,4250.256306,4229.743486,4252.820409,4215.897333
100,0,4219.487076,4208.205025,4229.743486,4220.512717,4229.743486,4234.871691,4232.820409,4251.794768,4468.717839,4261.025537,4256.410152,4236.922973,4256.922973,4231.281948
101,0,4215.384512,4206.153743,4224.102461,4221.538358,4225.640922,4233.84605,4233.84605,4244.615281,4482.563993,4242.051178,4250.256306,4229.230666,4253.84605,4233.84605
102,0,4215.384512,4204.102461,4216.410153,4218.461435,4229.230666,4230.769127,4235.897332,4242.051178,4503.076813,4229.743486,4243.58964,4220.512717,4250.256306,4225.640922
103,0,4215.384512,4202.564,4216.410153,4217.948615,4232.307589,4230.256307,4232.820409,4244.10246,4524.102453,4239.999896,4242.563999,4220.512717,4246.153742,4213.33323
104,0,4214.871692,4206.153743,4217.948615,4224.615281,4228.205025,4233.33323,4231.281948,4245.128101,4539.999889,4245.640922,4240.512717,4219.487076,4246.153742,4212.307589
105,0,4208.205025,4206.153743,4217.948615,4223.07682,4224.102461,4233.33323,4233.33323,4238.974255,4539.487068,4234.358871,4234.871691,4216.922974,4249.230665,4217.435794
106,0,4195.897333,4192.82041,4215.897333,4213.33323,4221.025538,4226.666563,4228.205025,4226.153743,4516.922966,4226.666563,4232.307589,4216.410153,4243.076819,4205.640923
107,0,4197.948615,4189.230667,4211.281948,4211.794769,4217.948615,4224.102461,4221.538358,4219.487076,4497.435787,4232.820409,4234.358871,4212.82041,4238.461435,4198.461436
108,0,4215.897333,4204.615282,4216.410153,4216.922974,4222.563999,4229.230666,4224.615281,4229.743486,4502.563992,4239.487076,4239.487076,4214.358871,4250.256306,4215.384512
109,0,4223.07682,4213.846051,4223.07682,4221.025538,4229.743486,4231.794768,4229.230666,4244.615281,4502.051172,4245.128101,4250.256306,4224.615281,4260.512716,4230.769127
110,0,4214.358871,4208.205025,4221.025538,4219.999897,4228.205025,4231.281948,4229.230666,4246.666563,4468.717839,4248.205024,4254.35887,4231.794768,4257.948614,4226.666563
111,0,4212.307589,4207.179384,4218.461435,4218.461435,4229.230666,4230.769127,4230.256307,4242.051178,4436.922968,4241.025537,4242.051178,4228.205025,4250.769127,4218.974256
112,0,4210.769128,4209.743487,4219.487076,4217.435794,4236.410153,4229.743486,4232.820409,4245.128101,4423.589635,4240.512717,4231.794768,4217.948615,4246.666563,4215.384512
113,0,4205.640923,4206.666564,4216.922974,4219.999897,4236.922973,4232.307589,4225.128102,4243.58964,4395.897328,4247.179383,4248.205024,4210.256307,4250.769127,4214.871692
114,0,4209.230666,4206.153743,4210.769128,4223.58964,4225.128102,4230.769127,4216.410153,4223.07682,4354.358868,4239.999896,4250.256306,4210.769128,4251.794768,4216.410153
115,0,4218.974256,4210.256307,4207.692205,4223.07682,4221.538358,4223.07682,4217.435794,4214.871692,4333.846048,4231.281948,4228.717845,4214.358871,4250.256306,4214.358871
116,0,4217.435794,4208.717846,4211.794769,4217.948615,4228.205025,4221.025538,4219.999897,4222.563999,4320.512715,4235.384512,4267.179383,4215.384512,4254.871691,4215.384512
117,0,4203.07682,4205.640923,4214.871692,4217.435794,4224.615281,4225.128102,4218.974256,4223.58964,4297.435792,4238.461435,4232.820409,4216.410153,4254.35887,4216.922974
118,0,4199.487077,4204.102461,4214.358871,4218.974256,4217.948615,4223.58964,4221.025538,4226.153743,4279.999895,4232.820409,3988.205031,4212.82041,4245.640922,4215.897333
119,0,4214.358871,4206.153743,4214.358871,4215.897333,4222.563999,4221.025538,4224.102461,4231.794768,4264.61528,4228.205025,3790.256318,4208.205025,4245.128101,4214.871692
120,0,4221.538358,4212.82041,4217.435794,4222.051179,4227.179384,4225.128102,4225.640922,4229.230666,4243.076819,4226.666563,3817.435804,4210.769128,4251.794768,4217.435794
121,0,4217.435794,4218.974256,4219.999897,4227.692204,4232.307589,4229.743486,4226.666563,4230.256307,4225.128102,4234.871691,3876.410162,4214.871692,4254.35887,4218.974256
122,0,4226.666563,4224.102461,4228.717845,4218.974256,4240.512717,4233.33323,4229.743486,4238.461435,4209.230666,4252.307588,3872.820418,4225.128102,4258.974255,4217.435794
123,0,4235.384512,4228.205025,4237.435794,4215.897333,4238.974255,4229.743486,4226.666563,4231.281948,4180.512718,4252.820409,3899.487084,4236.410153,4269.230665,4225.640922
124,0,4217.948615,4220.512717,4230.769127,4217.948615,4225.640922,4218.974256,4217.948615,4214.871692,4147.692206,4234.871691,3923.076827,4226.666563,4265.640921,4235.384512
125,0,4213.33323,4210.769128,4221.025538,4212.82041,4220.512717,4217.948615,4214.358871,4213.846051,4122.564002,4224.102461,3919.487084,4207.179384,4250.769127,4230.256307
126,0,4229.230666,4217.948615,4224.102461,4213.846051,4224.615281,4222.051179,4218.461435,4218.461435,4102.564002,4221.538358,3934.358878,4213.33323,4248.717845,4223.58964
127,0,4228.205025,4226.153743,4231.281948,4222.051179,4228.205025,4222.051179,4220.512717,4219.999897,4081.538362,4217.435794,3945.128109,4227.692204,4254.871691,4223.07682
128,0,4214.358871,4217.948615,4227.179384,4216.410153,4226.666563,4222.563999,4215.897333,4217.435794,4054.871696,4220.512717,3951.794775,4220.512717,4250.256306,4218.974256
0,0,4211.281948,4215.384512,4226.153743,4211.794769,4229.743486,4229.743486,4218.461435,4216.922974,4025.128107,4222.051179,3973.846057,4210.769128,4246.153742,4216.410153
1,0,4224.102461,4223.58964,4236.410153,4225.128102,4239.487076,4231.794768,4227.692204,4228.717845,4011.794774,4226.153743,4004.615287,4219.487076,4256.922973,4232.820409
2,0,4233.84605,4221.538358,4240.512717,4230.769127,4238.974255,4230.256307,4229.230666,4235.384512,3999.487082,4250.769127,4067.179388,4228.717845,4266.666562,4246.153742
3,0,4227.692204,4215.897333,4233.33323,4220.512717,4230.256307,4230.256307,4225.128102,4225.640922,3959.487083,4255.897332,4183.076821,4221.025538,4266.153742,4241.538358
4,0,4220.512717,4211.281948,4227.179384,4214.358871,4224.102461,4228.205025,4225.640922,4215.384512,3909.230674,4229.230666,4268.717844,4213.846051,4261.025537,4238.461435
5,0,4218.461435,4209.743487,4230.256307,4218.461435,4225.640922,4228.205025,4230.256307,4220.512717,3878.461444,4226.666563,4271.281947,4224.102461,4256.922973,4238.974255
6,0,4213.846051,4214.358871,4236.410153,4219.999897,4231.281948,4230.769127,4229.230666,4222.051179,3842.564009,4237.948614,4258.461434,4234.871691,4255.897332,4234.871691
7,0,4213.33323,4217.948615,4233.84605,4215.384512,4232.307589,4228.717845,4223.58964,4210.256307,3794.871702,4218.461435,4263.589639,4222.563999,4253.333229,4229.230666
8,0,4216.410153,4210.256307,4230.769127,4216.410153,4226.153743,4225.640922,4224.102461,4208.717846,3768.205036,4203.589641,4262.563998,4208.205025,4247.179383,4229.743486
9,0,4211.281948,4204.102461,4230.769127,4218.461435,4222.563999,4225.640922,4226.153743,4215.384512,3753.333242,4212.307589,4254.35887,4215.897333,4239.487076,4231.281948
10,0,4213.846051,4211.794769,4233.84605,4219.999897,4226.153743,4225.128102,4226.153743,4213.846051,3728.717858,4203.589641,4246.153742,4221.538358,4232.307589,4231.281948
11,0,4222.051179,4223.07682,4242.051178,4224.615281,4229.230666,4226.666563,4226.153743,4211.794769,3716.922986,4195.384513,4250.256306,4217.435794,4235.897332,4231.281948
12,0,4213.33323,4219.999897,4246.666563,4224.615281,4225.640922,4225.640922,4221.538358,4214.358871,3725.128114,4211.281948,4265.640921,4219.999897,4248.205024,4225.128102
13,0,4211.281948,4212.82041,4249.230665,4216.410153,4223.07682,4221.538358,4219.999897,4213.33323,3726.666576,4222.051179,4269.230665,4225.640922,4254.35887,4227.692204
14,0,4226.153743,4219.487076,4247.692204,4218.461435,4225.640922,4219.999897,4227.692204,4211.794769,3729.230678,4214.871692,4268.205024,4224.102461,4256.410152,4234.358871
15,0,4227.179384,4228.717845,4243.58964,4226.153743,4232.820409,4225.640922,4230.256307,4216.922974,3753.333242,4212.307589,4271.794767,4222.051179,4260.512716,4235.897332
16,0,4212.307589,4219.999897,4240.512717,4223.58964,4234.871691,4226.666563,4220.512717,4208.205025,3766.666575,4217.948615,4262.051178,4219.487076,4254.35887,4233.84605
17,0,4215.384512,4211.794769,4242.051178,4221.025538,4225.640922,4218.974256,4215.897333,4191.794769,3758.974267,4208.205025,4255.897332,4218.461435,4243.58964,4225.128102
18,0,4231.794768,4218.461435,4244.615281,4226.153743,4221.538358,4223.58964,4221.025538,4197.435795,3787.692215,4198.461436,4269.230665,4223.58964,4248.717845,4223.58964
19,0,4224.615281,4218.461435,4246.666563,4225.640922,4226.666563,4230.256307,4223.07682,4211.794769,3837.435804,4206.153743,4275.897331,4222.051179,4250.769127,4225.128102
20,0,4204.102461,4210.256307,4248.205024,4222.051179,4225.640922,4223.07682,4222.563999,4210.256307,3857.435803,4215.384512,4267.692203,4217.948615,4242.563999,4220.512717
21,0,4196.922974,4205.640923,4246.153742,4218.974256,4217.948615,4217.435794,4218.974256,4204.102461,3865.128111,4207.692205,4258.461434,4215.384512,4236.922973,4217.435794
22,0,4204.615282,4206.153743,4239.487076,4214.871692,4217.435794,4217.435794,4218.461435,4200.512718,3883.589649,4201.538359,4251.281947,4203.589641,4236.410153,4219.999897
23,0,4220.512717,4212.82041,4236.410153,4221.538358,4224.102461,4218.974256,4224.615281,4193.333231,3900.512725,4203.07682,4250.256306,4201.025538,4236.922973,4216.922974
24,0,4230.769127,4221.538358,4244.10246,4231.281948,4229.743486,4222.563999,4231.794768,4201.538359,3930.769135,4207.692205,4263.589639,4222.563999,4244.615281,4221.538358
25,0,4233.84605,4222.051179,4254.871691,4225.640922,4227.692204,4223.58964,4231.794768,4214.871692,3963.076826,4217.948615,4275.897331,4234.358871,4252.307588,4241.538358
26,0,4233.33323,4214.358871,4248.205024,4217.435794,4214.358871,4215.897333,4222.051179,4207.179384,3970.769134,4222.563999,4272.820408,4221.025538,4252.820409,4245.128101
27,0,4223.58964,4211.794769,4243.076819,4217.435794,4208.205025,4215.897333,4215.897333,4203.589641,3982.564005,4220.512717,4272.307588,4216.922974,4252.307588,4235.897332
28,0,4215.384512,4214.358871,4249.230665,4218.461435,4217.435794,4222.563999,4217.948615,4213.846051,4012.820415,4224.615281,4276.922972,4221.538358,4252.307588,4232.307589
29,0,4214.358871,4211.281948,4245.128101,4214.871692,4215.384512,4218.461435,4217.948615,4205.128102,4025.640927,4221.538358,4267.179383,4215.384512,4244.615281,4219.999897
30,0,4216.922974,4211.281948,4236.922973,4212.307589,4211.794769,4214.871692,4215.384512,4196.410154,4031.281953,4214.358871,4254.871691,4212.82041,4237.948614,4211.281948
31,0,4227.179384,4219.487076,4243.58964,4210.769128,4223.58964,4223.07682,4221.025538,4208.205025,4051.281952,4212.82041,4256.410152,4215.897333,4238.974255,4216.410153
32,0,4232.820409,4224.102461,4250.769127,4213.846051,4228.717845,4230.256307,4227.179384,4210.769128,4067.179388,4206.153743,4257.948614,4211.281948,4235.384512,4222.051179
33,0,4218.974256,4221.025538,4250.769127,4215.897333,4223.07682,4222.563999,4221.538358,4203.589641,4068.205029,4192.82041,4253.84605,4206.153743,4227.692204,4222.563999
34,0,4217.948615,4223.07682,4258.461434,4215.897333,4231.794768,4216.410153,4221.538358,4205.640923,4078.461439,4200.512718,4257.948614,4218.974256,4231.794768,4232.820409
35,0,4241.538358,4228.717845,4265.640921,4217.435794,4239.999896,4224.615281,4230.256307,4210.256307,4101.025541,4216.922974,4264.61528,4239.999896,4242.051178,4238.974255
36,0,4251.281947,4227.179384,4263.589639,4216.410153,4229.743486,4229.230666,4228.717845,4208.717846,4109.743489,4211.281948,4261.538357,4239.487076,4242.051178,4232.820409
37,0,4238.974255,4224.102461,4262.051178,4214.358871,4224.615281,4223.58964,4219.999897,4205.128102,4105.128105,4203.07682,4262.051178,4220.512717,4241.025537,4231.794768
38,0,4228.205025,4217.948615,4257.435793,4211.281948,4224.102461,4220.512717,4218.461435,4199.999897,4102.564002,4208.205025,4267.179383,4212.307589,4242.563999,4231.794768
39,0,4215.897333,4208.717846,4246.666563,4208.205025,4222.563999,4221.025538,4218.974256,4201.025538,4106.153746,4212.307589,4263.589639,4220.512717,4239.487076,4224.102461
40,0,4208.205025,4208.717846,4247.692204,4207.692205,4223.07682,4221.538358,4218.974256,4205.128102,4104.102464,4216.922974,4258.461434,4224.102461,4238.974255,4224.615281
41,0,4225.640922,4218.461435,4254.871691,4206.153743,4225.128102,4217.948615,4219.999897,4202.051179,4089.230669,4219.487076,4263.076819,4219.487076,4242.563999,4240.512717
42,0,4243.076819,4220.512717,4253.84605,4207.692205,4226.666563,4217.435794,4216.922974,4201.025538,4075.384516,4209.743487,4271.281947,4216.922974,4246.666563,4249.743486
43,0,4231.281948,4217.435794,4253.84605,4212.307589,4225.640922,4222.563999,4217.948615,4206.666564,4070.256311,4202.564,4271.281947,4218.461435,4247.692204,4238.461435
44,0,4220.512717,4220.512717,4262.563998,4214.871692,4228.205025,4226.666563,4222.563999,4207.692205,4063.589644,4209.230666,4267.179383,4226.666563,4248.205024,4229.230666
45,0,4232.307589,4226.153743,4264.61528,4216.410153,4236.922973,4226.666563,4222.563999,4208.205025,4052.307593,4215.384512,4268.717844,4229.743486,4246.153742,4233.84605
46,0,4237.435794,4223.58964,4254.35887,4216.410153,4233.84605,4224.102461,4219.487076,4206.666564,4039.999901,4210.769128,4264.10246,4219.487076,4237.435794,4229.743486
47,0,4229.743486,4221.025538,4245.640922,4211.794769,4227.179384,4221.025538,4216.410153,4196.922974,4025.640927,4206.666564,4250.769127,4213.33323,4229.230666,4218.974256
48,0,4221.025538,4224.102461,4246.666563,4212.307589,4237.435794,4223.58964,4218.974256,4190.769128,4012.820415,4210.256307,4250.256306,4212.82041,4231.281948,4215.384512
49,0,4210.256307,4224.615281,4249.743486,4215.897333,4244.10246,4230.256307,4225.128102,4196.922974,4006.153748,4212.82041,4261.538357,4210.769128,4238.974255,4215.384512
50,0,4211.794769,4217.435794,4244.615281,4205.128102,4230.769127,4229.743486,4224.102461,4199.999897,3996.410159,4206.153743,4263.589639,4208.717846,4238.461435,4216.410153
51,0,4226.153743,4211.281948,4232.820409,4200.512718,4224.102461,4226.153743,4216.922974,4193.846051,3983.076826,4201.025538,4258.461434,4207.179384,4233.84605,4220.512717
52,0,4229.743486,4215.384512,4234.358871,4213.33323,4227.692204,4225.640922,4216.922974,4192.30759,3981.538364,4204.102461,4255.384511,4206.153743,4236.410153,4225.128102
53,0,4224.102461,4223.07682,4245.640922,4215.384512,4231.794768,4223.58964,4218.461435,4198.974256,3983.589646,4216.410153,4261.025537,4213.33323,4241.025537,4230.769127
54,0,4229.230666,4227.692204,4248.717845,4208.205025,4234.871691,4224.102461,4217.948615,4204.102461,3973.846057,4226.666563,4267.692203,4225.128102,4245.128101,4234.358871
55,0,4236.922973,4226.153743,4248.205024,4213.33323,4228.205025,4227.692204,4222.563999,4201.025538,3957.435801,4213.846051,4259.487075,4225.128102,4241.538358,4226.666563
56,0,4233.84605,4223.58964,4253.333229,4219.999897,4225.640922,4227.692204,4225.640922,4205.640923,3953.846057,4202.051179,4252.820409,4215.897333,4236.410153,4225.128102
57,0,4232.307589,4226.666563,4255.897332,4215.384512,4236.410153,4228.717845,4226.153743,4225.128102,3956.92298,4217.948615,4262.051178,4213.846051,4239.999896,4234.358871
58,0,4227.692204,4227.179384,4247.179383,4211.281948,4235.384512,4229.743486,4232.820409,4224.615281,3945.128109,4220.512717,4257.435793,4212.82041,4236.922973,4227.179384
59,0,4209.743487,4213.846051,4235.897332,4209.230666,4219.999897,4225.640922,4229.743486,4203.07682,3913.846058,4197.948615,4232.820409,4203.07682,4217.948615,4208.717846
60,0,4205.128102,4204.615282,4231.794768,4203.589641,4216.410153,4222.051179,4219.999897,4196.410154,3890.256315,4191.794769,4227.179384,4196.410154,4207.179384,4206.666564
61,0,4225.640922,4212.307589,4234.871691,4204.102461,4226.153743,4226.666563,4222.051179,4205.128102,3887.179392,4204.615282,4244.615281,4204.615282,4221.538358,4221.025538
62,0,4236.922973,4224.615281,4241.538358,4212.82041,4234.358871,4232.820409,4224.615281,4204.615282,3883.076828,4216.922974,4263.076819,4216.410153,4246.153742,4232.820409
63,0,4230.256307,4231.794768,4249.743486,4219.487076,4236.922973,4230.256307,4215.897333,4197.948615,3870.256316,4226.153743,4269.230665,4226.153743,4255.384511,4241.025537
64,0,4232.820409,4236.410153,4258.461434,4219.487076,4234.871691,4227.692204,4212.82041,4197.948615,3856.922983,4227.692204,4267.179383,4230.769127,4253.84605,4248.717845
65,0,4238.461435,4240.512717,4260.512716,4218.461435,4232.820409,4229.230666,4217.948615,4198.974256,3843.076829,4214.358871,4269.743485,4232.820409,4256.922973,4250.256306
66,0,4235.897332,4238.974255,4255.384511,4219.999897,4235.384512,4227.179384,4219.999897,4202.051179,3836.410163,4211.794769,4271.794767,4234.871691,4262.051178,4243.58964
67,0,4227.179384,4224.615281,4248.205024,4217.948615,4228.717845,4223.58964,4216.922974,4202.051179,3835.897342,4224.615281,4260.512716,4229.230666,4252.820409,4231.794768
68,0,4224.615281,4215.897333,4245.128101,4215.384512,4219.487076,4226.153743,4216.922974,4198.974256,3834.871701,4226.666563,4252.820409,4219.487076,4242.051178,4230.256307
69,0,4231.794768,4222.051179,4243.076819,4213.33323,4224.102461,4230.769127,4223.07682,4203.07682,3843.076829,4215.384512,4260.512716,4213.846051,4243.58964,4237.435794
70,0,4222.563999,4218.461435,4241.538358,4212.82041,4228.717845,4229.230666,4226.666563,4210.769128,3854.871701,4208.717846,4254.871691,4214.358871,4238.461435,4228.205025
71,0,4203.589641,4207.692205,4241.025537,4212.82041,4220.512717,4221.538358,4221.538358,4207.692205,3861.025547,4211.794769,4236.410153,4215.897333,4229.230666,4216.410153
72,0,4214.871692,4219.999897,4239.999896,4215.384512,4217.948615,4218.974256,4216.410153,4195.384513,3871.794777,4212.82041,4233.33323,4215.897333,4227.179384,4228.205025
73,0,4245.640922,4247.692204,4242.563999,4225.640922,4226.666563,4223.58964,4214.871692,4190.769128,3886.153751,4207.179384,4239.487076,4214.358871,4227.692204,4237.948614
74,0,4251.281947,4262.051178,4248.717845,4235.384512,4233.84605,4227.692204,4214.358871,4191.794769,3889.743495,4204.102461,4239.999896,4213.846051,4225.640922,4229.743486
75,0,4235.897332,4261.538357,4248.717845,4231.281948,4237.435794,4227.179384,4216.410153,4193.846051,3902.051187,4204.102461,4235.384512,4211.281948,4222.051179,4230.256307
76,0,4225.640922,4251.281947,4240.512717,4222.563999,4229.743486,4225.640922,4215.897333,4194.358872,3922.051186,4198.461436,4226.666563,4205.640923,4214.358871,4230.769127
77,0,4229.230666,4241.538358,4232.307589,4222.051179,4218.974256,4221.025538,4212.307589,4189.230667,3930.256314,4187.179385,4223.58964,4198.974256,4208.205025,4219.999897
78,0,4228.717845,4241.025537,4230.256307,4219.999897,4218.974256,4219.487076,4213.33323,4186.666564,3944.102468,4190.769128,4231.281948,4196.410154,4211.794769,4213.33323
79,0,4212.82041,4237.948614,4226.153743,4212.82041,4221.025538,4223.07682,4216.410153,4194.358872,3976.410159,4202.564,4235.384512,4200.512718,4219.999897,4215.384512
80,0,4209.230666,4237.435794,4225.640922,4217.435794,4220.512717,4223.07682,4215.897333,4204.102461,4008.717851,4206.666564,4232.820409,4203.589641,4221.025538,4217.948615
81,0,4220.512717,4248.205024,4234.358871,4228.205025,4228.205025,4225.128102,4216.922974,4208.205025,4030.256312,4217.948615,4236.922973,4210.256307,4221.538358,4221.538358
82,0,4218.461435,4251.794768,4238.461435,4230.769127,4232.307589,4229.743486,4217.435794,4195.897333,4034.358876,4221.538358,4239.487076,4211.794769,4222.563999,4224.102461
83,0,4219.487076,4248.717845,4236.922973,4230.256307,4228.717845,4227.179384,4213.33323,4182.05118,4035.384517,4204.615282,4237.435794,4206.153743,4222.051179,4230.769127
84,0,4243.076819,4255.897332,4244.10246,4236.410153,4228.205025,4226.153743,4211.794769,4189.743487,4051.794773,4209.743487,4240.512717,4210.769128,4226.666563,4241.538358
85,0,4261.025537,4262.563998,4250.256306,4236.922973,4227.692204,4228.717845,4215.384512,4205.640923,4070.256311,4231.794768,4240.512717,4220.512717,4232.307589,4238.974255
86,0,4245.640922,4257.435793,4245.128101,4232.307589,4224.615281,4224.102461,4216.922974,4209.230666,4077.948618,4222.051179,4239.999896,4217.435794,4229.743486,4229.743486
87,0,4217.435794,4252.307588,4237.948614,4230.769127,4226.666563,4219.999897,4216.410153,4209.230666,4092.820413,4209.230666,4246.153742,4214.358871,4226.666563,4228.717845
88,0,4207.179384,4237.948614,4224.615281,4219.487076,4222.563999,4218.974256,4216.410153,4206.153743,4106.666566,4219.487076,4239.487076,4206.153743,4220.512717,4218.974256
89,0,4211.281948,4225.128102,4211.281948,4211.281948,4214.358871,4215.897333,4213.33323,4196.410154,4111.794771,4217.948615,4220.512717,4187.692205,4208.717846,4204.102461
90,0,4225.128102,4238.974255,4219.487076,4224.615281,4221.025538,4223.07682,4215.384512,4200.512718,4132.307591,4215.384512,4227.692204,4192.30759,4211.794769,4216.922974
91,0,4240.512717,4253.333229,4238.461435,4235.384512,4230.769127,4233.33323,4224.615281,4209.230666,4156.410155,4227.692204,4247.692204,4216.410153,4228.205025,4237.948614
92,0,4236.410153,4248.717845,4245.640922,4230.769127,4230.769127,4229.743486,4227.692204,4207.179384,4165.640924,4230.769127,4241.025537,4223.58964,4231.794768,4236.410153
93,0,4227.179384,4250.769127,4248.205024,4231.281948,4232.820409,4228.205025,4227.692204,4206.666564,4172.820411,4222.051179,4236.922973,4224.102461,4231.281948,4233.84605
94,0,4239.487076,4257.948614,4252.820409,4235.897332,4236.922973,4231.794768,4226.153743,4213.846051,4181.538359,4219.999897,4249.743486,4227.692204,4237.435794,4237.435794
95,0,4251.794768,4248.717845,4247.179383,4233.33323,4233.84605,4229.743486,4222.563999,4214.871692,4176.410154,4223.58964,4248.205024,4216.922974,4234.358871,4234.871691
96,0,4236.922973,4239.487076,4235.384512,4231.794768,4234.871691,4229.743486,4223.07682,4209.230666,4163.589642,4222.051179,4233.33323,4205.640923,4224.615281,4226.666563
97,0,4217.435794,4238.461435,4230.769127,4231.281948,4235.897332,4231.281948,4223.58964,4208.717846,4144.102463,4208.205025,4230.256307,4206.153743,4219.487076,4218.974256
98,0,4214.358871,4238.461435,4230.256307,4230.256307,4228.717845,4229.230666,4218.461435,4206.666564,4117.435797,4209.230666,4231.281948,4202.564,4219.999897,4215.384512
99,0,4222.051179,4241.538358,4228.717845,4230.769127,4223.58964,4228.205025,4216.922974,4197.948615,4099.9999,4225.640922,4225.640922,4200.512718,4217.435794,4215.897333
100,0,4230.256307,4244.615281,4229.743486,4232.307589,4226.666563,4228.205025,4224.102461,4196.410154,4088.205028,4223.07682,4228.205025,4210.256307,4214.871692,4223.58964
101,0,4233.84605,4244.10246,4237.435794,4233.33323,4231.794768,4228.717845,4228.205025,4202.051179,4076.410157,4217.435794,4239.999896,4217.948615,4222.051179,4234.871691
102,0,4236.922973,4249.743486,4245.128101,4234.358871,4230.769127,4231.794768,4229.230666,4209.230666,4069.74349,4232.820409,4248.717845,4217.948615,4229.743486,4240.512717
103,0,4243.58964,4255.897332,4242.051178,4234.358871,4228.717845,4232.307589,4229.230666,4207.692205,4055.897337,4235.897332,4248.205024,4216.922974,4229.230666,4239.487076
104,0,4246.666563,4254.35887,4237.948614,4233.33323,4233.84605,4229.230666,4228.717845,4203.589641,4039.999901,4228.717845,4248.205024,4218.974256,4230.769127,4246.666563
105,0,4241.025537,4255.897332,4239.487076,4234.871691,4236.410153,4227.179384,4229.743486,4213.846051,4043.589645,4238.461435,4249.743486,4226.666563,4234.358871,4249.743486
106,0,4234.358871,4256.922973,4242.051178,4234.358871,4228.717845,4225.640922,4226.666563,4227.692204,4046.666568,4256.922973,4250.256306,4233.33323,4230.769127,4236.922973
107,0,4241.538358,4249.230665,4238.974255,4233.33323,4224.102461,4227.692204,4224.615281,4223.07682,4036.922978,4256.922973,4250.769127,4226.666563,4228.717845,4231.794768
108,0,4242.563999,4248.717845,4234.871691,4238.461435,4230.256307,4234.871691,4230.256307,4214.871692,4031.794773,4236.922973,4246.153742,4216.922974,4228.717845,4233.84605
109,0,4223.58964,4250.256306,4231.281948,4237.435794,4228.717845,4230.256307,4233.33323,4213.846051,4025.128107,4225.128102,4235.897332,4215.897333,4219.487076,4221.538358
110,0,4217.948615,4247.179383,4231.281948,4228.205025,4218.461435,4218.974256,4226.153743,4213.33323,4014.871697,4228.717845,4237.435794,4217.948615,4211.794769,4212.307589
111,0,4233.84605,4248.717845,4236.410153,4229.230666,4221.538358,4222.563999,4226.666563,4217.435794,4019.487081,4241.025537,4250.256306,4217.435794,4219.999897,4225.128102
112,0,4241.538358,4248.717845,4236.922973,4232.820409,4228.717845,4227.692204,4229.230666,4216.922974,4012.307594,4242.563999,4246.666563,4216.922974,4226.666563,4233.33323
113,0,4238.974255,4246.153742,4240.512717,4228.205025,4228.717845,4222.563999,4222.051179,4201.025538,3978.461441,4226.153743,4235.384512,4216.922974,4222.563999,4228.717845
114,0,4238.461435,4247.692204,4247.692204,4229.230666,4225.640922,4219.999897,4221.025538,4195.897333,3953.846057,4211.281948,4236.410153,4218.974256,4213.33323,4229.743486
115,0,4236.410153,4246.666563,4242.051178,4234.358871,4224.615281,4221.538358,4225.640922,4201.538359,3943.076827,4216.410153,4235.897332,4219.487076,4207.692205,4227.692204
116,0,4232.307589,4241.025537,4233.84605,4232.820409,4225.640922,4220.512717,4226.153743,4199.999897,3924.615289,4227.692204,4230.256307,4213.846051,4207.179384,4219.487076
117,0,4221.025538,4237.435794,4231.794768,4228.205025,4224.615281,4218.974256,4223.07682,4202.051179,3908.205033,4226.153743,4233.33323,4206.153743,4206.153743,4220.512717
118,0,4204.615282,4230.256307,4228.205025,4220.512717,4214.871692,4219.487076,4221.538358,4207.692205,3893.846059,4219.999897,4233.84605,4202.051179,4197.948615,4213.846051
119,0,4213.33323,4230.769127,4223.58964,4216.410153,4213.33323,4219.487076,4222.051179,4208.205025,3882.051187,4222.051179,4228.717845,4204.102461,4197.435795,4201.538359
120,0,4233.33323,4238.974255,4226.153743,4218.974256,4222.051179,4217.948615,4226.666563,4212.307589,3883.589649,4233.33323,4235.384512,4208.205025,4209.230666,4214.358871
121,0,4232.307589,4236.922973,4230.769127,4221.025538,4218.461435,4217.435794,4230.769127,4222.563999,3885.12811,4239.999896,4243.58964,4217.948615,4212.82041,4238.461435
122,0,4223.07682,4229.743486,4231.794768,4217.948615,4209.743487,4220.512717,4231.281948,4219.487076,3868.717854,4232.820409,4236.922973,4228.205025,4207.692205,4236.410153
123,0,4221.025538,4230.256307,4231.794768,4217.948615,4214.871692,4222.051179,4229.743486,4204.615282,3849.743496,4217.435794,4228.717845,4223.07682,4201.538359,4218.974256
124,0,4219.487076,4236.410153,4237.948614,4224.615281,4225.128102,4223.07682,4228.205025,4203.589641,3853.84606,4213.846051,4229.743486,4213.33323,4197.435795,4220.512717
125,0,4230.769127,4243.076819,4248.205024,4231.794768,4229.743486,4229.230666,4230.256307,4212.307589,3866.666572,4230.256307,4232.820409,4219.487076,4204.615282,4229.743486
126,0,4238.461435,4241.025537,4243.58964,4233.33323,4225.128102,4228.717845,4227.179384,4207.692205,3866.153752,4229.743486,4231.794768,4219.999897,4206.153743,4223.58964
127,0,4222.051179,4232.307589,4231.794768,4228.717845,4212.307589,4219.999897,4216.922974,4196.922974,3855.897342,4205.128102,4224.615281,4200.512718,4192.30759,4213.846051
128,0,4210.769128,4228.717845,4227.179384,4222.051179,4209.230666,4216.410153,4213.846051,4196.922974,3844.615291,4198.461436,4222.563999,4189.230667,4188.717846,4213.846051
0,0,4208.717846,4228.717845,4228.205025,4221.025538,4219.999897,4219.487076,4215.897333,4196.410154,3832.307599,4210.256307,4230.769127,4200.512718,4199.999897,4213.846051
1,0,4205.128102,4227.692204,4231.794768,4229.230666,4223.07682,4219.999897,4217.435794,4195.897333,3831.794778,4218.461435,4237.948614,4213.846051,4207.179384,4212.82041
2,0,4217.435794,4226.666563,4236.410153,4229.230666,4214.358871,4217.948615,4218.974256,4202.051179,3842.564009,4224.615281,4237.948614,4215.897333,4208.717846,4219.999897
3,0,4230.769127,4227.692204,4234.871691,4219.999897,4212.307589,4223.07682,4218.974256,4205.128102,3839.487086,4226.153743,4239.487076,4210.256307,4209.743487,4230.769127
4,0,4218.461435,4229.743486,4229.230666,4222.563999,4221.025538,4227.179384,4218.461435,4199.999897,3823.58965,4219.999897,4233.33323,4202.564,4205.640923,4230.769127
5,0,4211.281948,4232.820409,4227.179384,4227.179384,4226.153743,4223.07682,4216.922974,4192.82041,3817.435804,4212.82041,4221.538358,4200.512718,4199.487077,4221.025538
6,0,4223.07682,4233.33323,4229.230666,4227.179384,4222.563999,4218.974256,4208.205025,4184.102462,3814.871702,4205.128102,4217.948615,4203.07682,4192.82041,4213.33323
7,0,4223.07682,4234.871691,4231.794768,4231.281948,4223.58964,4219.999897,4203.07682,4185.128103,3810.769138,4206.153743,4222.563999,4212.307589,4190.769128,4213.33323
8,0,4213.33323,4237.435794,4235.384512,4233.84605,4225.128102,4219.487076,4205.640923,4189.230667,3806.666574,4208.205025,4224.615281,4216.410153,4195.897333,4213.846051
9,0,4213.846051,4232.820409,4232.820409,4230.256307,4220.512717,4216.922974,4203.07682,4181.025539,3803.589651,4200.512718,4228.205025,4204.615282,4195.384513,4213.846051
10,0,4225.128102,4229.743486,4228.717845,4230.256307,4216.410153,4216.922974,4202.051179,4179.999898,3812.82042,4206.153743,4236.410153,4196.922974,4194.358872,4218.461435
11,0,4231.794768,4234.358871,4229.743486,4230.256307,4221.538358,4216.410153,4209.230666,4195.384513,3837.435804,4224.615281,4241.025537,4205.128102,4201.025538,4221.538358
12,0,4228.717845,4232.820409,4232.820409,4224.615281,4218.461435,4216.410153,4212.82041,4201.538359,3859.487085,4224.615281,4234.358871,4212.307589,4203.589641,4217.435794
13,0,4216.410153,4219.999897,4231.281948,4218.461435,4207.179384,4216.922974,4210.256307,4197.948615,3867.692213,4214.358871,4230.769127,4210.256307,4199.487077,4214.871692
14,0,4207.179384,4220.512717,4227.692204,4216.922974,4210.256307,4214.358871,4209.743487,4195.384513,3874.35888,4212.307589,4235.897332,4208.717846,4199.999897,4221.025538
15,0,4218.461435,4235.897332,4234.358871,4223.58964,4224.102461,4217.948615,4214.871692,4198.974256,3899.999905,4223.07682,4242.563999,4215.384512,4210.769128,4234.358871
16,0,4234.871691,4236.410153,4245.640922,4232.820409,4230.256307,4224.615281,4224.615281,4212.82041,3936.41016,4243.58964,4248.205024,4231.281948,4221.025538,4238.461435
17,0,4235.897332,4227.179384,4243.076819,4232.820409,4228.717845,4224.615281,4225.640922,4220.512717,3953.333237,4238.974255,4249.743486,4233.33323,4215.384512,4231.794768
18,0,4229.743486,4236.922973,4229.230666,4228.717845,4223.07682,4217.435794,4215.897333,4205.640923,3952.820416,4208.205025,4241.025537,4211.281948,4194.358872,4227.692204
19,0,4232.307589,4253.333229,4228.205025,4237.948614,4219.999897,4217.948615,4212.82041,4195.384513,3968.717852,4201.025538,4228.205025,4197.948615,4181.538359,4226.666563
20,0,4234.871691,4258.461434,4235.897332,4246.666563,4225.128102,4224.615281,4217.435794,4199.999897,3998.974261,4210.256307,4222.051179,4201.025538,4180.512718,4217.948615
21,0,4230.256307,4263.589639,4235.897332,4243.076819,4232.820409,4228.205025,4214.871692,4198.974256,4019.999902,4208.717846,4223.58964,4201.538359,4178.974257,4209.230666
22,0,4233.33323,4271.794767,4241.025537,4245.640922,4235.384512,4232.307589,4214.871692,4199.487077,4039.487081,4217.435794,4231.281948,4206.153743,4186.666564,4216.922974
23,0,4241.538358,4269.743485,4248.717845,4250.769127,4230.769127,4229.743486,4212.82041,4196.922974,4052.307593,4223.58964,4237.435794,4217.948615,4199.999897,4227.179384
24,0,4247.179383,4265.128101,4247.179383,4243.076819,4222.563999,4219.999897,4202.564,4186.153744,4054.871696,4209.743487,4234.871691,4218.974256,4199.487077,4233.33323
25,0,4250.769127,4264.10246,4246.153742,4238.974255,4222.051179,4219.999897,4206.153743,4187.692205,4058.461439,4203.589641,4229.230666,4214.358871,4195.897333,4244.10246
26,0,4258.461434,4266.666562,4252.820409,4250.256306,4227.692204,4227.692204,4219.999897,4203.07682,4063.076824,4215.384512,4233.84605,4218.974256,4202.564,4247.179383
27,0,4256.410152,4263.589639,4251.794768,4249.743486,4229.743486,4229.743486,4222.051179,4209.743487,4052.820414,4216.922974,4237.435794,4221.538358,4202.564,4232.820409
28,0,4237.435794,4252.820409,4238.974255,4235.897332,4229.230666,4227.692204,4216.410153,4201.538359,4022.051184,4202.051179,4230.769127,4213.33323,4193.333231,4218.974256
29,0,4224.615281,4242.051178,4229.743486,4232.307589,4224.102461,4225.128102,4214.871692,4194.871692,3988.717851,4191.281949,4220.512717,4200.512718,4183.589641,4215.384512
30,0,4225.128102,4237.435794,4226.666563,4235.384512,4222.051179,4221.538358,4214.871692,4197.948615,3965.128108,4199.487077,4217.948615,4197.948615,4178.974257,4207.692205
31,0,4218.974256,4239.999896,4229.230666,4236.410153,4228.205025,4224.615281,4216.922974,4203.07682,3937.948622,4209.230666,4224.102461,4204.615282,4179.999898,4195.897333
32,0,4208.717846,4241.025537,4233.33323,4240.512717,4228.717845,4230.769127,4217.948615,4201.025538,3898.974264,4205.640923,4224.615281,4209.230666,4184.615282,4195.897333
33,0,4218.461435,4240.512717,4233.33323,4245.128101,4225.128102,4230.256307,4215.384512,4203.589641,3868.717854,4209.743487,4224.615281,4211.281948,4189.230667,4210.256307
34,0,4242.051178,4249.230665,4231.281948,4247.179383,4229.230666,4230.769127,4218.461435,4211.794769,3845.128111,4225.640922,4235.384512,4214.358871,4197.948615,4225.640922
35,0,4247.179383,4261.538357,4233.84605,4249.230665,4231.794768,4228.205025,4219.487076,4208.717846,3811.794779,4227.179384,4244.10246,4218.461435,4206.153743,4232.820409
36,0,4237.435794,4256.410152,4233.33323,4246.666563,4225.128102,4221.538358,4214.358871,4197.948615,3774.871703,4210.256307,4228.205025,4214.358871,4199.487077,4228.717845
37,0,4225.128102,4239.487076,4222.563999,4236.410153,4219.999897,4215.897333,4210.769128,4189.743487,3743.076832,4196.410154,4215.384512,4200.512718,4189.230667,4222.051179
38,0,4212.82041,4231.281948,4215.897333,4231.281948,4218.461435,4217.948615,4212.307589,4189.230667,3721.02555,4201.025538,4223.58964,4196.410154,4189.743487,4218.461435
39,0,4203.589641,4229.743486,4215.897333,4231.794768,4221.025538,4223.58964,4215.897333,4196.410154,3714.871704,4208.717846,4226.153743,4201.025538,4189.230667,4208.717846
40,0,4195.384513,4225.128102,4213.33323,4229.743486,4223.07682,4224.102461,4216.410153,4200.512718,3717.435807,4202.564,4221.025538,4202.051179,4181.538359,4196.410154
41,0,4204.615282,4220.512717,4209.230666,4227.692204,4221.538358,4223.07682,4214.871692,4206.153743,3731.28196,4206.666564,4221.538358,4198.461436,4182.564,4199.999897
42,0,4219.487076,4223.58964,4212.307589,4231.281948,4222.563999,4227.179384,4216.922974,4210.256307,3744.102473,4230.256307,4225.640922,4198.974256,4188.717846,4211.794769
43,0,4224.102461,4234.358871,4223.07682,4235.897332,4227.179384,4233.84605,4219.999897,4210.769128,3745.128114,4230.256307,4229.230666,4209.230666,4188.717846,4216.922974
44,0,4225.640922,4237.948614,4228.205025,4238.461435,4226.666563,4229.743486,4219.999897,4207.692205,3738.974268,4205.640923,4234.871691,4215.897333,4189.230667,4222.563999
45,0,4232.307589,4235.384512,4224.102461,4243.58964,4224.615281,4219.999897,4215.384512,4205.128102,3737.948627,4208.717846,4234.871691,4213.846051,4192.82041,4230.256307
46,0,4237.948614,4237.435794,4226.666563,4247.692204,4223.07682,4223.07682,4218.461435,4214.358871,3744.102473,4225.640922,4234.358871,4218.461435,4196.922974,4238.461435
47,0,4242.563999,4245.128101,4237.948614,4247.692204,4227.179384,4230.256307,4226.153743,4223.58964,3745.128114,4219.999897,4242.563999,4230.256307,4202.564,4239.999896
48,0,4238.461435,4244.10246,4236.410153,4247.179383,4230.256307,4224.102461,4224.615281,4209.743487,3730.256319,4212.82041,4233.84605,4224.615281,4201.538359,4224.102461
49,0,4225.128102,4237.948614,4221.025538,4245.128101,4225.640922,4214.871692,4215.897333,4192.30759,3713.846063,4210.769128,4215.384512,4205.128102,4194.871692,4209.230666
50,0,4223.07682,4238.461435,4210.256307,4242.563999,4222.563999,4222.563999,4214.871692,4196.922974,3714.358884,4201.538359,4220.512717,4198.461436,4195.897333,4216.410153
51,0,4229.230666,4236.410153,4210.769128,4241.025537,4227.692204,4228.717845,4218.974256,4201.025538,3716.410166,4201.538359,4233.33323,4200.512718,4198.461436,4222.051179
52,0,4227.179384,4229.743486,4207.692205,4236.922973,4224.102461,4221.538358,4217.435794,4193.846051,3706.153756,4211.794769,4222.051179,4196.922974,4189.230667,4206.153743
53,0,4220.512717,4229.230666,4201.538359,4230.256307,4218.461435,4216.922974,4213.33323,4191.794769,3689.230679,4204.102461,4208.205025,4192.82041,4182.05118,4194.358872
54,0,4218.461435,4234.871691,4204.102461,4231.281948,4222.563999,4216.410153,4210.256307,4189.743487,3685.128115,4185.640923,4214.358871,4198.974256,4183.589641,4207.692205
55,0,4229.230666,4238.974255,4217.948615,4242.563999,4225.640922,4220.512717,4210.769128,4193.846051,3702.051192,4194.358872,4225.128102,4212.82041,4188.717846,4226.153743
56,0,4241.538358,4241.025537,4229.743486,4249.230665,4229.230666,4223.58964,4215.897333,4207.692205,3721.02555,4217.948615,4227.179384,4223.07682,4195.897333,4236.410153
57,0,4239.999896,4243.076819,4228.717845,4247.692204,4233.84605,4221.538358,4219.487076,4208.205025,3719.999909,4221.025538,4229.743486,4222.563999,4202.051179,4232.820409
58,0,4235.897332,4241.025537,4220.512717,4245.128101,4231.794768,4224.102461,4217.435794,4197.948615,3713.333243,4217.435794,4233.33323,4218.461435,4203.07682,4213.33323
59,0,4226.666563,4232.820409,4214.871692,4238.461435,4224.615281,4230.256307,4214.871692,4200.512718,3719.999909,4220.512717,4232.307589,4216.922974,4197.435795,4202.051179
60,0,4209.743487,4224.102461,4207.692205,4232.307589,4221.538358,4224.102461,4214.358871,4203.07682,3725.640935,4219.999897,4231.794768,4206.666564,4194.871692,4217.948615
61,0,4209.230666,4223.58964,4201.538359,4238.461435,4219.999897,4216.410153,4214.358871,4195.897333,3712.820422,4221.538358,4232.307589,4196.922974,4197.435795,4221.025538
62,0,4220.512717,4224.615281,4200.512718,4245.640922,4220.512717,4220.512717,4215.897333,4196.410154,3701.025551,4222.563999,4224.102461,4205.128102,4197.435795,4200.512718
63,0,4215.897333,4223.07682,4201.025538,4237.435794,4222.051179,4221.538358,4217.435794,4202.564,3707.179397,4210.256307,4220.512717,4212.307589,4194.358872,4197.435795
64,0,4212.82041,4223.07682,4202.564,4229.743486,4219.999897,4216.922974,4216.410153,4203.07682,3715.384525,4203.07682,4232.307589,4208.717846,4198.461436,4217.435794
65,0,4223.58964,4224.102461,4209.743487,4236.410153,4217.948615,4216.922974,4214.358871,4199.999897,3714.358884,4210.256307,4236.922973,4207.692205,4208.717846,4233.33323
66,0,4234.358871,4230.256307,4214.871692,4245.640922,4222.051179,4220.512717,4215.384512,4201.538359,3718.461448,4216.922974,4234.358871,4215.384512,4213.33323,4234.871691
67,0,4247.692204,4237.948614,4214.871692,4248.205024,4227.692204,4226.153743,4217.435794,4203.07682,3729.230678,4222.051179,4241.025537,4225.640922,4216.922974,4236.410153
68,0,4248.205024,4239.487076,4220.512717,4246.666563,4231.281948,4231.794768,4215.897333,4202.051179,3729.743499,4232.820409,4241.538358,4228.717845,4221.538358,4242.051178
69,0,4224.615281,4237.948614,4226.153743,4241.025537,4232.820409,4231.281948,4217.948615,4202.564,3733.333242,4232.820409,4230.256307,4224.615281,4218.461435,4231.794768
70,0,4211.281948,4239.999896,4223.07682,4242.051178,4234.358871,4231.281948,4225.640922,4211.794769,3759.487088,4229.743486,4229.230666,4221.025538,4211.794769,4213.846051
71,0,4222.563999,4233.33323,4212.307589,4245.640922,4231.281948,4231.794768,4225.128102,4213.846051,3786.666574,4231.794768,4236.410153,4212.82041,4205.640923,4215.384512
72,0,4225.640922,4218.974256,4201.538359,4237.435794,4223.58964,4225.640922,4217.435794,4196.922974,3787.692215,4216.410153,4227.179384,4197.948615,4193.846051,4215.897333
73,0,4216.410153,4216.922974,4197.435795,4229.743486,4218.461435,4224.615281,4218.461435,4191.281949,3793.333241,4205.640923,4212.82041,4198.974256,4186.666564,4205.128102
74,0,4212.307589,4222.563999,4203.589641,4235.384512,4219.487076,4226.666563,4221.025538,4196.922974,3818.974266,4216.410153,4216.922974,4212.82041,4191.794769,4211.281948
75,0,4211.794769,4225.128102,4212.82041,4235.384512,4219.999897,4219.487076,4216.922974,4191.794769,3834.358881,4215.384512,4223.58964,4214.871692,4197.948615,4218.974256
76,0,4218.974256,4230.256307,4216.410153,4230.256307,4220.512717,4218.461435,4214.871692,4184.102462,3840.512727,4200.512718,4224.615281,4212.82041,4197.435795,4212.307589
77,0,4235.897332,4242.051178,4216.922974,4240.512717,4230.769127,4230.769127,4217.435794,4192.82041,3869.230675,4212.82041,4232.820409,4219.999897,4204.102461,4217.948615
78,0,4236.410153,4242.051178,4216.410153,4246.666563,4233.84605,4234.358871,4220.512717,4206.666564,3904.102469,4234.358871,4237.948614,4221.538358,4212.82041,4227.692204
79,0,4225.640922,4229.743486,4210.256307,4234.871691,4223.07682,4221.025538,4218.461435,4202.564,3908.717853,4226.153743,4225.128102,4210.256307,4206.153743,4220.512717
80,0,4220.512717,4220.512717,4203.07682,4226.153743,4217.435794,4214.871692,4217.435794,4192.82041,3900.512725,4209.230666,4212.82041,4203.07682,4193.333231,4211.281948
81,0,4217.435794,4219.487076,4205.128102,4229.230666,4226.153743,4224.102461,4224.102461,4202.564,3910.769135,4216.410153,4217.948615,4206.666564,4190.769128,4210.256307
82,0,4209.743487,4224.102461,4209.230666,4229.743486,4227.692204,4230.769127,4225.128102,4211.794769,3921.025545,4223.58964,4219.487076,4209.230666,4187.692205,4203.07682
83,0,4206.153743,4217.948615,4202.564,4220.512717,4217.948615,4222.051179,4217.435794,4198.461436,3912.820417,4206.666564,4207.179384,4205.640923,4178.461436,4191.794769
84,0,4208.205025,4207.179384,4195.897333,4216.922974,4213.846051,4214.871692,4216.410153,4185.128103,3898.461443,4190.769128,4202.051179,4198.974256,4174.358872,4192.82041
85,0,4213.846051,4219.999897,4204.615282,4227.179384,4223.07682,4224.102461,4219.487076,4189.230667,3891.794777,4202.564,4216.922974,4202.564,4183.589641,4210.256307
86,0,4227.179384,4240.512717,4218.974256,4234.358871,4230.769127,4230.769127,4220.512717,4194.358872,3897.948623,4219.999897,4232.820409,4214.358871,4195.897333,4228.717845
87,0,4239.487076,4242.563999,4220.512717,4228.205025,4229.230666,4227.692204,4223.07682,4198.461436,3898.974264,4227.692204,4228.717845,4218.974256,4201.025538,4228.205025
88,0,4241.025537,4239.487076,4217.948615,4229.743486,4229.743486,4229.230666,4223.07682,4205.640923,3883.076828,4235.897332,4222.563999,4222.563999,4204.102461,4225.128102
89,0,4235.897332,4243.076819,4220.512717,4235.897332,4231.281948,4231.281948,4218.461435,4207.179384,3869.230675,4236.922973,4230.769127,4227.179384,4211.794769,4238.974255
90,0,4230.769127,4235.897332,4214.358871,4225.128102,4228.717845,4221.025538,4217.435794,4199.999897,3864.61529,4232.820409,4236.410153,4219.999897,4209.743487,4237.435794
91,0,4228.717845,4223.07682,4202.564,4213.846051,4223.07682,4216.922974,4217.948615,4195.384513,3853.333239,4228.717845,4225.640922,4209.230666,4199.487077,4215.897333
92,0,4217.948615,4220.512717,4199.487077,4216.410153,4222.563999,4226.153743,4219.999897,4197.435795,3850.256316,4225.640922,4217.435794,4209.230666,4196.922974,4214.871692
93,0,4209.230666,4224.615281,4204.615282,4218.461435,4224.615281,4229.743486,4220.512717,4195.897333,3858.461444,4229.743486,4223.58964,4210.256307,4200.512718,4229.743486
94,0,4218.461435,4225.128102,4212.82041,4216.922974,4223.07682,4226.153743,4219.487076,4193.333231,3861.025547,4230.256307,4225.128102,4214.358871,4200.512718,4222.563999
95,0,4229.230666,4228.717845,4219.487076,4224.102461,4221.538358,4228.205025,4223.07682,4194.358872,3860.512726,4220.512717,4221.025538,4222.051179,4198.461436,4218.461435
96,0,4229.743486,4233.33323,4217.435794,4229.230666,4222.563999,4229.743486,4225.128102,4195.384513,3873.846059,4215.384512,4227.692204,4222.563999,4201.025538,4233.84605
97,0,4234.871691,4232.820409,4216.922974,4224.615281,4227.692204,4229.230666,4226.153743,4199.487077,3900.512725,4226.666563,4238.461435,4224.615281,4206.153743,4236.922973
98,0,4233.33323,4230.769127,4219.999897,4223.07682,4232.820409,4230.769127,4228.205025,4207.179384,3929.230673,4238.461435,4234.358871,4226.666563,4207.179384,4221.025538
99,0,4221.025538,4230.256307,4216.922974,4226.666563,4228.717845,4227.179384,4224.102461,4205.640923,3946.66657,4231.281948,4226.153743,4215.384512,4203.07682,4210.256307
100,0,4233.33323,4235.897332,4219.999897,4231.281948,4224.102461,4226.666563,4218.974256,4203.589641,3966.153749,4232.820409,4233.33323,4213.846051,4207.179384,4224.615281
101,0,4240.512717,4237.435794,4220.512717,4228.717845,4224.615281,4227.179384,4219.487076,4203.589641,3988.205031,4246.153742,4235.897332,4228.205025,4212.82041,4232.307589
102,0,4212.307589,4222.051179,4206.153743,4218.461435,4219.487076,4219.999897,4221.538358,4195.384513,4005.128107,4237.435794,4224.615281,4220.512717,4206.153743,4217.435794
103,0,4211.794769,4216.410153,4201.025538,4217.948615,4217.948615,4224.615281,4228.205025,4195.897333,4031.281953,4222.051179,4225.128102,4207.179384,4199.999897,4217.435794
104,0,4238.461435,4233.33323,4212.307589,4226.666563,4229.230666,4234.358871,4232.307589,4199.487077,4055.897337,4226.153743,4233.84605,4216.410153,4204.102461,4226.666563
105,0,4233.84605,4233.84605,4210.256307,4224.102461,4229.230666,4226.153743,4223.58964,4190.769128,4063.589644,4227.179384,4228.717845,4218.461435,4207.179384,4219.999897
106,0,4232.820409,4227.692204,4207.692205,4223.58964,4224.102461,4218.974256,4221.538358,4194.871692,4079.48708,4227.179384,4233.84605,4218.461435,4214.871692,4233.33323
107,0,4254.35887,4244.10246,4220.512717,4232.820409,4231.281948,4227.692204,4231.794768,4206.666564,4103.589643,4234.871691,4251.281947,4236.410153,4222.563999,4259.487075
108,0,4249.743486,4248.205024,4227.179384,4233.84605,4233.33323,4232.307589,4231.281948,4204.102461,4106.153746,4232.820409,4243.076819,4246.666563,4215.897333,4248.205024
109,0,4235.384512,4232.820409,4219.487076,4228.205025,4225.640922,4226.666563,4221.025538,4200.512718,4104.102464,4232.820409,4231.281948,4234.358871,4213.846051,4232.820409
110,0,4235.897332,4225.128102,4208.717846,4224.615281,4223.07682,4221.025538,4215.384512,4199.487077,4109.230669,4242.051178,4237.435794,4223.07682,4217.435794,4233.84605
111,0,4229.230666,4223.58964,4202.564,4219.487076,4219.999897,4215.897333,4216.410153,4191.281949,4110.25631,4239.999896,4234.358871,4222.563999,4212.82041,4226.153743
112,0,4218.461435,4218.461435,4199.487077,4215.384512,4215.897333,4216.922974,4219.487076,4192.82041,4107.692207,4232.820409,4224.615281,4222.051179,4213.33323,4219.999897
113,0,4222.051179,4222.051179,4201.025538,4217.948615,4217.948615,4219.487076,4222.051179,4203.589641,4109.743489,4236.410153,4229.743486,4215.384512,4221.538358,4222.051179
114,0,4236.410153,4233.84605,4209.230666,4226.666563,4221.025538,4219.487076,4225.128102,4203.589641,4104.615284,4241.538358,4237.948614,4220.512717,4222.563999,4223.58964
115,0,4238.974255,4239.999896,4220.512717,4234.871691,4223.58964,4219.487076,4230.769127,4203.07682,4090.25631,4244.615281,4241.538358,4234.358871,4223.58964,4231.794768
116,0,4220.512717,4233.84605,4218.974256,4227.692204,4221.538358,4219.487076,4229.743486,4203.07682,4077.435798,4243.076819,4233.84605,4227.179384,4218.461435,4237.435794
117,0,4216.922974,4225.128102,4202.051179,4219.999897,4218.974256,4217.435794,4222.051179,4193.333231,4058.461439,4231.794768,4223.07682,4209.743487,4205.640923,4226.153743
118,0,4235.897332,4227.179384,4198.974256,4228.205025,4221.538358,4219.999897,4222.051179,4186.666564,4037.948619,4227.692204,4231.794768,4213.33323,4210.256307,4219.999897
119,0,4240.512717,4232.307589,4213.33323,4234.871691,4223.58964,4225.128102,4230.256307,4201.538359,4051.281952,4245.128101,4246.666563,4224.102461,4226.666563,4235.897332
120,0,4230.256307,4230.256307,4214.871692,4232.307589,4220.512717,4223.07682,4233.33323,4211.281948,4068.205029,4255.897332,4240.512717,4218.974256,4225.128102,4246.666563
121,0,4221.025538,4223.07682,4203.07682,4229.230666,4220.512717,4216.410153,4229.230666,4201.025538,4053.333234,4238.461435,4225.640922,4209.230666,4208.717846,4232.307589
122,0,4209.743487,4217.435794,4195.384513,4229.230666,4222.563999,4216.922974,4227.692204,4192.82041,4038.97426,4219.487076,4216.410153,4204.615282,4195.897333,4212.307589
123,0,4208.205025,4217.948615,4196.410154,4227.179384,4220.512717,4223.07682,4230.769127,4192.82041,4047.692209,4221.538358,4210.769128,4201.025538,4195.384513,4208.717846
124,0,4223.07682,4220.512717,4202.051179,4228.205025,4222.563999,4227.692204,4233.84605,4193.333231,4058.97426,4226.666563,4216.410153,4205.128102,4204.615282,4221.025538
125,0,4235.897332,4229.230666,4216.410153,4239.487076,4232.307589,4233.33323,4233.33323,4193.333231,4066.666567,4225.128102,4228.205025,4218.461435,4210.769128,4233.84605
126,0,4218.461435,4230.769127,4223.07682,4244.10246,4231.794768,4229.743486,4231.794768,4191.281949,4062.564003,4220.512717,4224.615281,4223.07682,4207.692205,4228.205025
127,0,4193.846051,4212.82041,4211.281948,4229.230666,4222.051179,4217.948615,4235.897332,4193.333231,4057.948619,4217.948615,4212.307589,4208.717846,4196.410154,4213.33323
128,0,4208.205025,4207.692205,4206.666564,4226.666563,4225.128102,4222.051179,4238.974255,4207.179384,4078.974259,4227.692204,4211.794769,4205.128102,4189.743487,4213.846051
0,0,4237.435794,4227.179384,4212.307589,4242.051178,4231.794768,4233.33323,4235.897332,4211.281948,4095.897336,4228.205025,4214.358871,4213.846051,4191.794769,4221.025538
1,0,4226.153743,4241.025537,4206.153743,4241.538358,4226.153743,4231.794768,4233.33323,4205.128102,4096.410156,4214.871692,4209.230666,4207.179384,4188.205026,4211.281948
2,0,4207.692205,4238.461435,4198.974256,4234.358871,4222.051179,4227.179384,4232.820409,4205.128102,4105.640925,4215.897333,4209.230666,4199.487077,4175.384513,4197.948615
3,0,4218.461435,4239.999896,4205.128102,4243.58964,4227.179384,4230.256307,4231.281948,4206.153743,4125.128104,4223.07682,4210.256307,4202.564,4170.769129,4197.435795
4,0,4219.487076,4242.051178,4210.769128,4249.230665,4226.666563,4229.230666,4230.256307,4204.615282,4144.615283,4216.922974,4201.538359,4202.051179,4176.410154,4204.615282
5,0,4209.743487,4236.410153,4206.153743,4237.948614,4223.07682,4221.025538,4229.230666,4199.999897,4161.53836,4212.307589,4197.948615,4199.487077,4173.846052,4207.179384
6,0,4218.461435,4231.281948,4204.615282,4231.794768,4223.58964,4218.461435,4226.153743,4194.358872,4170.256308,4213.33323,4205.128102,4202.564,4169.230667,4199.999897
7,0,4227.692204,4233.33323,4209.230666,4240.512717,4226.666563,4222.563999,4228.205025,4197.435795,4181.025539,4213.33323,4208.717846,4205.128102,4181.025539,4200.512718
8,0,4213.846051,4240.512717,4212.307589,4247.692204,4226.153743,4223.58964,4232.307589,4205.640923,4202.051179,4217.948615,4210.256307,4211.281948,4195.897333,4212.307589
9,0,4209.230666,4245.128101,4208.717846,4247.692204,4221.025538,4218.461435,4229.230666,4206.153743,4211.281948,4223.58964,4215.897333,4212.82041,4195.384513,4218.974256
10,0,4231.794768,4244.615281,4198.974256,4242.563999,4219.999897,4218.461435,4221.025538,4198.974256,4202.564,4219.999897,4216.922974,4199.487077,4192.82041,4214.358871
11,0,4230.769127,4235.897332,4197.435795,4235.897332,4225.128102,4221.025538,4218.461435,4197.435795,4199.487077,4226.153743,4216.410153,4198.974256,4202.051179,4207.692205
12,0,4198.461436,4217.435794,4194.871692,4230.256307,4217.948615,4216.410153,4218.974256,4199.487077,4201.538359,4220.512717,4208.205025,4202.564,4193.846051,4198.461436
13,0,4193.333231,4211.794769,4184.102462,4231.281948,4205.640923,4211.794769,4217.435794,4199.487077,4195.897333,4203.07682,4196.922974,4191.281949,4176.410154,4197.948615
14,0,4211.281948,4225.128102,4190.256308,4232.307589,4209.743487,4216.410153,4219.999897,4197.435795,4189.743487,4219.487076,4209.230666,4190.769128,4189.230667,4214.871692
15,0,4215.897333,4229.743486,4204.615282,4229.743486,4218.974256,4219.999897,4227.179384,4197.435795,4189.230667,4230.256307,4225.128102,4205.640923,4205.128102,4222.051179
16,0,4214.871692,4219.999897,4201.538359,4231.281948,4214.358871,4216.922974,4229.230666,4200.512718,4195.384513,4207.692205,4212.82041,4203.589641,4191.281949,4214.358871
17,0,4211.794769,4217.435794,4195.384513,4233.33323,4208.205025,4214.358871,4227.179384,4197.435795,4203.589641,4202.564,4200.512718,4195.897333,4181.538359,4210.256307
18,0,4207.179384,4223.58964,4204.102461,4232.820409,4215.384512,4216.922974,4228.717845,4192.82041,4205.640923,4225.128102,4212.307589,4199.487077,4194.358872,4210.256307
19,0,4210.769128,4224.615281,4209.230666,4231.281948,4221.538358,4217.435794,4227.692204,4192.30759,4208.205025,4219.487076,4212.307589,4204.102461,4197.435795,4205.640923
20,0,4212.307589,4219.487076,4201.025538,4233.84605,4215.384512,4216.922974,4222.051179,4198.974256,4221.538358,4189.230667,4196.410154,4201.538359,4182.564,4205.128102
21,0,4208.205025,4214.871692,4194.871692,4232.820409,4209.230666,4218.974256,4217.948615,4202.564,4229.230666,4192.82041,4197.948615,4198.974256,4177.948616,4209.230666
22,0,4205.128102,4207.692205,4193.846051,4225.128102,4207.692205,4218.974256,4218.461435,4203.589641,4227.692204,4219.999897,4210.256307,4199.487077,4185.640923,4204.102461
23,0,4197.435795,4207.179384,4196.410154,4223.07682,4210.769128,4215.897333,4224.615281,4210.769128,4231.281948,4219.487076,4210.256307,4203.589641,4186.153744,4196.922974
24,0,4199.999897,4216.922974,4199.999897,4229.230666,4217.435794,4217.435794,4230.769127,4213.846051,4231.794768,4197.948615,4202.564,4202.564,4182.05118,4199.487077
25,0,4217.435794,4218.461435,4196.410154,4231.281948,4219.487076,4221.025538,4225.640922,4205.640923,4213.33323,4200.512718,4201.538359,4198.461436,4183.589641,4199.999897
26,0,4209.743487,4207.179384,4187.692205,4224.615281,4216.922974,4218.461435,4217.948615,4201.538359,4195.897333,4216.410153,4202.564,4200.512718,4183.589641,4195.897333
27,0,4181.538359,4198.461436,4182.564,4223.07682,4210.769128,4213.33323,4217.435794,4203.07682,4183.589641,4203.589641,4192.82041,4196.922974,4173.333231,4191.281949
28,0,4182.564,4203.07682,4181.025539,4227.692204,4207.179384,4212.307589,4218.461435,4196.922974,4154.871693,4186.153744,4189.230667,4188.717846,4171.79477,4187.692205
29,0,4195.897333,4203.589641,4183.076821,4222.563999,4206.153743,4213.846051,4216.922974,4191.281949,4123.589643,4199.487077,4193.333231,4188.717846,4179.487077,4187.692205
30,0,4188.717846,4197.435795,4184.615282,4213.846051,4208.717846,4216.410153,4217.948615,4194.871692,4105.128105,4206.666564,4189.230667,4188.205026,4175.384513,4189.743487
31,0,4185.128103,4202.051179,4184.102462,4216.922974,4209.743487,4215.384512,4217.435794,4194.358872,4084.615285,4184.102462,4186.666564,4185.640923,4167.179385,4183.076821
32,0,4194.871692,4207.179384,4183.589641,4220.512717,4207.692205,4213.33323,4215.384512,4193.333231,4066.153747,4179.999898,4197.435795,4192.30759,4172.30759,4178.461436
33,0,4198.974256,4204.615282,4186.666564,4219.999897,4209.743487,4215.897333,4218.461435,4195.897333,4069.23067,4203.589641,4207.179384,4201.538359,4183.076821,4192.82041
34,0,4202.564,4207.179384,4188.717846,4224.615281,4212.307589,4217.948615,4218.974256,4198.461436,4072.307593,4204.615282,4204.102461,4200.512718,4185.640923,4201.025538
35,0,4206.153743,4209.230666,4185.640923,4225.640922,4211.794769,4213.846051,4217.435794,4202.051179,4069.23067,4195.384513,4203.07682,4199.999897,4183.589641,4188.717846
36,0,4199.999897,4201.538359,4185.640923,4220.512717,4211.794769,4212.82041,4221.538358,4205.640923,4078.461439,4201.025538,4207.179384,4201.538359,4184.102462,4186.666564
37,0,4203.589641,4207.179384,4190.769128,4226.666563,4217.435794,4217.948615,4222.563999,4203.589641,4088.717849,4211.281948,4208.205025,4205.128102,4189.743487,4203.07682
38,0,4209.230666,4216.922974,4194.871692,4230.769127,4221.538358,4220.512717,4223.07682,4199.487077,4086.153746,4219.487076,4205.128102,4212.307589,4189.230667,4206.153743
39,0,4199.999897,4209.230666,4191.281949,4223.07682,4222.051179,4218.461435,4229.230666,4209.743487,4096.410156,4212.307589,4202.564,4207.179384,4176.922975,4188.717846
40,0,4205.640923,4208.205025,4183.589641,4222.563999,4220.512717,4217.948615,4231.794768,4218.974256,4117.435797,4201.025538,4209.743487,4201.538359,4181.025539,4189.230667
41,0,4207.179384,4208.205025,4172.30759,4226.153743,4214.358871,4216.410153,4227.179384,4213.846051,4122.564002,4205.640923,4210.256307,4200.512718,4188.205026,4196.410154
42,0,4174.871693,4191.281949,4168.205026,4218.974256,4213.846051,4216.410153,4229.743486,4210.769128,4121.538361,4207.692205,4198.461436,4189.743487,4171.79477,4178.974257
43,0,4163.589642,4190.769128,4175.384513,4215.384512,4216.922974,4218.974256,4230.256307,4210.769128,4127.692207,4197.948615,4196.410154,4186.666564,4170.256308,4171.281949
44,0,4188.717846,4195.384513,4175.384513,4216.410153,4210.769128,4216.410153,4224.615281,4205.640923,4132.307591,4202.564,4203.589641,4197.948615,4195.897333,4188.205026
45,0,4197.948615,4178.974257,4170.769129,4214.871692,4211.794769,4214.358871,4229.230666,4221.538358,4158.974257,4228.205025,4221.025538,4206.153743,4218.974256,4203.07682
46,0,4192.30759,4167.179385,4175.897334,4216.922974,4225.128102,4220.512717,4236.410153,4244.615281,4193.333231,4248.717845,4238.974255,4211.794769,4231.794768,4211.794769
47,0,4198.974256,4175.897334,4183.076821,4219.487076,4228.717845,4223.58964,4233.84605,4231.281948,4181.538359,4246.666563,4241.538358,4219.999897,4240.512717,4216.410153
48,0,4190.769128,4172.820411,4181.538359,4216.410153,4216.922974,4218.974256,4231.794768,4209.743487,4159.999898,4236.410153,4232.307589,4216.922974,4236.410153,4204.102461
49,0,4174.871693,4162.05118,4176.922975,4214.871692,4211.281948,4217.435794,4233.84605,4216.922974,4178.461436,4236.922973,4227.179384,4209.230666,4227.179384,4196.922974
50,0,4176.922975,4161.025539,4173.333231,4215.384512,4215.384512,4219.999897,4232.820409,4222.051179,4198.974256,4234.358871,4219.487076,4202.564,4219.487076,4198.974256
51,0,4177.435795,4162.564001,4171.281949,4213.846051,4212.82041,4218.974256,4231.281948,4208.205025,4188.717846,4223.07682,4213.846051,4194.871692,4213.846051,4186.666564
52,0,4180.512718,4169.743488,4170.769129,4212.82041,4208.205025,4215.384512,4230.769127,4199.999897,4177.948616,4221.538358,4215.897333,4199.999897,4215.384512,4181.025539
53,0,4195.897333,4179.487077,4174.871693,4217.948615,4219.487076,4216.922974,4228.717845,4204.102461,4184.615282,4227.179384,4216.922974,4208.205025,4218.461435,4198.461436
54,0,4190.256308,4178.461436,4177.435795,4223.58964,4224.102461,4219.487076,4227.692204,4207.692205,4197.948615,4226.666563,4217.948615,4203.07682,4219.487076,4206.666564
55,0,4173.333231,4174.358872,4173.333231,4218.461435,4211.794769,4217.948615,4228.717845,4210.256307,4205.640923,4224.102461,4220.512717,4198.974256,4217.435794,4197.948615
56,0,4192.82041,4185.128103,4175.897334,4216.410153,4215.897333,4222.051179,4230.769127,4222.563999,4212.307589,4236.410153,4223.07682,4207.692205,4220.512717,4202.051179
57,0,4228.205025,4196.922974,4184.102462,4229.230666,4229.230666,4231.794768,4232.820409,4232.307589,4222.563999,4244.615281,4230.769127,4219.487076,4228.205025,4219.487076
58,0,4215.384512,4192.30759,4182.564,4232.307589,4224.615281,4228.717845,4231.794768,4226.153743,4227.179384,4230.256307,4234.358871,4218.974256,4226.666563,4225.128102
59,0,4181.538359,4187.179385,4178.461436,4222.051179,4214.358871,4221.025538,4229.743486,4217.948615,4221.538358,4221.025538,4227.692204,4208.205025,4221.538358,4216.922974
60,0,4189.230667,4194.358872,4182.05118,4224.615281,4223.07682,4223.58964,4231.794768,4219.999897,4223.58964,4234.871691,4229.743486,4209.743487,4229.230666,4210.256307
61,0,4210.256307,4196.410154,4180.512718,4233.84605,4227.179384,4223.58964,4233.84605,4217.948615,4233.33323,4243.58964,4232.307589,4214.871692,4232.820409,4202.051179
62,0,4210.256307,4189.230667,4167.179385,4230.256307,4215.897333,4216.410153,4230.256307,4214.358871,4239.999896,4237.948614,4226.666563,4208.205025,4229.230666,4203.589641
63,0,4207.692205,4190.769128,4167.692206,4222.051179,4213.846051,4217.948615,4228.717845,4216.922974,4249.743486,4233.84605,4224.615281,4204.615282,4236.410153,4221.025538
64,0,4204.615282,4197.435795,4178.461436,4219.487076,4222.563999,4221.025538,4232.307589,4219.999897,4264.10246,4234.871691,4222.563999,4205.640923,4237.948614,4228.205025
65,0,4196.410154,4192.82041,4177.435795,4218.974256,4219.999897,4216.922974,4231.794768,4218.461435,4270.769126,4237.948614,4221.538358,4203.589641,4226.666563,4216.922974
66,0,4198.974256,4187.692205,4168.717847,4222.563999,4211.281948,4217.435794,4227.692204,4218.461435,4276.410152,4236.410153,4226.153743,4212.82041,4228.717845,4203.07682
67,0,4204.615282,4186.666564,4167.692206,4223.58964,4211.281948,4218.974256,4230.769127,4219.999897,4286.153741,4228.205025,4227.692204,4217.948615,4233.33323,4199.999897
68,0,4202.564,4186.153744,4169.743488,4219.487076,4215.897333,4215.384512,4233.84605,4217.435794,4287.692203,4226.153743,4227.179384,4204.615282,4229.230666,4213.33323
69,0,4199.487077,4185.128103,4168.205026,4217.948615,4216.922974,4215.897333,4225.640922,4213.846051,4287.692203,4238.974255,4233.84605,4204.102461,4235.384512,4223.58964
70,0,4195.384513,4183.076821,4170.769129,4217.435794,4212.307589,4217.435794,4218.974256,4211.281948,4292.820408,4247.179383,4230.769127,4215.897333,4240.512717,4212.307589
71,0,4201.025538,4184.615282,4169.743488,4216.410153,4206.153743,4215.897333,4226.666563,4212.82041,4292.820408,4238.974255,4221.538358,4209.230666,4235.384512,4211.794769
72,0,4218.974256,4191.281949,4167.692206,4214.871692,4208.717846,4217.435794,4234.871691,4222.051179,4291.281946,4238.974255,4230.769127,4207.179384,4238.461435,4228.205025
73,0,4220.512717,4193.846051,4176.922975,4214.871692,4213.846051,4219.999897,4233.84605,4230.256307,4296.410151,4249.743486,4239.999896,4223.07682,4246.153742,4228.205025
74,0,4212.307589,4193.333231,4187.692205,4222.563999,4213.33323,4218.461435,4232.307589,4229.743486,4301.025536,4252.307588,4238.461435,4232.820409,4245.640922,4226.153743
75,0,4218.974256,4197.435795,4185.640923,4230.256307,4214.871692,4216.922974,4233.84605,4229.743486,4298.461433,4255.897332,4237.435794,4233.84605,4247.692204,4235.897332
76,0,4215.897333,4192.30759,4183.589641,4223.07682,4213.846051,4219.487076,4232.307589,4225.128102,4279.487075,4257.948614,4233.33323,4233.84605,4246.153742,4231.794768
77,0,4206.153743,4188.205026,4191.794769,4215.384512,4211.794769,4220.512717,4230.256307,4219.487076,4264.10246,4241.538358,4231.794768,4230.769127,4237.948614,4227.179384
78,0,4226.153743,4202.051179,4194.358872,4225.128102,4217.435794,4218.974256,4233.33323,4226.666563,4270.769126,4236.922973,4241.538358,4231.281948,4245.640922,4241.025537
79,0,4248.717845,4209.743487,4187.179385,4233.84605,4216.922974,4217.435794,4228.205025,4226.153743,4266.666562,4252.307588,4246.666563,4232.820409,4256.410152,4245.128101
80,0,4232.307589,4199.487077,4184.615282,4228.717845,4209.743487,4217.435794,4218.974256,4206.153743,4235.384512,4246.666563,4235.897332,4228.717845,4246.153742,4231.794768
81,0,4214.871692,4198.461436,4189.743487,4225.640922,4214.871692,4218.461435,4222.051179,4202.051179,4221.538358,4229.743486,4232.820409,4229.230666,4237.435794,4231.794768
82,0,4222.051179,4202.564,4189.230667,4231.281948,4216.410153,4217.948615,4225.640922,4213.846051,4227.179384,4234.871691,4234.871691,4232.820409,4238.461435,4233.84605
83,0,4218.461435,4195.384513,4187.179385,4229.743486,4207.179384,4216.922974,4222.051179,4211.281948,4222.563999,4242.051178,4226.666563,4227.692204,4236.410153,4224.102461
84,0,4206.153743,4192.82041,4191.281949,4220.512717,4208.205025,4215.897333,4226.666563,4208.717846,4219.487076,4230.256307,4229.230666,4227.179384,4237.948614,4227.692204
85,0,4215.384512,4200.512718,4196.410154,4222.051179,4216.922974,4219.487076,4233.33323,4215.897333,4230.769127,4224.102461,4244.615281,4233.33323,4244.615281,4239.487076
86,0,4230.256307,4206.153743,4196.410154,4233.84605,4220.512717,4222.051179,4228.205025,4206.666564,4228.205025,4227.179384,4239.999896,4233.33323,4241.025537,4233.84605
87,0,4232.820409,4208.717846,4197.948615,4235.384512,4224.615281,4222.051179,4225.640922,4194.871692,4216.922974,4226.666563,4229.230666,4233.84605,4234.871691,4228.205025
88,0,4232.820409,4207.179384,4195.897333,4231.281948,4222.051179,4224.615281,4230.769127,4207.692205,4231.281948,4225.640922,4232.820409,4236.410153,4235.384512,4234.871691
89,0,4231.794768,4202.564,4190.256308,4232.307589,4214.358871,4225.640922,4228.717845,4219.487076,4247.692204,4233.84605,4232.307589,4229.743486,4234.871691,4235.384512
90,0,4215.897333,4195.897333,4189.230667,4226.666563,4214.358871,4221.025538,4223.58964,4213.33323,4245.640922,4246.153742,4232.820409,4223.58964,4234.358871,4229.230666
91,0,4208.717846,4190.769128,4190.256308,4220.512717,4214.358871,4217.948615,4222.563999,4213.846051,4238.461435,4245.128101,4241.025537,4228.205025,4238.461435,4229.230666
92,0,4226.666563,4204.102461,4191.281949,4232.307589,4216.922974,4223.58964,4226.666563,4222.051179,4235.897332,4241.025537,4239.999896,4230.256307,4237.948614,4231.281948
93,0,4242.051178,4227.179384,4202.051179,4241.025537,4228.205025,4225.128102,4227.179384,4215.897333,4231.281948,4238.974255,4236.410153,4232.307589,4234.871691,4235.384512
94,0,4246.153742,4238.974255,4213.33323,4238.461435,4227.179384,4219.999897,4224.102461,4208.717846,4234.358871,4241.025537,4238.461435,4238.974255,4233.84605,4244.10246
95,0,4253.333229,4234.871691,4204.615282,4236.922973,4213.846051,4216.410153,4218.461435,4212.307589,4244.10246,4241.025537,4232.307589,4233.84605,4229.230666,4244.615281
96,0,4251.794768,4232.307589,4193.333231,4239.487076,4217.435794,4217.948615,4216.410153,4204.615282,4234.358871,4232.820409,4229.230666,4220.512717,4222.051179,4237.435794
97,0,4235.897332,4233.33323,4199.999897,4241.538358,4228.717845,4226.666563,4223.07682,4191.794769,4218.974256,4219.999897,4232.820409,4218.974256,4218.461435,4234.358871
98,0,4228.717845,4228.717845,4202.564,4238.974255,4228.205025,4229.230666,4226.666563,4197.435795,4228.205025,4217.948615,4227.692204,4222.563999,4218.461435,4236.410153
99,0,4232.307589,4222.563999,4191.281949,4236.410153,4226.666563,4226.153743,4224.615281,4204.102461,4244.10246,4229.743486,4222.563999,4212.82041,4217.948615,4231.281948
100,0,4232.307589,4226.666563,4189.743487,4236.410153,4228.205025,4225.640922,4227.692204,4207.179384,4249.230665,4228.717845,4226.666563,4207.692205,4217.948615,4221.538358
101,0,4232.307589,4236.922973,4197.435795,4238.974255,4229.230666,4223.58964,4232.307589,4217.948615,4256.410152,4222.051179,4230.769127,4221.538358,4222.051179,4221.025538
102,0,4233.84605,4238.461435,4196.922974,4243.076819,4230.256307,4218.974256,4226.153743,4221.538358,4267.179383,4234.358871,4234.358871,4226.153743,4229.743486,4232.307589
103,0,4231.281948,4234.871691,4195.384513,4242.051178,4226.666563,4220.512717,4217.948615,4212.307589,4269.743485,4242.563999,4236.410153,4216.410153,4231.281948,4246.153742
104,0,4234.358871,4231.794768,4198.461436,4234.358871,4218.974256,4223.58964,4221.538358,4214.871692,4274.35887,4238.974255,4230.769127,4214.871692,4222.051179,4242.051178
105,0,4234.358871,4225.640922,4193.846051,4230.256307,4217.948615,4218.461435,4223.58964,4220.512717,4282.051177,4232.820409,4215.384512,4216.922974,4212.307589,4225.128102
106,0,4225.640922,4224.102461,4190.769128,4239.487076,4223.58964,4216.922974,4217.948615,4214.871692,4277.948613,4227.179384,4213.33323,4214.358871,4214.871692,4223.07682
107,0,4228.205025,4229.743486,4193.333231,4242.051178,4226.153743,4224.615281,4218.461435,4210.256307,4266.666562,4225.128102,4227.179384,4213.846051,4219.487076,4231.281948
108,0,4233.33323,4230.256307,4192.30759,4231.281948,4225.128102,4230.256307,4223.58964,4204.615282,4254.35887,4226.153743,4228.717845,4218.974256,4218.461435,4226.666563
109,0,4220.512717,4222.563999,4187.179385,4226.153743,4224.615281,4222.563999,4222.563999,4197.435795,4245.128101,4223.58964,4218.461435,4218.974256,4215.897333,4213.33323
110,0,4207.692205,4220.512717,4189.230667,4230.769127,4223.07682,4217.435794,4218.974256,4201.025538,4238.461435,4221.538358,4214.871692,4210.256307,4217.435794,4215.897333
111,0,4221.538358,4225.640922,4191.281949,4236.410153,4226.153743,4223.58964,4224.615281,4209.743487,4234.871691,4228.717845,4222.563999,4205.128102,4218.974256,4229.230666
112,0,4234.358871,4224.615281,4188.717846,4234.871691,4228.205025,4221.025538,4226.666563,4213.33323,4225.640922,4230.769127,4224.102461,4211.794769,4215.897333,4227.179384
113,0,4224.102461,4224.102461,4191.281949,4233.33323,4223.58964,4214.871692,4219.999897,4217.948615,4206.666564,4233.84605,4222.051179,4217.435794,4216.410153,4219.999897
114,0,4218.974256,4228.717845,4201.538359,4233.33323,4222.051179,4220.512717,4221.538358,4222.563999,4192.30759,4243.076819,4226.666563,4222.051179,4227.179384,4234.871691
115,0,4236.922973,4236.922973,4210.256307,4236.410153,4230.769127,4228.205025,4230.256307,4226.153743,4188.717846,4243.58964,4235.897332,4231.281948,4238.461435,4256.922973
116,0,4243.58964,4241.025537,4217.435794,4247.179383,4234.358871,4228.717845,4233.33323,4229.743486,4176.922975,4238.461435,4234.871691,4230.769127,4233.33323,4246.153742
117,0,4218.461435,4232.820409,4217.435794,4246.666563,4228.205025,4229.743486,4232.820409,4225.640922,4153.846052,4234.871691,4222.051179,4217.948615,4218.974256,4220.512717
118,0,4209.743487,4223.58964,4211.281948,4235.897332,4224.615281,4230.769127,4232.820409,4210.256307,4130.256309,4225.640922,4213.846051,4213.33323,4211.281948,4218.974256
119,0,4232.820409,4233.84605,4212.82041,4238.461435,4234.358871,4230.769127,4234.358871,4211.281948,4125.128104,4218.974256,4219.487076,4222.563999,4213.846051,4236.922973
120,0,4239.999896,4244.615281,4214.871692,4242.051178,4241.025537,4231.281948,4236.410153,4225.640922,4136.922976,4227.692204,4226.666563,4225.128102,4217.435794,4238.461435
121,0,4225.640922,4237.435794,4209.743487,4234.358871,4232.307589,4229.743486,4234.871691,4228.717845,4149.230668,4237.435794,4224.102461,4222.051179,4217.948615,4231.794768
122,0,4223.07682,4230.256307,4211.794769,4234.358871,4223.07682,4229.743486,4233.33323,4233.33323,4157.948616,4241.025537,4221.538358,4226.153743,4224.102461,4240.512717
123,0,4230.256307,4232.307589,4218.974256,4237.435794,4224.615281,4227.179384,4234.358871,4238.974255,4164.615283,4245.128101,4223.07682,4226.666563,4229.743486,4242.563999
124,0,4228.717845,4227.692204,4211.794769,4231.794768,4223.58964,4221.538358,4232.820409,4225.640922,4160.512719,4238.461435,4215.897333,4216.922974,4221.025538,4228.717845
125,0,4224.102461,4227.692204,4205.640923,4236.922973,4224.102461,4223.58964,4231.281948,4208.717846,4151.28195,4228.205025,4208.205025,4214.871692,4213.33323,4228.205025
126,0,4224.615281,4237.435794,4209.743487,4244.615281,4230.769127,4229.230666,4226.666563,4203.589641,4142.564001,4219.487076,4204.615282,4216.410153,4214.871692,4236.410153
127,0,4229.743486,4238.974255,4209.230666,4235.897332,4228.205025,4228.717845,4221.538358,4203.07682,4139.487078,4208.205025,4202.051179,4217.435794,4215.384512,4226.666563
128,0,4237.435794,4238.974255,4210.256307,4233.84605,4226.666563,4229.230666,4227.692204,4208.205025,4155.897334,4216.922974,4211.281948,4227.179384,4219.487076,4224.102461
