title:V                                                                               , recorded:07.07.20 13.29.16, sampling:128, subject:B                                                                               , labels:COUNTER INTERPOLATED AF3 F7 F3 FC5 T7 P7 O1 O2 P8 T8 FC6 F4 F8 AF4,, units:emotiv,,,,,,,,,
91,0,4244.615281,4210.256307,4231.281948,4206.666564,4223.07682,4214.871692,4227.692204,4226.153743,4255.384511,4217.948615,4240.512717,4234.358871,4221.025538,4245.640922
92,0,4242.051178,4214.358871,4241.538358,4206.666564,4224.615281,4215.897333,4229.743486,4234.871691,4261.538357,4227.692204,4247.179383,4238.974255,4225.640922,4242.051178
93,0,4251.281947,4224.102461,4250.769127,4215.384512,4224.615281,4219.487076,4229.230666,4244.615281,4266.666562,4251.281947,4257.948614,4245.128101,4241.538358,4255.897332
94,0,4267.179383,4230.256307,4250.769127,4226.153743,4227.692204,4222.563999,4225.640922,4234.358871,4261.538357,4252.307588,4261.025537,4246.153742,4247.692204,4274.87169
95,0,4265.128101,4229.230666,4245.640922,4220.512717,4232.307589,4219.999897,4221.025538,4221.025538,4257.948614,4238.461435,4253.333229,4239.487076,4236.922973,4265.128101
96,0,4252.307588,4224.615281,4239.999896,4211.794769,4226.153743,4216.922974,4220.512717,4221.025538,4257.435793,4231.281948,4243.076819,4233.84605,4225.640922,4248.205024
97,0,4251.281947,4219.999897,4233.33323,4213.33323,4223.58964,4218.974256,4222.051179,4219.999897,4256.922973,4224.615281,4238.461435,4229.230666,4221.025538,4245.128101
98,0,4241.025537,4213.846051,4228.205025,4213.33323,4228.205025,4219.487076,4221.025538,4212.82041,4252.820409,4218.461435,4234.871691,4219.487076,4216.922974,4235.384512
99,0,4226.153743,4212.307589,4230.256307,4212.307589,4228.205025,4217.435794,4220.512717,4212.307589,4252.307588,4216.922974,4231.794768,4214.358871,4215.897333,4224.615281
100,0,4235.384512,4217.948615,4231.794768,4217.948615,4228.717845,4217.948615,4222.563999,4221.025538,4258.461434,4222.563999,4235.384512,4221.538358,4221.538358,4233.33323
101,0,4249.743486,4222.563999,4234.871691,4223.07682,4227.692204,4218.974256,4224.102461,4223.58964,4259.487075,4233.84605,4242.563999,4227.179384,4229.743486,4252.307588
102,0,4254.871691,4227.179384,4244.615281,4221.538358,4227.179384,4223.58964,4225.128102,4225.640922,4259.487075,4243.076819,4246.666563,4237.948614,4236.922973,4265.128101
103,0,4260.512716,4231.281948,4250.769127,4222.051179,4230.256307,4228.717845,4225.640922,4234.358871,4264.61528,4242.563999,4250.256306,4250.769127,4241.025537,4258.974255
104,0,4258.461434,4230.256307,4248.205024,4224.102461,4232.307589,4227.692204,4221.538358,4234.871691,4265.128101,4237.435794,4253.333229,4248.205024,4236.922973,4249.743486
105,0,4249.743486,4224.615281,4243.58964,4221.538358,4228.717845,4227.692204,4214.358871,4218.461435,4255.897332,4226.666563,4244.615281,4234.358871,4227.692204,4253.333229
106,0,4246.666563,4226.153743,4237.948614,4219.487076,4231.794768,4230.256307,4214.358871,4210.769128,4252.820409,4219.999897,4235.384512,4228.717845,4224.102461,4252.307588
107,0,4244.615281,4233.84605,4232.307589,4226.153743,4237.435794,4232.820409,4221.025538,4216.922974,4255.384511,4221.025538,4232.307589,4233.33323,4224.102461,4241.025537
108,0,4247.179383,4241.025537,4235.384512,4232.820409,4245.128101,4233.84605,4226.153743,4221.025538,4256.922973,4222.563999,4235.897332,4237.948614,4229.743486,4241.538358
109,0,4251.794768,4239.487076,4244.10246,4229.230666,4247.179383,4233.33323,4228.205025,4225.128102,4261.025537,4223.07682,4241.538358,4236.410153,4234.358871,4245.640922
110,0,4257.948614,4241.025537,4250.769127,4226.153743,4234.358871,4233.33323,4234.871691,4242.563999,4270.769126,4240.512717,4252.820409,4243.076819,4242.563999,4256.922973
111,0,4262.051178,4241.025537,4249.743486,4227.692204,4225.128102,4232.820409,4237.948614,4252.307588,4275.384511,4251.794768,4255.384511,4247.692204,4243.58964,4269.230665
112,0,4255.897332,4237.435794,4243.076819,4223.58964,4236.922973,4229.230666,4229.230666,4241.025537,4272.307588,4245.128101,4250.769127,4244.615281,4238.974255,4261.025537
113,0,4249.230665,4238.461435,4243.076819,4223.58964,4246.666563,4228.717845,4223.58964,4228.717845,4269.743485,4241.025537,4250.769127,4243.58964,4241.538358,4249.230665
114,0,4253.84605,4239.487076,4244.615281,4227.692204,4241.538358,4232.307589,4221.538358,4224.102461,4265.128101,4240.512717,4250.256306,4238.974255,4244.615281,4252.820409
115,0,4252.307588,4229.743486,4235.897332,4222.051179,4233.84605,4225.128102,4214.871692,4213.33323,4255.384511,4222.051179,4237.435794,4223.58964,4232.307589,4241.538358
116,0,4234.871691,4221.025538,4226.153743,4214.358871,4228.205025,4215.897333,4211.794769,4202.051179,4251.281947,4202.051179,4224.102461,4217.948615,4225.128102,4222.051179
117,0,4231.281948,4228.717845,4228.205025,4217.435794,4231.281948,4222.051179,4219.487076,4208.717846,4255.897332,4208.205025,4226.153743,4225.128102,4235.384512,4230.256307
118,0,4236.410153,4233.33323,4232.307589,4221.538358,4235.897332,4230.256307,4222.051179,4221.538358,4259.487075,4223.58964,4235.384512,4227.692204,4238.974255,4242.051178
119,0,4239.999896,4226.153743,4231.794768,4218.461435,4229.230666,4225.640922,4219.487076,4226.666563,4261.025537,4231.281948,4240.512717,4228.717845,4238.461435,4241.025537
120,0,4247.692204,4222.051179,4235.897332,4218.974256,4222.563999,4224.615281,4221.538358,4225.640922,4265.128101,4235.384512,4246.666563,4236.922973,4250.256306,4245.640922
121,0,4249.743486,4224.615281,4241.025537,4221.025538,4227.179384,4228.205025,4224.615281,4228.205025,4269.743485,4243.58964,4254.35887,4247.692204,4261.025537,4255.384511
122,0,4237.435794,4222.563999,4236.410153,4217.435794,4227.692204,4224.102461,4224.102461,4228.717845,4269.230665,4247.179383,4251.794768,4245.128101,4255.897332,4250.769127
123,0,4223.58964,4214.358871,4223.07682,4209.230666,4221.538358,4216.922974,4223.07682,4230.256307,4268.205024,4236.410153,4241.025537,4228.205025,4245.128101,4238.461435
124,0,4211.794769,4205.640923,4214.358871,4205.640923,4217.435794,4217.435794,4219.487076,4225.128102,4265.128101,4219.487076,4231.281948,4217.948615,4237.435794,4226.666563
125,0,4215.384512,4210.256307,4217.435794,4216.922974,4223.58964,4224.615281,4220.512717,4221.025538,4263.589639,4220.512717,4231.281948,4222.563999,4238.974255,4224.615281
126,0,4225.640922,4217.948615,4218.461435,4222.563999,4227.179384,4231.794768,4228.205025,4226.666563,4265.640921,4226.153743,4230.769127,4224.102461,4237.948614,4226.153743
127,0,4224.102461,4216.922974,4215.897333,4213.33323,4224.615281,4230.256307,4228.717845,4226.666563,4263.076819,4216.410153,4225.640922,4222.563999,4229.743486,4222.051179
128,0,4213.846051,4208.205025,4220.512717,4207.692205,4218.974256,4222.563999,4221.025538,4208.717846,4251.794768,4198.974256,4214.871692,4220.512717,4219.999897,4217.948615
0,0,4219.999897,4207.179384,4227.179384,4212.307589,4217.435794,4223.07682,4217.435794,4202.051179,4250.256306,4195.384513,4215.384512,4221.025538,4221.025538,4222.563999
1,0,4230.256307,4210.769128,4225.128102,4214.358871,4213.33323,4228.717845,4220.512717,4216.410153,4259.999896,4206.666564,4230.769127,4229.743486,4230.769127,4230.256307
2,0,4226.153743,4211.281948,4221.025538,4211.794769,4212.307589,4230.256307,4224.615281,4230.256307,4267.179383,4221.025538,4241.025537,4236.410153,4239.999896,4234.358871
3,0,4218.974256,4210.769128,4224.102461,4211.794769,4218.974256,4228.717845,4227.692204,4234.871691,4266.153742,4224.615281,4236.410153,4234.871691,4239.487076,4229.743486
4,0,4225.640922,4215.897333,4227.692204,4215.384512,4223.58964,4227.179384,4226.153743,4239.999896,4268.205024,4223.07682,4232.307589,4234.871691,4238.461435,4231.281948
5,0,4240.512717,4222.051179,4230.256307,4222.051179,4224.102461,4229.230666,4226.666563,4243.076819,4272.820408,4230.769127,4236.410153,4233.84605,4242.563999,4244.10246
6,0,4241.538358,4223.58964,4229.230666,4224.615281,4224.102461,4230.769127,4229.230666,4239.999896,4271.794767,4231.281948,4235.384512,4230.256307,4239.999896,4238.461435
7,0,4229.230666,4221.538358,4227.179384,4222.563999,4225.128102,4230.769127,4228.717845,4234.871691,4269.743485,4219.487076,4228.717845,4230.256307,4232.307589,4224.615281
8,0,4225.128102,4222.563999,4222.051179,4220.512717,4227.179384,4230.769127,4224.102461,4229.230666,4269.230665,4217.435794,4225.128102,4228.205025,4231.281948,4230.769127
9,0,4236.922973,4226.666563,4219.487076,4222.563999,4227.692204,4231.794768,4226.153743,4225.640922,4267.179383,4227.692204,4228.717845,4224.615281,4235.897332,4238.974255
10,0,4245.640922,4228.205025,4223.07682,4225.128102,4225.640922,4231.794768,4232.820409,4226.153743,4267.692203,4226.666563,4230.769127,4224.615281,4239.487076,4238.461435
11,0,4237.948614,4227.179384,4222.051179,4222.563999,4228.205025,4232.820409,4233.33323,4233.84605,4272.820408,4225.128102,4228.205025,4227.692204,4243.58964,4239.999896
12,0,4221.538358,4222.051179,4215.897333,4218.461435,4228.717845,4232.307589,4227.179384,4230.769127,4270.769126,4227.179384,4228.205025,4229.743486,4241.538358,4230.769127
13,0,4220.512717,4218.461435,4214.871692,4220.512717,4225.640922,4229.230666,4227.692204,4224.615281,4268.205024,4230.256307,4235.897332,4228.717845,4239.487076,4224.102461
14,0,4237.948614,4223.58964,4224.615281,4226.153743,4226.153743,4229.743486,4232.820409,4236.410153,4274.87169,4237.948614,4242.563999,4230.256307,4247.179383,4244.615281
15,0,4258.461434,4238.974255,4233.33323,4233.84605,4232.307589,4233.33323,4233.33323,4254.871691,4282.051177,4250.769127,4250.769127,4242.051178,4263.076819,4270.256306
16,0,4252.820409,4237.435794,4225.640922,4232.307589,4231.794768,4233.33323,4230.256307,4247.179383,4275.384511,4244.615281,4249.743486,4245.128101,4262.051178,4258.461434
17,0,4236.410153,4224.615281,4215.897333,4223.07682,4226.153743,4230.256307,4225.128102,4228.205025,4266.153742,4230.769127,4238.974255,4236.922973,4245.640922,4233.33323
18,0,4234.871691,4224.615281,4215.384512,4221.538358,4224.615281,4228.717845,4221.538358,4223.07682,4266.666562,4227.692204,4231.281948,4231.794768,4237.435794,4233.33323
19,0,4246.153742,4233.84605,4216.922974,4228.205025,4230.769127,4229.743486,4226.666563,4227.179384,4271.281947,4226.153743,4232.307589,4229.230666,4239.487076,4248.717845
20,0,4243.58964,4229.743486,4213.846051,4227.179384,4227.692204,4225.640922,4222.563999,4224.102461,4268.205024,4212.307589,4227.692204,4223.58964,4236.410153,4247.692204
21,0,4224.615281,4218.461435,4209.743487,4219.999897,4220.512717,4217.948615,4211.281948,4214.358871,4262.051178,4204.615282,4218.461435,4219.999897,4227.692204,4233.33323
22,0,4222.051179,4215.897333,4209.743487,4219.999897,4221.538358,4221.538358,4216.410153,4217.948615,4264.61528,4213.846051,4217.435794,4220.512717,4225.640922,4223.07682
23,0,4238.461435,4221.025538,4216.410153,4223.58964,4225.640922,4232.307589,4227.179384,4234.871691,4274.87169,4228.717845,4227.179384,4228.717845,4233.84605,4225.128102
24,0,4239.999896,4226.666563,4222.563999,4224.102461,4228.717845,4233.84605,4228.717845,4245.640922,4278.974254,4239.487076,4236.922973,4233.84605,4241.538358,4242.051178
25,0,4227.692204,4228.717845,4218.974256,4225.128102,4232.820409,4230.769127,4228.717845,4241.538358,4274.35887,4236.922973,4233.33323,4226.666563,4241.538358,4246.666563
26,0,4225.128102,4220.512717,4207.692205,4221.025538,4229.743486,4227.692204,4227.179384,4231.794768,4269.743485,4225.128102,4224.615281,4219.999897,4233.33323,4225.640922
27,0,4229.230666,4212.82041,4199.487077,4214.358871,4221.025538,4222.051179,4219.487076,4226.153743,4269.743485,4220.512717,4226.666563,4219.487076,4227.179384,4211.281948
28,0,4222.051179,4216.410153,4199.999897,4214.871692,4222.051179,4217.435794,4218.974256,4221.025538,4269.230665,4221.025538,4227.179384,4215.897333,4227.692204,4223.58964
29,0,4210.256307,4213.846051,4201.538359,4217.435794,4218.461435,4219.487076,4219.999897,4214.871692,4263.076819,4208.205025,4213.33323,4208.717846,4224.102461,4225.128102
30,0,4213.846051,4208.717846,4204.102461,4214.871692,4210.769128,4221.025538,4219.487076,4218.461435,4263.589639,4205.640923,4211.794769,4210.769128,4220.512717,4213.33323
31,0,4228.717845,4217.948615,4213.33323,4213.846051,4211.794769,4221.025538,4221.025538,4227.179384,4267.179383,4216.922974,4226.153743,4219.999897,4225.128102,4223.07682
32,0,4239.487076,4229.743486,4217.435794,4219.999897,4216.410153,4224.102461,4218.974256,4228.717845,4266.153742,4218.974256,4230.769127,4226.153743,4232.820409,4245.128101
33,0,4229.743486,4220.512717,4211.281948,4221.025538,4214.871692,4223.58964,4214.358871,4215.897333,4258.461434,4208.717846,4221.538358,4223.07682,4225.128102,4233.84605
34,0,4218.461435,4218.461435,4213.33323,4218.974256,4222.563999,4220.512717,4216.922974,4214.358871,4261.025537,4211.281948,4220.512717,4223.58964,4217.435794,4213.33323
35,0,4223.58964,4225.128102,4219.999897,4219.999897,4230.256307,4219.999897,4222.563999,4227.692204,4268.717844,4223.58964,4219.487076,4225.640922,4221.025538,4218.974256
36,0,4235.897332,4219.999897,4213.33323,4217.435794,4223.07682,4219.487076,4223.58964,4232.820409,4268.205024,4224.615281,4217.435794,4225.128102,4224.102461,4234.871691
37,0,4229.743486,4208.717846,4202.564,4212.82041,4213.33323,4217.948615,4219.487076,4221.538358,4263.076819,4207.179384,4221.538358,4223.07682,4219.999897,4234.358871
38,0,4217.435794,4208.205025,4202.564,4209.230666,4214.358871,4217.948615,4212.82041,4214.871692,4263.589639,4206.153743,4226.666563,4220.512717,4220.512717,4225.640922
39,0,4216.410153,4211.281948,4202.564,4207.692205,4214.358871,4220.512717,4212.82041,4216.922974,4265.640921,4218.974256,4219.999897,4212.307589,4218.974256,4216.410153
40,0,4204.615282,4205.128102,4192.82041,4205.128102,4210.256307,4217.435794,4214.358871,4214.358871,4262.051178,4211.281948,4205.640923,4204.615282,4207.692205,4210.256307
41,0,4191.794769,4194.871692,4189.743487,4202.564,4205.128102,4212.82041,4208.717846,4208.205025,4256.922973,4187.692205,4197.435795,4199.487077,4196.410154,4202.564
42,0,4202.564,4193.333231,4196.922974,4199.487077,4200.512718,4211.281948,4204.615282,4205.640923,4253.84605,4186.666564,4198.461436,4197.948615,4195.897333,4198.461436
43,0,4209.230666,4199.487077,4193.846051,4201.538359,4199.487077,4215.384512,4204.102461,4201.538359,4251.794768,4196.410154,4197.948615,4201.025538,4198.974256,4202.051179
44,0,4194.871692,4200.512718,4184.102462,4207.692205,4204.102461,4218.974256,4202.564,4199.487077,4253.84605,4191.794769,4197.435795,4201.538359,4198.461436,4198.974256
45,0,4192.30759,4197.435795,4186.666564,4205.640923,4212.82041,4216.410153,4206.666564,4202.564,4256.410152,4191.794769,4203.589641,4198.974256,4202.051179,4196.410154
46,0,4211.794769,4206.153743,4200.512718,4209.230666,4217.435794,4218.461435,4213.33323,4211.281948,4258.461434,4209.743487,4214.871692,4206.153743,4213.33323,4215.897333
47,0,4229.230666,4219.999897,4215.897333,4221.538358,4221.025538,4224.102461,4213.33323,4224.102461,4268.717844,4225.128102,4226.666563,4223.07682,4222.563999,4237.435794
48,0,4224.615281,4217.435794,4216.922974,4216.410153,4216.410153,4221.538358,4208.717846,4223.58964,4273.333229,4216.410153,4224.615281,4226.153743,4218.461435,4231.281948
49,0,4213.846051,4210.769128,4203.07682,4203.07682,4208.717846,4214.871692,4207.179384,4213.846051,4264.10246,4200.512718,4214.358871,4215.384512,4213.33323,4220.512717
50,0,4207.692205,4206.153743,4194.871692,4199.487077,4203.589641,4213.846051,4208.205025,4207.692205,4257.435793,4195.384513,4204.615282,4207.179384,4208.205025,4213.33323
51,0,4211.281948,4207.692205,4198.974256,4203.07682,4209.230666,4215.897333,4211.281948,4211.281948,4260.512716,4204.615282,4209.230666,4206.666564,4207.692205,4214.358871
52,0,4219.999897,4217.435794,4201.538359,4209.743487,4218.461435,4217.435794,4213.33323,4209.230666,4257.435793,4211.794769,4217.435794,4211.281948,4213.33323,4224.102461
53,0,4222.563999,4222.051179,4198.974256,4212.307589,4214.871692,4218.974256,4210.769128,4203.07682,4254.35887,4206.666564,4215.897333,4212.82041,4214.358871,4221.025538
54,0,4211.281948,4208.717846,4195.384513,4204.102461,4202.051179,4212.307589,4203.07682,4204.102461,4258.461434,4199.487077,4207.692205,4207.179384,4202.051179,4203.589641
55,0,4202.051179,4198.461436,4193.333231,4196.410154,4201.538359,4203.589641,4198.974256,4210.256307,4257.948614,4200.512718,4203.589641,4206.666564,4195.384513,4201.538359
56,0,4198.974256,4198.974256,4193.333231,4195.897333,4204.102461,4207.179384,4201.025538,4210.769128,4253.84605,4196.410154,4203.07682,4208.717846,4195.897333,4211.281948
57,0,4195.897333,4203.07682,4190.769128,4199.487077,4201.538359,4213.33323,4203.589641,4209.743487,4257.948614,4193.846051,4203.589641,4199.999897,4195.897333,4209.743487
58,0,4202.051179,4204.615282,4186.153744,4202.564,4201.538359,4209.743487,4205.640923,4208.205025,4259.487075,4199.487077,4202.564,4195.384513,4196.922974,4201.538359
59,0,4209.230666,4208.717846,4186.666564,4201.025538,4206.666564,4209.743487,4207.179384,4208.205025,4258.974255,4202.051179,4201.025538,4202.051179,4197.948615,4204.615282
60,0,4199.999897,4205.128102,4187.692205,4195.897333,4201.025538,4212.82041,4205.640923,4203.589641,4258.974255,4198.461436,4199.487077,4199.487077,4192.30759,4206.666564
61,0,4191.794769,4195.384513,4188.717846,4195.384513,4196.410154,4212.307589,4204.102461,4196.922974,4256.922973,4191.281949,4194.871692,4191.794769,4188.717846,4194.871692
62,0,4190.256308,4195.384513,4188.717846,4198.461436,4201.538359,4211.281948,4207.179384,4195.897333,4254.35887,4185.128103,4190.769128,4195.384513,4193.333231,4190.769128
63,0,4190.769128,4204.615282,4189.230667,4204.615282,4205.640923,4208.205025,4206.666564,4197.948615,4255.897332,4189.743487,4196.410154,4197.948615,4197.948615,4205.640923
64,0,4195.384513,4203.589641,4184.102462,4206.666564,4205.640923,4207.692205,4205.640923,4197.435795,4257.435793,4198.974256,4202.051179,4190.256308,4197.948615,4211.281948
65,0,4197.948615,4194.358872,4181.538359,4197.948615,4201.538359,4211.281948,4205.640923,4198.974256,4255.384511,4192.30759,4198.974256,4190.256308,4194.871692,4196.410154
66,0,4201.538359,4200.512718,4191.281949,4196.410154,4204.102461,4213.846051,4206.666564,4203.07682,4256.410152,4191.794769,4203.07682,4203.589641,4197.435795,4192.82041
67,0,4210.769128,4210.769128,4202.051179,4205.128102,4211.281948,4213.846051,4208.717846,4203.589641,4258.974255,4201.538359,4207.179384,4206.666564,4199.999897,4205.128102
68,0,4211.281948,4207.692205,4202.051179,4207.179384,4211.794769,4215.384512,4209.743487,4205.128102,4261.025537,4200.512718,4204.102461,4199.999897,4197.948615,4211.794769
69,0,4197.948615,4198.974256,4196.922974,4201.025538,4206.153743,4215.384512,4207.179384,4200.512718,4259.487075,4190.769128,4197.435795,4195.384513,4190.769128,4203.07682
70,0,4195.384513,4201.538359,4199.487077,4202.564,4210.769128,4215.384512,4210.256307,4197.948615,4261.538357,4195.384513,4198.974256,4197.435795,4192.82041,4202.051179
71,0,4202.564,4206.666564,4201.538359,4205.128102,4213.33323,4217.948615,4216.410153,4204.102461,4263.589639,4199.999897,4200.512718,4199.487077,4197.948615,4204.102461
72,0,4204.102461,4206.666564,4196.410154,4202.051179,4208.205025,4216.410153,4211.794769,4207.692205,4260.512716,4193.333231,4195.384513,4197.435795,4195.897333,4194.358872
73,0,4203.07682,4202.564,4193.846051,4200.512718,4204.102461,4214.871692,4206.666564,4204.102461,4258.974255,4187.179385,4190.769128,4193.333231,4192.30759,4190.769128
74,0,4204.615282,4203.589641,4197.435795,4205.128102,4209.230666,4216.410153,4210.256307,4202.564,4260.512716,4194.358872,4199.487077,4197.435795,4196.922974,4206.153743
75,0,4204.615282,4207.179384,4199.487077,4208.717846,4212.82041,4217.435794,4210.256307,4202.564,4260.512716,4203.07682,4209.230666,4204.615282,4203.589641,4213.846051
76,0,4207.179384,4208.717846,4198.461436,4201.025538,4211.794769,4216.410153,4210.256307,4208.717846,4265.640921,4208.205025,4209.743487,4204.615282,4208.205025,4206.153743
77,0,4208.205025,4205.128102,4201.538359,4196.410154,4211.281948,4215.384512,4214.358871,4215.384512,4272.307588,4213.846051,4210.769128,4205.640923,4211.281948,4203.589641
78,0,4208.717846,4209.743487,4205.640923,4206.153743,4219.999897,4216.410153,4215.384512,4211.281948,4268.717844,4215.897333,4214.358871,4210.769128,4215.384512,4213.33323
79,0,4220.512717,4223.58964,4211.794769,4216.922974,4227.179384,4218.461435,4213.846051,4207.692205,4261.025537,4210.256307,4215.897333,4212.82041,4222.563999,4225.640922
80,0,4226.666563,4225.128102,4213.846051,4213.846051,4221.025538,4219.487076,4216.922974,4211.794769,4261.025537,4206.153743,4211.281948,4211.281948,4221.538358,4224.615281
81,0,4205.640923,4208.717846,4205.128102,4204.102461,4210.769128,4216.410153,4221.025538,4213.33323,4265.640921,4206.666564,4204.615282,4203.589641,4208.205025,4212.307589
82,0,4189.230667,4196.922974,4196.410154,4197.435795,4204.615282,4212.82041,4215.897333,4211.794769,4270.769126,4208.205025,4205.128102,4200.512718,4203.07682,4206.153743
83,0,4201.025538,4204.102461,4197.948615,4198.974256,4204.615282,4212.307589,4207.179384,4209.743487,4273.333229,4217.948615,4215.897333,4208.717846,4214.871692,4209.743487
84,0,4214.871692,4211.281948,4206.666564,4207.692205,4209.743487,4214.871692,4205.128102,4209.743487,4271.281947,4227.692204,4225.640922,4223.07682,4230.256307,4222.563999
85,0,4216.922974,4208.717846,4214.358871,4210.769128,4210.769128,4215.384512,4209.743487,4218.974256,4270.256306,4231.281948,4230.769127,4229.230666,4237.435794,4239.487076
86,0,4211.281948,4204.615282,4213.846051,4208.717846,4203.07682,4213.33323,4210.256307,4222.051179,4270.769126,4221.538358,4228.717845,4221.538358,4233.84605,4236.922973
87,0,4210.256307,4207.692205,4206.666564,4205.640923,4205.128102,4214.358871,4208.205025,4211.794769,4269.743485,4212.307589,4222.051179,4211.794769,4226.666563,4226.153743
88,0,4214.871692,4211.281948,4206.666564,4207.179384,4215.384512,4217.948615,4210.769128,4210.769128,4267.692203,4214.358871,4216.410153,4210.769128,4219.999897,4223.58964
89,0,4224.102461,4222.051179,4215.384512,4219.487076,4223.07682,4219.999897,4216.410153,4223.58964,4271.281947,4225.128102,4219.487076,4218.974256,4224.615281,4226.666563
90,0,4226.666563,4227.179384,4216.922974,4223.07682,4219.487076,4218.974256,4214.871692,4221.025538,4270.256306,4222.051179,4219.999897,4220.512717,4228.205025,4219.999897
91,0,4220.512717,4219.999897,4212.82041,4212.307589,4219.487076,4217.435794,4212.307589,4214.871692,4267.179383,4211.281948,4215.897333,4214.358871,4223.58964,4219.999897
92,0,4218.461435,4215.384512,4213.846051,4207.179384,4220.512717,4216.922974,4214.358871,4220.512717,4269.743485,4208.205025,4213.846051,4209.230666,4221.025538,4226.153743
93,0,4222.563999,4214.871692,4214.871692,4209.230666,4215.384512,4217.948615,4216.410153,4225.640922,4274.35887,4215.897333,4217.948615,4210.769128,4223.58964,4225.128102
94,0,4216.410153,4208.717846,4213.33323,4208.205025,4207.692205,4216.922974,4212.307589,4222.051179,4272.820408,4223.07682,4218.974256,4211.794769,4222.051179,4218.974256
95,0,4210.256307,4209.743487,4217.435794,4210.769128,4208.205025,4215.897333,4208.717846,4222.051179,4271.794767,4225.128102,4221.025538,4217.435794,4223.58964,4224.102461
96,0,4221.538358,4220.512717,4222.051179,4212.82041,4216.922974,4218.461435,4211.281948,4225.640922,4275.384511,4228.205025,4230.256307,4226.153743,4231.281948,4235.384512
97,0,4231.281948,4224.102461,4215.897333,4213.33323,4220.512717,4219.999897,4211.794769,4219.999897,4275.384511,4224.615281,4234.871691,4218.974256,4230.769127,4231.794768
98,0,4223.07682,4223.58964,4209.230666,4216.922974,4219.487076,4218.461435,4210.769128,4209.230666,4270.256306,4212.307589,4226.666563,4208.205025,4222.051179,4221.025538
99,0,4216.410153,4226.666563,4211.281948,4215.384512,4220.512717,4217.948615,4212.307589,4209.743487,4268.205024,4212.82041,4220.512717,4212.82041,4219.999897,4222.563999
100,0,4216.922974,4223.07682,4211.281948,4211.794769,4220.512717,4219.487076,4216.410153,4217.948615,4271.794767,4224.102461,4223.58964,4216.922974,4222.563999,4228.205025
101,0,4208.717846,4212.82041,4203.07682,4210.256307,4214.358871,4219.487076,4212.82041,4217.435794,4272.307588,4221.538358,4221.025538,4211.281948,4218.974256,4222.051179
102,0,4201.025538,4212.307589,4203.589641,4208.717846,4210.769128,4217.435794,4206.666564,4212.307589,4272.820408,4218.974256,4221.538358,4213.33323,4220.512717,4219.999897
103,0,4208.205025,4218.974256,4214.871692,4207.692205,4210.769128,4216.410153,4206.666564,4211.794769,4270.769126,4218.974256,4228.205025,4219.999897,4225.640922,4232.307589
104,0,4225.640922,4228.205025,4218.974256,4215.384512,4214.358871,4216.922974,4209.743487,4217.435794,4270.256306,4215.384512,4229.230666,4220.512717,4226.666563,4242.563999
105,0,4239.487076,4242.051178,4213.33323,4223.07682,4218.974256,4218.461435,4210.256307,4222.051179,4274.35887,4216.410153,4224.615281,4221.538358,4230.256307,4244.615281
106,0,4263.589639,4262.051178,4216.922974,4224.615281,4218.974256,4218.974256,4211.281948,4216.922974,4272.307588,4221.025538,4230.256307,4230.769127,4241.025537,4265.640921
107,0,4297.948613,4271.794767,4228.205025,4225.640922,4209.230666,4214.871692,4208.205025,4201.025538,4256.922973,4203.589641,4231.794768,4235.897332,4241.025537,4297.435792
108,0,4343.589637,4288.205023,4233.33323,4231.794768,4204.102461,4211.794769,4201.025538,4196.410154,4250.256306,4183.589641,4221.538358,4237.948614,4243.58964,4322.563997
109,0,4407.6922,4322.051176,4241.025537,4241.538358,4205.640923,4217.435794,4198.461436,4202.051179,4258.461434,4188.717846,4222.563999,4250.256306,4271.281947,4358.974252
110,0,4475.897326,4353.846047,4254.35887,4247.692204,4208.205025,4215.384512,4197.435795,4197.948615,4259.487075,4196.410154,4237.948614,4265.128101,4305.64092,4412.820405
111,0,4507.692197,4369.230662,4261.538357,4251.794768,4202.564,4204.102461,4190.769128,4183.589641,4244.615281,4181.025539,4239.999896,4264.10246,4319.999894,4445.128096
112,0,4506.666556,4373.333226,4262.051178,4254.35887,4197.435795,4209.230666,4192.30759,4185.640923,4238.461435,4176.922975,4239.999896,4266.666562,4319.487074,4447.179378
113,0,4504.102454,4365.128098,4258.461434,4254.35887,4196.922974,4216.410153,4197.948615,4189.743487,4245.640922,4183.589641,4241.538358,4274.87169,4311.281946,4436.410148
114,0,4497.948608,4350.769124,4251.794768,4248.717845,4193.333231,4207.692205,4194.358872,4179.999898,4248.717845,4178.974257,4230.256307,4265.640921,4287.179382,4418.974251
115,0,4469.23066,4335.384509,4248.205024,4238.461435,4190.769128,4205.640923,4195.384513,4184.615282,4248.205024,4177.948616,4217.948615,4253.333229,4255.384511,4395.384508
116,0,4428.71784,4315.89733,4247.692204,4233.84605,4193.333231,4215.384512,4203.07682,4204.615282,4254.871691,4183.589641,4225.640922,4254.35887,4236.922973,4373.846047
117,0,4399.999892,4303.076818,4246.666563,4235.384512,4198.461436,4216.410153,4201.025538,4206.153743,4260.512716,4186.153744,4236.922973,4251.794768,4231.794768,4361.025534
118,0,4385.128098,4299.999895,4244.615281,4236.410153,4206.153743,4213.846051,4199.999897,4201.025538,4263.589639,4199.487077,4236.922973,4250.769127,4230.769127,4353.846047
119,0,4370.256303,4291.794767,4237.435794,4235.897332,4212.307589,4216.922974,4208.205025,4210.769128,4269.230665,4212.307589,4235.384512,4252.820409,4230.769127,4339.999894
120,0,4343.076817,4271.794767,4229.743486,4230.769127,4207.692205,4217.948615,4209.743487,4216.922974,4272.307588,4209.743487,4229.743486,4239.999896,4225.640922,4314.871689
121,0,4316.922971,4257.435793,4229.743486,4220.512717,4203.589641,4218.974256,4207.692205,4217.948615,4272.820408,4210.256307,4227.692204,4231.281948,4219.999897,4292.820408
122,0,4304.615279,4252.820409,4233.33323,4222.051179,4206.153743,4219.487076,4209.230666,4223.07682,4272.307588,4211.794769,4231.281948,4239.999896,4221.025538,4285.1281
123,0,4296.410151,4249.743486,4230.256307,4230.769127,4211.794769,4218.974256,4209.743487,4222.051179,4272.307588,4217.435794,4235.384512,4241.538358,4227.179384,4285.640921
124,0,4282.051177,4241.538358,4221.538358,4227.179384,4213.33323,4218.974256,4206.666564,4213.33323,4270.769126,4222.563999,4234.358871,4230.769127,4226.153743,4277.435793
125,0,4264.61528,4232.820409,4215.384512,4221.538358,4210.769128,4217.435794,4208.205025,4213.33323,4272.820408,4221.025538,4232.820409,4225.128102,4219.999897,4264.10246
126,0,4246.666563,4223.07682,4212.82041,4214.871692,4206.153743,4214.871692,4208.205025,4210.769128,4270.769126,4210.769128,4224.615281,4221.538358,4211.281948,4244.10246
127,0,4233.84605,4219.999897,4209.230666,4206.666564,4209.743487,4212.82041,4204.615282,4202.051179,4263.076819,4198.461436,4216.410153,4215.897333,4209.230666,4227.692204
128,0,4223.58964,4214.358871,4204.615282,4207.692205,4207.692205,4212.307589,4203.589641,4199.487077,4262.051178,4189.743487,4216.922974,4211.281948,4209.230666,4222.563999
0,0,4218.974256,4209.230666,4204.102461,4212.82041,4200.512718,4214.358871,4207.179384,4205.128102,4264.10246,4201.025538,4221.025538,4207.692205,4211.794769,4229.743486
1,0,4215.384512,4208.205025,4203.07682,4210.256307,4201.538359,4214.358871,4210.256307,4206.666564,4265.128101,4210.256307,4216.922974,4209.230666,4210.769128,4230.769127
2,0,4215.384512,4213.33323,4200.512718,4211.794769,4209.230666,4215.384512,4210.256307,4213.33323,4268.717844,4201.025538,4214.358871,4216.410153,4207.179384,4223.07682
3,0,4219.999897,4216.410153,4207.179384,4218.974256,4211.281948,4217.948615,4212.307589,4223.07682,4274.35887,4200.512718,4216.410153,4218.974256,4207.692205,4220.512717
4,0,4213.33323,4214.358871,4213.33323,4214.871692,4212.82041,4219.487076,4213.846051,4226.666563,4275.384511,4210.256307,4216.922974,4214.358871,4211.794769,4221.538358
5,0,4195.897333,4211.794769,4206.666564,4209.230666,4213.33323,4219.487076,4213.33323,4221.538358,4273.333229,4209.230666,4214.871692,4208.205025,4210.769128,4212.307589
6,0,4195.384513,4211.281948,4199.999897,4210.769128,4214.871692,4217.948615,4209.743487,4209.743487,4271.794767,4204.102461,4214.358871,4208.717846,4208.205025,4202.564
7,0,4206.153743,4210.769128,4203.589641,4213.846051,4220.512717,4216.410153,4210.256307,4209.230666,4272.307588,4211.281948,4212.307589,4212.307589,4211.281948,4208.717846
8,0,4200.512718,4211.281948,4203.589641,4213.33323,4221.538358,4217.948615,4216.410153,4217.948615,4274.35887,4217.948615,4210.256307,4214.358871,4212.307589,4215.897333
9,0,4189.743487,4211.281948,4202.051179,4208.205025,4216.922974,4217.948615,4214.358871,4221.538358,4276.410152,4215.384512,4215.384512,4211.794769,4209.230666,4208.717846
10,0,4189.743487,4210.769128,4207.179384,4209.743487,4217.435794,4216.410153,4210.256307,4222.051179,4275.384511,4215.384512,4221.025538,4212.82041,4208.717846,4200.512718
11,0,4197.948615,4218.461435,4208.205025,4216.922974,4223.07682,4218.461435,4213.33323,4225.640922,4277.948613,4224.102461,4224.615281,4215.897333,4213.33323,4199.999897
12,0,4195.897333,4219.487076,4201.538359,4217.435794,4222.051179,4218.974256,4213.33323,4215.384512,4277.948613,4218.461435,4224.615281,4210.256307,4212.307589,4199.487077
13,0,4187.179385,4213.33323,4201.025538,4213.33323,4225.128102,4216.410153,4210.769128,4209.743487,4276.410152,4211.281948,4223.58964,4206.153743,4210.769128,4202.564
14,0,4179.999898,4204.615282,4198.461436,4207.179384,4221.538358,4216.410153,4211.281948,4215.897333,4274.35887,4212.307589,4213.846051,4204.615282,4206.666564,4197.435795
15,0,4172.820411,4196.922974,4185.128103,4202.051179,4208.717846,4216.922974,4209.230666,4215.384512,4271.794767,4203.589641,4201.538359,4193.846051,4193.846051,4181.538359
16,0,4162.05118,4193.846051,4182.564,4200.512718,4202.564,4214.871692,4208.205025,4210.769128,4269.230665,4188.205026,4199.999897,4185.128103,4185.128103,4172.30759
17,0,4166.153744,4203.589641,4197.435795,4207.692205,4212.82041,4216.922974,4214.871692,4220.512717,4272.820408,4194.871692,4212.307589,4197.948615,4196.410154,4184.102462
18,0,4176.922975,4209.230666,4205.640923,4214.358871,4217.948615,4219.487076,4214.871692,4227.179384,4277.435793,4208.205025,4219.999897,4211.794769,4206.153743,4194.358872
19,0,4178.461436,4208.205025,4202.051179,4214.871692,4216.410153,4216.922974,4209.743487,4218.974256,4275.897331,4209.743487,4218.461435,4211.281948,4205.640923,4194.358872
20,0,4178.974257,4210.769128,4202.051179,4211.281948,4222.563999,4216.410153,4211.794769,4213.846051,4274.35887,4212.82041,4220.512717,4211.794769,4209.743487,4198.974256
21,0,4183.589641,4211.794769,4205.128102,4209.230666,4228.205025,4219.487076,4215.384512,4217.948615,4275.897331,4225.128102,4228.205025,4215.897333,4215.384512,4206.153743
22,0,4183.589641,4202.564,4203.07682,4208.717846,4215.897333,4219.487076,4212.82041,4221.538358,4275.897331,4222.051179,4224.615281,4212.82041,4211.281948,4204.102461
23,0,4177.948616,4194.871692,4200.512718,4207.692205,4206.153743,4216.922974,4210.769128,4221.538358,4277.948613,4209.230666,4219.487076,4209.743487,4205.640923,4193.846051
24,0,4172.820411,4198.974256,4201.538359,4209.743487,4214.871692,4217.948615,4215.384512,4221.538358,4278.974254,4213.846051,4221.538358,4212.307589,4206.153743,4192.82041
25,0,4168.205026,4203.07682,4202.564,4208.717846,4218.461435,4218.974256,4213.846051,4217.948615,4277.435793,4224.615281,4218.974256,4213.33323,4207.179384,4201.025538
26,0,4164.102462,4196.410154,4201.538359,4201.538359,4209.743487,4215.384512,4205.640923,4212.82041,4276.922972,4219.487076,4215.384512,4211.794769,4205.640923,4195.897333
27,0,4158.461437,4190.256308,4197.948615,4199.487077,4207.692205,4212.307589,4205.640923,4215.384512,4274.87169,4209.230666,4217.435794,4203.07682,4200.512718,4179.487077
28,0,4158.974257,4195.384513,4189.743487,4204.615282,4213.846051,4213.846051,4210.769128,4219.999897,4274.35887,4207.179384,4217.948615,4194.358872,4195.897333,4174.871693
29,0,4165.640924,4198.974256,4184.615282,4207.692205,4214.871692,4216.922974,4210.769128,4218.974256,4276.410152,4200.512718,4210.256307,4197.435795,4193.846051,4179.999898
30,0,4169.230667,4202.564,4194.871692,4208.205025,4216.410153,4216.410153,4214.871692,4221.538358,4277.435793,4203.07682,4211.794769,4208.205025,4197.948615,4188.205026
31,0,4163.589642,4201.025538,4201.538359,4204.102461,4216.922974,4214.358871,4222.563999,4222.051179,4274.35887,4211.794769,4213.33323,4203.07682,4196.922974,4188.717846
32,0,4160.512719,4194.358872,4192.82041,4201.025538,4215.384512,4214.358871,4224.615281,4219.487076,4273.333229,4208.717846,4204.102461,4193.846051,4187.692205,4175.384513
33,0,4162.564001,4192.82041,4194.358872,4206.153743,4213.846051,4216.922974,4225.128102,4222.051179,4275.897331,4204.615282,4203.589641,4201.025538,4186.153744,4170.769129
34,0,4168.717847,4196.410154,4202.564,4209.230666,4212.307589,4213.846051,4228.205025,4229.743486,4279.487075,4213.33323,4217.435794,4210.256307,4197.948615,4188.717846
35,0,4167.179385,4188.717846,4191.794769,4200.512718,4203.07682,4205.128102,4220.512717,4222.051179,4275.897331,4208.717846,4216.410153,4205.640923,4195.384513,4190.769128
36,0,4159.999898,4183.589641,4187.179385,4195.384513,4204.102461,4207.692205,4214.871692,4214.358871,4272.307588,4201.538359,4212.82041,4203.589641,4187.179385,4180.512718
37,0,4158.974257,4191.794769,4200.512718,4204.615282,4220.512717,4219.999897,4229.230666,4231.281948,4283.589639,4218.461435,4221.538358,4207.692205,4193.846051,4184.102462
38,0,4166.666565,4199.487077,4202.564,4211.281948,4230.256307,4221.538358,4241.538358,4245.128101,4292.820408,4233.33323,4222.051179,4209.743487,4199.487077,4186.153744
39,0,4174.358872,4202.564,4201.025538,4210.256307,4224.102461,4216.410153,4232.820409,4232.820409,4284.61528,4224.102461,4216.410153,4211.281948,4195.384513,4184.615282
40,0,4177.435795,4206.153743,4211.281948,4213.33323,4224.102461,4217.435794,4223.07682,4224.102461,4275.384511,4215.384512,4225.128102,4214.358871,4201.538359,4198.461436
41,0,4175.897334,4202.564,4210.769128,4209.230666,4226.153743,4216.410153,4225.640922,4233.84605,4279.999895,4217.948615,4230.769127,4213.846051,4209.743487,4204.615282
42,0,4170.256308,4192.82041,4199.487077,4199.487077,4218.974256,4211.281948,4225.640922,4233.84605,4284.102459,4222.051179,4224.615281,4213.33323,4204.102461,4192.30759
43,0,4159.999898,4183.589641,4192.82041,4198.461436,4209.743487,4210.769128,4218.461435,4217.435794,4274.87169,4216.410153,4217.435794,4203.589641,4193.333231,4183.076821
44,0,4147.179386,4178.461436,4185.128103,4199.999897,4208.205025,4212.82041,4218.461435,4208.717846,4268.205024,4200.512718,4209.743487,4192.82041,4185.640923,4178.974257
45,0,4149.743488,4178.974257,4185.640923,4200.512718,4214.358871,4214.871692,4222.563999,4211.794769,4270.256306,4196.410154,4209.230666,4196.922974,4182.05118,4181.538359
46,0,4161.025539,4183.076821,4192.30759,4206.666564,4216.922974,4216.410153,4215.897333,4211.794769,4269.743485,4197.948615,4212.307589,4198.974256,4181.538359,4178.461436
47,0,4165.128103,4188.717846,4190.256308,4206.153743,4214.358871,4214.871692,4208.205025,4210.256307,4266.666562,4195.384513,4208.205025,4189.743487,4184.615282,4168.717847
48,0,4166.666565,4196.922974,4190.256308,4202.564,4218.974256,4215.897333,4216.410153,4219.487076,4271.281947,4204.102461,4214.358871,4195.897333,4192.30759,4177.435795
49,0,4178.461436,4209.230666,4203.07682,4216.922974,4234.358871,4223.58964,4230.769127,4238.974255,4283.076818,4224.102461,4237.435794,4218.974256,4210.256307,4206.153743
50,0,4178.974257,4208.717846,4210.256307,4223.58964,4231.794768,4222.563999,4232.820409,4246.666563,4288.717844,4229.743486,4241.025537,4228.717845,4213.846051,4208.205025
51,0,4166.153744,4194.358872,4200.512718,4205.640923,4212.82041,4212.82041,4227.179384,4236.922973,4284.102459,4222.051179,4218.461435,4215.384512,4193.846051,4185.640923
52,0,4155.897334,4178.461436,4191.281949,4190.769128,4207.179384,4211.281948,4223.58964,4220.512717,4273.333229,4203.589641,4206.153743,4198.461436,4176.410154,4169.743488
53,0,4159.999898,4185.128103,4194.871692,4199.999897,4221.538358,4216.410153,4223.07682,4220.512717,4271.794767,4197.435795,4219.487076,4203.07682,4183.589641,4170.769129
54,0,4158.461437,4194.358872,4192.30759,4209.230666,4224.102461,4214.358871,4217.948615,4222.051179,4274.35887,4203.589641,4218.974256,4206.666564,4186.153744,4172.820411
55,0,4144.102463,4186.153744,4178.461436,4202.564,4214.871692,4205.128102,4214.871692,4213.846051,4273.333229,4199.999897,4202.564,4193.846051,4172.820411,4167.692206
56,0,4141.53836,4181.025539,4174.358872,4196.922974,4215.384512,4201.025538,4215.897333,4207.179384,4269.230665,4191.281949,4197.948615,4186.153744,4167.692206,4158.974257
57,0,4157.948616,4190.256308,4182.05118,4198.461436,4218.974256,4207.692205,4214.871692,4209.743487,4268.717844,4197.948615,4210.256307,4195.384513,4178.974257,4162.564001
58,0,4167.179385,4194.871692,4189.230667,4202.051179,4212.82041,4211.281948,4216.922974,4213.846051,4270.769126,4207.179384,4213.846051,4198.974256,4186.153744,4174.358872
59,0,4164.615283,4192.30759,4197.948615,4208.205025,4209.230666,4207.692205,4223.07682,4220.512717,4271.281947,4203.589641,4205.128102,4196.410154,4188.717846,4181.025539
60,0,4166.666565,4188.205026,4204.615282,4207.692205,4211.281948,4207.179384,4222.051179,4226.666563,4270.769126,4201.538359,4206.666564,4203.589641,4188.717846,4176.410154
61,0,4164.102462,4180.512718,4196.410154,4199.487077,4208.717846,4206.666564,4216.922974,4223.58964,4270.769126,4199.487077,4208.717846,4206.666564,4183.076821,4162.564001
62,0,4156.410155,4176.922975,4187.692205,4198.974256,4206.153743,4203.589641,4218.974256,4215.897333,4271.281947,4198.974256,4203.07682,4197.948615,4177.435795,4159.487078
63,0,4154.871693,4178.974257,4188.205026,4201.025538,4209.230666,4204.615282,4217.948615,4215.897333,4272.820408,4204.615282,4204.615282,4190.256308,4179.999898,4171.281949
64,0,4158.461437,4179.999898,4192.82041,4201.538359,4216.410153,4204.615282,4211.794769,4218.974256,4275.384511,4208.717846,4217.435794,4198.461436,4191.794769,4178.461436
65,0,4163.076821,4184.615282,4202.051179,4209.230666,4217.948615,4203.589641,4209.230666,4213.33323,4270.769126,4205.640923,4222.051179,4213.33323,4198.461436,4176.922975
66,0,4176.410154,4196.410154,4207.179384,4216.410153,4211.281948,4209.230666,4209.743487,4207.692205,4264.10246,4204.615282,4218.974256,4216.922974,4197.948615,4184.615282
67,0,4183.076821,4199.487077,4203.07682,4212.82041,4207.179384,4208.205025,4205.640923,4209.743487,4265.128101,4209.230666,4215.384512,4209.230666,4195.384513,4190.256308
68,0,4177.435795,4197.948615,4198.974256,4206.666564,4213.846051,4203.07682,4202.564,4210.769128,4268.717844,4212.82041,4213.33323,4206.666564,4193.846051,4180.512718
69,0,4172.30759,4195.897333,4200.512718,4207.179384,4216.410153,4208.205025,4206.666564,4208.205025,4266.666562,4208.205025,4213.846051,4209.230666,4192.30759,4173.846052
70,0,4177.435795,4197.948615,4199.487077,4215.897333,4217.948615,4211.794769,4210.256307,4213.33323,4268.717844,4210.256307,4217.948615,4206.153743,4193.846051,4181.538359
71,0,4180.512718,4203.07682,4199.487077,4221.538358,4221.538358,4207.179384,4212.307589,4219.999897,4273.846049,4221.538358,4222.051179,4203.07682,4198.461436,4184.615282
72,0,4175.897334,4204.615282,4202.564,4213.846051,4216.410153,4206.666564,4209.230666,4223.07682,4275.897331,4228.717845,4223.58964,4208.717846,4204.615282,4184.615282
73,0,4173.846052,4201.538359,4202.051179,4208.205025,4209.230666,4213.846051,4206.666564,4221.538358,4276.922972,4224.102461,4221.538358,4211.281948,4205.640923,4185.128103
74,0,4183.589641,4206.666564,4206.153743,4214.871692,4216.922974,4214.871692,4213.33323,4222.563999,4275.897331,4221.025538,4221.538358,4208.205025,4201.538359,4184.102462
75,0,4190.256308,4211.794769,4213.846051,4217.948615,4225.128102,4212.307589,4216.922974,4224.102461,4270.769126,4218.974256,4219.487076,4204.102461,4196.922974,4183.589641
76,0,4188.717846,4209.743487,4214.358871,4215.384512,4222.563999,4213.846051,4214.871692,4223.07682,4272.307588,4219.487076,4214.358871,4204.102461,4197.435795,4186.153744
77,0,4188.205026,4208.717846,4218.974256,4220.512717,4219.487076,4217.435794,4217.435794,4221.538358,4275.897331,4225.128102,4218.974256,4213.33323,4203.07682,4190.769128
78,0,4202.564,4218.461435,4231.794768,4228.205025,4226.153743,4220.512717,4225.128102,4229.230666,4277.948613,4236.922973,4238.974255,4230.769127,4217.948615,4206.153743
79,0,4216.922974,4227.692204,4237.435794,4226.666563,4235.384512,4221.538358,4222.051179,4238.461435,4283.076818,4248.717845,4250.256306,4237.435794,4228.205025,4221.538358
80,0,4209.743487,4222.563999,4230.769127,4221.538358,4232.820409,4219.487076,4214.358871,4235.897332,4285.1281,4247.179383,4240.512717,4226.666563,4224.102461,4214.871692
81,0,4193.333231,4210.769128,4222.051179,4220.512717,4223.58964,4216.922974,4216.410153,4228.717845,4279.487075,4239.487076,4230.256307,4215.897333,4216.922974,4202.051179
82,0,4192.30759,4209.230666,4218.974256,4222.563999,4223.07682,4219.999897,4220.512717,4228.717845,4276.410152,4236.410153,4228.717845,4213.846051,4212.307589,4197.948615
83,0,4200.512718,4212.307589,4217.435794,4223.58964,4228.717845,4218.974256,4221.025538,4230.256307,4277.435793,4230.256307,4226.153743,4212.82041,4208.205025,4191.281949
84,0,4192.30759,4203.589641,4214.358871,4217.435794,4222.563999,4212.307589,4215.384512,4217.948615,4272.307588,4216.410153,4219.487076,4208.717846,4203.589641,4183.076821
85,0,4188.205026,4203.589641,4216.922974,4215.384512,4217.948615,4212.82041,4211.794769,4215.897333,4271.281947,4225.128102,4224.615281,4211.794769,4213.33323,4196.922974
86,0,4196.922974,4212.82041,4223.58964,4221.538358,4223.07682,4218.974256,4212.82041,4225.128102,4276.922972,4241.538358,4233.84605,4217.435794,4222.051179,4212.307589
87,0,4194.871692,4211.794769,4219.999897,4219.487076,4225.640922,4213.846051,4211.794769,4217.948615,4276.922972,4235.384512,4226.666563,4213.846051,4215.384512,4199.487077
88,0,4176.410154,4198.974256,4207.179384,4211.794769,4213.846051,4204.102461,4204.615282,4201.025538,4270.769126,4215.384512,4210.769128,4196.922974,4203.589641,4178.974257
89,0,4174.871693,4197.435795,4205.640923,4213.33323,4207.179384,4206.153743,4201.025538,4202.051179,4268.205024,4212.307589,4215.384512,4192.30759,4205.640923,4182.564
90,0,4191.281949,4203.589641,4211.281948,4215.897333,4211.281948,4213.33323,4206.666564,4209.230666,4269.230665,4215.897333,4225.640922,4205.640923,4208.205025,4193.333231
91,0,4195.384513,4210.256307,4211.281948,4214.871692,4216.410153,4214.871692,4211.794769,4209.743487,4271.794767,4215.384512,4222.563999,4210.769128,4206.666564,4193.333231
92,0,4184.615282,4209.230666,4208.717846,4214.358871,4215.384512,4214.358871,4212.307589,4212.307589,4272.820408,4218.461435,4217.948615,4203.07682,4206.666564,4185.128103
93,0,4183.589641,4202.051179,4208.205025,4214.358871,4219.999897,4215.384512,4210.256307,4214.358871,4272.820408,4226.666563,4223.07682,4203.07682,4211.794769,4183.589641
94,0,4182.564,4199.487077,4210.256307,4212.82041,4224.102461,4213.33323,4210.769128,4213.846051,4275.897331,4227.692204,4223.07682,4205.640923,4214.871692,4190.769128
95,0,4182.564,4206.153743,4210.256307,4214.358871,4218.461435,4207.692205,4210.256307,4215.384512,4277.435793,4223.07682,4220.512717,4200.512718,4211.794769,4195.897333
96,0,4192.82041,4209.230666,4207.692205,4215.897333,4211.794769,4204.102461,4208.205025,4212.307589,4272.307588,4216.922974,4218.974256,4197.948615,4206.153743,4196.410154
97,0,4195.897333,4205.128102,4206.666564,4212.307589,4213.33323,4204.615282,4207.179384,4207.692205,4269.230665,4208.205025,4212.82041,4198.974256,4202.564,4191.281949
98,0,4193.846051,4203.589641,4211.281948,4213.846051,4219.999897,4211.281948,4207.179384,4204.102461,4269.230665,4206.153743,4208.717846,4201.538359,4203.07682,4184.615282
99,0,4198.974256,4210.769128,4217.948615,4219.487076,4225.128102,4217.948615,4209.230666,4210.256307,4271.281947,4217.435794,4218.461435,4207.692205,4209.743487,4195.897333
100,0,4199.999897,4213.33323,4216.922974,4216.922974,4225.128102,4214.358871,4211.794769,4221.538358,4274.35887,4230.256307,4229.743486,4212.82041,4218.461435,4210.769128
101,0,4189.230667,4202.564,4210.769128,4207.692205,4215.897333,4204.615282,4210.769128,4215.384512,4272.820408,4224.102461,4221.025538,4210.256307,4212.82041,4197.435795
102,0,4191.281949,4198.974256,4212.307589,4211.281948,4218.974256,4209.230666,4211.794769,4209.230666,4272.307588,4213.33323,4216.410153,4208.205025,4206.666564,4189.230667
103,0,4197.948615,4206.666564,4218.461435,4217.948615,4227.179384,4217.948615,4213.846051,4217.435794,4272.820408,4214.871692,4226.666563,4211.281948,4210.769128,4199.999897
104,0,4189.743487,4205.128102,4217.948615,4213.33323,4219.487076,4207.692205,4211.281948,4221.538358,4273.333229,4216.922974,4224.102461,4208.205025,4208.717846,4194.871692
105,0,4189.230667,4198.461436,4218.461435,4213.33323,4209.230666,4203.07682,4206.666564,4213.33323,4275.897331,4213.33323,4208.717846,4205.128102,4201.538359,4184.102462
106,0,4207.692205,4208.717846,4227.179384,4222.563999,4221.538358,4213.846051,4208.205025,4216.410153,4276.410152,4222.051179,4217.948615,4215.384512,4214.871692,4202.051179
107,0,4209.230666,4213.33323,4225.128102,4219.487076,4229.743486,4216.922974,4209.230666,4215.897333,4269.743485,4226.666563,4232.820409,4217.435794,4223.07682,4212.307589
108,0,4198.461436,4204.615282,4215.897333,4211.794769,4219.999897,4211.281948,4208.205025,4208.205025,4268.717844,4221.025538,4225.128102,4207.179384,4212.82041,4206.153743
109,0,4203.07682,4205.128102,4215.384512,4215.384512,4215.384512,4212.307589,4208.205025,4207.692205,4272.307588,4218.461435,4216.922974,4209.230666,4207.179384,4206.153743
110,0,4204.102461,4211.794769,4214.358871,4213.846051,4218.974256,4211.281948,4210.769128,4216.922974,4272.307588,4223.58964,4220.512717,4218.461435,4211.281948,4203.589641
111,0,4187.692205,4201.025538,4208.205025,4207.179384,4212.307589,4205.640923,4211.281948,4222.051179,4271.281947,4221.025538,4218.974256,4210.256307,4207.179384,4190.769128
112,0,4187.692205,4192.82041,4204.615282,4207.692205,4204.615282,4202.051179,4206.666564,4216.922974,4271.794767,4216.410153,4212.82041,4199.999897,4202.051179,4193.846051
113,0,4198.974256,4202.564,4207.179384,4209.743487,4207.692205,4202.051179,4206.153743,4212.307589,4271.281947,4212.82041,4209.230666,4199.487077,4204.615282,4204.102461
114,0,4191.794769,4206.666564,4210.769128,4207.692205,4214.358871,4206.153743,4208.205025,4212.82041,4272.307588,4212.82041,4214.871692,4204.102461,4208.717846,4194.871692
115,0,4179.487077,4194.871692,4207.692205,4207.692205,4210.769128,4206.666564,4205.128102,4210.256307,4272.307588,4216.410153,4221.025538,4206.153743,4207.179384,4183.076821
116,0,4178.461436,4190.256308,4199.999897,4206.153743,4205.128102,4202.564,4201.538359,4204.615282,4269.743485,4222.563999,4217.435794,4198.461436,4203.07682,4190.256308
117,0,4182.05118,4196.410154,4199.999897,4204.615282,4206.153743,4201.538359,4203.589641,4208.717846,4270.256306,4226.153743,4210.769128,4192.82041,4200.512718,4194.358872
118,0,4183.076821,4196.410154,4204.615282,4204.615282,4208.205025,4201.538359,4204.615282,4212.82041,4271.281947,4222.051179,4206.666564,4195.384513,4202.051179,4184.615282
119,0,4189.743487,4196.922974,4202.051179,4208.205025,4207.692205,4203.07682,4205.128102,4216.410153,4270.769126,4218.461435,4207.179384,4195.897333,4206.666564,4182.564
120,0,4195.384513,4203.589641,4201.538359,4211.281948,4207.179384,4206.153743,4206.153743,4221.538358,4273.333229,4216.410153,4211.281948,4193.846051,4207.179384,4190.256308
121,0,4191.281949,4207.692205,4205.128102,4208.717846,4212.307589,4205.128102,4205.640923,4216.922974,4275.384511,4216.410153,4214.871692,4196.922974,4206.666564,4192.82041
122,0,4187.692205,4201.025538,4202.051179,4207.692205,4212.307589,4202.051179,4202.564,4208.205025,4273.333229,4216.922974,4211.794769,4198.974256,4209.743487,4187.692205
123,0,4191.794769,4200.512718,4201.025538,4210.769128,4208.717846,4203.589641,4204.102461,4207.179384,4272.820408,4223.07682,4217.948615,4200.512718,4217.435794,4189.230667
124,0,4192.30759,4203.07682,4206.666564,4210.256307,4207.692205,4205.128102,4203.589641,4201.025538,4269.230665,4226.153743,4224.102461,4203.589641,4218.974256,4194.358872
125,0,4192.30759,4205.128102,4206.666564,4208.205025,4211.794769,4205.128102,4203.589641,4197.435795,4264.10246,4217.948615,4219.487076,4199.999897,4216.922974,4199.487077
126,0,4192.82041,4202.051179,4202.051179,4208.717846,4207.179384,4209.230666,4207.692205,4204.615282,4264.10246,4206.666564,4210.256307,4196.410154,4208.717846,4192.82041
127,0,4199.999897,4205.640923,4208.205025,4212.307589,4208.205025,4214.871692,4209.743487,4211.794769,4268.717844,4216.410153,4212.307589,4204.102461,4204.615282,4187.179385
128,0,4214.358871,4216.922974,4216.922974,4217.948615,4222.051179,4216.410153,4207.692205,4203.07682,4268.717844,4230.256307,4223.07682,4209.230666,4214.358871,4197.435795
0,0,4214.871692,4222.563999,4218.974256,4218.974256,4226.666563,4215.384512,4204.615282,4201.538359,4268.205024,4223.07682,4228.205025,4208.205025,4222.051179,4210.769128
1,0,4202.564,4213.846051,4217.435794,4214.358871,4214.358871,4214.871692,4205.640923,4207.692205,4269.743485,4216.410153,4218.461435,4209.743487,4212.307589,4207.179384
2,0,4206.153743,4206.153743,4213.846051,4212.307589,4207.692205,4213.33323,4207.179384,4208.717846,4267.692203,4216.922974,4208.205025,4207.692205,4201.538359,4194.871692
3,0,4208.717846,4207.692205,4215.384512,4212.307589,4209.230666,4211.794769,4210.256307,4213.846051,4266.153742,4205.640923,4208.717846,4201.025538,4198.461436,4185.640923
4,0,4197.435795,4204.615282,4213.33323,4209.230666,4205.640923,4210.769128,4210.769128,4222.563999,4268.205024,4201.025538,4209.230666,4195.384513,4194.871692,4184.102462
5,0,4193.846051,4198.974256,4205.128102,4208.205025,4201.025538,4207.179384,4210.769128,4222.051179,4271.281947,4213.33323,4200.512718,4190.256308,4191.794769,4186.666564
6,0,4194.358872,4199.999897,4207.179384,4209.230666,4206.153743,4202.564,4211.281948,4211.281948,4266.666562,4207.179384,4195.384513,4188.717846,4191.794769,4185.640923
7,0,4192.82041,4203.07682,4213.846051,4209.743487,4208.717846,4206.153743,4206.666564,4201.025538,4260.512716,4191.794769,4199.999897,4192.30759,4189.743487,4187.692205
8,0,4202.564,4207.179384,4215.384512,4211.794769,4205.640923,4215.897333,4204.102461,4201.025538,4266.153742,4204.102461,4209.743487,4203.07682,4194.871692,4192.82041
9,0,4215.897333,4212.307589,4217.435794,4214.358871,4206.666564,4216.922974,4206.153743,4210.256307,4275.384511,4219.999897,4219.487076,4212.307589,4203.07682,4194.358872
10,0,4213.33323,4209.230666,4219.487076,4212.82041,4205.128102,4208.205025,4203.589641,4209.230666,4272.307588,4217.435794,4217.948615,4209.230666,4203.589641,4195.897333
11,0,4202.564,4204.615282,4215.384512,4208.205025,4205.640923,4208.717846,4201.538359,4209.743487,4271.794767,4223.07682,4210.769128,4205.128102,4205.640923,4202.051179
12,0,4194.358872,4207.179384,4213.846051,4208.205025,4214.871692,4215.384512,4208.205025,4217.948615,4276.922972,4227.179384,4211.281948,4208.717846,4210.769128,4200.512718
13,0,4200.512718,4212.82041,4217.948615,4216.922974,4225.128102,4216.922974,4214.358871,4218.461435,4274.35887,4218.461435,4222.563999,4211.281948,4214.358871,4197.435795
14,0,4216.410153,4217.435794,4217.948615,4224.102461,4224.615281,4217.435794,4214.358871,4218.974256,4272.307588,4218.974256,4228.717845,4211.794769,4215.384512,4201.538359
15,0,4224.102461,4223.07682,4217.435794,4223.58964,4224.615281,4219.999897,4215.384512,4227.692204,4277.435793,4233.84605,4228.717845,4213.846051,4219.999897,4210.769128
16,0,4208.717846,4215.897333,4217.435794,4216.410153,4217.435794,4217.948615,4214.358871,4218.974256,4274.35887,4221.538358,4217.435794,4205.128102,4214.358871,4203.07682
17,0,4190.769128,4205.640923,4213.33323,4210.769128,4208.717846,4215.384512,4210.256307,4207.179384,4269.230665,4203.07682,4206.666564,4195.897333,4203.589641,4191.794769
18,0,4192.82041,4203.589641,4204.615282,4210.256307,4205.640923,4210.769128,4206.666564,4206.666564,4269.230665,4207.179384,4203.589641,4193.333231,4196.922974,4191.281949
19,0,4198.974256,4203.589641,4196.922974,4209.743487,4206.666564,4202.564,4204.102461,4203.589641,4267.179383,4211.794769,4201.538359,4191.281949,4193.846051,4187.692205
20,0,4192.30759,4201.025538,4199.487077,4207.179384,4206.666564,4204.615282,4204.615282,4200.512718,4265.640921,4208.717846,4202.051179,4192.30759,4195.384513,4181.025539
21,0,4192.30759,4209.743487,4211.794769,4211.281948,4210.769128,4212.307589,4206.666564,4210.769128,4272.820408,4221.025538,4215.384512,4203.589641,4206.153743,4192.30759
22,0,4208.717846,4223.58964,4219.999897,4222.051179,4220.512717,4215.897333,4208.205025,4215.384512,4274.35887,4233.33323,4228.205025,4211.281948,4214.871692,4209.230666
23,0,4223.58964,4227.692204,4219.487076,4226.666563,4222.051179,4217.435794,4209.743487,4207.692205,4267.179383,4224.615281,4224.615281,4209.230666,4217.948615,4214.871692
24,0,4224.102461,4223.58964,4218.461435,4223.07682,4213.846051,4217.948615,4213.846051,4210.256307,4269.230665,4219.999897,4219.999897,4213.33323,4220.512717,4219.487076
25,0,4215.384512,4221.538358,4218.974256,4219.487076,4212.307589,4216.410153,4213.33323,4218.974256,4277.948613,4230.256307,4227.179384,4219.999897,4219.487076,4218.461435
26,0,4212.307589,4224.615281,4220.512717,4219.999897,4215.897333,4214.358871,4208.205025,4218.974256,4278.461434,4231.794768,4230.769127,4212.82041,4215.384512,4209.743487
27,0,4216.922974,4224.615281,4217.948615,4221.538358,4210.769128,4212.82041,4205.640923,4216.922974,4274.87169,4221.538358,4224.102461,4202.051179,4212.82041,4207.179384
28,0,4212.82041,4219.999897,4208.205025,4219.487076,4209.230666,4212.82041,4207.692205,4216.922974,4275.384511,4224.615281,4222.563999,4201.538359,4209.743487,4209.230666
29,0,4195.384513,4209.230666,4201.025538,4213.846051,4210.769128,4215.384512,4209.743487,4211.281948,4271.281947,4223.07682,4216.922974,4200.512718,4201.025538,4194.358872
30,0,4187.692205,4203.589641,4202.564,4208.717846,4209.743487,4214.358871,4211.281948,4207.179384,4269.230665,4206.153743,4206.666564,4195.384513,4196.410154,4177.435795
31,0,4192.30759,4203.589641,4203.589641,4208.717846,4213.33323,4212.307589,4209.743487,4202.051179,4267.179383,4197.435795,4204.102461,4191.281949,4197.435795,4182.05118
32,0,4201.025538,4210.256307,4201.538359,4212.82041,4216.922974,4215.897333,4207.692205,4200.512718,4261.538357,4209.743487,4210.769128,4193.333231,4204.102461,4198.461436
33,0,4205.128102,4216.922974,4203.07682,4212.82041,4211.281948,4217.948615,4207.692205,4211.281948,4266.666562,4221.538358,4215.897333,4198.974256,4207.692205,4204.615282
34,0,4214.358871,4225.128102,4213.33323,4215.384512,4217.435794,4216.410153,4213.846051,4223.58964,4279.999895,4233.33323,4227.179384,4210.769128,4216.410153,4206.153743
35,0,4227.692204,4232.307589,4226.666563,4225.640922,4229.743486,4221.538358,4223.58964,4229.230666,4285.1281,4249.230665,4244.615281,4228.205025,4232.820409,4215.897333
36,0,4239.999896,4236.922973,4232.307589,4234.358871,4230.769127,4229.743486,4228.717845,4242.051178,4287.692203,4264.10246,4257.435793,4236.922973,4246.153742,4235.384512
37,0,4237.435794,4237.948614,4231.281948,4231.281948,4224.615281,4228.205025,4227.692204,4247.692204,4289.743485,4263.589639,4254.35887,4228.205025,4241.538358,4237.948614
38,0,4228.205025,4236.410153,4235.384512,4224.102461,4227.692204,4221.538358,4227.179384,4240.512717,4285.640921,4252.307588,4246.153742,4222.563999,4230.256307,4228.717845
39,0,4229.230666,4230.769127,4235.384512,4225.640922,4226.153743,4220.512717,4224.102461,4239.487076,4285.1281,4249.743486,4240.512717,4226.666563,4222.563999,4223.07682
40,0,4230.769127,4226.153743,4222.051179,4226.666563,4216.922974,4217.948615,4214.871692,4235.384512,4284.61528,4247.692204,4231.281948,4221.538358,4214.871692,4212.82041
41,0,4221.025538,4221.025538,4208.717846,4221.025538,4211.281948,4214.871692,4210.256307,4221.025538,4272.820408,4229.230666,4219.487076,4203.589641,4204.102461,4199.487077
42,0,4214.358871,4219.487076,4205.128102,4217.948615,4215.384512,4217.948615,4217.948615,4216.410153,4267.179383,4217.948615,4219.999897,4196.922974,4203.07682,4205.640923
43,0,4208.717846,4219.999897,4207.179384,4217.948615,4219.999897,4219.999897,4223.07682,4218.974256,4272.307588,4225.640922,4225.128102,4199.487077,4210.256307,4215.384512
44,0,4195.384513,4214.358871,4208.717846,4215.384512,4216.410153,4215.897333,4216.922974,4213.846051,4273.333229,4225.640922,4217.948615,4194.358872,4207.179384,4202.051179
45,0,4199.999897,4212.307589,4212.82041,4216.410153,4215.384512,4215.384512,4215.384512,4215.384512,4272.820408,4221.025538,4216.410153,4193.846051,4203.589641,4194.871692
46,0,4220.512717,4222.051179,4215.384512,4218.974256,4221.025538,4218.461435,4217.435794,4223.58964,4272.820408,4228.717845,4224.615281,4207.179384,4209.230666,4205.128102
47,0,4229.743486,4230.256307,4217.948615,4222.563999,4228.717845,4218.974256,4215.384512,4223.58964,4277.948613,4239.487076,4226.153743,4210.769128,4213.33323,4212.307589
48,0,4221.538358,4228.717845,4221.025538,4227.692204,4225.640922,4218.461435,4213.846051,4218.974256,4282.563998,4241.538358,4218.974256,4205.128102,4211.281948,4210.256307
49,0,4218.974256,4228.717845,4221.025538,4224.615281,4220.512717,4216.922974,4214.358871,4220.512717,4279.999895,4241.025537,4224.102461,4209.230666,4212.82041,4205.128102
50,0,4224.102461,4226.666563,4219.999897,4217.948615,4218.974256,4215.897333,4217.435794,4218.461435,4272.820408,4228.205025,4230.769127,4211.794769,4211.281948,4202.564
51,0,4228.205025,4224.615281,4223.07682,4222.563999,4223.07682,4216.922974,4221.538358,4220.512717,4273.333229,4223.07682,4228.717845,4209.230666,4209.743487,4207.179384
52,0,4218.461435,4221.538358,4224.102461,4225.128102,4226.153743,4218.461435,4216.410153,4224.102461,4274.87169,4230.769127,4223.07682,4205.128102,4208.717846,4209.230666
53,0,4211.794769,4221.025538,4217.948615,4222.051179,4227.179384,4218.461435,4211.281948,4219.999897,4274.35887,4233.33323,4221.538358,4199.487077,4208.205025,4208.717846
54,0,4212.307589,4219.999897,4214.358871,4223.58964,4226.153743,4217.948615,4215.897333,4214.871692,4274.87169,4226.153743,4222.563999,4197.948615,4207.179384,4203.07682
55,0,4210.769128,4215.897333,4213.846051,4220.512717,4228.717845,4217.948615,4217.948615,4219.999897,4274.35887,4230.256307,4225.128102,4199.999897,4207.692205,4196.410154
56,0,4207.692205,4215.384512,4212.82041,4218.461435,4229.743486,4218.461435,4217.435794,4226.666563,4278.461434,4240.512717,4218.461435,4204.102461,4207.179384,4198.974256
57,0,4205.640923,4222.051179,4220.512717,4224.102461,4229.230666,4220.512717,4223.58964,4229.230666,4284.102459,4237.435794,4212.307589,4211.281948,4208.205025,4206.153743
58,0,4208.205025,4224.102461,4227.692204,4226.666563,4226.666563,4220.512717,4221.025538,4223.07682,4278.461434,4226.153743,4221.025538,4213.33323,4205.640923,4204.102461
59,0,4224.102461,4222.051179,4218.974256,4223.58964,4225.128102,4218.461435,4214.358871,4215.897333,4269.230665,4219.999897,4228.717845,4209.743487,4199.999897,4203.07682
60,0,4227.692204,4218.461435,4216.410153,4223.07682,4223.58964,4215.384512,4216.922974,4219.999897,4272.307588,4223.58964,4219.487076,4211.281948,4199.999897,4210.769128
61,0,4211.281948,4211.794769,4226.153743,4222.051179,4221.538358,4214.358871,4215.384512,4226.666563,4278.461434,4224.102461,4212.82041,4212.307589,4204.615282,4211.794769
62,0,4214.358871,4212.307589,4227.179384,4221.538358,4222.563999,4216.410153,4212.307589,4221.025538,4276.410152,4224.615281,4218.461435,4207.692205,4205.640923,4206.666564
63,0,4230.769127,4219.487076,4219.487076,4221.538358,4229.743486,4219.487076,4216.410153,4213.846051,4273.846049,4235.384512,4219.487076,4205.640923,4206.153743,4203.07682
64,0,4221.538358,4219.999897,4221.025538,4218.461435,4232.820409,4219.487076,4221.538358,4218.461435,4278.461434,4238.974255,4218.461435,4205.640923,4212.307589,4198.461436
65,0,4212.82041,4216.410153,4226.153743,4219.487076,4225.640922,4217.948615,4218.974256,4222.563999,4278.974254,4233.84605,4224.102461,4207.179384,4214.358871,4204.102461
66,0,4218.461435,4213.33323,4221.538358,4224.102461,4219.999897,4215.384512,4213.846051,4221.025538,4277.948613,4238.461435,4225.128102,4208.205025,4209.230666,4211.281948
67,0,4212.82041,4207.179384,4214.358871,4220.512717,4219.999897,4213.846051,4210.769128,4213.33323,4276.410152,4234.871691,4217.948615,4204.102461,4206.666564,4199.487077
68,0,4211.794769,4212.307589,4215.384512,4217.435794,4224.102461,4215.384512,4215.897333,4213.846051,4273.846049,4227.692204,4220.512717,4203.589641,4210.769128,4199.999897
69,0,4224.102461,4223.58964,4225.128102,4222.051179,4224.102461,4218.974256,4223.58964,4220.512717,4276.922972,4232.307589,4223.58964,4209.230666,4214.358871,4216.922974
70,0,4226.153743,4223.07682,4230.769127,4224.102461,4223.58964,4218.974256,4218.974256,4224.102461,4278.974254,4232.820409,4219.487076,4210.256307,4216.922974,4211.794769
71,0,4219.487076,4217.435794,4230.256307,4221.025538,4229.230666,4216.922974,4215.384512,4216.410153,4272.820408,4225.128102,4222.563999,4212.307589,4222.563999,4207.692205
72,0,4223.58964,4223.58964,4234.871691,4223.58964,4238.461435,4218.461435,4221.025538,4213.33323,4272.820408,4242.051178,4233.84605,4223.58964,4231.281948,4232.820409
73,0,4223.07682,4222.563999,4235.384512,4223.07682,4230.769127,4219.487076,4219.487076,4218.461435,4277.435793,4247.692204,4232.820409,4226.666563,4229.743486,4234.358871
74,0,4223.58964,4213.846051,4229.230666,4221.538358,4219.999897,4218.461435,4212.307589,4222.563999,4276.922972,4228.717845,4227.692204,4218.974256,4223.07682,4217.435794
75,0,4226.666563,4212.307589,4232.307589,4224.615281,4222.563999,4218.461435,4214.358871,4218.974256,4275.897331,4227.692204,4228.205025,4215.384512,4219.999897,4217.948615
76,0,4217.435794,4214.358871,4243.076819,4223.07682,4226.153743,4219.487076,4214.871692,4210.769128,4275.897331,4234.358871,4226.666563,4216.922974,4215.897333,4215.384512
77,0,4212.307589,4213.846051,4240.512717,4220.512717,4221.538358,4218.974256,4210.256307,4207.692205,4270.769126,4222.051179,4222.051179,4217.435794,4209.230666,4205.640923
78,0,4221.025538,4217.435794,4230.769127,4222.563999,4223.07682,4219.999897,4215.897333,4212.307589,4271.794767,4217.435794,4222.051179,4215.384512,4210.769128,4213.33323
79,0,4226.666563,4220.512717,4234.871691,4223.58964,4229.743486,4219.999897,4222.563999,4219.999897,4275.897331,4227.179384,4230.256307,4216.410153,4219.487076,4224.615281
80,0,4224.102461,4222.051179,4243.076819,4221.538358,4228.717845,4216.922974,4218.974256,4222.563999,4274.87169,4236.410153,4233.33323,4224.102461,4226.666563,4228.205025
81,0,4224.615281,4228.205025,4241.025537,4225.128102,4228.205025,4217.435794,4218.974256,4222.051179,4276.410152,4247.179383,4232.820409,4229.743486,4234.871691,4234.358871
82,0,4226.153743,4227.179384,4233.33323,4223.58964,4229.743486,4219.999897,4220.512717,4221.538358,4278.461434,4246.666563,4238.974255,4226.666563,4237.948614,4233.33323
83,0,4228.205025,4219.487076,4232.820409,4214.358871,4229.743486,4219.487076,4214.871692,4222.563999,4275.384511,4242.051178,4244.10246,4222.563999,4235.384512,4226.153743
84,0,4221.025538,4212.307589,4231.281948,4209.230666,4224.102461,4217.948615,4209.230666,4216.922974,4269.743485,4242.563999,4234.871691,4214.871692,4229.230666,4215.897333
85,0,4208.717846,4209.743487,4222.563999,4207.179384,4217.435794,4214.871692,4208.205025,4209.743487,4269.230665,4236.410153,4222.563999,4199.999897,4221.538358,4211.794769
86,0,4203.07682,4204.102461,4216.410153,4200.512718,4208.205025,4212.307589,4206.153743,4205.640923,4268.205024,4218.974256,4212.82041,4191.794769,4209.743487,4208.205025
87,0,4208.205025,4203.07682,4218.461435,4198.974256,4207.692205,4213.33323,4202.564,4203.589641,4263.589639,4217.948615,4211.794769,4197.948615,4205.128102,4201.025538
88,0,4213.846051,4206.666564,4227.692204,4207.692205,4218.461435,4215.384512,4205.128102,4202.564,4263.076819,4228.205025,4219.487076,4210.769128,4215.897333,4203.07682
89,0,4220.512717,4213.33323,4242.563999,4212.307589,4226.153743,4216.410153,4211.794769,4213.846051,4271.281947,4234.871691,4230.256307,4222.563999,4229.743486,4216.410153
90,0,4221.538358,4212.307589,4248.205024,4210.769128,4219.999897,4217.435794,4214.358871,4222.051179,4274.87169,4238.461435,4235.897332,4223.07682,4229.230666,4224.102461
91,0,4224.102461,4213.33323,4244.10246,4215.384512,4219.487076,4217.435794,4214.871692,4226.153743,4274.35887,4243.076819,4241.025537,4222.563999,4231.281948,4232.820409
92,0,4231.281948,4221.538358,4246.153742,4218.974256,4225.640922,4217.435794,4217.435794,4231.794768,4279.999895,4241.025537,4245.128101,4231.281948,4242.563999,4240.512717
93,0,4237.435794,4227.179384,4247.692204,4215.384512,4228.717845,4224.102461,4222.051179,4234.358871,4281.025536,4235.384512,4244.10246,4236.410153,4241.538358,4232.307589
94,0,4225.128102,4224.615281,4237.435794,4212.82041,4227.692204,4228.205025,4222.563999,4229.743486,4272.307588,4229.743486,4234.871691,4223.07682,4227.179384,4218.974256
95,0,4209.743487,4219.487076,4231.281948,4212.307589,4231.794768,4222.563999,4215.897333,4226.153743,4269.743485,4224.615281,4227.179384,4206.153743,4218.974256,4222.563999
96,0,4212.82041,4214.358871,4231.794768,4210.769128,4231.794768,4217.948615,4209.743487,4223.58964,4272.307588,4225.640922,4221.538358,4203.589641,4216.922974,4222.051179
97,0,4210.769128,4208.717846,4226.666563,4208.717846,4219.999897,4215.897333,4208.205025,4217.948615,4270.256306,4229.743486,4211.794769,4207.179384,4213.846051,4204.615282
98,0,4200.512718,4206.153743,4221.025538,4205.640923,4214.358871,4211.794769,4209.230666,4216.410153,4267.692203,4227.692204,4211.794769,4206.153743,4211.281948,4202.564
99,0,4213.33323,4210.256307,4227.179384,4208.717846,4224.615281,4215.897333,4210.769128,4225.128102,4272.820408,4229.230666,4226.153743,4206.666564,4216.922974,4223.58964
100,0,4232.820409,4215.897333,4236.410153,4217.435794,4229.230666,4224.102461,4214.871692,4226.666563,4271.281947,4236.922973,4234.358871,4215.897333,4223.07682,4234.871691
101,0,4230.256307,4214.871692,4236.410153,4216.410153,4222.051179,4221.538358,4214.871692,4210.769128,4257.948614,4223.07682,4225.640922,4219.487076,4215.897333,4223.07682
102,0,4222.563999,4212.82041,4231.794768,4212.307589,4220.512717,4219.487076,4217.948615,4211.281948,4261.025537,4210.256307,4219.999897,4213.846051,4210.256307,4213.846051
103,0,4218.461435,4211.281948,4230.256307,4211.794769,4223.07682,4223.07682,4225.128102,4232.820409,4276.922972,4227.179384,4225.640922,4212.82041,4214.871692,4214.358871
104,0,4215.897333,4213.33323,4234.358871,4208.717846,4224.615281,4220.512717,4224.615281,4240.512717,4277.948613,4244.615281,4232.307589,4216.922974,4222.051179,4220.512717
105,0,4215.897333,4211.281948,4238.974255,4206.666564,4220.512717,4215.897333,4219.487076,4229.743486,4269.743485,4227.692204,4224.615281,4215.897333,4217.948615,4219.999897
106,0,4220.512717,4210.769128,4238.461435,4208.205025,4218.461435,4215.897333,4216.410153,4227.179384,4274.35887,4215.384512,4222.563999,4215.384512,4214.871692,4215.384512
107,0,4219.487076,4212.82041,4233.33323,4210.256307,4221.025538,4217.435794,4212.82041,4221.538358,4274.87169,4228.717845,4226.153743,4212.82041,4213.33323,4213.33323
108,0,4213.846051,4214.871692,4227.179384,4212.307589,4224.615281,4217.435794,4212.307589,4212.82041,4264.61528,4231.794768,4215.897333,4202.051179,4208.717846,4211.281948
109,0,4209.743487,4213.33323,4223.58964,4210.769128,4221.025538,4218.974256,4218.461435,4212.82041,4259.487075,4215.897333,4204.102461,4196.922974,4204.615282,4212.307589
110,0,4218.974256,4215.897333,4228.717845,4210.769128,4220.512717,4221.538358,4224.615281,4228.205025,4267.179383,4222.051179,4215.384512,4209.230666,4211.794769,4219.487076
111,0,4228.717845,4224.102461,4241.025537,4217.948615,4225.640922,4223.07682,4226.153743,4243.58964,4276.922972,4235.897332,4229.743486,4220.512717,4222.051179,4221.538358
112,0,4233.84605,4228.717845,4244.10246,4221.538358,4228.205025,4223.07682,4223.58964,4236.922973,4275.384511,4228.717845,4225.640922,4222.563999,4223.58964,4227.692204
113,0,4243.58964,4228.717845,4239.999896,4222.563999,4228.205025,4226.666563,4223.58964,4222.563999,4270.256306,4226.153743,4217.948615,4222.563999,4222.563999,4239.487076
114,0,4248.717845,4232.307589,4245.640922,4224.102461,4234.871691,4231.281948,4227.692204,4229.743486,4273.846049,4243.58964,4227.692204,4228.717845,4228.205025,4238.974255
115,0,4239.487076,4236.410153,4252.820409,4221.025538,4238.974255,4227.692204,4226.666563,4242.563999,4279.487075,4244.615281,4240.512717,4230.769127,4232.820409,4231.794768
116,0,4234.358871,4233.84605,4245.128101,4220.512717,4230.769127,4221.025538,4219.999897,4234.358871,4277.435793,4233.84605,4236.410153,4219.999897,4227.692204,4234.871691
117,0,4231.281948,4222.051179,4233.84605,4223.07682,4225.640922,4221.538358,4218.974256,4224.615281,4273.333229,4232.307589,4221.025538,4211.281948,4217.948615,4233.33323
118,0,4214.358871,4209.230666,4226.666563,4213.33323,4226.153743,4221.025538,4219.487076,4227.179384,4270.769126,4222.563999,4214.871692,4210.256307,4211.281948,4217.435794
119,0,4204.615282,4206.153743,4223.07682,4205.640923,4224.102461,4217.948615,4219.999897,4228.205025,4270.256306,4217.435794,4217.948615,4210.769128,4211.794769,4207.179384
120,0,4220.512717,4214.358871,4227.179384,4212.307589,4225.128102,4221.025538,4225.128102,4229.230666,4272.820408,4230.769127,4221.538358,4212.82041,4218.461435,4215.384512
121,0,4228.205025,4216.922974,4232.820409,4213.33323,4229.230666,4222.563999,4226.666563,4235.384512,4276.410152,4237.948614,4224.615281,4214.871692,4219.487076,4223.07682
122,0,4211.281948,4204.615282,4230.769127,4205.640923,4218.461435,4215.897333,4216.922974,4229.743486,4272.307588,4228.205025,4218.461435,4207.692205,4209.743487,4214.871692
123,0,4211.281948,4203.589641,4230.256307,4206.153743,4215.897333,4214.358871,4214.358871,4224.615281,4267.179383,4223.58964,4215.384512,4207.179384,4208.717846,4216.922974
124,0,4224.102461,4210.769128,4233.84605,4211.281948,4224.102461,4218.461435,4222.051179,4228.717845,4267.692203,4227.179384,4222.563999,4216.410153,4213.846051,4223.58964
125,0,4225.640922,4211.794769,4233.84605,4212.307589,4223.58964,4217.948615,4222.051179,4226.153743,4266.666562,4231.794768,4225.128102,4214.358871,4215.897333,4220.512717
126,0,4221.025538,4211.281948,4228.205025,4211.281948,4219.487076,4215.384512,4214.871692,4214.871692,4261.025537,4227.179384,4216.922974,4206.666564,4217.948615,4219.487076
127,0,4225.640922,4219.487076,4231.281948,4217.948615,4229.230666,4217.435794,4214.871692,4216.410153,4262.051178,4221.025538,4218.974256,4209.230666,4221.538358,4225.640922
128,0,4231.281948,4226.153743,4239.999896,4227.179384,4239.487076,4225.128102,4219.999897,4223.58964,4267.692203,4229.230666,4227.692204,4211.794769,4224.102461,4221.538358
0,0,4229.743486,4227.179384,4238.461435,4226.153743,4238.461435,4229.230666,4221.025538,4223.58964,4266.153742,4234.358871,4221.025538,4209.230666,4219.999897,4211.794769
1,0,4219.999897,4222.051179,4228.717845,4218.461435,4226.666563,4222.563999,4219.999897,4223.07682,4264.61528,4220.512717,4207.692205,4199.487077,4209.743487,4207.692205
2,0,4226.153743,4224.102461,4228.205025,4219.999897,4225.128102,4217.435794,4221.025538,4225.128102,4268.205024,4222.563999,4211.794769,4195.897333,4211.281948,4217.435794
3,0,4238.461435,4230.769127,4235.897332,4227.692204,4232.820409,4217.948615,4221.025538,4221.025538,4267.179383,4233.84605,4221.025538,4207.179384,4222.051179,4229.230666
4,0,4229.230666,4228.205025,4241.538358,4225.640922,4231.794768,4218.461435,4219.487076,4217.435794,4263.589639,4226.666563,4221.025538,4217.435794,4222.563999,4225.128102
5,0,4223.58964,4222.051179,4245.128101,4223.58964,4231.281948,4223.58964,4223.58964,4229.230666,4269.230665,4228.205025,4224.102461,4218.461435,4222.051179,4225.128102
6,0,4238.461435,4224.102461,4246.666563,4227.179384,4238.974255,4227.179384,4228.717845,4238.461435,4276.922972,4241.025537,4231.794768,4220.512717,4228.205025,4237.948614
7,0,4237.948614,4227.179384,4248.205024,4225.640922,4241.538358,4224.615281,4224.615281,4225.640922,4273.846049,4230.769127,4229.230666,4218.461435,4227.692204,4236.410153
8,0,4221.025538,4220.512717,4243.58964,4221.025538,4235.897332,4226.153743,4223.07682,4217.948615,4267.692203,4218.974256,4221.538358,4210.769128,4222.051179,4224.615281
9,0,4221.538358,4215.384512,4235.897332,4221.538358,4231.281948,4226.153743,4229.743486,4238.461435,4273.333229,4232.307589,4223.07682,4215.384512,4224.102461,4227.692204
10,0,4226.666563,4217.948615,4241.538358,4221.538358,4230.769127,4221.538358,4229.230666,4247.692204,4281.538357,4241.538358,4229.743486,4224.615281,4228.717845,4233.33323
11,0,4224.102461,4223.58964,4253.333229,4224.102461,4238.974255,4222.563999,4224.615281,4235.384512,4279.999895,4241.538358,4235.384512,4226.666563,4232.307589,4234.358871
12,0,4226.666563,4223.07682,4248.205024,4226.666563,4236.922973,4226.666563,4222.563999,4229.743486,4273.846049,4238.974255,4230.256307,4219.999897,4229.230666,4230.769127
13,0,4237.435794,4224.615281,4239.487076,4227.179384,4225.640922,4224.615281,4223.58964,4234.358871,4273.846049,4234.871691,4226.666563,4212.82041,4227.179384,4231.794768
14,0,4238.974255,4228.717845,4239.487076,4227.179384,4224.102461,4224.615281,4224.102461,4227.179384,4272.820408,4229.743486,4228.717845,4213.33323,4227.692204,4235.384512
15,0,4234.871691,4227.179384,4237.948614,4228.717845,4229.743486,4224.102461,4221.025538,4219.999897,4270.769126,4227.179384,4229.743486,4216.410153,4226.666563,4231.281948
16,0,4231.794768,4222.051179,4236.922973,4227.692204,4227.692204,4218.974256,4218.974256,4224.102461,4268.205024,4225.128102,4224.615281,4213.846051,4223.07682,4221.025538
17,0,4232.820409,4223.58964,4241.538358,4228.205025,4230.769127,4222.051179,4224.102461,4236.410153,4270.769126,4237.948614,4226.666563,4215.897333,4226.666563,4222.051179
18,0,4239.487076,4231.281948,4246.666563,4231.281948,4237.948614,4230.769127,4228.717845,4242.051178,4277.435793,4249.230665,4235.384512,4226.153743,4234.358871,4232.820409
19,0,4247.179383,4239.487076,4250.256306,4234.871691,4241.538358,4232.307589,4228.717845,4236.410153,4278.461434,4246.153742,4244.615281,4231.794768,4242.051178,4246.153742
20,0,4244.10246,4235.384512,4252.820409,4233.33323,4239.487076,4228.717845,4231.281948,4235.384512,4274.35887,4246.666563,4247.692204,4229.743486,4245.640922,4256.922973
21,0,4236.922973,4225.640922,4245.640922,4228.205025,4231.794768,4227.692204,4229.230666,4239.487076,4273.333229,4250.256306,4243.58964,4226.666563,4241.538358,4247.692204
22,0,4235.384512,4224.102461,4238.974255,4227.179384,4224.615281,4228.717845,4225.128102,4235.384512,4275.897331,4244.615281,4238.974255,4223.07682,4236.922973,4229.743486
23,0,4231.794768,4228.717845,4239.999896,4230.256307,4226.153743,4229.743486,4226.666563,4235.897332,4279.487075,4243.58964,4237.948614,4221.025538,4239.999896,4233.33323
24,0,4222.051179,4226.666563,4235.384512,4229.230666,4230.256307,4228.717845,4227.692204,4243.076819,4277.948613,4250.256306,4238.974255,4216.410153,4239.487076,4242.563999
25,0,4224.615281,4223.07682,4236.410153,4228.205025,4233.33323,4228.717845,4224.102461,4238.461435,4271.281947,4245.128101,4237.435794,4212.82041,4233.33323,4237.435794
26,0,4242.051178,4229.230666,4247.179383,4232.820409,4237.948614,4232.307589,4227.179384,4234.871691,4271.281947,4238.461435,4237.948614,4217.435794,4234.871691,4231.794768
27,0,4244.615281,4231.281948,4249.743486,4239.487076,4240.512717,4232.820409,4232.820409,4243.076819,4275.384511,4241.538358,4242.563999,4224.615281,4239.999896,4238.461435
28,0,4238.461435,4229.743486,4245.128101,4238.974255,4239.487076,4231.794768,4232.307589,4247.692204,4273.846049,4247.179383,4244.10246,4226.153743,4240.512717,4250.256306
29,0,4237.435794,4224.102461,4248.205024,4231.281948,4232.307589,4231.281948,4233.33323,4244.615281,4273.333229,4246.666563,4241.538358,4225.640922,4236.922973,4245.128101
30,0,4235.897332,4214.871692,4249.743486,4230.769127,4227.692204,4230.769127,4237.948614,4247.692204,4277.435793,4246.153742,4246.153742,4229.743486,4239.487076,4239.999896
31,0,4234.358871,4212.82041,4247.692204,4234.358871,4228.717845,4230.256307,4234.871691,4242.051178,4274.35887,4244.10246,4243.58964,4227.692204,4239.487076,4244.10246
32,0,4237.948614,4229.230666,4246.666563,4233.33323,4233.84605,4228.717845,4227.692204,4228.205025,4269.230665,4238.461435,4229.230666,4219.487076,4228.205025,4238.974255
33,0,4232.820409,4240.512717,4242.563999,4234.358871,4233.84605,4229.230666,4225.640922,4213.846051,4264.61528,4218.974256,4213.846051,4211.281948,4206.666564,4217.435794
34,0,4224.102461,4239.999896,4243.076819,4239.999896,4234.871691,4232.307589,4227.692204,4217.948615,4261.538357,4210.769128,4209.743487,4206.153743,4198.974256,4214.871692
35,0,4225.128102,4239.999896,4248.205024,4239.999896,4236.410153,4231.281948,4228.205025,4233.84605,4265.128101,4225.640922,4212.82041,4205.128102,4204.615282,4226.153743
36,0,4230.769127,4243.58964,4250.256306,4237.948614,4238.974255,4225.128102,4228.205025,4237.948614,4270.769126,4235.897332,4221.025538,4211.794769,4208.717846,4221.025538
37,0,4222.563999,4239.999896,4246.666563,4236.410153,4238.974255,4219.487076,4224.615281,4224.102461,4267.179383,4221.025538,4217.435794,4212.82041,4202.564,4209.230666
38,0,4212.82041,4233.84605,4244.10246,4231.794768,4232.307589,4217.435794,4220.512717,4216.410153,4260.512716,4212.82041,4204.615282,4206.666564,4194.358872,4205.640923
39,0,4219.487076,4227.692204,4241.025537,4229.743486,4226.666563,4218.461435,4220.512717,4219.487076,4259.999896,4218.974256,4202.051179,4202.564,4193.333231,4208.717846
40,0,4219.487076,4219.487076,4233.84605,4224.615281,4226.153743,4219.999897,4222.563999,4220.512717,4261.025537,4210.769128,4203.07682,4197.948615,4189.743487,4211.281948
41,0,4194.871692,4206.666564,4228.717845,4218.461435,4221.538358,4217.948615,4224.102461,4220.512717,4260.512716,4195.897333,4197.435795,4192.30759,4176.410154,4191.794769
42,0,4189.743487,4207.692205,4229.230666,4221.025538,4219.487076,4215.897333,4226.666563,4224.102461,4259.999896,4199.487077,4198.461436,4195.384513,4177.435795,4176.922975
43,0,4212.82041,4220.512717,4235.897332,4229.230666,4225.640922,4222.051179,4234.358871,4228.205025,4262.563998,4213.846051,4211.281948,4204.615282,4190.769128,4196.922974
44,0,4213.33323,4218.461435,4238.461435,4227.179384,4225.128102,4222.563999,4232.820409,4226.153743,4262.563998,4213.33323,4210.256307,4203.589641,4188.205026,4210.769128
45,0,4196.922974,4209.230666,4233.84605,4221.025538,4219.999897,4214.871692,4228.205025,4217.948615,4255.897332,4204.615282,4196.410154,4190.256308,4176.922975,4191.794769
46,0,4199.487077,4215.897333,4234.871691,4224.102461,4228.205025,4219.487076,4235.897332,4218.461435,4255.384511,4199.999897,4193.846051,4187.179385,4176.922975,4186.153744
47,0,4213.846051,4228.205025,4244.10246,4231.794768,4241.025537,4231.281948,4246.153742,4233.84605,4265.640921,4205.128102,4209.230666,4200.512718,4187.692205,4205.640923
48,0,4216.922974,4226.666563,4249.743486,4236.410153,4235.897332,4228.205025,4243.076819,4233.84605,4267.179383,4212.82041,4214.358871,4208.717846,4194.358872,4206.153743
49,0,4215.384512,4229.230666,4247.692204,4235.897332,4229.230666,4218.461435,4236.922973,4222.051179,4263.076819,4217.435794,4208.205025,4210.256307,4197.948615,4201.025538
50,0,4215.384512,4234.358871,4243.58964,4230.769127,4226.153743,4218.461435,4236.922973,4218.461435,4262.563998,4213.846051,4210.256307,4206.153743,4195.897333,4209.230666
51,0,4219.487076,4230.769127,4236.410153,4229.743486,4226.666563,4220.512717,4235.897332,4220.512717,4261.025537,4211.794769,4216.922974,4198.461436,4195.384513,4211.281948
52,0,4218.461435,4224.102461,4232.820409,4230.769127,4229.230666,4219.999897,4232.820409,4222.051179,4261.025537,4214.358871,4213.846051,4196.410154,4193.846051,4199.999897
53,0,4210.769128,4222.563999,4235.897332,4225.640922,4227.692204,4217.948615,4233.33323,4226.153743,4268.717844,4217.435794,4208.717846,4197.948615,4191.281949,4198.974256
54,0,4206.153743,4219.487076,4233.84605,4221.025538,4219.487076,4215.897333,4232.307589,4216.922974,4266.153742,4213.33323,4208.205025,4195.384513,4189.230667,4206.666564
55,0,4211.281948,4219.487076,4233.33323,4223.58964,4219.487076,4217.435794,4229.743486,4205.640923,4256.922973,4215.897333,4213.33323,4197.948615,4196.922974,4209.230666
56,0,4210.769128,4215.897333,4238.974255,4218.974256,4222.051179,4217.948615,4231.281948,4208.717846,4257.948614,4217.948615,4214.871692,4204.102461,4199.487077,4205.640923
57,0,4206.153743,4211.281948,4239.999896,4213.33323,4219.487076,4215.897333,4236.410153,4210.256307,4258.974255,4206.153743,4206.153743,4203.589641,4189.743487,4201.025538
58,0,4206.666564,4211.794769,4234.871691,4215.897333,4218.974256,4217.435794,4237.948614,4207.179384,4257.435793,4193.846051,4201.025538,4203.589641,4185.128103,4195.384513
59,0,4208.205025,4215.897333,4232.820409,4216.410153,4223.07682,4218.974256,4236.410153,4211.281948,4260.512716,4201.538359,4202.564,4200.512718,4188.205026,4196.410154
60,0,4212.307589,4217.948615,4235.897332,4215.897333,4224.615281,4216.922974,4236.922973,4217.948615,4264.61528,4215.897333,4204.102461,4192.82041,4191.794769,4203.589641
61,0,4217.435794,4221.538358,4238.974255,4221.025538,4228.205025,4218.461435,4236.410153,4219.999897,4264.61528,4218.461435,4210.256307,4197.948615,4195.897333,4203.589641
62,0,4213.33323,4224.102461,4235.384512,4222.051179,4227.692204,4221.025538,4232.307589,4215.897333,4262.563998,4212.82041,4211.281948,4199.999897,4193.846051,4197.435795
63,0,4203.07682,4220.512717,4229.743486,4215.384512,4218.974256,4216.922974,4225.128102,4203.07682,4256.410152,4204.615282,4201.538359,4191.281949,4183.076821,4194.871692
64,0,4205.128102,4221.025538,4231.281948,4218.461435,4221.025538,4215.384512,4223.07682,4196.922974,4250.256306,4199.999897,4202.051179,4190.256308,4186.666564,4202.564
65,0,4211.281948,4218.974256,4233.33323,4224.102461,4223.07682,4217.435794,4225.640922,4205.128102,4251.794768,4200.512718,4209.230666,4193.333231,4197.435795,4205.640923
66,0,4209.230666,4216.410153,4230.769127,4221.025538,4214.358871,4214.871692,4226.666563,4214.871692,4256.922973,4207.179384,4208.717846,4195.384513,4198.461436,4204.615282
67,0,4209.230666,4218.974256,4231.794768,4218.461435,4207.179384,4212.82041,4225.128102,4212.307589,4256.410152,4207.692205,4206.666564,4204.102461,4195.384513,4206.666564
68,0,4219.487076,4222.051179,4235.384512,4226.666563,4211.794769,4214.871692,4222.563999,4207.179384,4253.84605,4207.179384,4213.33323,4208.717846,4198.974256,4213.33323
69,0,4227.179384,4219.999897,4233.33323,4233.33323,4214.871692,4216.410153,4221.538358,4209.743487,4257.435793,4211.794769,4213.33323,4203.07682,4203.589641,4218.461435
70,0,4226.666563,4221.538358,4232.307589,4225.640922,4219.999897,4215.897333,4222.051179,4214.871692,4261.025537,4214.358871,4209.743487,4204.615282,4205.128102,4219.487076
71,0,4219.487076,4221.025538,4232.307589,4219.487076,4220.512717,4215.384512,4223.07682,4207.692205,4254.871691,4205.640923,4211.281948,4207.179384,4199.999897,4208.717846
72,0,4217.435794,4220.512717,4233.84605,4225.640922,4215.897333,4214.871692,4225.128102,4205.128102,4251.794768,4205.128102,4218.461435,4206.153743,4197.948615,4206.666564
73,0,4221.025538,4223.58964,4238.974255,4230.256307,4213.33323,4217.948615,4226.153743,4216.922974,4259.999896,4214.358871,4221.538358,4208.205025,4203.07682,4223.07682
74,0,4224.102461,4226.153743,4243.076819,4230.769127,4212.82041,4219.487076,4225.128102,4226.153743,4264.10246,4219.487076,4221.025538,4211.794769,4207.692205,4232.820409
75,0,4219.999897,4223.07682,4246.153742,4236.410153,4212.82041,4217.435794,4220.512717,4217.948615,4259.487075,4213.846051,4219.487076,4211.794769,4202.051179,4222.563999
76,0,4219.487076,4221.538358,4244.10246,4236.922973,4215.384512,4215.897333,4214.358871,4212.82041,4256.922973,4215.384512,4216.410153,4206.666564,4197.948615,4211.281948
77,0,4226.153743,4221.025538,4236.410153,4228.205025,4213.846051,4215.384512,4210.769128,4214.871692,4257.435793,4220.512717,4211.794769,4201.025538,4198.974256,4207.692205
78,0,4230.256307,4221.025538,4236.410153,4224.102461,4214.871692,4215.897333,4213.846051,4210.769128,4254.35887,4217.435794,4212.307589,4205.128102,4198.461436,4214.871692
79,0,4225.640922,4220.512717,4241.025537,4226.153743,4218.974256,4215.897333,4215.384512,4202.564,4251.794768,4209.743487,4220.512717,4213.846051,4197.948615,4222.563999
80,0,4221.538358,4216.410153,4235.897332,4228.205025,4215.897333,4214.871692,4214.358871,4201.538359,4252.820409,4208.205025,4224.615281,4211.794769,4200.512718,4218.461435
81,0,4225.640922,4216.410153,4230.769127,4232.307589,4208.717846,4213.33323,4218.461435,4206.153743,4254.35887,4212.307589,4222.051179,4206.666564,4204.615282,4213.33323
82,0,4225.640922,4218.461435,4230.769127,4228.205025,4206.666564,4213.33323,4219.999897,4204.615282,4253.333229,4204.615282,4215.897333,4205.128102,4195.384513,4212.307589
83,0,4222.051179,4218.461435,4231.281948,4222.563999,4213.33323,4216.410153,4215.384512,4202.051179,4253.333229,4198.974256,4214.358871,4206.666564,4189.230667,4213.33323
84,0,4224.615281,4221.538358,4240.512717,4230.256307,4215.897333,4217.948615,4213.846051,4206.153743,4254.35887,4205.640923,4217.948615,4210.256307,4197.435795,4217.948615
85,0,4234.358871,4230.256307,4246.153742,4237.435794,4213.846051,4217.435794,4218.974256,4213.33323,4255.897332,4214.358871,4222.563999,4211.794769,4204.615282,4225.128102
86,0,4253.333229,4244.615281,4246.153742,4236.922973,4217.435794,4216.922974,4222.051179,4216.922974,4261.025537,4221.025538,4228.717845,4212.82041,4211.281948,4239.487076
87,0,4294.87169,4271.281947,4264.61528,4246.153742,4225.640922,4218.974256,4225.640922,4230.769127,4267.179383,4237.435794,4246.666563,4229.230666,4234.358871,4276.410152
88,0,4335.384509,4291.794767,4279.999895,4258.461434,4222.563999,4219.487076,4231.281948,4230.769127,4259.999896,4234.871691,4255.897332,4248.717845,4247.179383,4308.717843
89,0,4358.461432,4298.461433,4271.794767,4254.871691,4218.974256,4217.435794,4228.717845,4216.410153,4247.692204,4211.794769,4243.076819,4247.692204,4238.461435,4317.435792
90,0,4379.487072,4308.717843,4267.692203,4250.256306,4212.82041,4215.384512,4218.461435,4207.179384,4242.051178,4195.897333,4230.256307,4236.410153,4232.307589,4327.179381
91,0,4418.46143,4334.871689,4276.922972,4265.640921,4211.281948,4216.922974,4210.256307,4196.410154,4235.384512,4188.205026,4232.820409,4244.615281,4239.487076,4354.358868
92,0,4454.358865,4348.717842,4281.025536,4275.897331,4217.948615,4219.999897,4208.717846,4180.512718,4228.205025,4185.128103,4236.410153,4260.512716,4242.563999,4372.307585
93,0,4458.97425,4343.589637,4278.461434,4267.179383,4221.025538,4218.461435,4207.692205,4184.102462,4232.820409,4187.692205,4235.897332,4261.025537,4239.487076,4376.410149
94,0,4444.102455,4335.384509,4277.948613,4259.999896,4219.487076,4216.922974,4209.230666,4201.538359,4243.58964,4194.871692,4236.922973,4253.333229,4240.512717,4375.384508
95,0,4426.666558,4325.128099,4275.897331,4262.563998,4222.563999,4216.922974,4216.922974,4209.230666,4247.692204,4210.256307,4243.58964,4250.256306,4239.999896,4365.640919
96,0,4406.666559,4305.64092,4271.281947,4261.538357,4216.410153,4215.384512,4219.487076,4207.692205,4246.153742,4214.871692,4248.717845,4249.230665,4232.820409,4348.717842
97,0,4393.846046,4292.307587,4272.820408,4260.512716,4214.358871,4215.384512,4215.384512,4208.717846,4248.717845,4213.33323,4256.922973,4255.384511,4231.281948,4341.538355
98,0,4382.051175,4285.1281,4276.922972,4256.922973,4225.640922,4214.871692,4217.435794,4218.461435,4255.897332,4225.640922,4265.128101,4264.10246,4237.435794,4339.487073
99,0,4347.692201,4264.10246,4266.666562,4242.563999,4219.487076,4212.307589,4219.999897,4223.07682,4252.820409,4226.153743,4256.922973,4255.384511,4232.307589,4318.974253
100,0,4317.435792,4246.153742,4249.743486,4233.84605,4211.794769,4212.307589,4217.948615,4211.281948,4244.615281,4206.666564,4239.999896,4234.871691,4219.487076,4289.743485
101,0,4306.666561,4239.999896,4245.640922,4238.974255,4222.051179,4216.410153,4219.487076,4203.07682,4249.743486,4205.640923,4230.769127,4220.512717,4210.256307,4272.820408
102,0,4289.230664,4231.281948,4245.640922,4239.487076,4226.666563,4217.948615,4222.563999,4212.307589,4256.410152,4221.538358,4234.871691,4221.538358,4209.230666,4265.640921
103,0,4264.10246,4224.615281,4241.538358,4233.84605,4220.512717,4218.461435,4223.07682,4220.512717,4253.333229,4226.153743,4242.051178,4229.230666,4215.897333,4252.820409
104,0,4258.974255,4225.128102,4235.897332,4230.769127,4224.615281,4218.461435,4223.07682,4219.487076,4254.35887,4231.281948,4245.128101,4227.692204,4219.487076,4247.179383
105,0,4260.512716,4214.871692,4227.692204,4229.230666,4226.153743,4216.410153,4216.922974,4207.179384,4252.307588,4222.563999,4235.384512,4210.769128,4211.281948,4246.666563
106,0,4254.871691,4205.640923,4226.666563,4232.307589,4223.07682,4216.410153,4215.897333,4203.589641,4245.128101,4214.871692,4231.281948,4205.640923,4211.281948,4242.051178
107,0,4243.58964,4208.717846,4232.820409,4233.33323,4222.051179,4217.948615,4223.07682,4217.948615,4246.666563,4230.256307,4241.538358,4219.487076,4221.025538,4242.051178
108,0,4238.974255,4212.82041,4235.897332,4231.794768,4225.128102,4218.461435,4227.692204,4233.84605,4260.512716,4247.692204,4251.281947,4227.179384,4227.692204,4243.58964
109,0,4238.974255,4210.256307,4236.410153,4233.84605,4228.205025,4219.999897,4228.717845,4232.307589,4264.61528,4242.563999,4244.10246,4222.051179,4223.58964,4232.820409
110,0,4238.461435,4211.281948,4241.538358,4237.435794,4232.307589,4219.487076,4227.692204,4225.128102,4258.461434,4236.922973,4237.435794,4222.051179,4218.461435,4230.769127
111,0,4239.487076,4211.794769,4245.128101,4238.461435,4232.820409,4217.435794,4228.717845,4229.743486,4261.025537,4232.307589,4242.563999,4225.128102,4218.461435,4242.051178
112,0,4237.948614,4206.666564,4237.948614,4237.435794,4231.794768,4218.974256,4231.281948,4236.410153,4267.179383,4226.666563,4245.128101,4221.538358,4221.538358,4236.922973
113,0,4221.025538,4196.410154,4223.07682,4231.281948,4230.769127,4220.512717,4228.717845,4226.153743,4258.461434,4224.615281,4235.384512,4211.794769,4217.435794,4212.307589
114,0,4200.512718,4189.230667,4213.846051,4224.615281,4233.33323,4218.461435,4228.717845,4220.512717,4252.820409,4221.025538,4225.128102,4199.487077,4205.128102,4196.922974
115,0,4195.897333,4191.794769,4214.871692,4229.743486,4237.948614,4218.461435,4234.871691,4230.769127,4262.051178,4224.102461,4224.102461,4196.922974,4203.07682,4199.999897
116,0,4200.512718,4192.82041,4218.461435,4235.384512,4237.948614,4219.487076,4229.230666,4226.666563,4261.025537,4238.974255,4233.84605,4206.153743,4219.487076,4206.666564
117,0,4211.281948,4195.897333,4223.07682,4234.871691,4234.871691,4218.974256,4216.410153,4212.82041,4251.281947,4243.58964,4242.563999,4217.948615,4233.84605,4211.794769
118,0,4223.07682,4207.692205,4231.281948,4241.025537,4236.410153,4219.487076,4215.384512,4221.538358,4256.922973,4238.974255,4247.692204,4224.615281,4235.384512,4223.07682
119,0,4223.07682,4212.82041,4236.922973,4248.717845,4243.076819,4218.974256,4222.051179,4238.461435,4264.61528,4243.076819,4251.281947,4226.666563,4234.871691,4231.281948
120,0,4209.743487,4199.999897,4231.281948,4242.563999,4237.948614,4215.384512,4221.538358,4230.769127,4258.974255,4236.410153,4245.640922,4222.051179,4231.281948,4216.922974
121,0,4202.564,4191.281949,4220.512717,4234.871691,4228.717845,4214.871692,4218.461435,4216.922974,4252.820409,4222.563999,4236.922973,4214.358871,4229.743486,4202.051179
122,0,4199.999897,4188.205026,4214.358871,4235.897332,4231.794768,4216.410153,4221.025538,4214.358871,4251.794768,4224.102461,4229.743486,4208.205025,4227.692204,4201.025538
123,0,4198.461436,4187.179385,4216.922974,4239.487076,4240.512717,4215.384512,4227.692204,4223.58964,4253.333229,4229.743486,4227.179384,4206.666564,4227.179384,4201.538359
124,0,4193.846051,4187.179385,4218.461435,4241.538358,4239.999896,4216.922974,4230.256307,4228.717845,4256.410152,4220.512717,4225.640922,4207.179384,4228.205025,4196.410154
125,0,4181.538359,4180.512718,4206.666564,4234.871691,4233.84605,4216.922974,4226.666563,4225.640922,4260.512716,4217.435794,4226.153743,4197.948615,4228.205025,4192.82041
126,0,4175.897334,4169.743488,4194.358872,4224.615281,4225.128102,4213.846051,4217.948615,4216.410153,4255.897332,4223.58964,4225.640922,4187.692205,4226.153743,4191.281949
127,0,4181.538359,4173.333231,4197.435795,4226.153743,4226.666563,4213.846051,4211.281948,4210.256307,4247.692204,4222.563999,4226.153743,4190.256308,4231.281948,4183.076821
128,0,4175.384513,4178.461436,4201.025538,4230.256307,4236.922973,4216.410153,4211.281948,4206.153743,4244.10246,4213.33323,4222.563999,4190.769128,4230.256307,4171.79477
0,0,4181.538359,4184.615282,4203.589641,4226.153743,4242.563999,4216.922974,4211.794769,4204.102461,4243.076819,4212.82041,4218.974256,4194.358872,4229.743486,4184.615282
1,0,4200.512718,4192.30759,4213.33323,4226.153743,4237.435794,4217.948615,4212.307589,4210.769128,4247.692204,4212.82041,4225.640922,4207.692205,4239.487076,4203.589641
2,0,4192.82041,4188.205026,4215.897333,4227.179384,4237.948614,4217.948615,4216.922974,4218.974256,4252.307588,4209.743487,4229.230666,4210.769128,4244.10246,4197.948615
3,0,4179.487077,4179.999898,4209.230666,4219.999897,4243.58964,4216.410153,4218.974256,4212.82041,4245.640922,4203.589641,4223.07682,4196.410154,4238.461435,4190.769128
4,0,4193.846051,4181.538359,4207.692205,4211.281948,4246.153742,4217.435794,4218.461435,4205.640923,4237.948614,4205.128102,4224.615281,4193.846051,4238.461435,4202.564
5,0,4195.897333,4175.384513,4206.666564,4207.179384,4242.051178,4217.948615,4219.487076,4207.179384,4239.487076,4214.358871,4227.692204,4198.461436,4241.025537,4202.051179
6,0,4177.435795,4162.564001,4192.82041,4205.128102,4235.897332,4215.897333,4217.948615,4210.769128,4242.051178,4209.743487,4215.897333,4188.717846,4232.820409,4183.589641
7,0,4175.384513,4162.05118,4184.102462,4201.025538,4235.384512,4215.384512,4218.461435,4216.410153,4248.205024,4204.615282,4212.307589,4186.153744,4232.820409,4179.999898
8,0,4178.461436,4171.281949,4193.333231,4202.051179,4236.922973,4217.435794,4219.487076,4216.922974,4252.307588,4214.871692,4226.666563,4198.974256,4246.153742,4192.30759
9,0,4184.102462,4183.589641,4203.07682,4206.153743,4244.10246,4219.487076,4221.025538,4213.33323,4251.281947,4219.487076,4231.281948,4202.564,4250.256306,4203.07682
10,0,4190.769128,4183.589641,4203.589641,4201.025538,4249.743486,4219.999897,4222.563999,4219.999897,4253.333229,4207.179384,4222.051179,4196.410154,4241.538358,4201.538359
11,0,4183.589641,4174.871693,4199.487077,4197.435795,4247.692204,4215.897333,4221.025538,4223.58964,4250.769127,4203.589641,4220.512717,4196.410154,4238.461435,4194.358872
12,0,4181.538359,4181.025539,4200.512718,4203.589641,4251.281947,4216.922974,4218.461435,4211.794769,4242.051178,4208.205025,4231.794768,4199.487077,4239.999896,4194.871692
13,0,4198.461436,4197.948615,4203.07682,4209.230666,4266.153742,4224.615281,4225.128102,4217.948615,4248.205024,4225.640922,4251.281947,4207.179384,4252.307588,4211.794769
14,0,4198.974256,4194.871692,4202.564,4207.179384,4263.589639,4223.07682,4229.230666,4233.33323,4257.948614,4238.974255,4242.563999,4208.717846,4264.61528,4220.512717
15,0,4184.102462,4185.640923,4199.999897,4204.615282,4253.84605,4218.974256,4227.692204,4230.769127,4256.410152,4228.205025,4247.692204,4201.025538,4252.307588,4205.640923
16,0,4183.589641,4186.666564,4196.410154,4200.512718,4256.410152,4225.128102,4229.230666,4221.538358,4252.820409,4222.051179,4231.281948,4198.461436,4234.358871,4189.230667
17,0,4195.897333,4190.769128,4199.999897,4200.512718,4259.487075,4230.769127,4230.256307,4222.563999,4251.281947,4232.820409,4062.564003,4203.589641,4246.666563,4203.589641
18,0,4191.794769,4186.666564,4199.487077,4202.564,4250.256306,4225.128102,4227.179384,4219.487076,4250.769127,4228.717845,3856.410162,4199.487077,4253.84605,4214.871692
19,0,4178.461436,4179.999898,4189.230667,4199.999897,4249.230665,4218.461435,4223.07682,4209.230666,4248.205024,4214.871692,3817.435804,4189.230667,4232.820409,4196.410154
20,0,4180.512718,4175.384513,4188.717846,4196.410154,4251.281947,4217.435794,4221.538358,4205.640923,4240.512717,4209.230666,3863.076829,4191.794769,4222.051179,4183.589641
21,0,4189.743487,4175.897334,4198.974256,4197.435795,4244.10246,4216.922974,4223.07682,4212.82041,4238.461435,4204.615282,3858.974265,4202.564,4232.820409,4194.871692
22,0,4182.564,4177.948616,4202.564,4199.487077,4244.10246,4215.897333,4223.07682,4221.025538,4244.615281,4208.205025,3856.410162,4201.025538,4232.820409,4203.589641
23,0,4178.461436,4186.666564,4199.999897,4199.999897,4254.871691,4215.384512,4219.999897,4223.07682,4250.256306,4224.102461,3877.435803,4196.922974,4227.179384,4201.025538
24,0,4190.769128,4189.743487,4203.07682,4198.461436,4253.333229,4217.435794,4225.128102,4234.358871,4254.35887,4237.435794,3898.461443,4210.769128,4244.615281,4212.82041
25,0,4198.974256,4179.999898,4205.640923,4192.30759,4242.563999,4217.948615,4231.794768,4247.179383,4259.999896,4244.615281,3916.410161,4223.07682,4256.922973,4225.128102
26,0,4194.871692,4181.538359,4197.948615,4194.358872,4244.10246,4217.435794,4224.615281,4234.358871,4256.410152,4242.051178,3894.358879,4211.794769,4237.435794,4213.846051
27,0,4178.461436,4188.205026,4189.230667,4201.025538,4248.205024,4217.435794,4216.410153,4210.769128,4244.10246,4227.692204,3876.922982,4193.333231,4222.051179,4193.333231
28,0,4166.153744,4183.076821,4186.666564,4198.461436,4244.615281,4215.384512,4219.487076,4207.692205,4238.974255,4212.307589,3895.38452,4183.076821,4224.102461,4186.153744
29,0,4170.256308,4173.846052,4183.076821,4188.205026,4241.538358,4215.384512,4219.487076,4209.230666,4238.461435,4197.435795,3891.281956,4178.974257,4210.769128,4177.948616
30,0,4178.461436,4179.999898,4177.948616,4187.179385,4248.205024,4215.897333,4216.922974,4205.128102,4239.487076,4204.615282,3877.948623,4177.948616,4198.461436,4174.871693
31,0,4177.948616,4188.717846,4187.179385,4194.871692,4252.307588,4215.384512,4221.025538,4211.794769,4245.128101,4224.615281,3903.589648,4183.076821,4211.794769,4192.30759
32,0,4181.025539,4184.615282,4201.025538,4197.948615,4248.717845,4215.897333,4227.179384,4226.666563,4250.769127,4228.717845,3933.846058,4195.384513,4222.563999,4201.538359
33,0,4181.538359,4175.897334,4202.051179,4192.82041,4243.076819,4215.897333,4226.666563,4226.666563,4247.692204,4215.384512,3921.025545,4195.897333,4204.615282,4189.230667
34,0,4175.897334,4174.871693,4193.846051,4187.692205,4249.230665,4215.897333,4229.230666,4229.230666,4252.307588,4225.128102,3915.89734,4190.769128,4197.948615,4192.82041
35,0,4174.358872,4174.871693,4195.897333,4189.230667,4254.871691,4217.435794,4233.33323,4242.563999,4263.589639,4247.692204,3940.512724,4202.051179,4214.358871,4205.128102
36,0,4188.205026,4184.102462,4208.717846,4198.461436,4257.435793,4217.948615,4232.307589,4246.153742,4262.563998,4252.820409,3953.333237,4215.897333,4219.487076,4209.230666
37,0,4194.871692,4199.999897,4209.743487,4204.615282,4266.153742,4218.974256,4230.769127,4238.461435,4254.35887,4245.640922,3942.051186,4209.743487,4203.07682,4205.640923
38,0,4182.05118,4196.410154,4200.512718,4199.487077,4267.692203,4221.538358,4228.717845,4232.307589,4251.281947,4231.281948,3936.922981,4197.948615,4195.384513,4195.384513
39,0,4171.281949,4177.435795,4198.461436,4190.769128,4251.281947,4218.461435,4226.153743,4223.58964,4247.179383,4211.281948,3942.564006,4192.30759,4190.256308,4188.205026
40,0,4174.871693,4179.999898,4200.512718,4193.846051,4245.128101,4215.897333,4228.205025,4214.871692,4242.051178,4208.205025,3939.999904,4189.230667,4179.999898,4191.281949
41,0,4181.025539,4191.794769,4204.102461,4204.102461,4255.897332,4224.102461,4234.871691,4222.051179,4247.179383,4228.717845,3944.102468,4195.384513,4186.666564,4192.82041
42,0,4191.794769,4195.384513,4215.897333,4210.769128,4263.076819,4234.358871,4236.922973,4233.84605,4255.384511,4241.538358,3965.128108,4211.281948,4201.538359,4205.640923
43,0,4205.640923,4201.025538,4224.615281,4207.179384,4263.076819,4231.281948,4235.384512,4236.922973,4253.84605,4241.025537,3978.461441,4216.922974,4201.538359,4227.692204
44,0,4203.589641,4197.435795,4219.487076,4201.025538,4258.461434,4222.051179,4238.461435,4242.563999,4253.84605,4247.692204,3980.512723,4211.281948,4197.948615,4224.102461
45,0,4192.30759,4182.564,4208.717846,4203.07682,4252.307588,4218.461435,4238.461435,4250.769127,4259.999896,4247.179383,3984.102467,4208.717846,4200.512718,4206.666564
46,0,4185.128103,4175.897334,4198.974256,4199.999897,4247.692204,4217.435794,4232.307589,4252.307588,4259.487075,4236.922973,3983.589646,4207.692205,4195.897333,4199.999897
47,0,4176.922975,4180.512718,4196.410154,4191.794769,4247.692204,4214.871692,4229.230666,4248.717845,4256.410152,4237.435794,3979.999903,4200.512718,4180.512718,4191.281949
48,0,4167.692206,4175.384513,4199.999897,4193.333231,4241.025537,4213.33323,4227.179384,4238.461435,4252.820409,4238.461435,3974.871698,4194.358872,4171.79477,4183.076821
49,0,4167.692206,4175.897334,4197.948615,4203.589641,4240.512717,4216.922974,4223.58964,4227.179384,4246.666563,4232.307589,3974.358877,4194.871692,4173.846052,4190.769128
50,0,4165.640924,4176.922975,4187.179385,4199.487077,4244.10246,4217.435794,4222.051179,4212.307589,4237.948614,4210.256307,3968.205031,4181.025539,4156.410155,4178.974257
51,0,4164.615283,4166.666565,4186.666564,4189.230667,4242.051178,4216.410153,4229.743486,4210.769128,4239.487076,4199.999897,3964.615288,4173.333231,4143.589642,4161.53836
52,0,4168.205026,4162.05118,4202.051179,4191.794769,4238.461435,4222.563999,4241.538358,4228.717845,4249.743486,4221.538358,3982.564005,4193.846051,4164.615283,4182.564
53,0,4174.871693,4171.79477,4209.230666,4197.948615,4241.025537,4223.58964,4246.666563,4244.10246,4254.871691,4247.179383,4011.281953,4212.307589,4191.281949,4213.33323
54,0,4178.461436,4177.435795,4201.538359,4197.435795,4242.051178,4217.435794,4240.512717,4241.538358,4254.35887,4241.538358,4015.897338,4205.640923,4189.743487,4209.743487
55,0,4181.538359,4180.512718,4202.051179,4197.435795,4246.153742,4216.410153,4231.281948,4237.435794,4256.922973,4242.051178,4015.384517,4204.102461,4186.153744,4200.512718
56,0,4182.564,4182.05118,4208.205025,4199.999897,4248.205024,4219.487076,4229.743486,4241.538358,4258.461434,4259.999896,4029.230671,4210.769128,4192.82041,4207.692205
57,0,4182.564,4183.589641,4204.615282,4197.948615,4245.640922,4217.948615,4232.820409,4243.58964,4256.922973,4260.512716,4033.333235,4208.717846,4191.281949,4211.794769
58,0,4185.128103,4190.256308,4203.589641,4199.999897,4244.10246,4217.435794,4234.871691,4245.128101,4256.922973,4249.743486,4024.102466,4209.230666,4185.128103,4209.743487
59,0,4189.743487,4197.948615,4213.33323,4208.205025,4246.666563,4222.563999,4234.358871,4248.205024,4258.974255,4251.281947,4029.230671,4215.384512,4188.205026,4212.82041
60,0,4193.846051,4193.333231,4219.999897,4208.205025,4247.179383,4225.128102,4240.512717,4252.307588,4261.538357,4256.922973,4041.538363,4218.461435,4193.333231,4216.410153
61,0,4183.076821,4176.410154,4206.153743,4196.410154,4239.999896,4219.999897,4243.076819,4244.615281,4256.410152,4238.461435,4028.20503,4210.256307,4177.435795,4201.538359
62,0,4162.564001,4166.153744,4186.666564,4187.179385,4231.281948,4214.871692,4235.384512,4226.666563,4245.128101,4209.743487,4001.025543,4190.256308,4148.717847,4177.435795
63,0,4158.974257,4169.230667,4189.230667,4191.281949,4235.897332,4218.974256,4232.307589,4224.102461,4245.640922,4211.281948,4005.128107,4183.589641,4148.717847,4175.384513
64,0,4169.743488,4174.871693,4202.051179,4197.948615,4248.205024,4223.07682,4236.410153,4238.461435,4255.384511,4236.410153,4032.307594,4202.564,4174.358872,4192.30759
65,0,4167.179385,4169.230667,4200.512718,4195.897333,4244.10246,4217.948615,4231.794768,4244.615281,4258.461434,4246.153742,4044.102465,4212.82041,4182.564,4200.512718
66,0,4171.79477,4176.410154,4196.410154,4199.487077,4237.435794,4215.384512,4224.102461,4240.512717,4255.384511,4242.563999,4044.615286,4204.102461,4174.358872,4199.487077
67,0,4192.30759,4194.871692,4203.07682,4210.769128,4241.025537,4218.461435,4226.666563,4238.974255,4251.794768,4238.974255,4050.256311,4205.640923,4179.487077,4201.025538
68,0,4196.922974,4194.358872,4205.640923,4211.281948,4242.563999,4217.948615,4230.256307,4243.58964,4252.307588,4240.512717,4056.410157,4212.307589,4186.666564,4201.538359
69,0,4182.564,4176.410154,4201.538359,4198.974256,4235.384512,4217.435794,4229.743486,4243.076819,4250.769127,4236.922973,4048.205029,4201.538359,4170.256308,4190.769128
70,0,4175.897334,4172.820411,4204.102461,4196.922974,4234.871691,4217.948615,4231.281948,4243.076819,4248.717845,4235.384512,4040.512722,4196.410154,4162.564001,4187.179385
71,0,4171.281949,4173.333231,4203.07682,4198.461436,4235.384512,4216.922974,4230.256307,4234.871691,4246.666563,4228.717845,4035.897337,4199.999897,4162.564001,4183.589641
72,0,4167.692206,4169.230667,4198.461436,4195.897333,4231.281948,4215.384512,4224.102461,4224.615281,4244.10246,4212.307589,4030.769132,4197.435795,4148.717847,4173.333231
73,0,4174.871693,4170.256308,4207.179384,4201.538359,4225.640922,4218.461435,4228.205025,4230.256307,4242.563999,4204.102461,4036.922978,4197.948615,4143.589642,4178.974257
74,0,4186.153744,4174.358872,4214.871692,4205.128102,4224.102461,4217.948615,4230.256307,4239.999896,4244.615281,4216.410153,4052.820414,4206.666564,4162.564001,4193.333231
75,0,4187.692205,4169.743488,4205.128102,4197.435795,4224.615281,4213.846051,4222.563999,4230.769127,4248.717845,4230.769127,4058.97426,4208.717846,4171.79477,4192.30759
76,0,4183.589641,4167.692206,4199.487077,4194.871692,4230.256307,4215.384512,4223.58964,4230.256307,4254.35887,4234.358871,4062.564003,4205.128102,4168.205026,4191.281949
77,0,4178.974257,4169.743488,4205.128102,4199.999897,4230.256307,4215.897333,4226.153743,4236.922973,4251.794768,4232.307589,4067.692208,4198.974256,4165.640924,4190.769128
78,0,4178.461436,4172.820411,4202.051179,4201.538359,4221.025538,4214.358871,4216.922974,4222.051179,4238.461435,4223.58964,4061.025542,4190.256308,4160.512719,4181.538359
79,0,4185.640923,4176.410154,4200.512718,4205.128102,4224.102461,4216.410153,4217.435794,4219.999897,4239.999896,4217.948615,4055.897337,4196.410154,4158.461437,4179.999898
80,0,4187.179385,4177.948616,4206.666564,4207.692205,4232.820409,4217.948615,4227.179384,4237.435794,4252.820409,4225.128102,4068.205029,4211.794769,4168.205026,4185.640923
81,0,4184.102462,4181.025539,4208.717846,4205.640923,4226.666563,4217.948615,4226.153743,4235.384512,4249.230665,4234.871691,4078.461439,4214.871692,4175.384513,4192.82041
82,0,4185.640923,4182.564,4205.128102,4207.179384,4219.487076,4217.948615,4222.051179,4218.974256,4237.948614,4227.692204,4071.794772,4205.640923,4167.692206,4195.897333
83,0,4186.153744,4174.358872,4203.589641,4205.640923,4222.563999,4214.871692,4223.07682,4218.461435,4238.461435,4209.230666,4066.666567,4196.922974,4158.974257,4188.205026
84,0,4179.999898,4165.128103,4207.692205,4199.999897,4225.128102,4212.307589,4223.58964,4222.563999,4243.58964,4214.871692,4080.512721,4202.051179,4166.666565,4189.743487
85,0,4182.564,4173.333231,4210.256307,4202.564,4227.692204,4216.410153,4223.07682,4223.07682,4244.10246,4236.922973,4096.410156,4212.307589,4177.948616,4202.051179
86,0,4183.076821,4175.897334,4202.051179,4204.102461,4223.07682,4216.410153,4217.948615,4222.051179,4241.025537,4227.179384,4085.640926,4198.974256,4166.666565,4192.82041
87,0,4176.922975,4164.615283,4190.769128,4202.051179,4215.897333,4211.281948,4212.82041,4222.563999,4241.025537,4211.794769,4078.461439,4185.640923,4158.974257,4181.025539
88,0,4176.410154,4164.102462,4192.82041,4198.461436,4216.922974,4212.307589,4213.846051,4223.07682,4242.051178,4221.025538,4090.25631,4198.974256,4169.743488,4185.640923
89,0,4186.666564,4178.461436,4200.512718,4201.025538,4224.615281,4215.897333,4217.948615,4226.666563,4243.076819,4230.256307,4095.384515,4204.102461,4173.333231,4186.666564
90,0,4190.256308,4181.538359,4201.025538,4207.692205,4218.461435,4213.33323,4221.025538,4229.230666,4243.58964,4226.153743,4088.717849,4195.384513,4165.640924,4177.435795
91,0,4187.179385,4176.922975,4201.538359,4208.205025,4209.743487,4211.794769,4223.58964,4229.743486,4242.563999,4226.666563,4093.333233,4199.487077,4168.205026,4183.076821
92,0,4178.974257,4174.358872,4201.025538,4197.948615,4215.384512,4213.33323,4224.102461,4222.051179,4239.487076,4214.358871,4094.871695,4203.589641,4168.717847,4189.743487
93,0,4176.922975,4174.358872,4201.538359,4195.897333,4225.128102,4215.897333,4222.051179,4221.538358,4237.435794,4196.410154,4089.74349,4204.102461,4164.102462,4179.487077
94,0,4190.769128,4180.512718,4208.717846,4207.692205,4226.666563,4217.948615,4223.07682,4227.179384,4239.999896,4210.769128,4099.487079,4207.179384,4171.79477,4184.102462
95,0,4200.512718,4189.230667,4217.948615,4211.794769,4225.128102,4217.948615,4222.563999,4226.153743,4243.076819,4241.025537,4118.974258,4209.230666,4186.153744,4213.33323
96,0,4199.487077,4194.358872,4218.974256,4207.692205,4226.666563,4217.435794,4222.563999,4223.07682,4241.538358,4238.974255,4126.153745,4222.563999,4194.358872,4212.82041
97,0,4210.769128,4197.948615,4216.922974,4212.307589,4231.281948,4218.974256,4222.563999,4231.281948,4238.974255,4228.717845,4126.666566,4231.281948,4194.871692,4197.435795
98,0,4225.640922,4203.07682,4217.435794,4222.051179,4231.794768,4218.461435,4225.128102,4242.051178,4246.153742,4237.435794,4129.743489,4213.846051,4189.230667,4218.974256
99,0,4221.025538,4206.153743,4217.435794,4217.435794,4229.230666,4217.435794,4228.717845,4246.153742,4256.410152,4244.10246,4132.307591,4209.743487,4190.769128,4239.487076
100,0,4208.205025,4205.128102,4216.410153,4208.205025,4227.179384,4216.922974,4227.179384,4242.051178,4252.307588,4243.076819,4127.179386,4226.153743,4199.487077,4218.461435
101,0,4199.487077,4194.871692,4209.743487,4207.692205,4220.512717,4214.358871,4217.948615,4227.179384,4239.999896,4229.743486,4116.410156,4213.33323,4188.717846,4192.82041
102,0,4200.512718,4190.769128,4199.487077,4209.230666,4216.410153,4213.846051,4215.897333,4215.384512,4236.922973,4213.846051,4118.974258,4191.281949,4172.820411,4197.948615
103,0,4207.692205,4195.384513,4199.487077,4209.230666,4222.563999,4218.461435,4223.07682,4219.999897,4242.563999,4210.769128,4127.692207,4199.999897,4174.358872,4209.743487
104,0,4215.384512,4198.461436,4212.82041,4211.281948,4229.743486,4219.999897,4228.717845,4234.358871,4246.666563,4231.794768,4131.28195,4215.897333,4187.692205,4218.461435
105,0,4210.769128,4190.256308,4216.410153,4206.666564,4227.179384,4216.410153,4228.205025,4233.33323,4246.666563,4238.461435,4130.256309,4213.846051,4192.82041,4213.33323
106,0,4203.07682,4187.692205,4206.153743,4203.07682,4218.974256,4215.384512,4227.692204,4226.153743,4243.58964,4216.922974,4129.743489,4210.256307,4188.205026,4197.948615
107,0,4204.615282,4193.333231,4206.666564,4209.743487,4210.256307,4215.897333,4228.205025,4229.230666,4238.461435,4205.128102,4129.230668,4208.717846,4181.538359,4196.410154
108,0,4210.256307,4198.461436,4219.487076,4217.435794,4217.435794,4215.897333,4226.666563,4238.974255,4240.512717,4223.58964,4139.999899,4208.717846,4190.769128,4209.230666
109,0,4208.205025,4192.30759,4221.025538,4212.82041,4221.025538,4217.948615,4224.102461,4239.487076,4247.692204,4237.435794,4149.230668,4212.307589,4197.435795,4213.33323
110,0,4209.743487,4194.871692,4214.358871,4205.640923,4209.230666,4217.948615,4223.58964,4237.435794,4248.717845,4229.743486,4147.692206,4213.846051,4197.435795,4209.743487
111,0,4219.487076,4207.692205,4213.33323,4210.256307,4210.256307,4214.871692,4223.07682,4230.769127,4242.563999,4223.58964,4154.358873,4215.384512,4208.717846,4218.461435
112,0,4229.230666,4211.281948,4217.435794,4221.025538,4227.692204,4216.922974,4221.538358,4227.692204,4242.563999,4230.256307,4169.230667,4229.230666,4224.615281,4235.897332
113,0,4235.384512,4209.230666,4219.487076,4221.538358,4227.692204,4220.512717,4223.58964,4231.281948,4244.10246,4233.84605,4169.230667,4234.358871,4221.538358,4240.512717
114,0,4236.922973,4211.794769,4216.410153,4216.922974,4217.435794,4216.922974,4224.615281,4229.230666,4237.948614,4228.205025,4157.948616,4219.999897,4208.205025,4232.307589
115,0,4230.769127,4210.256307,4214.358871,4216.410153,4216.410153,4213.846051,4224.102461,4227.692204,4236.410153,4221.025538,4151.28195,4214.871692,4202.564,4223.58964
116,0,4226.153743,4206.666564,4216.922974,4214.871692,4219.999897,4215.897333,4223.07682,4234.358871,4242.563999,4223.07682,4154.358873,4219.999897,4205.640923,4227.692204
117,0,4227.692204,4214.358871,4217.948615,4215.384512,4226.153743,4217.435794,4224.615281,4237.948614,4243.076819,4222.563999,4162.05118,4219.999897,4211.281948,4226.666563
118,0,4226.666563,4213.846051,4216.410153,4214.358871,4221.538358,4213.846051,4226.153743,4237.435794,4239.487076,4216.410153,4162.564001,4217.435794,4209.743487,4215.897333
119,0,4223.58964,4201.538359,4213.846051,4208.717846,4209.230666,4211.281948,4223.07682,4236.922973,4240.512717,4222.051179,4160.512719,4214.871692,4210.256307,4217.435794
120,0,4211.794769,4193.333231,4214.358871,4207.692205,4213.846051,4214.358871,4223.58964,4243.58964,4246.666563,4231.794768,4164.102462,4213.33323,4205.128102,4212.82041
121,0,4209.743487,4193.846051,4213.33323,4213.33323,4225.640922,4218.461435,4229.743486,4255.384511,4251.281947,4240.512717,4175.897334,4215.897333,4201.538359,4206.153743
122,0,4212.307589,4194.871692,4207.179384,4211.281948,4215.384512,4216.410153,4229.743486,4250.769127,4244.10246,4235.384512,4183.076821,4213.846051,4215.897333,4212.307589
123,0,4198.461436,4191.281949,4198.461436,4204.615282,4207.179384,4213.33323,4224.102461,4235.897332,4235.897332,4220.512717,4177.948616,4204.615282,4223.07682,4208.205025
124,0,4181.538359,4181.025539,4195.897333,4204.102461,4211.794769,4212.307589,4219.487076,4225.128102,4237.435794,4217.948615,4173.333231,4204.102461,4210.256307,4189.743487
125,0,4186.666564,4179.487077,4203.589641,4206.153743,4215.384512,4212.307589,4218.461435,4226.666563,4239.999896,4231.794768,4183.076821,4214.871692,4212.307589,4199.487077
126,0,4197.435795,4188.717846,4214.871692,4210.769128,4215.897333,4214.358871,4221.025538,4234.358871,4238.974255,4238.974255,4191.281949,4225.128102,4229.743486,4219.999897
127,0,4200.512718,4191.281949,4219.487076,4211.281948,4217.948615,4215.384512,4221.538358,4235.897332,4241.025537,4238.974255,4190.769128,4226.666563,4231.794768,4212.82041
128,0,4195.384513,4182.05118,4215.897333,4207.179384,4214.871692,4213.33323,4216.410153,4230.256307,4244.10246,4241.538358,4191.794769,4223.07682,4223.58964,4204.102461
0,0,4194.871692,4186.666564,4216.410153,4209.230666,4219.999897,4212.82041,4218.974256,4236.410153,4246.666563,4249.230665,4196.410154,4226.153743,4228.205025,4215.897333
1,0,4197.435795,4195.384513,4218.461435,4216.410153,4226.153743,4215.384512,4227.179384,4244.615281,4250.769127,4245.640922,4195.384513,4226.666563,4234.871691,4219.487076
2,0,4196.922974,4188.205026,4208.205025,4212.307589,4217.948615,4215.384512,4225.640922,4239.999896,4249.743486,4235.384512,4196.410154,4219.999897,4234.358871,4214.358871
3,0,4192.82041,4179.487077,4200.512718,4202.564,4209.230666,4213.846051,4219.487076,4232.820409,4241.025537,4231.794768,4196.410154,4210.769128,4227.692204,4208.205025
4,0,4191.794769,4189.230667,4202.564,4206.153743,4216.410153,4216.410153,4219.999897,4230.769127,4238.461435,4236.922973,4186.666564,4206.666564,4222.563999,4203.07682
5,0,4192.30759,4198.461436,4204.102461,4212.307589,4223.07682,4218.974256,4225.128102,4238.974255,4246.153742,4241.025537,4185.640923,4213.846051,4227.179384,4208.205025
6,0,4193.333231,4193.333231,4199.999897,4208.717846,4220.512717,4217.948615,4223.58964,4245.128101,4246.666563,4240.512717,4202.051179,4214.871692,4232.307589,4214.871692
7,0,4201.025538,4196.922974,4199.999897,4208.717846,4221.025538,4216.922974,4221.538358,4245.640922,4244.615281,4243.58964,4214.871692,4211.794769,4236.410153,4213.33323
8,0,4202.051179,4202.564,4202.564,4214.358871,4224.102461,4217.948615,4225.640922,4252.307588,4251.794768,4245.128101,4211.281948,4213.33323,4239.487076,4210.256307
9,0,4199.999897,4201.025538,4201.025538,4212.82041,4223.58964,4218.461435,4227.179384,4256.410152,4258.461434,4246.666563,4205.128102,4213.33323,4237.948614,4209.743487
10,0,4203.07682,4201.025538,4203.589641,4208.205025,4219.487076,4214.871692,4223.58964,4245.128101,4250.769127,4244.10246,4202.564,4211.794769,4229.230666,4204.102461
11,0,4209.743487,4205.640923,4211.794769,4212.82041,4222.051179,4214.358871,4223.58964,4245.128101,4242.051178,4243.076819,4207.179384,4219.487076,4228.717845,4208.205025
12,0,4216.922974,4211.281948,4218.461435,4221.538358,4227.179384,4224.102461,4227.179384,4255.384511,4245.640922,4247.179383,4223.58964,4228.205025,4243.076819,4225.640922
13,0,4226.153743,4221.538358,4220.512717,4227.179384,4233.33323,4231.794768,4229.743486,4256.410152,4256.922973,4257.948614,4235.384512,4226.153743,4252.820409,4234.871691
