title:V                                                                               , recorded:07.07.20 13.37.45, sampling:128, subject:B                                                                               , labels:COUNTER INTERPOLATED AF3 F7 F3 FC5 T7 P7 O1 O2 P8 T8 FC6 F4 F8 AF4,, units:emotiv,,,,,,,,,
96,0,4213.846051,4214.358871,4179.999898,4216.922974,4228.717845,4223.07682,4228.717845,4131.28195,2926.153775,4227.179384,4179.999898,4184.102462,4192.30759,4181.025539
97,0,4209.230666,4215.384512,4181.538359,4217.948615,4230.769127,4225.640922,4231.281948,4134.358873,2962.05121,4213.846051,4179.487077,4181.538359,4189.230667,4177.948616
106,0,4244.10246,4215.384512,4177.435795,4214.358871,4224.102461,4223.07682,4229.743486,4124.615284,3045.128131,4206.153743,4174.871693,4183.076821,4194.871692,4176.410154
107,0,4237.435794,4217.948615,4178.974257,4216.410153,4230.769127,4231.794768,4222.563999,4121.538361,3053.333259,4212.82041,4175.897334,4179.999898,4197.435795,4176.410154
108,0,4236.410153,4217.435794,4187.179385,4218.974256,4232.307589,4225.128102,4217.948615,4124.102463,3065.640951,4216.410153,4176.410154,4186.666564,4203.07682,4186.666564
109,0,4235.384512,4215.897333,4189.230667,4214.358871,4229.743486,4213.33323,4217.948615,4125.128104,3076.923002,4207.179384,4183.076821,4188.717846,4204.102461,4188.205026
110,0,4246.153742,4219.487076,4187.179385,4210.256307,4225.640922,4218.461435,4216.922974,4133.333232,3098.974283,4204.615282,4191.281949,4192.82041,4209.230666,4192.30759
127,0,4280.512716,4228.717845,4202.564,4231.281948,4231.794768,4229.743486,4226.153743,4123.076822,3181.025563,4222.563999,4201.538359,4203.07682,4225.128102,4216.922974
128,0,4272.307588,4232.307589,4200.512718,4229.743486,4229.743486,4230.769127,4227.179384,4130.76913,3178.461461,4232.820409,4191.794769,4197.435795,4221.025538,4217.435794
0,0,4275.384511,4234.871691,4204.102461,4227.179384,4228.717845,4230.769127,4226.666563,4124.615284,3167.17941,4231.281948,4196.410154,4191.281949,4224.615281,4218.974256
9,0,4267.692203,4219.999897,4213.846051,4228.205025,4228.717845,4229.743486,4227.692204,4128.205027,3185.640948,4239.487076,4213.33323,4224.102461,4241.025537,4226.153743
10,0,4273.333229,4224.615281,4214.871692,4236.410153,4231.281948,4231.794768,4229.743486,4135.897335,3189.743512,4238.974255,4215.384512,4214.358871,4240.512717,4222.051179
11,0,4287.179382,4228.205025,4217.435794,4235.897332,4233.33323,4232.307589,4228.205025,4132.820412,3192.307614,4227.692204,4215.384512,4206.666564,4239.487076,4223.58964
12,0,4287.692203,4226.666563,4221.025538,4232.820409,4234.358871,4232.307589,4228.717845,4118.461438,3186.666589,4215.384512,4204.102461,4208.205025,4233.33323,4232.307589
13,0,4276.922972,4226.153743,4224.102461,4233.84605,4233.84605,4233.84605,4230.769127,4116.922976,3182.564025,4216.922974,4202.564,4209.230666,4226.666563,4241.025537
14,0,4274.35887,4230.256307,4226.666563,4230.769127,4233.84605,4231.281948,4230.256307,4130.256309,3193.333255,4223.58964,4213.846051,4214.871692,4228.717845,4236.410153
15,0,4285.640921,4237.948614,4233.33323,4231.794768,4238.461435,4230.769127,4231.794768,4143.076822,3213.333255,4235.384512,4222.051179,4231.794768,4239.487076,4234.358871
16,0,4293.846049,4242.051178,4242.563999,4245.128101,4241.025537,4238.461435,4234.871691,4150.769129,3227.179408,4245.128101,4229.743486,4243.076819,4249.230665,4248.717845
17,0,4292.307587,4238.974255,4244.10246,4248.205024,4238.461435,4239.999896,4234.358871,4156.410155,3226.666588,4245.640922,4238.974255,4238.461435,4248.717845,4262.051178
18,0,4284.102459,4235.897332,4229.230666,4236.922973,4232.307589,4232.820409,4229.743486,4148.205027,3218.46146,4235.897332,4231.794768,4224.615281,4237.435794,4249.230665
19,0,4278.461434,4238.974255,4223.58964,4231.794768,4233.33323,4231.281948,4227.692204,4139.487078,3219.487101,4241.025537,4227.179384,4225.640922,4237.435794,4234.358871
20,0,4274.87169,4232.820409,4229.230666,4233.84605,4233.84605,4232.820409,4229.743486,4144.102463,3228.205049,4248.717845,4230.769127,4231.794768,4242.051178,4232.307589
21,0,4272.820408,4223.07682,4224.102461,4230.256307,4229.230666,4229.743486,4229.743486,4148.205027,3229.743511,4235.384512,4227.179384,4223.58964,4237.435794,4234.871691
22,0,4271.281947,4227.692204,4219.487076,4230.769127,4228.717845,4229.230666,4229.230666,4144.615283,3238.97428,4224.615281,4222.051179,4214.871692,4235.384512,4233.84605
23,0,4266.666562,4236.922973,4225.640922,4236.410153,4234.871691,4233.84605,4226.666563,4138.974258,3252.307613,4233.33323,4228.717845,4216.410153,4239.487076,4228.717845
24,0,4262.051178,4227.179384,4222.051179,4232.307589,4230.769127,4228.717845,4218.974256,4128.205027,3245.640946,4235.897332,4226.153743,4213.846051,4230.769127,4216.410153
25,0,4265.640921,4213.33323,4214.358871,4227.179384,4219.999897,4217.435794,4217.435794,4123.076822,3235.384536,4223.58964,4217.948615,4215.897333,4223.58964,4213.846051
26,0,4272.820408,4213.846051,4218.461435,4229.743486,4219.999897,4222.051179,4227.692204,4137.435796,3253.333254,4220.512717,4228.205025,4218.461435,4233.84605,4231.794768
27,0,4271.794767,4222.051179,4228.717845,4229.743486,4226.153743,4230.256307,4231.794768,4150.256309,3269.230689,4238.461435,4242.563999,4212.82041,4241.538358,4245.128101
28,0,4253.84605,4223.07682,4231.281948,4228.205025,4225.640922,4225.128102,4229.743486,4146.666565,3259.4871,4246.153742,4240.512717,4221.538358,4237.948614,4232.307589
29,0,4239.999896,4213.33323,4233.33323,4229.230666,4219.999897,4220.512717,4231.281948,4143.076822,3253.846074,4235.897332,4233.33323,4233.84605,4235.384512,4220.512717
30,0,4256.410152,4206.666564,4229.743486,4230.256307,4217.435794,4223.58964,4228.717845,4149.230668,3259.4871,4233.84605,4229.743486,4216.410153,4231.794768,4227.179384
31,0,4272.820408,4209.230666,4220.512717,4228.717845,4214.358871,4219.999897,4221.025538,4141.53836,3252.307613,4230.769127,4224.615281,4196.922974,4223.58964,4228.205025
32,0,4249.230665,4208.205025,4218.461435,4223.58964,4209.230666,4215.897333,4216.922974,4126.666566,3236.922998,4212.82041,4216.922974,4206.666564,4217.948615,4217.435794
33,0,4229.230666,4202.051179,4228.205025,4221.025538,4207.692205,4218.974256,4218.461435,4130.76913,3243.076844,4209.230666,4219.487076,4214.871692,4219.487076,4216.410153
34,0,4254.35887,4212.82041,4241.025537,4227.692204,4216.922974,4226.153743,4225.128102,4147.692206,3264.102484,4225.640922,4233.84605,4221.538358,4230.256307,4230.256307
35,0,4269.743485,4226.153743,4243.58964,4236.410153,4226.153743,4227.692204,4232.307589,4149.743488,3274.871715,4228.205025,4237.435794,4230.256307,4234.871691,4236.410153
35,0,4269.743485,4226.153743,4243.58964,4236.410153,4226.153743,4227.692204,4232.307589,4149.743488,3274.871715,4228.205025,4237.435794,4230.256307,4234.871691,4236.410153
36,0,4253.84605,4216.922974,4237.435794,4232.820409,4226.153743,4220.512717,4227.179384,4139.999899,3277.948638,4225.640922,4227.692204,4219.487076,4227.692204,4229.743486
37,0,4249.230665,4205.640923,4226.666563,4223.07682,4225.128102,4221.025538,4223.07682,4138.974258,3297.435817,4232.820409,4224.102461,4206.666564,4222.051179,4224.102461
38,0,4251.794768,4211.794769,4221.025538,4222.563999,4228.205025,4231.794768,4229.230666,4147.179386,3323.589662,4236.410153,4229.230666,4211.281948,4228.205025,4224.615281
39,0,4239.999896,4215.897333,4218.974256,4227.692204,4225.128102,4230.256307,4228.717845,4142.564001,3331.79479,4224.615281,4228.717845,4209.230666,4228.205025,4224.102461
40,0,4238.974255,4210.769128,4219.999897,4227.692204,4220.512717,4222.563999,4222.563999,4135.384514,3337.948636,4216.922974,4233.33323,4204.102461,4224.102461,4230.769127
41,0,4250.769127,4211.794769,4227.179384,4227.179384,4222.051179,4222.563999,4226.153743,4143.076822,3363.589661,4222.563999,4238.974255,4210.769128,4227.179384,4237.948614
42,0,4254.35887,4219.999897,4233.33323,4230.256307,4224.615281,4221.538358,4229.743486,4148.205027,3387.179404,4223.07682,4231.794768,4215.897333,4227.692204,4231.281948
43,0,4249.743486,4222.051179,4231.281948,4228.717845,4226.153743,4221.538358,4227.179384,4140.512719,3402.564019,4226.153743,4223.58964,4217.435794,4222.563999,4218.461435
44,0,4242.051178,4215.384512,4231.281948,4227.179384,4225.128102,4227.179384,4228.205025,4133.333232,3416.922993,4229.230666,4226.666563,4221.538358,4218.461435,4220.512717
45,0,4242.051178,4210.769128,4234.358871,4228.717845,4221.538358,4228.205025,4231.794768,4134.871694,3426.153762,4220.512717,4231.794768,4220.512717,4221.025538,4232.307589
46,0,4245.640922,4209.230666,4234.358871,4222.051179,4218.974256,4222.051179,4230.769127,4133.846053,3419.999916,4208.205025,4231.281948,4222.563999,4220.512717,4234.358871
47,0,4243.076819,4204.102461,4230.256307,4214.358871,4213.846051,4217.435794,4229.230666,4126.666566,3408.205045,4201.538359,4223.58964,4220.512717,4207.692205,4222.051179
48,0,4238.461435,4202.051179,4225.128102,4215.897333,4209.743487,4218.974256,4231.794768,4124.615284,3408.717865,4204.102461,4212.307589,4208.205025,4195.384513,4211.794769
49,0,4227.179384,4204.102461,4224.615281,4219.487076,4216.922974,4220.512717,4235.384512,4138.974258,3432.307608,4205.128102,4213.33323,4200.512718,4198.461436,4211.794769
50,0,4217.948615,4201.538359,4230.256307,4216.410153,4217.435794,4218.461435,4232.820409,4144.615283,3453.333249,4203.07682,4223.07682,4206.666564,4207.692205,4215.897333
51,0,4233.84605,4201.538359,4230.769127,4216.922974,4210.256307,4217.435794,4228.717845,4133.333232,3460.512736,4210.256307,4226.153743,4213.33323,4209.743487,4217.948615
52,0,4253.84605,4208.205025,4228.717845,4225.640922,4214.358871,4222.051179,4238.461435,4134.871694,3473.333248,4218.974256,4225.640922,4215.384512,4210.769128,4212.82041
53,0,4241.025537,4211.281948,4233.84605,4230.256307,4226.153743,4222.563999,4245.128101,4143.589642,3491.794786,4216.410153,4224.102461,4212.82041,4213.33323,4214.358871
54,0,4223.07682,4209.743487,4231.794768,4227.692204,4227.179384,4217.948615,4236.922973,4134.871694,3508.717863,4217.435794,4220.512717,4209.230666,4212.82041,4223.58964
55,0,4229.230666,4215.384512,4225.640922,4228.717845,4226.153743,4219.999897,4236.410153,4133.333232,3539.999913,4224.102461,4223.07682,4214.871692,4212.307589,4222.563999
56,0,4241.538358,4219.487076,4224.102461,4233.33323,4232.820409,4225.640922,4247.179383,4146.153745,3583.076835,4221.025538,4231.794768,4217.948615,4213.33323,4218.461435
57,0,4243.076819,4213.846051,4223.58964,4228.205025,4232.307589,4222.051179,4245.640922,4148.205027,3620.512732,4226.666563,4234.871691,4214.871692,4217.435794,4224.615281
58,0,4227.179384,4208.205025,4227.179384,4218.461435,4222.563999,4217.435794,4234.358871,4138.974258,3653.846064,4227.692204,4231.281948,4214.871692,4219.487076,4224.615281
59,0,4225.128102,4210.769128,4235.384512,4219.999897,4219.487076,4218.974256,4232.820409,4135.384514,3682.564013,4212.307589,4230.256307,4218.461435,4215.384512,4220.512717
60,0,4238.974255,4211.281948,4234.358871,4228.717845,4219.999897,4221.538358,4235.384512,4135.897335,3707.179397,4215.897333,4228.717845,4217.948615,4211.794769,4224.615281
61,0,4233.33323,4205.640923,4230.769127,4227.692204,4213.846051,4216.922974,4233.84605,4135.384514,3731.28196,4223.07682,4221.025538,4217.948615,4208.205025,4215.384512
62,0,4224.615281,4205.128102,4232.307589,4223.58964,4214.358871,4216.410153,4231.794768,4141.02554,3767.692216,4212.307589,4221.538358,4216.410153,4209.743487,4205.128102
63,0,4235.897332,4211.794769,4238.461435,4227.692204,4224.102461,4227.179384,4233.33323,4146.666565,3810.256317,4213.33323,4234.358871,4215.897333,4216.922974,4218.974256
64,0,4238.461435,4215.897333,4242.051178,4232.307589,4227.179384,4229.230666,4235.897332,4145.640924,3842.051188,4226.153743,4233.33323,4217.435794,4215.384512,4224.102461
65,0,4229.230666,4211.794769,4237.948614,4233.33323,4222.563999,4221.538358,4234.871691,4145.640924,3864.10247,4221.538358,4222.563999,4212.307589,4205.128102,4214.871692
66,0,4230.256307,4207.692205,4230.769127,4231.794768,4223.07682,4221.538358,4233.33323,4148.717847,3877.435803,4218.974256,4223.58964,4210.769128,4206.666564,4214.871692
67,0,4231.281948,4211.281948,4232.820409,4227.179384,4224.615281,4227.179384,4233.33323,4145.640924,3872.307598,4224.615281,4224.615281,4217.435794,4211.794769,4206.666564
68,0,4229.743486,4218.461435,4233.84605,4228.205025,4224.615281,4230.769127,4233.84605,4139.999899,3859.487085,4217.435794,4219.999897,4213.846051,4206.666564,4197.435795
69,0,4238.974255,4220.512717,4230.256307,4232.820409,4224.615281,4228.205025,4232.307589,4145.128104,3860.512726,4217.948615,4225.128102,4203.07682,4207.692205,4213.33323
70,0,4238.974255,4217.948615,4235.897332,4231.794768,4223.07682,4221.025538,4230.256307,4151.28195,3854.35888,4231.281948,4234.871691,4209.230666,4216.922974,4228.205025
71,0,4227.179384,4220.512717,4243.076819,4231.794768,4219.999897,4221.025538,4229.230666,4146.666565,3819.999907,4224.615281,4232.820409,4224.102461,4216.410153,4221.538358
72,0,4238.461435,4230.256307,4244.615281,4242.051178,4226.153743,4229.743486,4230.769127,4142.564001,3783.589651,4218.974256,4230.769127,4231.281948,4217.435794,4228.205025
73,0,4258.461434,4235.897332,4242.563999,4246.153742,4238.461435,4231.794768,4231.794768,4142.564001,3754.871703,4230.769127,4236.922973,4231.281948,4225.640922,4237.948614
74,0,4249.230665,4228.205025,4241.025537,4235.384512,4237.948614,4229.743486,4231.281948,4143.589642,3724.615294,4231.794768,4241.025537,4226.666563,4226.666563,4222.563999
75,0,4233.84605,4222.051179,4237.948614,4230.769127,4229.230666,4230.769127,4230.769127,4147.179386,3704.615294,4220.512717,4237.435794,4222.563999,4222.563999,4219.999897
76,0,4244.615281,4226.666563,4238.461435,4241.025537,4230.256307,4231.281948,4234.358871,4158.974257,3708.205038,4227.692204,4242.563999,4226.666563,4228.205025,4244.10246
77,0,4250.256306,4223.58964,4240.512717,4244.615281,4230.256307,4229.743486,4234.871691,4163.589642,3706.666576,4239.487076,4249.743486,4227.179384,4229.743486,4245.640922
78,0,4240.512717,4213.33323,4239.999896,4233.33323,4221.538358,4227.692204,4229.230666,4148.717847,3683.076833,4227.179384,4242.051178,4220.512717,4219.999897,4231.281948
79,0,4246.153742,4214.358871,4244.615281,4235.384512,4224.102461,4229.743486,4231.794768,4144.615283,3676.410167,4221.025538,4235.897332,4224.102461,4219.487076,4236.410153
80,0,4250.769127,4219.999897,4244.615281,4243.58964,4234.871691,4233.33323,4236.922973,4152.307591,3685.128115,4227.692204,4236.922973,4230.256307,4225.640922,4237.948614
81,0,4232.307589,4218.974256,4239.999896,4235.897332,4237.435794,4230.769127,4233.84605,4145.640924,3687.179397,4218.461435,4232.820409,4222.563999,4219.487076,4225.640922
82,0,4226.153743,4217.435794,4242.563999,4235.384512,4234.871691,4230.256307,4232.820409,4143.589642,3700.51273,4211.281948,4229.230666,4213.33323,4214.358871,4224.615281
83,0,4244.10246,4224.615281,4248.205024,4248.205024,4236.410153,4234.358871,4235.384512,4156.922975,3730.76914,4231.281948,4236.410153,4221.025538,4226.153743,4233.33323
84,0,4251.281947,4230.256307,4248.205024,4250.256306,4237.948614,4233.33323,4233.33323,4155.384514,3748.717857,4247.692204,4248.717845,4232.307589,4234.871691,4236.922973
85,0,4247.179383,4227.179384,4243.58964,4245.128101,4235.897332,4230.256307,4233.33323,4153.333232,3759.487088,4239.999896,4250.256306,4226.153743,4225.640922,4239.487076
86,0,4246.153742,4223.07682,4244.10246,4238.974255,4232.307589,4229.743486,4234.871691,4160.512719,3775.384523,4230.256307,4243.076819,4218.974256,4220.512717,4236.922973
87,0,4246.153742,4223.07682,4251.794768,4232.307589,4230.256307,4229.743486,4231.794768,4157.948616,3786.153754,4232.307589,4242.563999,4230.769127,4230.256307,4236.410153
88,0,4253.333229,4225.128102,4257.948614,4239.999896,4234.358871,4228.205025,4229.230666,4157.948616,3796.410164,4237.435794,4252.820409,4242.051178,4239.999896,4248.717845
89,0,4265.128101,4232.307589,4257.948614,4250.256306,4238.974255,4227.179384,4231.281948,4172.30759,3816.922984,4244.10246,4258.461434,4237.948614,4247.179383,4259.999896
90,0,4260.512716,4234.871691,4255.897332,4245.128101,4235.384512,4229.230666,4232.307589,4168.717847,3826.153753,4243.076819,4252.820409,4232.820409,4244.615281,4258.974255
91,0,4252.820409,4225.640922,4256.410152,4242.051178,4230.769127,4230.769127,4228.205025,4147.692206,3818.461445,4228.205025,4244.615281,4232.820409,4232.820409,4254.871691
92,0,4261.025537,4222.563999,4253.333229,4243.076819,4230.256307,4229.230666,4226.666563,4140.512719,3819.487086,4224.615281,4243.58964,4232.820409,4232.820409,4259.999896
93,0,4263.589639,4229.743486,4253.333229,4243.58964,4232.307589,4228.205025,4228.717845,4152.307591,3835.897342,4243.58964,4252.307588,4238.461435,4242.051178,4259.999896
94,0,4252.307588,4225.128102,4256.922973,4245.640922,4232.820409,4225.128102,4223.07682,4158.974257,3842.051188,4243.076819,4254.35887,4236.922973,4240.512717,4250.769127
95,0,4234.358871,4211.794769,4249.743486,4239.487076,4230.256307,4219.487076,4215.897333,4149.230668,3832.820419,4222.563999,4245.128101,4223.07682,4227.179384,4245.640922
96,0,4218.974256,4205.128102,4232.820409,4229.230666,4227.179384,4216.922974,4218.974256,4143.076822,3829.230676,4216.410153,4234.871691,4214.358871,4220.512717,4234.871691
97,0,4228.717845,4211.281948,4230.769127,4231.794768,4228.717845,4218.461435,4221.025538,4148.717847,3829.230676,4218.974256,4231.794768,4214.871692,4219.999897,4226.666563
98,0,4250.256306,4217.948615,4243.076819,4235.384512,4233.84605,4223.58964,4218.974256,4153.333232,3828.717855,4217.948615,4235.897332,4213.846051,4217.948615,4236.410153
99,0,4248.205024,4222.563999,4254.35887,4237.435794,4236.410153,4229.743486,4223.07682,4154.358873,3825.640932,4215.384512,4242.563999,4222.051179,4220.512717,4247.692204
100,0,4246.153742,4229.230666,4261.025537,4246.666563,4235.384512,4230.256307,4224.615281,4157.948616,3814.871702,4209.743487,4247.179383,4237.435794,4228.205025,4241.538358
101,0,4251.281947,4227.692204,4258.461434,4249.743486,4231.281948,4224.102461,4218.461435,4153.846052,3805.128112,4214.871692,4243.076819,4232.307589,4226.153743,4235.384512
102,0,4241.538358,4219.999897,4247.692204,4244.10246,4232.820409,4225.640922,4217.435794,4145.128104,3806.153753,4224.102461,4237.435794,4216.410153,4223.58964,4241.025537
103,0,4239.487076,4221.025538,4248.205024,4243.076819,4237.948614,4229.230666,4219.487076,4146.153745,3805.128112,4215.897333,4239.487076,4217.435794,4227.179384,4244.10246
104,0,4249.230665,4222.563999,4249.230665,4241.538358,4235.897332,4224.102461,4216.922974,4152.307591,3799.487087,4213.846051,4242.051178,4221.025538,4226.153743,4239.999896
105,0,4242.051178,4213.846051,4243.076819,4231.794768,4228.717845,4217.948615,4222.051179,4158.461437,3799.487087,4225.128102,4242.051178,4213.33323,4222.563999,4229.743486
106,0,4231.794768,4214.358871,4245.128101,4231.794768,4231.794768,4221.538358,4229.743486,4170.769129,3807.179394,4230.769127,4247.179383,4215.384512,4231.281948,4226.666563
107,0,4232.307589,4221.025538,4252.820409,4244.10246,4232.307589,4226.666563,4224.102461,4174.871693,3805.128112,4232.820409,4251.794768,4227.692204,4237.435794,4241.025537
108,0,4232.307589,4219.487076,4250.769127,4247.692204,4226.666563,4224.102461,4214.358871,4160.512719,3785.640933,4238.461435,4249.743486,4234.358871,4234.358871,4245.640922
109,0,4240.512717,4221.025538,4244.615281,4241.025537,4228.205025,4223.58964,4215.384512,4154.358873,3768.717857,4231.794768,4246.153742,4229.743486,4229.743486,4227.179384
110,0,4254.35887,4228.205025,4245.640922,4242.563999,4235.384512,4228.717845,4223.58964,4164.615283,3768.205036,4219.487076,4248.205024,4217.948615,4229.743486,4229.230666
111,0,4253.333229,4224.102461,4252.820409,4250.256306,4239.999896,4232.307589,4230.769127,4166.666565,3767.692216,4224.615281,4251.794768,4216.922974,4232.820409,4254.871691
112,0,4238.974255,4213.846051,4250.769127,4244.10246,4233.84605,4226.153743,4227.179384,4158.461437,3756.922985,4228.205025,4244.615281,4230.256307,4230.256307,4244.10246
113,0,4229.743486,4210.769128,4246.153742,4233.33323,4227.179384,4218.461435,4220.512717,4157.948616,3751.28196,4222.563999,4236.410153,4234.871691,4223.07682,4216.922974
114,0,4242.051178,4216.410153,4251.794768,4238.974255,4227.692204,4222.563999,4221.025538,4163.589642,3757.435806,4224.102461,4243.58964,4230.769127,4225.128102,4233.33323
115,0,4253.333229,4217.948615,4254.35887,4250.769127,4229.743486,4225.640922,4222.051179,4164.102462,3765.128113,4227.179384,4248.717845,4229.743486,4227.179384,4253.84605
116,0,4241.538358,4213.846051,4247.692204,4247.179383,4226.666563,4222.051179,4223.58964,4166.153744,3768.205036,4227.179384,4245.640922,4231.794768,4226.666563,4244.615281
117,0,4236.410153,4214.871692,4246.153742,4238.461435,4227.179384,4223.58964,4230.769127,4178.974257,3777.948626,4237.435794,4249.743486,4232.307589,4229.230666,4231.794768
118,0,4241.538358,4215.897333,4248.205024,4239.999896,4230.769127,4228.717845,4233.33323,4185.128103,3788.205036,4241.538358,4249.743486,4230.769127,4228.717845,4230.256307
119,0,4238.974255,4211.794769,4247.692204,4241.025537,4232.820409,4225.640922,4229.230666,4179.999898,3790.256318,4235.897332,4248.205024,4231.794768,4229.743486,4239.487076
120,0,4235.384512,4214.871692,4249.230665,4238.461435,4235.384512,4226.153743,4229.230666,4178.461436,3788.717856,4233.33323,4257.948614,4235.897332,4231.794768,4247.692204
121,0,4232.820409,4221.538358,4249.230665,4243.076819,4236.410153,4231.281948,4231.281948,4178.461436,3786.666574,4229.743486,4256.922973,4227.179384,4228.717845,4243.076819
122,0,4224.615281,4213.33323,4247.179383,4248.717845,4228.205025,4230.769127,4230.256307,4173.846052,3777.948626,4229.230666,4244.10246,4212.82041,4223.58964,4226.153743
123,0,4225.640922,4204.615282,4247.692204,4240.512717,4221.538358,4228.717845,4230.256307,4175.897334,3767.179395,4235.897332,4245.128101,4221.025538,4224.102461,4221.538358
124,0,4232.307589,4208.205025,4243.58964,4231.794768,4226.153743,4230.256307,4232.307589,4179.999898,3754.871703,4228.717845,4247.692204,4228.205025,4221.538358,4224.615281
125,0,4231.794768,4212.82041,4242.563999,4239.487076,4236.410153,4231.794768,4233.33323,4175.384513,3738.974268,4225.128102,4241.025537,4218.461435,4217.948615,4218.461435
126,0,4236.922973,4214.871692,4254.35887,4247.692204,4236.410153,4231.281948,4232.820409,4173.846052,3732.820422,4241.538358,4248.205024,4221.538358,4222.563999,4221.538358
127,0,4242.563999,4220.512717,4267.692203,4248.717845,4235.384512,4230.769127,4238.974255,4183.589641,3738.974268,4246.153742,4265.640921,4237.948614,4231.794768,4239.999896
128,0,4237.435794,4225.640922,4272.307588,4253.333229,4241.538358,4232.307589,4246.666563,4192.82041,3737.948627,4241.025537,4268.717844,4239.999896,4240.512717,4249.743486
0,0,4239.999896,4230.769127,4270.256306,4260.512716,4242.563999,4235.384512,4245.640922,4194.358872,3729.230678,4249.743486,4267.179383,4240.512717,4244.615281,4248.205024
1,0,4254.35887,4233.33323,4264.61528,4255.897332,4236.922973,4235.384512,4245.640922,4194.358872,3715.897345,4262.051178,4268.205024,4246.666563,4246.153742,4250.769127
2,0,4256.922973,4227.692204,4263.589639,4246.666563,4235.384512,4233.33323,4245.128101,4188.205026,3687.179397,4261.025537,4263.589639,4244.10246,4245.640922,4246.153742
3,0,4240.512717,4222.051179,4262.051178,4245.640922,4236.410153,4232.820409,4238.974255,4178.974257,3654.871705,4248.717845,4261.538357,4233.84605,4236.410153,4232.307589
4,0,4227.179384,4222.051179,4252.307588,4246.666563,4235.384512,4232.820409,4236.922973,4174.358872,3632.820424,4239.487076,4262.563998,4225.640922,4230.769127,4231.794768
5,0,4234.871691,4223.07682,4252.307588,4248.205024,4236.922973,4233.84605,4239.487076,4173.333231,3618.46145,4242.051178,4254.35887,4224.102461,4232.307589,4233.84605
6,0,4245.128101,4226.666563,4264.10246,4251.281947,4240.512717,4234.358871,4239.487076,4176.410154,3606.666578,4241.025537,4249.743486,4231.794768,4231.281948,4232.307589
7,0,4241.538358,4225.640922,4261.025537,4251.794768,4239.999896,4233.33323,4237.948614,4179.487077,3605.640937,4236.922973,4252.307588,4233.84605,4226.153743,4234.871691
8,0,4232.820409,4214.358871,4247.179383,4245.128101,4230.256307,4229.743486,4234.358871,4182.05118,3616.410168,4242.563999,4245.640922,4227.692204,4225.128102,4232.307589
9,0,4234.871691,4212.82041,4245.640922,4242.563999,4225.128102,4228.205025,4233.84605,4186.153744,3636.922988,4248.205024,4244.615281,4227.179384,4228.205025,4231.281948
10,0,4244.10246,4224.102461,4252.820409,4250.256306,4235.897332,4233.33323,4237.435794,4190.256308,3664.615295,4250.769127,4258.974255,4232.820409,4235.384512,4237.948614
11,0,4244.10246,4225.128102,4251.794768,4251.281947,4242.563999,4235.384512,4235.897332,4191.794769,3690.25632,4259.487075,4264.61528,4236.410153,4239.999896,4237.948614
12,0,4232.820409,4214.358871,4244.615281,4243.076819,4233.33323,4231.281948,4231.794768,4184.102462,3693.333243,4249.743486,4254.871691,4229.230666,4231.281948,4230.769127
13,0,4228.717845,4216.922974,4246.666563,4243.076819,4230.256307,4231.281948,4231.794768,4170.769129,3686.153756,4231.794768,4247.179383,4220.512717,4229.230666,4231.794768
14,0,4234.871691,4228.717845,4257.948614,4250.256306,4241.538358,4235.897332,4235.384512,4169.743488,3705.640935,4242.563999,4251.281947,4227.692204,4241.538358,4234.358871
15,0,4243.076819,4228.717845,4261.025537,4249.743486,4246.153742,4234.358871,4239.999896,4185.640923,3735.384524,4260.512716,4257.435793,4238.461435,4247.692204,4232.820409
16,0,4246.153742,4221.025538,4252.820409,4249.230665,4235.384512,4230.769127,4237.435794,4187.179385,3734.358883,4248.717845,4253.84605,4233.33323,4238.974255,4230.769127
17,0,4236.922973,4216.922974,4246.666563,4245.128101,4223.07682,4231.281948,4229.230666,4173.333231,3716.922986,4230.769127,4241.025537,4218.974256,4223.58964,4223.07682
18,0,4223.07682,4212.82041,4245.640922,4234.871691,4219.487076,4230.256307,4228.205025,4173.333231,3708.717858,4231.794768,4230.256307,4213.846051,4211.794769,4214.871692
19,0,4228.717845,4215.384512,4252.820409,4237.435794,4225.640922,4228.717845,4232.307589,4179.999898,3701.025551,4239.999896,4231.281948,4224.102461,4213.33323,4217.948615
20,0,4238.974255,4223.58964,4262.563998,4248.205024,4230.769127,4231.281948,4230.256307,4172.30759,3695.897346,4242.051178,4240.512717,4234.358871,4223.58964,4225.640922
21,0,4233.33323,4221.025538,4263.076819,4249.743486,4227.179384,4234.871691,4226.666563,4164.102462,3702.564012,4234.358871,4245.128101,4227.179384,4224.102461,4225.640922
22,0,4227.692204,4215.897333,4255.384511,4246.153742,4222.563999,4233.84605,4227.692204,4165.640924,3715.897345,4229.743486,4242.051178,4214.871692,4219.999897,4217.435794
23,0,4233.84605,4219.487076,4250.256306,4246.666563,4228.205025,4229.743486,4229.230666,4165.640924,3733.333242,4239.487076,4237.948614,4219.999897,4221.538358,4215.384512
24,0,4234.871691,4224.102461,4248.717845,4246.153742,4232.820409,4228.205025,4225.128102,4160.512719,3746.666575,4241.025537,4236.410153,4230.769127,4222.563999,4215.384512
25,0,4229.743486,4223.58964,4248.205024,4243.076819,4225.128102,4229.230666,4216.922974,4157.948616,3749.743498,4228.717845,4237.435794,4226.666563,4221.025538,4212.82041
26,0,4233.33323,4223.07682,4249.743486,4243.076819,4221.538358,4228.717845,4217.435794,4164.615283,3749.743498,4229.230666,4241.025537,4217.435794,4221.538358,4226.666563
27,0,4241.538358,4222.563999,4248.717845,4246.153742,4225.128102,4229.230666,4227.179384,4164.102462,3735.384524,4238.461435,4239.999896,4218.461435,4218.974256,4238.974255
28,0,4237.948614,4223.58964,4247.179383,4248.717845,4230.256307,4233.84605,4229.743486,4153.333232,3708.717858,4231.794768,4233.84605,4220.512717,4216.410153,4222.051179
29,0,4228.205025,4225.128102,4249.230665,4246.666563,4230.256307,4233.84605,4226.153743,4153.333232,3698.461448,4217.948615,4230.769127,4216.922974,4214.871692,4207.692205
30,0,4228.717845,4225.640922,4248.717845,4245.128101,4227.692204,4229.230666,4225.128102,4164.102462,3708.717858,4219.999897,4227.692204,4213.33323,4210.256307,4219.487076
31,0,4228.205025,4222.051179,4247.179383,4244.615281,4224.615281,4228.717845,4223.58964,4166.153744,3712.820422,4225.128102,4228.717845,4213.33323,4208.717846,4220.512717
32,0,4228.205025,4221.538358,4252.820409,4245.128101,4225.640922,4231.281948,4221.538358,4169.743488,3719.487089,4223.58964,4234.871691,4223.07682,4217.435794,4213.33323
33,0,4239.999896,4223.07682,4257.435793,4246.153742,4225.640922,4230.769127,4222.051179,4174.358872,3725.128114,4220.512717,4234.871691,4231.794768,4220.512717,4223.07682
34,0,4239.999896,4219.999897,4251.281947,4243.58964,4219.999897,4228.717845,4219.487076,4165.128103,3716.922986,4223.58964,4228.717845,4221.538358,4208.717846,4224.615281
35,0,4227.692204,4216.922974,4249.230665,4241.538358,4219.487076,4228.717845,4216.410153,4157.435796,3721.02555,4228.205025,4229.230666,4215.384512,4204.615282,4213.846051
36,0,4239.487076,4224.102461,4264.10246,4247.692204,4230.769127,4232.307589,4226.153743,4168.717847,3735.384524,4235.897332,4244.615281,4232.820409,4223.58964,4227.179384
37,0,4255.384511,4231.794768,4275.897331,4254.871691,4235.384512,4236.410153,4232.820409,4179.999898,3718.461448,4249.230665,4253.84605,4242.051178,4234.871691,4243.58964
38,0,4235.384512,4223.58964,4269.230665,4248.205024,4225.128102,4231.281948,4222.051179,4175.897334,3679.99991,4247.692204,4238.461435,4227.179384,4218.461435,4232.307589
39,0,4217.435794,4210.769128,4255.897332,4237.948614,4219.999897,4225.640922,4215.897333,4172.820411,3656.410167,4235.897332,4223.58964,4221.538358,4205.640923,4214.871692
40,0,4226.666563,4212.307589,4252.820409,4236.410153,4225.640922,4229.230666,4227.692204,4182.564,3647.179398,4239.487076,4233.84605,4230.769127,4212.82041,4211.794769
41,0,4233.84605,4219.487076,4261.025537,4239.487076,4227.692204,4231.794768,4235.384512,4178.974257,3629.23068,4245.640922,4246.666563,4233.33323,4223.58964,4225.128102
42,0,4238.461435,4220.512717,4264.61528,4242.051178,4225.640922,4228.717845,4226.153743,4163.076821,3614.871706,4240.512717,4242.051178,4230.256307,4226.153743,4245.128101
43,0,4250.769127,4220.512717,4262.051178,4245.128101,4227.692204,4230.256307,4218.974256,4166.666565,3631.281962,4245.640922,4242.051178,4229.743486,4226.153743,4245.128101
44,0,4251.794768,4229.230666,4265.128101,4247.692204,4230.769127,4233.84605,4222.051179,4181.538359,3664.615295,4255.897332,4252.820409,4232.307589,4227.692204,4228.205025
45,0,4238.974255,4235.897332,4265.640921,4248.717845,4227.179384,4231.281948,4223.07682,4183.589641,3687.179397,4257.948614,4258.461434,4233.84605,4232.307589,4228.717845
46,0,4230.256307,4230.256307,4255.384511,4245.128101,4220.512717,4228.205025,4217.948615,4178.461436,3694.358884,4263.589639,4249.743486,4230.769127,4227.179384,4230.769127
47,0,4235.384512,4225.640922,4249.230665,4243.076819,4221.538358,4229.743486,4219.487076,4177.435795,3699.487089,4255.897332,4242.051178,4223.58964,4221.025538,4223.07682
48,0,4244.10246,4226.153743,4255.897332,4248.205024,4226.153743,4230.769127,4229.230666,4181.538359,3704.615294,4233.33323,4243.076819,4220.512717,4222.051179,4224.615281
49,0,4243.58964,4225.128102,4257.435793,4247.179383,4227.179384,4230.256307,4229.230666,4182.564,3711.281961,4233.84605,4242.563999,4225.640922,4223.58964,4225.640922
50,0,4236.410153,4223.07682,4251.794768,4241.025537,4225.640922,4231.794768,4221.538358,4176.410154,3711.794781,4240.512717,4238.461435,4227.692204,4221.025538,4214.871692
51,0,4233.33323,4225.640922,4248.717845,4243.58964,4226.666563,4232.820409,4217.435794,4171.281949,3712.307602,4234.358871,4236.922973,4219.999897,4219.487076,4212.82041
52,0,4233.33323,4226.666563,4248.717845,4246.153742,4226.153743,4227.179384,4218.461435,4170.256308,3724.102473,4236.922973,4242.563999,4218.974256,4223.58964,4218.461435
53,0,4236.410153,4225.128102,4250.769127,4242.051178,4225.128102,4224.102461,4225.640922,4182.564,3754.358883,4250.769127,4251.281947,4228.717845,4232.307589,4219.487076
54,0,4234.871691,4222.563999,4249.230665,4236.922973,4220.512717,4224.615281,4228.205025,4195.897333,3776.922985,4252.307588,4253.84605,4229.230666,4235.384512,4223.58964
55,0,4227.692204,4215.384512,4246.153742,4233.84605,4218.461435,4221.538358,4222.051179,4183.589641,3758.461447,4241.025537,4245.640922,4222.051179,4226.666563,4229.743486
56,0,4219.487076,4211.794769,4244.10246,4232.307589,4218.974256,4216.410153,4217.435794,4160.512719,3721.538371,4222.051179,4233.84605,4213.33323,4215.897333,4224.102461
57,0,4213.846051,4210.769128,4238.461435,4232.307589,4214.358871,4216.410153,4217.435794,4156.410155,3706.666576,4212.82041,4227.692204,4204.102461,4211.281948,4209.230666
58,0,4218.461435,4208.205025,4236.410153,4231.794768,4206.153743,4220.512717,4213.33323,4161.025539,3714.358884,4216.410153,4229.743486,4206.666564,4208.205025,4202.051179
59,0,4227.179384,4210.769128,4243.58964,4238.461435,4213.33323,4227.179384,4213.846051,4163.589642,3722.564012,4214.358871,4236.922973,4218.461435,4214.358871,4219.999897
60,0,4226.666563,4217.435794,4249.743486,4249.230665,4226.153743,4231.794768,4224.102461,4168.717847,3717.435807,4210.769128,4238.461435,4217.435794,4219.999897,4240.512717
61,0,4229.230666,4222.051179,4248.205024,4243.58964,4226.153743,4228.717845,4226.153743,4170.256308,3695.897346,4212.307589,4236.410153,4213.846051,4214.871692,4232.307589
62,0,4236.410153,4224.615281,4240.512717,4233.84605,4224.102461,4227.179384,4226.153743,4170.769129,3679.48709,4214.358871,4239.999896,4216.922974,4214.871692,4221.025538
63,0,4230.256307,4222.563999,4236.922973,4236.410153,4226.666563,4229.230666,4227.692204,4179.999898,3679.48709,4227.692204,4255.897332,4216.922974,4223.58964,4228.717845
64,0,4230.256307,4222.563999,4242.051178,4241.025537,4226.666563,4226.666563,4222.563999,4191.794769,3675.897346,4252.307588,4264.10246,4218.461435,4229.743486,4235.897332
65,0,4239.487076,4228.205025,4248.717845,4242.051178,4225.640922,4224.102461,4215.384512,4182.05118,3646.666577,4251.281947,4250.256306,4222.051179,4229.230666,4237.435794
66,0,4239.999896,4229.230666,4248.717845,4245.640922,4223.58964,4227.692204,4213.33323,4154.871693,3603.589655,4226.666563,4277.948613,4221.025538,4227.692204,4236.922973
67,0,4238.461435,4220.512717,4245.640922,4239.999896,4218.974256,4230.769127,4215.897333,4153.333232,3583.076835,4219.487076,4238.461435,4222.563999,4226.666563,4233.33323
68,0,4234.871691,4214.358871,4242.563999,4228.717845,4216.410153,4226.666563,4219.999897,4170.769129,3590.256322,4231.281948,4012.307594,4222.563999,4222.563999,4232.820409
69,0,4229.743486,4218.974256,4244.615281,4234.871691,4214.871692,4225.128102,4226.153743,4175.897334,3589.743502,4239.487076,3827.179394,4223.07682,4221.538358,4235.384512
70,0,4242.051178,4230.256307,4252.820409,4249.230665,4217.948615,4229.743486,4229.743486,4182.564,3588.20504,4242.563999,3859.487085,4232.820409,4231.281948,4241.538358
71,0,4253.84605,4228.717845,4253.333229,4249.230665,4224.102461,4232.820409,4228.205025,4188.717846,3596.410168,4241.025537,3913.333238,4237.948614,4235.384512,4247.692204
72,0,4243.076819,4222.051179,4248.205024,4246.153742,4227.692204,4230.769127,4225.128102,4182.05118,3597.94863,4248.205024,3889.743495,4232.307589,4230.256307,4248.717845
73,0,4241.025537,4230.256307,4253.333229,4247.692204,4232.307589,4231.281948,4229.230666,4181.538359,3607.179399,4262.051178,3908.717853,4235.384512,4237.948614,4244.615281
74,0,4250.256306,4237.435794,4257.948614,4244.615281,4233.84605,4234.871691,4233.84605,4188.717846,3631.281962,4261.025537,3950.256314,4241.538358,4247.692204,4244.615281
75,0,4243.58964,4229.743486,4247.179383,4235.384512,4224.102461,4232.307589,4224.615281,4176.410154,3632.820424,4254.871691,3952.307596,4233.33323,4235.384512,4241.538358
76,0,4238.461435,4227.692204,4238.974255,4230.769127,4223.58964,4229.743486,4221.025538,4159.487078,3629.23068,4256.410152,3951.794775,4226.666563,4227.692204,4235.897332
77,0,4250.769127,4237.435794,4245.128101,4236.922973,4235.384512,4232.307589,4231.794768,4167.179385,3664.615295,4242.563999,3963.076826,4226.666563,4237.948614,4241.025537
78,0,4256.410152,4238.461435,4247.179383,4239.999896,4233.33323,4233.33323,4232.307589,4177.948616,3708.717858,4225.640922,3979.999903,4223.58964,4239.999896,4243.076819
79,0,4238.974255,4231.794768,4243.58964,4234.358871,4225.128102,4230.769127,4225.128102,4177.435795,3742.051191,4239.487076,3987.17939,4217.948615,4235.897332,4237.435794
80,0,4224.102461,4229.743486,4247.179383,4230.769127,4231.281948,4231.794768,4230.256307,4175.384513,3784.615292,4251.281947,4001.025543,4217.948615,4237.435794,4244.10246
81,0,4239.999896,4229.743486,4247.179383,4231.281948,4235.384512,4232.820409,4231.281948,4179.487077,3825.640932,4243.076819,4030.769132,4224.615281,4239.487076,4256.922973
82,0,4259.999896,4229.230666,4245.640922,4233.84605,4229.743486,4230.256307,4221.538358,4182.564,3845.128111,4250.256306,4055.897337,4233.33323,4241.538358,4252.820409
83,0,4252.820409,4227.692204,4246.666563,4235.897332,4230.256307,4230.769127,4218.461435,4179.487077,3849.230675,4253.84605,4115.897335,4231.794768,4239.487076,4236.922973
84,0,4235.384512,4228.205025,4243.076819,4234.358871,4231.794768,4230.769127,4219.999897,4174.358872,3835.384522,4228.717845,4220.512717,4221.538358,4231.281948,4228.205025
85,0,4223.58964,4229.743486,4235.897332,4230.769127,4227.692204,4227.692204,4217.948615,4173.333231,3815.384522,4215.384512,4282.563998,4214.871692,4227.179384,4230.256307
86,0,4219.487076,4224.102461,4237.948614,4230.769127,4226.666563,4228.205025,4221.025538,4175.897334,3802.051189,4224.615281,4277.435793,4214.358871,4230.769127,4243.076819
87,0,4228.205025,4218.461435,4243.076819,4227.179384,4231.281948,4229.743486,4227.692204,4174.871693,3779.999908,4227.692204,4277.948613,4215.384512,4232.307589,4247.179383
88,0,4233.33323,4216.410153,4238.974255,4224.102461,4228.717845,4228.205025,4229.230666,4174.871693,3745.128114,4226.153743,4287.692203,4217.435794,4231.281948,4232.820409
89,0,4227.692204,4216.922974,4231.794768,4226.666563,4223.58964,4223.58964,4230.769127,4181.025539,3719.999909,4233.33323,4285.1281,4218.461435,4232.820409,4226.666563
90,0,4228.205025,4218.461435,4228.717845,4222.563999,4224.102461,4219.487076,4233.33323,4181.538359,3693.333243,4232.307589,4289.230664,4214.871692,4233.84605,4238.461435
91,0,4238.974255,4220.512717,4230.769127,4219.487076,4223.58964,4223.58964,4231.794768,4175.897334,3652.820423,4222.563999,4290.256305,4211.794769,4234.871691,4246.153742
92,0,4250.256306,4227.179384,4235.897332,4227.692204,4221.025538,4227.179384,4228.717845,4171.281949,3614.871706,4213.846051,4276.922972,4216.922974,4231.281948,4239.487076
93,0,4263.589639,4242.563999,4246.666563,4234.871691,4217.435794,4221.538358,4230.256307,4169.230667,3593.846066,4212.307589,4275.384511,4227.692204,4229.230666,4244.10246
94,0,4285.1281,4258.974255,4254.871691,4233.84605,4214.358871,4218.461435,4230.256307,4161.53836,3578.974271,4212.307589,4281.025536,4231.281948,4235.384512,4271.281947
95,0,4326.15374,4275.384511,4255.897332,4240.512717,4213.33323,4220.512717,4223.58964,4159.487078,3563.076836,4210.769128,4279.999895,4232.820409,4243.58964,4308.205023
96,0,4375.384508,4300.512715,4261.025537,4248.717845,4212.82041,4218.461435,4218.461435,4167.179385,3554.358887,4211.281948,4284.61528,4243.076819,4251.794768,4340.512714
97,0,4409.743482,4326.666561,4277.435793,4248.717845,4215.897333,4216.922974,4216.922974,4161.025539,3543.076836,4206.666564,4290.769126,4259.487075,4261.538357,4366.66656
98,0,4446.153737,4343.589637,4287.692203,4257.435793,4218.974256,4219.487076,4214.871692,4146.153745,3537.948631,4199.487077,4285.1281,4274.87169,4268.717844,4396.922969
99,0,4479.48707,4357.435791,4287.692203,4271.794767,4213.33323,4219.487076,4207.692205,4144.102463,3543.589657,4191.794769,4282.051177,4276.922972,4266.666562,4416.922969
100,0,4487.179377,4364.102457,4287.692203,4271.281947,4205.640923,4217.948615,4202.564,4144.102463,3541.025554,4175.897334,4284.102459,4265.640921,4254.871691,4415.384507
101,0,4486.153736,4358.461432,4286.153741,4262.051178,4208.205025,4217.948615,4207.179384,4135.897335,3537.435811,4172.820411,4274.87169,4258.461434,4246.153742,4407.179379
102,0,4489.230659,4352.820406,4278.974254,4267.179383,4214.871692,4217.435794,4213.846051,4139.487078,3546.66658,4189.743487,4269.230665,4255.384511,4251.794768,4406.153738
103,0,4463.076814,4342.563996,4273.333229,4263.589639,4213.33323,4216.922974,4213.846051,4146.153745,3548.205041,4183.076821,4273.333229,4248.205024,4249.743486,4389.743482
104,0,4424.615276,4327.692202,4271.794767,4247.692204,4205.640923,4215.897333,4211.794769,4146.666565,3550.256323,4175.897334,4271.281947,4249.743486,4236.922973,4363.589637
105,0,4420.512712,4318.974253,4277.435793,4253.84605,4208.717846,4217.435794,4216.922974,4154.358873,3570.769143,4203.07682,4271.281947,4260.512716,4242.051178,4363.076816
106,0,4414.358866,4311.794766,4279.487075,4265.128101,4218.461435,4218.461435,4220.512717,4162.564001,3581.538374,4207.692205,4273.846049,4256.922973,4249.743486,4365.640919
107,0,4377.43579,4292.820408,4272.820408,4254.35887,4215.384512,4218.461435,4218.461435,4158.461437,3576.922989,4177.948616,4265.128101,4242.051178,4233.84605,4338.461432
108,0,4348.205022,4273.846049,4264.10246,4246.153742,4209.230666,4218.974256,4217.435794,4156.410155,3595.384527,4178.461436,4256.410152,4236.410153,4225.640922,4303.076818
109,0,4335.384509,4264.61528,4251.794768,4249.230665,4210.256307,4217.948615,4217.435794,4161.025539,3625.128116,4203.07682,4256.922973,4234.871691,4231.794768,4287.179382
110,0,4310.769125,4255.384511,4238.974255,4239.487076,4214.358871,4215.897333,4215.384512,4163.076821,3637.435808,4197.435795,4254.871691,4225.128102,4225.640922,4282.051177
111,0,4281.538357,4241.538358,4235.897332,4226.666563,4214.871692,4215.384512,4213.33323,4162.564001,3646.666577,4185.128103,4248.717845,4212.82041,4216.922974,4271.794767
112,0,4270.769126,4232.307589,4236.922973,4229.743486,4212.307589,4216.410153,4216.410153,4163.076821,3665.640936,4204.102461,4245.640922,4205.640923,4218.974256,4254.35887
113,0,4270.256306,4230.769127,4236.922973,4235.384512,4211.794769,4216.410153,4218.461435,4163.076821,3679.48709,4223.07682,4248.717845,4209.743487,4223.58964,4237.948614
114,0,4258.461434,4225.128102,4238.461435,4233.33323,4211.281948,4216.922974,4216.922974,4164.615283,3692.307602,4216.922974,4257.435793,4217.435794,4226.153743,4241.538358
115,0,4246.666563,4217.948615,4235.384512,4229.743486,4212.307589,4215.384512,4215.897333,4165.128103,3712.820422,4205.128102,4254.35887,4214.358871,4226.153743,4251.794768
116,0,4250.769127,4221.538358,4236.922973,4231.281948,4220.512717,4218.461435,4217.948615,4167.179385,3737.948627,4214.871692,4246.153742,4213.846051,4224.615281,4248.205024
117,0,4252.307588,4225.128102,4244.10246,4234.871691,4222.051179,4226.153743,4220.512717,4172.820411,3769.230677,4224.615281,4246.666563,4220.512717,4222.051179,4238.974255
118,0,4240.512717,4218.974256,4240.512717,4233.33323,4211.281948,4225.640922,4218.974256,4174.871693,3801.538369,4214.871692,4246.666563,4214.871692,4217.435794,4233.84605
119,0,4234.358871,4223.07682,4241.025537,4231.281948,4216.410153,4225.128102,4221.538358,4176.922975,3826.666573,4214.871692,4248.205024,4211.281948,4223.07682,4233.33323
120,0,4235.897332,4228.205025,4252.307588,4233.33323,4230.769127,4229.743486,4230.769127,4181.538359,3834.871701,4226.666563,4256.922973,4229.230666,4233.84605,4236.410153
121,0,4234.871691,4213.33323,4250.769127,4232.307589,4222.051179,4221.538358,4230.256307,4174.871693,3822.564009,4217.435794,4253.333229,4230.256307,4226.153743,4238.461435
122,0,4231.281948,4206.153743,4243.58964,4230.256307,4215.897333,4215.384512,4224.102461,4161.025539,3807.179394,4195.897333,4243.58964,4212.82041,4214.358871,4233.33323
123,0,4226.153743,4215.897333,4243.076819,4228.717845,4225.640922,4224.102461,4229.230666,4170.769129,3811.281958,4203.07682,4245.128101,4212.307589,4217.948615,4219.999897
124,0,4212.82041,4211.281948,4240.512717,4230.256307,4219.999897,4226.666563,4232.820409,4188.205026,3815.897343,4219.487076,4242.563999,4214.358871,4217.435794,4213.33323
125,0,4206.666564,4199.999897,4230.769127,4229.743486,4212.82041,4218.461435,4229.230666,4188.717846,3805.128112,4216.922974,4232.307589,4201.538359,4208.717846,4214.871692
126,0,4208.717846,4204.102461,4228.205025,4222.563999,4221.025538,4216.922974,4230.256307,4188.717846,3791.794779,4208.717846,4228.717845,4200.512718,4207.179384,4206.666564
127,0,4205.640923,4208.205025,4231.794768,4218.461435,4223.07682,4223.07682,4232.307589,4192.30759,3772.3076,4211.794769,4232.820409,4213.846051,4215.897333,4197.435795
128,0,4200.512718,4200.512718,4230.256307,4220.512717,4216.922974,4226.666563,4231.794768,4186.153744,3748.205037,4223.58964,4235.897332,4216.410153,4222.563999,4204.102461
0,0,4200.512718,4197.948615,4228.205025,4219.487076,4218.461435,4224.102461,4231.794768,4182.05118,3732.820422,4230.256307,4237.948614,4208.205025,4222.563999,4218.461435
1,0,4194.358872,4197.435795,4225.640922,4216.410153,4219.487076,4218.461435,4231.281948,4190.769128,3716.410166,4221.538358,4241.538358,4199.487077,4216.410153,4216.922974
2,0,4189.230667,4195.897333,4218.974256,4217.948615,4219.999897,4219.487076,4229.743486,4194.358872,3690.769141,4217.435794,4242.563999,4197.435795,4212.307589,4200.512718
3,0,4192.82041,4199.487077,4213.846051,4219.487076,4221.538358,4222.051179,4231.281948,4190.769128,3658.97427,4229.230666,4236.922973,4201.538359,4214.871692,4194.871692
4,0,4184.102462,4204.102461,4215.384512,4216.922974,4214.358871,4218.974256,4232.820409,4191.281949,3627.179398,4227.179384,4227.692204,4202.564,4211.281948,4196.922974
5,0,4173.333231,4204.102461,4216.922974,4215.384512,4209.230666,4217.948615,4232.307589,4193.846051,3600.512732,4209.230666,4226.153743,4200.512718,4202.564,4191.794769
6,0,4182.564,4196.922974,4214.358871,4214.358871,4210.256307,4217.435794,4231.281948,4193.333231,3576.410169,4211.281948,4226.153743,4199.487077,4197.948615,4192.82041
7,0,4187.692205,4187.179385,4213.33323,4215.384512,4205.640923,4215.897333,4229.230666,4187.179385,3552.307605,4228.205025,4221.025538,4199.999897,4195.897333,4201.538359
8,0,4178.974257,4183.589641,4214.871692,4216.410153,4207.179384,4214.871692,4228.205025,4176.922975,3534.871708,4217.435794,4221.538358,4198.461436,4193.333231,4198.461436
9,0,4183.076821,4191.794769,4215.897333,4217.435794,4217.948615,4216.410153,4230.256307,4176.922975,3531.281965,4201.538359,4230.256307,4197.435795,4194.871692,4194.871692
10,0,4198.974256,4198.974256,4215.384512,4218.974256,4215.384512,4218.461435,4228.205025,4182.05118,3535.384529,4217.948615,4234.358871,4202.051179,4196.410154,4203.589641
11,0,4194.871692,4202.564,4216.922974,4219.999897,4209.230666,4218.461435,4220.512717,4179.487077,3547.692221,4234.358871,4232.820409,4206.153743,4192.82041,4204.102461
12,0,4178.461436,4203.589641,4222.051179,4221.025538,4214.358871,4218.461435,4217.435794,4175.897334,3563.589656,4226.666563,4230.769127,4204.102461,4184.102462,4201.025538
13,0,4186.666564,4202.564,4218.974256,4216.922974,4210.769128,4216.410153,4218.974256,4182.564,3581.538374,4217.948615,4225.128102,4201.025538,4175.384513,4202.051179
14,0,4207.692205,4203.07682,4213.846051,4217.435794,4203.589641,4215.384512,4217.948615,4186.153744,3603.076835,4222.563999,4223.58964,4200.512718,4173.846052,4206.153743
15,0,4208.717846,4207.692205,4221.025538,4226.153743,4215.384512,4215.897333,4218.974256,4183.589641,3625.128116,4230.769127,4229.743486,4203.07682,4175.384513,4214.358871
16,0,4197.948615,4210.769128,4232.307589,4231.794768,4227.179384,4216.922974,4226.153743,4182.564,3632.820424,4236.922973,4234.871691,4211.281948,4176.922975,4214.871692
17,0,4198.461436,4209.230666,4233.84605,4228.205025,4219.999897,4218.461435,4226.153743,4181.538359,3633.333244,4235.897332,4238.461435,4218.461435,4179.487077,4203.589641
18,0,4202.051179,4201.538359,4227.179384,4221.025538,4210.769128,4218.974256,4222.051179,4177.435795,3641.538372,4227.179384,4238.974255,4215.384512,4174.358872,4202.564
19,0,4205.128102,4197.435795,4227.179384,4217.948615,4213.846051,4218.461435,4224.615281,4177.948616,3650.256321,4225.128102,4234.871691,4215.897333,4168.717847,4213.33323
20,0,4202.051179,4203.07682,4228.205025,4221.538358,4216.410153,4218.461435,4224.615281,4178.974257,3637.435808,4226.666563,4232.820409,4216.922974,4170.769129,4210.769128
21,0,4188.205026,4206.153743,4221.538358,4222.051179,4215.897333,4218.974256,4215.897333,4172.820411,3610.769142,4222.051179,4232.307589,4205.640923,4166.666565,4199.487077
22,0,4183.076821,4198.461436,4218.974256,4217.948615,4218.974256,4217.948615,4216.410153,4172.820411,3599.999912,4218.461435,4230.769127,4202.051179,4159.487078,4197.435795
23,0,4191.281949,4195.897333,4227.692204,4224.615281,4221.538358,4218.974256,4224.615281,4179.999898,3600.512732,4224.102461,4229.743486,4211.281948,4162.05118,4202.564
24,0,4201.538359,4207.692205,4233.84605,4234.358871,4225.640922,4224.615281,4223.07682,4180.512718,3588.717861,4229.230666,4236.410153,4215.897333,4166.666565,4210.256307
25,0,4211.281948,4215.897333,4233.33323,4230.769127,4233.84605,4228.717845,4221.025538,4178.461436,3576.410169,4230.256307,4243.076819,4224.102461,4172.820411,4217.948615
26,0,4208.717846,4209.743487,4233.33323,4229.230666,4234.871691,4226.153743,4225.128102,4183.076821,3576.410169,4230.769127,4243.076819,4233.84605,4175.897334,4218.974256
27,0,4190.769128,4201.538359,4231.794768,4229.743486,4226.153743,4225.128102,4225.640922,4183.076821,3568.717861,4230.256307,4240.512717,4224.615281,4168.717847,4216.922974
28,0,4193.846051,4206.153743,4228.205025,4223.58964,4225.640922,4231.281948,4222.563999,4176.922975,3556.410169,4228.205025,4239.487076,4213.846051,4166.153744,4212.307589
29,0,4204.102461,4208.717846,4222.051179,4222.051179,4227.692204,4232.307589,4217.948615,4172.820411,3547.1794,4224.615281,4229.230666,4214.871692,4173.333231,4201.538359
30,0,4192.30759,4206.153743,4215.897333,4221.538358,4225.640922,4225.640922,4215.897333,4167.179385,3534.871708,4221.025538,4219.999897,4206.153743,4175.897334,4196.922974
31,0,4188.717846,4208.717846,4217.435794,4215.897333,4223.07682,4221.538358,4215.384512,4162.564001,3523.076837,4213.33323,4226.153743,4196.922974,4166.153744,4202.051179
32,0,4196.410154,4209.743487,4218.461435,4217.435794,4222.051179,4220.512717,4215.384512,4169.230667,3515.384529,4216.410153,4233.84605,4206.153743,4160.512719,4203.07682
33,0,4188.717846,4208.717846,4216.922974,4222.563999,4223.58964,4217.948615,4216.410153,4172.820411,3500.512735,4225.128102,4232.820409,4218.461435,4159.999898,4198.461436
34,0,4193.846051,4212.307589,4220.512717,4219.999897,4225.128102,4216.410153,4218.974256,4172.30759,3490.769145,4225.640922,4232.820409,4214.358871,4158.974257,4202.051179
35,0,4212.307589,4216.922974,4227.179384,4224.102461,4221.025538,4225.128102,4218.974256,4176.410154,3489.743504,4233.33323,4232.820409,4206.666564,4160.512719,4212.307589
36,0,4211.281948,4216.922974,4230.769127,4231.794768,4216.922974,4229.230666,4218.461435,4171.79477,3481.538376,4242.563999,4234.358871,4212.307589,4162.05118,4219.487076
37,0,4200.512718,4212.307589,4228.717845,4223.07682,4214.871692,4219.999897,4217.435794,4161.025539,3469.230684,4230.769127,4234.358871,4218.461435,4156.410155,4217.948615
38,0,4190.769128,4207.692205,4222.051179,4213.33323,4214.871692,4215.384512,4218.461435,4164.102462,3466.153761,4209.743487,4225.640922,4211.794769,4147.692206,4207.692205
39,0,4177.435795,4199.999897,4213.846051,4214.358871,4212.82041,4218.974256,4217.948615,4167.692206,3469.230684,4206.666564,4213.846051,4198.461436,4138.974258,4200.512718
40,0,4180.512718,4197.435795,4208.205025,4218.461435,4213.33323,4216.922974,4214.358871,4157.948616,3476.410171,4206.153743,4214.358871,4187.692205,4135.897335,4201.538359
41,0,4192.30759,4204.102461,4209.743487,4218.461435,4217.435794,4212.82041,4214.871692,4157.435796,3487.692222,4206.153743,4218.461435,4182.564,4144.102463,4197.948615
42,0,4186.666564,4208.717846,4213.846051,4217.948615,4220.512717,4216.922974,4220.512717,4166.666565,3501.025555,4220.512717,4215.897333,4185.640923,4149.743488,4184.102462
43,0,4174.358872,4206.666564,4215.384512,4215.384512,4217.948615,4218.974256,4224.102461,4173.333231,3518.974273,4226.666563,4219.487076,4187.692205,4149.230668,4184.102462
44,0,4178.461436,4204.102461,4214.358871,4214.358871,4215.897333,4214.358871,4224.615281,4176.922975,3531.794785,4218.974256,4224.615281,4186.666564,4150.769129,4196.922974
45,0,4197.948615,4206.666564,4215.897333,4216.410153,4216.922974,4216.410153,4228.205025,4179.487077,3534.871708,4219.999897,4225.640922,4192.30759,4156.922975,4204.102461
46,0,4216.922974,4210.769128,4219.999897,4219.999897,4219.487076,4226.153743,4231.281948,4181.538359,3539.487093,4226.153743,4226.153743,4195.384513,4161.53836,4201.025538
47,0,4195.384513,4211.794769,4221.025538,4218.974256,4223.07682,4224.615281,4225.128102,4178.461436,3537.435811,4224.102461,4222.051179,4193.333231,4155.897334,4189.230667
48,0,4157.435796,4203.589641,4218.461435,4212.82041,4217.948615,4214.871692,4214.871692,4168.205026,3518.974273,4218.461435,4213.33323,4192.30759,4148.717847,4187.179385
49,0,4177.435795,4202.051179,4215.384512,4211.281948,4210.256307,4215.384512,4214.358871,4165.128103,3514.358888,4224.102461,4214.871692,4187.179385,4154.871693,4203.07682
50,0,4214.871692,4211.794769,4214.871692,4217.948615,4211.794769,4221.538358,4219.999897,4169.743488,3522.564016,4224.102461,4220.512717,4181.025539,4159.487078,4204.615282
51,0,4200.512718,4212.82041,4215.897333,4217.948615,4213.33323,4218.461435,4218.461435,4170.769129,3518.461452,4214.871692,4214.871692,4185.128103,4152.820411,4190.256308
52,0,4183.589641,4205.640923,4213.846051,4212.82041,4207.179384,4214.358871,4215.897333,4173.333231,3516.922991,4208.717846,4209.230666,4188.205026,4149.743488,4190.769128
53,0,4205.128102,4212.82041,4214.871692,4216.410153,4213.846051,4221.538358,4221.538358,4186.153744,3537.435811,4215.897333,4218.974256,4185.640923,4155.384514,4204.615282
54,0,4206.666564,4226.666563,4228.205025,4221.538358,4232.307589,4229.230666,4233.33323,4196.922974,3555.384528,4232.820409,4229.743486,4193.333231,4166.666565,4212.82041
55,0,4194.358872,4224.102461,4238.461435,4218.461435,4230.256307,4224.102461,4232.307589,4190.256308,3556.410169,4239.999896,4226.666563,4203.589641,4170.256308,4210.256307
56,0,4204.102461,4210.769128,4226.153743,4216.410153,4210.769128,4213.846051,4218.461435,4177.948616,3559.999913,4222.051179,4215.384512,4202.051179,4155.897334,4198.974256
57,0,4213.846051,4213.33323,4215.384512,4218.974256,4209.230666,4213.846051,4215.384512,4183.589641,3585.640938,4213.33323,4213.846051,4194.871692,4149.230668,4197.435795
58,0,4203.07682,4220.512717,4218.974256,4217.948615,4218.974256,4218.974256,4223.07682,4192.30759,3604.102476,4230.769127,4217.435794,4189.743487,4156.410155,4206.666564
59,0,4178.974257,4209.743487,4217.435794,4212.307589,4212.307589,4216.922974,4219.487076,4181.025539,3598.46145,4222.051179,4209.230666,4183.589641,4150.256309,4196.922974
60,0,4176.922975,4199.999897,4210.769128,4211.281948,4204.615282,4214.871692,4213.846051,4170.256308,3597.94863,4193.333231,4200.512718,4181.538359,4142.051181,4182.05118
61,0,4194.871692,4206.153743,4213.33323,4215.897333,4214.871692,4217.948615,4221.025538,4172.30759,3608.71786,4198.974256,4201.538359,4189.743487,4148.717847,4187.179385
62,0,4191.281949,4212.82041,4215.897333,4217.435794,4225.128102,4218.974256,4225.640922,4175.897334,3612.820424,4214.871692,4207.179384,4189.230667,4151.79477,4191.281949
63,0,4184.102462,4212.307589,4214.871692,4217.948615,4223.58964,4219.487076,4221.538358,4176.410154,3619.487091,4213.33323,4210.769128,4182.05118,4149.743488,4190.769128
64,0,4196.922974,4211.794769,4214.358871,4217.948615,4221.538358,4218.461435,4218.974256,4176.922975,3631.794783,4210.769128,4211.281948,4187.692205,4152.307591,4196.410154
65,0,4203.589641,4215.384512,4215.897333,4217.948615,4223.07682,4217.948615,4221.538358,4178.461436,3639.999911,4211.794769,4214.358871,4201.538359,4157.435796,4200.512718
66,0,4206.666564,4225.128102,4223.58964,4222.051179,4228.205025,4224.615281,4227.692204,4187.179385,3654.871705,4227.692204,4228.205025,4214.358871,4170.256308,4205.640923
67,0,4213.33323,4225.128102,4233.33323,4224.615281,4227.179384,4228.205025,4232.307589,4192.82041,3665.128116,4242.051178,4233.33323,4215.384512,4179.487077,4216.922974
68,0,4206.666564,4216.922974,4231.794768,4216.922974,4217.948615,4220.512717,4227.692204,4189.743487,3663.076834,4227.179384,4222.051179,4204.102461,4172.30759,4218.461435
69,0,4206.666564,4223.07682,4224.102461,4214.358871,4219.999897,4216.922974,4223.58964,4184.102462,3663.589654,4216.410153,4219.999897,4202.564,4165.640924,4214.358871
70,0,4217.435794,4231.794768,4218.974256,4219.487076,4230.256307,4221.538358,4231.281948,4185.128103,3673.333244,4228.205025,4225.128102,4209.743487,4171.79477,4215.897333
71,0,4211.794769,4226.153743,4215.384512,4218.974256,4227.179384,4223.58964,4233.33323,4189.743487,3689.230679,4226.666563,4217.435794,4201.538359,4174.871693,4215.384512
72,0,4203.07682,4225.640922,4219.487076,4217.435794,4225.128102,4226.153743,4229.230666,4192.82041,3706.153756,4229.230666,4214.358871,4195.384513,4172.820411,4212.307589
73,0,4202.051179,4229.743486,4223.07682,4219.999897,4230.256307,4227.692204,4228.205025,4188.205026,3713.333243,4239.487076,4217.948615,4207.179384,4173.846052,4207.179384
74,0,4201.025538,4224.615281,4220.512717,4218.974256,4227.692204,4221.025538,4226.666563,4178.461436,3708.717858,4225.640922,4216.922974,4209.230666,4176.410154,4203.589641
75,0,4203.07682,4221.025538,4216.922974,4213.846051,4217.948615,4217.948615,4226.666563,4172.820411,3703.076833,4206.666564,4217.435794,4204.615282,4173.846052,4211.794769
76,0,4203.07682,4222.051179,4218.974256,4212.307589,4217.435794,4219.487076,4229.230666,4179.487077,3714.358884,4212.82041,4219.487076,4212.307589,4168.717847,4216.922974
77,0,4203.07682,4221.538358,4222.563999,4216.922974,4225.128102,4218.974256,4227.692204,4187.179385,3739.487088,4228.717845,4222.563999,4218.461435,4173.333231,4213.846051
78,0,4208.717846,4223.58964,4222.563999,4220.512717,4229.230666,4217.948615,4223.07682,4183.589641,3753.846062,4233.84605,4228.717845,4217.435794,4184.615282,4215.897333
79,0,4213.33323,4224.615281,4223.07682,4216.922974,4223.58964,4217.948615,4220.512717,4189.743487,3767.179395,4229.743486,4224.615281,4216.410153,4183.076821,4217.948615
80,0,4217.948615,4224.102461,4229.230666,4214.871692,4222.563999,4218.461435,4218.461435,4198.974256,3792.3076,4230.769127,4218.974256,4217.948615,4180.512718,4217.435794
81,0,4214.358871,4226.153743,4231.281948,4217.435794,4225.640922,4218.461435,4217.435794,4183.589641,3799.487087,4229.230666,4227.179384,4225.640922,4188.205026,4221.025538
82,0,4208.717846,4222.563999,4221.025538,4217.435794,4214.871692,4215.384512,4216.922974,4165.640924,3793.333241,4216.922974,4227.179384,4231.794768,4184.615282,4218.461435
83,0,4215.384512,4217.435794,4211.794769,4215.897333,4207.179384,4210.256307,4215.897333,4171.79477,3809.743497,4214.871692,4215.897333,4221.538358,4170.256308,4213.33323
84,0,4215.897333,4218.974256,4217.435794,4213.846051,4222.051179,4212.82041,4217.948615,4179.487077,3835.384522,4223.07682,4217.948615,4213.33323,4176.922975,4221.538358
85,0,4209.230666,4223.07682,4222.563999,4214.871692,4234.358871,4218.461435,4220.512717,4178.461436,3854.871701,4220.512717,4222.563999,4216.410153,4190.769128,4228.205025
86,0,4213.846051,4226.153743,4219.999897,4218.461435,4227.692204,4217.948615,4219.487076,4178.461436,3873.846059,4216.922974,4216.922974,4218.974256,4186.666564,4220.512717
87,0,4213.846051,4224.102461,4214.358871,4214.871692,4219.487076,4215.897333,4215.897333,4179.487077,3886.666572,4220.512717,4217.435794,4218.461435,4182.05118,4217.435794
88,0,4206.153743,4216.922974,4209.230666,4209.743487,4218.974256,4215.897333,4213.846051,4177.435795,3893.333238,4221.538358,4222.051179,4213.846051,4182.564,4221.025538
89,0,4210.256307,4218.461435,4210.769128,4210.256307,4223.07682,4217.948615,4222.563999,4185.640923,3911.281956,4228.205025,4221.025538,4217.435794,4184.615282,4223.58964
90,0,4215.384512,4226.666563,4222.563999,4212.307589,4228.717845,4219.999897,4233.33323,4195.897333,3925.64093,4234.871691,4224.615281,4230.769127,4189.743487,4225.640922
91,0,4212.307589,4228.205025,4225.128102,4207.692205,4232.820409,4217.948615,4231.281948,4191.794769,3919.487084,4225.640922,4225.640922,4227.179384,4188.717846,4223.58964
92,0,4205.640923,4216.410153,4211.281948,4203.07682,4227.692204,4213.846051,4225.128102,4179.487077,3904.615289,4210.769128,4206.153743,4204.102461,4177.948616,4213.33323
93,0,4209.230666,4212.82041,4208.205025,4208.717846,4225.640922,4216.410153,4227.179384,4176.922975,3886.153751,4209.230666,4193.846051,4204.102461,4175.384513,4211.281948
94,0,4221.538358,4221.538358,4219.487076,4214.871692,4230.256307,4221.025538,4229.743486,4177.435795,3862.051188,4211.794769,4207.179384,4221.538358,4183.589641,4222.563999
95,0,4213.846051,4222.051179,4217.948615,4212.307589,4229.230666,4219.999897,4228.205025,4173.333231,3849.743496,4206.666564,4219.999897,4219.999897,4183.589641,4225.640922
96,0,4197.435795,4213.33323,4211.281948,4210.769128,4223.07682,4218.461435,4227.692204,4173.846052,3857.948624,4215.897333,4216.922974,4212.82041,4183.076821,4217.435794
97,0,4207.179384,4212.82041,4215.384512,4211.794769,4226.153743,4217.435794,4228.205025,4177.948616,3855.897342,4231.281948,4212.82041,4218.461435,4187.692205,4215.897333
98,0,4220.512717,4217.948615,4217.435794,4208.205025,4233.33323,4215.897333,4229.230666,4182.05118,3838.461445,4228.717845,4218.974256,4224.102461,4194.871692,4218.974256
99,0,4221.538358,4219.999897,4213.33323,4206.666564,4229.230666,4217.948615,4229.230666,4186.666564,3831.281958,4221.538358,4224.615281,4218.461435,4195.384513,4221.025538
100,0,4217.435794,4219.487076,4217.435794,4207.179384,4225.128102,4222.051179,4229.230666,4190.256308,3829.743496,4223.07682,4222.051179,4216.410153,4190.769128,4222.563999
101,0,4202.564,4214.871692,4225.640922,4207.692205,4227.692204,4222.563999,4228.205025,4188.205026,3815.384522,4222.051179,4217.948615,4218.974256,4192.82041,4221.025538
102,0,4197.435795,4214.358871,4218.974256,4213.846051,4226.666563,4219.487076,4224.615281,4179.487077,3797.948625,4218.461435,4214.871692,4221.538358,4199.487077,4218.974256
103,0,4219.999897,4220.512717,4214.871692,4218.974256,4224.102461,4216.922974,4218.461435,4176.410154,3791.794779,4219.487076,4215.384512,4228.717845,4201.025538,4223.58964
104,0,4241.538358,4226.153743,4223.07682,4217.948615,4226.153743,4217.948615,4217.435794,4186.666564,3804.102471,4225.128102,4228.205025,4234.871691,4204.615282,4233.33323
105,0,4232.307589,4225.128102,4227.179384,4217.435794,4227.179384,4218.974256,4222.563999,4192.30759,3821.025548,4225.128102,4235.897332,4230.769127,4209.743487,4236.922973
106,0,4217.948615,4222.563999,4224.615281,4214.871692,4225.640922,4216.922974,4226.666563,4180.512718,3822.051189,4228.717845,4223.07682,4221.538358,4207.692205,4226.666563
107,0,4216.922974,4223.58964,4225.640922,4210.769128,4227.692204,4219.487076,4226.153743,4170.769129,3814.871702,4232.820409,4214.358871,4223.58964,4204.102461,4211.794769
108,0,4223.07682,4226.666563,4225.640922,4214.871692,4231.281948,4224.102461,4223.07682,4175.384513,3829.743496,4233.84605,4227.692204,4232.307589,4208.717846,4217.948615
109,0,4232.820409,4228.205025,4223.07682,4218.974256,4235.384512,4220.512717,4218.974256,4178.461436,3849.230675,4239.487076,4238.461435,4231.794768,4212.82041,4238.461435
110,0,4236.922973,4231.794768,4228.205025,4219.487076,4238.974255,4217.948615,4217.948615,4183.589641,3862.564008,4255.384511,4237.435794,4233.33323,4217.435794,4241.538358
111,0,4232.307589,4227.692204,4228.205025,4215.897333,4229.230666,4219.999897,4220.512717,4196.410154,3886.153751,4254.871691,4233.84605,4236.410153,4218.974256,4226.153743
112,0,4224.102461,4215.897333,4217.948615,4212.82041,4220.512717,4218.461435,4216.922974,4191.281949,3889.230674,4231.281948,4224.102461,4226.153743,4209.743487,4227.692204
113,0,4218.974256,4218.461435,4215.384512,4214.871692,4226.153743,4214.871692,4216.922974,4173.333231,3863.076829,4213.846051,4214.871692,4215.384512,4198.461436,4233.84605
114,0,4218.461435,4228.717845,4218.461435,4216.410153,4229.230666,4219.487076,4227.179384,4176.410154,3861.538367,4217.435794,4215.384512,4214.871692,4197.435795,4221.538358
115,0,4221.025538,4221.025538,4216.922974,4214.358871,4225.128102,4224.102461,4226.666563,4185.128103,3883.076828,4229.230666,4219.999897,4216.922974,4204.102461,4218.461435
116,0,4219.999897,4211.281948,4217.435794,4213.846051,4224.102461,4220.512717,4217.435794,4179.487077,3884.102469,4231.794768,4221.025538,4226.153743,4207.179384,4230.256307
117,0,4221.025538,4219.999897,4227.179384,4217.435794,4225.128102,4221.538358,4221.538358,4185.640923,3888.717854,4230.256307,4224.615281,4234.871691,4205.128102,4231.794768
118,0,4231.794768,4230.256307,4231.794768,4221.025538,4230.256307,4227.179384,4230.769127,4196.410154,3912.307597,4237.435794,4224.615281,4229.230666,4203.589641,4226.666563
119,0,4234.358871,4229.230666,4230.256307,4221.538358,4238.974255,4229.743486,4231.281948,4191.794769,3920.512725,4241.025537,4218.974256,4224.615281,4205.640923,4230.256307
120,0,4228.205025,4224.615281,4232.307589,4219.487076,4232.307589,4228.717845,4230.256307,4188.205026,3918.461443,4230.769127,4225.128102,4232.307589,4208.205025,4233.33323
121,0,4230.769127,4223.58964,4232.820409,4217.948615,4218.974256,4226.666563,4228.717845,4188.717846,3927.692212,4225.128102,4235.384512,4236.410153,4205.640923,4226.153743
122,0,4233.84605,4223.07682,4225.640922,4218.461435,4222.051179,4221.025538,4226.153743,4184.615282,3935.89734,4225.640922,4232.307589,4229.743486,4201.538359,4223.58964
123,0,4229.743486,4220.512717,4215.897333,4219.487076,4222.563999,4215.384512,4225.128102,4183.076821,3939.487083,4224.615281,4220.512717,4218.461435,4198.974256,4231.794768
124,0,4223.07682,4218.461435,4215.384512,4217.435794,4211.281948,4216.922974,4222.563999,4181.538359,3938.461442,4218.974256,4214.358871,4215.897333,4196.922974,4230.256307
125,0,4224.102461,4222.563999,4223.07682,4214.871692,4213.33323,4217.435794,4221.538358,4174.358872,3927.179391,4212.82041,4216.410153,4218.974256,4197.948615,4221.538358
126,0,4235.384512,4230.769127,4227.692204,4217.435794,4219.487076,4215.384512,4220.512717,4168.717847,3911.794776,4202.051179,4211.794769,4214.871692,4196.922974,4227.179384
127,0,4253.333229,4242.563999,4227.692204,4225.128102,4214.358871,4214.871692,4216.410153,4168.205026,3899.999905,4192.82041,4204.102461,4217.435794,4199.487077,4242.051178
128,0,4276.410152,4256.922973,4229.743486,4227.179384,4209.230666,4216.922974,4217.435794,4166.666565,3889.230674,4192.30759,4209.230666,4230.256307,4203.07682,4250.769127
0,0,4307.692202,4273.846049,4237.948614,4227.692204,4214.871692,4218.461435,4217.435794,4165.128103,3886.153751,4192.82041,4217.435794,4235.384512,4205.640923,4268.717844
1,0,4349.743483,4301.025536,4249.230665,4239.487076,4220.512717,4218.974256,4215.384512,4165.640924,3892.820418,4202.051179,4217.948615,4239.999896,4212.82041,4303.076818
2,0,4394.358867,4332.820407,4261.538357,4255.384511,4224.615281,4225.640922,4223.07682,4177.435795,3909.230674,4215.897333,4224.615281,4258.974255,4229.743486,4336.41015
3,0,4427.179379,4350.769124,4270.769126,4262.563998,4226.153743,4230.769127,4226.666563,4186.666564,3920.512725,4217.435794,4238.974255,4271.794767,4238.461435,4356.92297
4,0,4446.153737,4353.333227,4270.769126,4263.589639,4218.974256,4230.769127,4218.461435,4172.820411,3903.589648,4207.692205,4242.563999,4268.717844,4234.871691,4370.256303
5,0,4454.358865,4353.846047,4265.640921,4265.640921,4213.846051,4231.281948,4216.410153,4156.410155,3876.922982,4199.487077,4235.897332,4265.640921,4236.410153,4375.897329
6,0,4448.205019,4351.281945,4266.666562,4259.999896,4218.461435,4226.153743,4222.051179,4157.948616,3880.512726,4199.999897,4232.307589,4265.640921,4234.871691,4363.076816
7,0,4438.97425,4347.179381,4271.281947,4253.333229,4218.461435,4216.922974,4221.538358,4162.564001,3895.38452,4204.615282,4233.84605,4267.179383,4227.179384,4347.179381
8,0,4433.333225,4343.589637,4267.179383,4255.897332,4214.871692,4216.922974,4217.948615,4162.05118,3890.256315,4205.640923,4228.205025,4263.589639,4221.025538,4342.563996
9,0,4418.46143,4335.384509,4259.999896,4259.999896,4219.487076,4221.538358,4219.999897,4173.333231,3888.205033,4198.461436,4224.102461,4252.307588,4217.435794,4337.948612
10,0,4402.563995,4319.487074,4257.435793,4256.410152,4217.435794,4218.461435,4219.999897,4183.076821,3891.794777,4203.589641,4228.205025,4246.153742,4219.487076,4327.692202
11,0,4382.051175,4304.102459,4250.769127,4247.179383,4210.256307,4216.922974,4219.487076,4178.461436,3879.999905,4209.743487,4226.153743,4250.769127,4219.487076,4303.076818
12,0,4344.615278,4292.307587,4247.179383,4237.948614,4217.435794,4219.487076,4221.538358,4177.435795,3860.512726,4201.025538,4214.871692,4246.153742,4211.281948,4274.35887
13,0,4316.410151,4277.948613,4245.128101,4233.84605,4222.563999,4219.487076,4222.563999,4181.538359,3846.153752,4195.897333,4210.256307,4233.84605,4203.589641,4264.10246
14,0,4304.102459,4259.487075,4236.922973,4232.307589,4212.82041,4216.410153,4218.974256,4179.487077,3828.205035,4203.589641,4210.256307,4226.153743,4197.435795,4258.461434
15,0,4292.307587,4250.769127,4231.794768,4231.281948,4210.769128,4215.384512,4216.410153,4178.461436,3809.230676,4217.948615,4212.307589,4223.58964,4197.948615,4246.666563
16,0,4290.256305,4252.307588,4235.897332,4231.281948,4218.461435,4217.435794,4216.410153,4182.05118,3792.3076,4222.051179,4219.487076,4224.615281,4208.205025,4245.640922
17,0,4282.051177,4246.666563,4232.307589,4229.230666,4217.948615,4216.922974,4217.948615,4182.05118,3770.769139,4216.922974,4215.384512,4223.07682,4210.256307,4241.538358
18,0,4243.58964,4234.871691,4221.025538,4224.102461,4215.384512,4214.871692,4218.974256,4179.487077,3746.666575,4213.846051,4206.666564,4217.435794,4198.461436,4217.435794
19,0,4226.153743,4235.384512,4217.948615,4226.153743,4220.512717,4217.948615,4219.487076,4179.487077,3739.487088,4213.846051,4215.384512,4216.922974,4199.999897,4212.307589
20,0,4244.10246,4235.384512,4216.922974,4228.717845,4219.487076,4219.487076,4217.435794,4179.487077,3738.974268,4201.538359,4219.999897,4219.487076,4206.153743,4227.179384
21,0,4246.153742,4227.692204,4216.410153,4222.563999,4214.358871,4217.948615,4213.846051,4181.025539,3726.666576,4195.897333,4208.205025,4213.846051,4197.948615,4219.999897
22,0,4232.307589,4229.230666,4223.07682,4225.640922,4219.487076,4217.435794,4216.410153,4191.794769,3729.230678,4215.384512,4208.205025,4213.846051,4195.897333,4202.051179
23,0,4218.974256,4231.281948,4223.58964,4226.666563,4225.640922,4217.948615,4223.58964,4198.461436,3742.564011,4216.410153,4208.205025,4214.358871,4201.025538,4196.922974
24,0,4206.666564,4221.025538,4215.897333,4217.435794,4222.051179,4215.897333,4222.051179,4187.179385,3731.794781,4198.461436,4193.846051,4202.051179,4195.897333,4192.30759
25,0,4210.769128,4219.487076,4216.922974,4223.07682,4222.051179,4215.384512,4215.384512,4176.922975,3718.461448,4205.640923,4195.384513,4194.358872,4194.358872,4185.128103
26,0,4221.025538,4229.230666,4217.948615,4235.384512,4227.179384,4216.922974,4217.948615,4179.487077,3730.76914,4220.512717,4213.846051,4198.974256,4208.205025,4189.230667
27,0,4209.230666,4230.256307,4215.384512,4230.256307,4224.615281,4219.999897,4223.58964,4176.922975,3736.922986,4218.974256,4213.33323,4206.666564,4215.384512,4199.487077
28,0,4206.666564,4228.205025,4221.538358,4224.615281,4225.640922,4223.58964,4222.563999,4175.384513,3731.794781,4223.07682,4209.230666,4215.897333,4211.281948,4205.640923
29,0,4219.999897,4226.666563,4225.640922,4226.666563,4227.179384,4221.538358,4219.999897,4181.025539,3735.897345,4215.897333,4212.82041,4222.051179,4206.666564,4197.435795
30,0,4214.871692,4221.538358,4216.410153,4219.999897,4219.999897,4217.435794,4215.897333,4178.974257,3742.564011,4190.769128,4206.666564,4215.897333,4202.564,4185.128103
31,0,4197.948615,4213.33323,4212.307589,4215.384512,4218.974256,4218.461435,4213.33323,4175.897334,3755.897344,4200.512718,4199.999897,4206.666564,4201.538359,4184.615282
32,0,4180.512718,4206.153743,4214.871692,4218.974256,4223.07682,4219.999897,4213.846051,4183.589641,3762.564011,4228.717845,4203.589641,4203.589641,4202.564,4182.05118
33,0,4177.435795,4204.102461,4211.794769,4216.922974,4217.948615,4217.948615,4215.897333,4190.769128,3745.640934,4219.487076,4208.205025,4201.025538,4201.538359,4170.769129
34,0,4198.461436,4208.205025,4211.281948,4216.922974,4216.410153,4216.922974,4224.102461,4198.974256,3741.53837,4208.717846,4208.717846,4204.615282,4205.128102,4178.974257
35,0,4206.666564,4209.230666,4217.435794,4218.461435,4223.07682,4218.974256,4229.230666,4203.07682,3755.897344,4225.128102,4205.640923,4207.692205,4210.256307,4190.769128
36,0,4186.666564,4206.666564,4218.974256,4214.358871,4222.051179,4218.974256,4222.563999,4191.794769,3754.358883,4224.102461,4200.512718,4205.640923,4206.666564,4179.487077
37,0,4178.461436,4206.153743,4214.358871,4214.871692,4213.33323,4218.461435,4215.897333,4178.461436,3739.487088,4203.589641,4200.512718,4197.948615,4198.461436,4168.717847
38,0,4191.794769,4205.128102,4211.281948,4216.410153,4215.384512,4218.974256,4218.461435,4182.564,3745.640934,4206.666564,4206.153743,4194.871692,4197.948615,4170.769129
39,0,4189.743487,4205.640923,4213.33323,4214.358871,4224.102461,4217.948615,4218.974256,4189.230667,3765.128113,4226.153743,4209.743487,4205.640923,4204.615282,4167.179385
40,0,4184.615282,4211.794769,4217.948615,4222.563999,4227.692204,4217.948615,4216.410153,4188.717846,3771.79478,4232.307589,4213.846051,4215.384512,4214.358871,4172.820411
41,0,4196.410154,4217.948615,4220.512717,4232.307589,4226.153743,4221.538358,4219.487076,4187.692205,3765.640934,4233.33323,4218.461435,4215.384512,4218.974256,4190.769128
42,0,4204.102461,4216.922974,4217.948615,4222.051179,4222.563999,4221.025538,4218.974256,4183.589641,3758.461447,4231.794768,4222.563999,4213.846051,4216.922974,4190.769128
43,0,4194.358872,4207.692205,4213.33323,4210.769128,4218.974256,4215.384512,4217.435794,4182.05118,3763.589652,4227.692204,4219.999897,4209.743487,4215.384512,4178.461436
44,0,4184.102462,4200.512718,4207.179384,4214.871692,4213.33323,4214.871692,4221.538358,4190.256308,3776.410164,4233.84605,4214.871692,4204.102461,4215.384512,4174.871693
45,0,4189.743487,4202.564,4206.666564,4217.948615,4212.307589,4218.974256,4222.051179,4191.281949,3782.56401,4239.999896,4218.461435,4206.666564,4214.358871,4180.512718
46,0,4193.333231,4210.256307,4213.846051,4214.871692,4223.07682,4219.999897,4218.461435,4182.05118,3783.589651,4230.769127,4219.487076,4214.358871,4217.948615,4187.179385
47,0,4183.589641,4209.743487,4217.948615,4214.871692,4228.717845,4219.999897,4219.487076,4180.512718,3799.999907,4223.58964,4211.281948,4218.461435,4221.538358,4191.281949
48,0,4176.410154,4198.461436,4213.846051,4215.897333,4214.871692,4221.025538,4219.487076,4174.358872,3816.410163,4220.512717,4204.615282,4211.794769,4211.281948,4182.564
49,0,4185.640923,4194.358872,4208.717846,4214.871692,4207.179384,4216.922974,4215.384512,4166.666565,3825.640932,4214.871692,4204.102461,4199.487077,4203.07682,4176.922975
50,0,4192.82041,4207.692205,4212.82041,4215.897333,4218.974256,4216.410153,4217.435794,4177.435795,3858.974265,4225.128102,4210.769128,4200.512718,4212.82041,4187.692205
51,0,4187.179385,4219.487076,4219.999897,4220.512717,4224.615281,4222.051179,4219.487076,4191.794769,3902.564007,4242.051178,4227.179384,4217.948615,4225.640922,4199.487077
52,0,4191.281949,4214.871692,4223.58964,4221.538358,4222.051179,4221.538358,4217.948615,4196.922974,3921.025545,4238.974255,4238.974255,4230.256307,4230.769127,4205.128102
53,0,4205.128102,4216.410153,4226.153743,4219.487076,4227.692204,4217.435794,4221.025538,4197.948615,3931.281955,4236.922973,4236.410153,4233.33323,4236.922973,4208.717846
54,0,4206.153743,4221.538358,4224.615281,4223.07682,4230.256307,4221.538358,4222.051179,4189.230667,3945.640929,4244.10246,4233.84605,4228.205025,4239.487076,4204.102461
55,0,4201.025538,4221.025538,4217.948615,4230.256307,4230.256307,4230.769127,4217.435794,4179.999898,3954.358878,4245.640922,4236.410153,4222.051179,4236.410153,4199.487077
56,0,4198.974256,4221.025538,4217.948615,4232.820409,4231.281948,4231.281948,4214.871692,4181.025539,3953.846057,4239.999896,4232.820409,4222.563999,4231.794768,4202.051179
57,0,4201.538359,4223.07682,4225.128102,4226.666563,4227.179384,4225.640922,4214.871692,4184.102462,3951.281955,4231.794768,4230.769127,4224.102461,4230.256307,4202.564
58,0,4203.07682,4217.435794,4225.640922,4222.563999,4224.615281,4223.58964,4215.384512,4184.615282,3950.256314,4230.256307,4234.358871,4223.58964,4231.281948,4197.435795
59,0,4194.871692,4210.256307,4226.153743,4223.58964,4228.717845,4222.051179,4216.922974,4188.205026,3951.281955,4236.410153,4233.33323,4223.58964,4232.307589,4196.410154
60,0,4185.640923,4209.230666,4226.666563,4219.999897,4222.051179,4219.999897,4217.948615,4193.333231,3951.794775,4242.563999,4229.743486,4225.640922,4233.33323,4196.410154
61,0,4195.897333,4207.179384,4223.07682,4214.871692,4213.33323,4218.974256,4217.435794,4195.897333,3945.640929,4245.128101,4235.897332,4231.281948,4238.461435,4200.512718
62,0,4208.717846,4205.128102,4219.487076,4215.897333,4217.435794,4218.974256,4216.410153,4196.410154,3937.948622,4246.153742,4244.615281,4234.358871,4238.974255,4205.128102
63,0,4197.435795,4206.153743,4222.051179,4219.487076,4223.58964,4219.487076,4218.974256,4198.974256,3931.281955,4239.999896,4239.999896,4229.230666,4232.307589,4203.07682
64,0,4182.05118,4204.615282,4225.128102,4217.435794,4222.051179,4220.512717,4229.230666,4198.974256,3914.871699,4231.281948,4224.102461,4220.512717,4223.58964,4195.897333
65,0,4179.487077,4194.358872,4217.435794,4214.358871,4212.307589,4219.999897,4229.230666,4183.076821,3882.051187,4226.666563,4211.281948,4209.230666,4213.33323,4185.640923
66,0,4184.615282,4192.30759,4209.230666,4213.846051,4213.33323,4216.410153,4219.999897,4173.846052,3866.666572,4219.999897,4216.410153,4203.589641,4213.846051,4182.05118
67,0,4192.30759,4206.153743,4214.358871,4216.922974,4224.102461,4216.922974,4220.512717,4181.025539,3870.256316,4216.922974,4229.230666,4214.358871,4222.563999,4193.333231
68,0,4196.410154,4212.82041,4220.512717,4218.461435,4226.153743,4219.999897,4227.692204,4190.256308,3874.35888,4229.230666,4235.384512,4220.512717,4225.128102,4207.692205
69,0,4186.153744,4201.538359,4217.435794,4212.82041,4216.922974,4219.487076,4225.640922,4191.281949,3876.410162,4234.358871,4227.692204,4215.384512,4219.999897,4203.07682
70,0,4178.461436,4198.461436,4218.974256,4212.307589,4217.948615,4217.435794,4217.435794,4181.538359,3869.743495,4216.410153,4217.435794,4215.384512,4218.461435,4186.153744
71,0,4192.30759,4206.153743,4225.640922,4217.435794,4226.153743,4219.999897,4216.410153,4173.846052,3863.076829,4214.358871,4222.051179,4218.974256,4220.512717,4188.205026
72,0,4199.999897,4207.179384,4219.487076,4215.897333,4222.563999,4221.538358,4223.58964,4185.640923,3885.640931,4235.384512,4235.897332,4218.974256,4223.58964,4205.128102
73,0,4192.30759,4203.07682,4212.82041,4213.33323,4221.025538,4217.948615,4229.743486,4196.410154,3911.281956,4233.33323,4233.84605,4217.948615,4225.128102,4208.205025
74,0,4191.794769,4205.128102,4217.948615,4216.410153,4230.256307,4219.487076,4227.692204,4189.230667,3912.307597,4222.563999,4228.205025,4217.948615,4224.102461,4201.025538
75,0,4200.512718,4212.82041,4226.153743,4219.487076,4236.410153,4229.743486,4228.717845,4188.205026,3919.999904,4238.461435,4236.410153,4226.666563,4226.153743,4202.564
76,0,4202.564,4215.897333,4229.230666,4218.974256,4236.410153,4234.358871,4231.281948,4192.30759,3931.281955,4253.333229,4242.051178,4233.84605,4228.717845,4201.538359
77,0,4199.999897,4211.281948,4226.153743,4217.435794,4233.33323,4224.615281,4222.051179,4178.974257,3913.333238,4236.922973,4234.871691,4224.102461,4224.102461,4199.999897
78,0,4200.512718,4205.128102,4217.435794,4216.922974,4228.717845,4218.974256,4216.922974,4178.461436,3905.64093,4222.051179,4229.230666,4213.33323,4217.435794,4209.230666
79,0,4195.384513,4211.281948,4213.33323,4219.999897,4230.256307,4224.615281,4225.128102,4198.461436,3920.512725,4230.769127,4232.820409,4216.410153,4219.487076,4208.717846
80,0,4184.615282,4213.846051,4218.461435,4216.410153,4234.871691,4224.615281,4227.692204,4200.512718,3906.153751,4231.794768,4232.820409,4221.538358,4219.487076,4194.358872
81,0,4175.897334,4195.897333,4214.871692,4203.07682,4218.461435,4214.358871,4217.948615,4185.128103,3871.281957,4212.82041,4224.102461,4212.82041,4205.128102,4183.076821
82,0,4178.974257,4186.153744,4201.538359,4204.102461,4199.487077,4210.769128,4212.307589,4178.974257,3856.410162,4210.769128,4220.512717,4204.615282,4202.564,4178.974257
83,0,4194.871692,4203.07682,4202.051179,4217.435794,4211.281948,4215.897333,4213.846051,4174.358872,3847.179393,4225.640922,4226.153743,4209.230666,4214.871692,4186.153744
84,0,4203.589641,4219.999897,4215.384512,4219.487076,4227.692204,4217.435794,4214.871692,4173.846052,3824.615291,4224.615281,4230.256307,4216.922974,4217.948615,4200.512718
85,0,4196.922974,4219.487076,4218.461435,4214.358871,4226.153743,4217.435794,4215.384512,4185.128103,3809.230676,4224.615281,4230.256307,4217.948615,4216.922974,4204.102461
86,0,4184.102462,4213.846051,4214.871692,4214.358871,4221.538358,4218.974256,4216.410153,4187.692205,3793.333241,4227.179384,4231.281948,4214.358871,4222.051179,4198.974256
87,0,4183.589641,4210.769128,4214.871692,4213.846051,4223.58964,4217.948615,4216.922974,4181.025539,3765.128113,4219.487076,4232.820409,4214.871692,4219.999897,4198.461436
88,0,4197.435795,4213.33323,4217.948615,4214.358871,4226.153743,4218.461435,4217.948615,4181.538359,3742.564011,4221.538358,4232.820409,4213.846051,4213.33323,4199.999897
89,0,4204.102461,4217.435794,4217.435794,4218.974256,4225.128102,4219.999897,4218.974256,4183.076821,3725.128114,4232.307589,4226.666563,4208.205025,4214.871692,4203.07682
90,0,4188.717846,4212.307589,4217.435794,4216.922974,4222.563999,4218.974256,4217.948615,4177.948616,3692.307602,4221.025538,4215.384512,4202.564,4208.717846,4199.487077
91,0,4183.076821,4208.717846,4217.435794,4214.358871,4223.07682,4216.922974,4215.897333,4177.435795,3664.102475,4209.230666,4213.846051,4206.666564,4201.538359,4187.179385
92,0,4196.922974,4211.281948,4214.358871,4215.897333,4225.640922,4217.435794,4216.410153,4182.05118,3655.384526,4222.051179,4219.999897,4210.256307,4206.666564,4183.076821
93,0,4194.358872,4211.794769,4215.384512,4216.922974,4228.717845,4217.435794,4217.948615,4181.025539,3638.461449,4229.230666,4222.563999,4206.666564,4208.717846,4197.948615
94,0,4184.615282,4209.230666,4220.512717,4215.897333,4227.179384,4217.435794,4218.461435,4177.948616,3611.281963,4217.435794,4223.07682,4206.666564,4201.025538,4211.794769
95,0,4184.102462,4204.102461,4219.999897,4210.256307,4221.025538,4217.948615,4217.435794,4176.922975,3599.999912,4209.743487,4222.563999,4209.743487,4197.435795,4197.435795
96,0,4175.897334,4198.461436,4216.410153,4206.153743,4215.384512,4217.948615,4216.922974,4175.384513,3594.871707,4206.153743,4217.435794,4205.640923,4199.487077,4174.871693
97,0,4176.922975,4195.897333,4217.435794,4209.230666,4216.922974,4216.410153,4222.051179,4173.846052,3589.230681,4198.974256,4208.717846,4197.948615,4196.410154,4178.461436
98,0,4189.230667,4195.384513,4214.871692,4213.846051,4218.974256,4217.435794,4228.717845,4176.922975,3598.46145,4203.07682,4210.256307,4194.358872,4196.922974,4197.435795
99,0,4184.102462,4195.384513,4217.435794,4211.794769,4221.025538,4222.051179,4231.794768,4187.179385,3629.23068,4216.410153,4218.461435,4199.999897,4204.102461,4198.461436
100,0,4182.05118,4203.589641,4230.256307,4215.384512,4228.205025,4229.743486,4233.33323,4196.410154,3669.7435,4226.666563,4222.563999,4214.871692,4212.307589,4189.743487
101,0,4198.461436,4211.794769,4230.256307,4221.538358,4228.205025,4229.743486,4231.281948,4186.666564,3695.384525,4228.205025,4222.563999,4222.051179,4211.794769,4192.30759
102,0,4201.538359,4206.666564,4217.435794,4216.922974,4215.897333,4221.025538,4223.58964,4171.281949,3716.410166,4218.461435,4225.128102,4211.794769,4209.743487,4204.615282
103,0,4193.846051,4200.512718,4215.897333,4212.307589,4208.717846,4214.871692,4217.435794,4174.358872,3753.846062,4205.640923,4227.179384,4208.205025,4209.743487,4214.871692
104,0,4188.205026,4204.102461,4219.487076,4214.358871,4215.897333,4215.384512,4216.410153,4179.487077,3796.410164,4207.179384,4225.640922,4216.922974,4208.717846,4210.769128
105,0,4181.025539,4204.102461,4217.435794,4212.307589,4212.82041,4213.33323,4214.871692,4169.743488,3826.666573,4212.307589,4224.615281,4214.871692,4207.179384,4199.487077
106,0,4184.102462,4198.461436,4215.897333,4210.769128,4200.512718,4210.256307,4208.717846,4161.53836,3861.538367,4209.230666,4219.999897,4203.589641,4204.615282,4189.230667
107,0,4193.333231,4198.461436,4216.922974,4214.358871,4205.640923,4213.33323,4207.179384,4158.461437,3894.358879,4197.948615,4210.769128,4198.974256,4197.435795,4183.589641
108,0,4198.974256,4207.692205,4217.435794,4216.410153,4222.051179,4218.461435,4214.871692,4156.410155,3921.025545,4192.82041,4215.384512,4204.102461,4201.025538,4195.897333
109,0,4199.487077,4209.743487,4218.974256,4215.384512,4224.102461,4219.487076,4219.487076,4159.487078,3953.333237,4201.538359,4223.58964,4209.230666,4212.82041,4206.153743
110,0,4189.230667,4206.666564,4216.922974,4215.897333,4216.922974,4218.461435,4216.410153,4168.717847,3979.999903,4207.179384,4218.974256,4204.102461,4211.794769,4193.846051
111,0,4184.615282,4210.256307,4217.435794,4218.461435,4217.435794,4218.461435,4216.922974,4176.410154,3992.820415,4202.564,4218.974256,4201.538359,4209.230666,4189.743487
112,0,4200.512718,4212.82041,4218.974256,4219.487076,4217.435794,4216.922974,4220.512717,4182.05118,3998.461441,4210.256307,4229.743486,4209.230666,4218.461435,4205.640923
113,0,4205.128102,4203.07682,4215.384512,4214.871692,4211.794769,4214.871692,4218.974256,4185.640923,3998.461441,4217.948615,4229.743486,4205.128102,4219.999897,4205.640923
114,0,4195.384513,4201.025538,4213.33323,4211.281948,4212.307589,4213.33323,4216.922974,4182.05118,3983.589646,4207.179384,4225.128102,4195.384513,4213.33323,4194.871692
115,0,4195.384513,4212.307589,4214.871692,4215.897333,4213.846051,4213.846051,4217.948615,4173.333231,3960.512724,4205.640923,4225.128102,4198.974256,4217.435794,4196.922974
116,0,4198.461436,4214.871692,4214.358871,4221.025538,4213.846051,4217.435794,4217.948615,4172.30759,3946.15375,4214.358871,4221.025538,4201.025538,4223.07682,4205.128102
117,0,4196.410154,4208.717846,4213.33323,4218.974256,4219.999897,4220.512717,4216.922974,4179.999898,3935.89734,4206.666564,4217.948615,4196.410154,4221.538358,4202.051179
118,0,4189.230667,4207.692205,4215.897333,4214.871692,4221.538358,4217.435794,4217.435794,4176.922975,3911.281956,4198.974256,4221.538358,4201.025538,4219.999897,4197.948615
119,0,4196.410154,4210.256307,4216.410153,4215.897333,4216.410153,4214.871692,4219.487076,4175.384513,3894.8717,4207.179384,4226.666563,4204.102461,4222.051179,4201.538359
120,0,4208.717846,4207.179384,4213.33323,4216.922974,4213.846051,4216.410153,4219.999897,4185.640923,3903.589648,4207.692205,4227.179384,4202.564,4223.07682,4204.102461
121,0,4198.461436,4205.128102,4212.82041,4216.922974,4213.33323,4216.922974,4217.948615,4182.05118,3906.666571,4195.897333,4221.538358,4205.128102,4223.07682,4199.999897
122,0,4186.153744,4209.230666,4218.461435,4216.410153,4212.307589,4216.922974,4217.948615,4172.30759,3904.102469,4194.358872,4222.563999,4210.769128,4224.615281,4198.461436
123,0,4202.564,4210.256307,4220.512717,4216.410153,4209.743487,4215.897333,4218.461435,4172.820411,3910.256315,4206.666564,4231.281948,4212.82041,4224.102461,4201.025538
124,0,4214.358871,4209.230666,4219.487076,4214.871692,4208.205025,4212.82041,4214.358871,4169.230667,3914.871699,4207.692205,4231.794768,4214.871692,4224.615281,4205.128102
125,0,4205.128102,4214.871692,4223.07682,4217.948615,4215.384512,4213.846051,4212.307589,4165.640924,3917.948622,4202.051179,4226.666563,4214.871692,4230.256307,4212.82041
126,0,4206.666564,4220.512717,4224.615281,4226.666563,4222.051179,4218.974256,4216.410153,4174.871693,3918.461443,4214.358871,4229.230666,4211.794769,4232.820409,4217.435794
127,0,4208.717846,4218.974256,4221.538358,4224.615281,4222.563999,4219.999897,4219.487076,4181.025539,3907.179392,4222.051179,4234.358871,4213.846051,4230.769127,4211.794769
128,0,4205.128102,4217.435794,4219.999897,4217.948615,4223.07682,4218.974256,4218.974256,4175.897334,3888.205033,4199.487077,4228.717845,4216.922974,4228.717845,4199.487077
0,0,4207.692205,4218.974256,4219.487076,4217.435794,4225.640922,4219.999897,4223.07682,4181.538359,3879.487085,4191.281949,4227.179384,4214.358871,4231.281948,4196.922974
1,0,4206.666564,4214.871692,4217.435794,4219.487076,4224.102461,4221.025538,4230.256307,4193.846051,3879.487085,4217.435794,4236.922973,4213.846051,4236.922973,4208.717846
2,0,4203.589641,4213.33323,4218.974256,4217.948615,4222.051179,4221.025538,4231.794768,4196.922974,3874.8717,4234.871691,4242.563999,4217.435794,4241.025537,4213.33323
3,0,4204.615282,4215.897333,4220.512717,4217.948615,4220.512717,4221.538358,4230.769127,4195.897333,3853.84606,4223.07682,4234.358871,4216.922974,4234.358871,4202.051179
4,0,4201.538359,4213.33323,4215.897333,4217.435794,4219.999897,4218.461435,4230.769127,4199.999897,3840.512727,4213.846051,4229.230666,4215.384512,4226.666563,4198.974256
5,0,4195.384513,4207.179384,4214.358871,4213.846051,4219.487076,4215.897333,4229.743486,4194.358872,3836.410163,4211.794769,4230.256307,4214.871692,4226.153743,4200.512718
6,0,4197.435795,4207.179384,4216.410153,4214.358871,4215.384512,4217.948615,4227.179384,4180.512718,3822.564009,4209.743487,4229.230666,4208.205025,4227.692204,4193.846051
7,0,4203.589641,4212.307589,4212.82041,4215.384512,4214.358871,4218.974256,4231.281948,4187.692205,3818.461445,4211.794769,4232.307589,4201.025538,4232.307589,4193.333231
8,0,4201.025538,4210.256307,4210.256307,4214.871692,4217.948615,4216.410153,4230.769127,4198.461436,3825.640932,4212.82041,4231.281948,4203.07682,4230.769127,4196.410154
9,0,4190.769128,4207.692205,4213.846051,4213.33323,4213.846051,4214.358871,4222.051179,4192.30759,3819.487086,4212.307589,4224.615281,4204.615282,4224.615281,4188.205026
10,0,4191.794769,4208.205025,4218.461435,4213.846051,4208.717846,4216.410153,4219.487076,4185.128103,3807.692215,4215.384512,4220.512717,4200.512718,4221.025538,4183.076821
11,0,4199.999897,4211.794769,4217.435794,4216.410153,4217.435794,4219.487076,4223.07682,4184.102462,3801.538369,4211.281948,4221.538358,4201.025538,4224.615281,4194.358872
12,0,4198.974256,4211.281948,4212.82041,4215.897333,4226.666563,4220.512717,4220.512717,4177.948616,3785.128113,4198.461436,4222.563999,4203.589641,4226.153743,4200.512718
13,0,4197.435795,4206.666564,4209.230666,4213.33323,4220.512717,4216.922974,4215.384512,4175.384513,3770.769139,4197.435795,4226.153743,4201.538359,4221.538358,4192.30759
14,0,4202.051179,4211.794769,4211.281948,4214.358871,4213.846051,4214.358871,4215.897333,4175.384513,3764.615293,4201.538359,4225.128102,4199.999897,4220.512717,4188.717846
15,0,4194.871692,4214.358871,4215.384512,4214.871692,4214.358871,4215.897333,4216.410153,4173.333231,3758.461447,4199.487077,4218.974256,4206.153743,4221.025538,4189.230667
16,0,4184.615282,4203.07682,4214.871692,4211.794769,4209.230666,4215.897333,4220.512717,4181.025539,3764.102472,4206.666564,4218.461435,4210.769128,4215.384512,4191.794769
17,0,4203.07682,4209.743487,4219.999897,4215.384512,4208.205025,4215.897333,4223.07682,4195.384513,3785.640933,4219.487076,4222.563999,4213.33323,4215.384512,4207.692205
18,0,4228.717845,4236.410153,4228.205025,4221.538358,4216.410153,4217.435794,4221.538358,4195.384513,3791.794779,4215.897333,4226.666563,4219.487076,4222.051179,4219.999897
19,0,4224.615281,4242.051178,4230.769127,4219.487076,4218.461435,4218.461435,4221.538358,4189.230667,3781.025549,4206.153743,4228.205025,4224.615281,4219.999897,4213.33323
20,0,4206.153743,4227.692204,4227.692204,4214.358871,4211.794769,4217.435794,4223.58964,4194.358872,3770.769139,4208.717846,4222.051179,4214.871692,4209.743487,4200.512718
21,0,4194.871692,4223.07682,4219.487076,4213.33323,4211.281948,4216.410153,4222.051179,4190.769128,3749.230678,4208.205025,4211.794769,4201.025538,4202.051179,4192.30759
22,0,4192.82041,4224.102461,4214.358871,4214.358871,4213.33323,4217.948615,4222.563999,4170.769129,3711.794781,4195.897333,4208.205025,4198.461436,4197.435795,4184.102462
23,0,4203.589641,4229.230666,4216.922974,4216.922974,4214.871692,4219.487076,4228.205025,4164.615283,3682.051192,4189.230667,4208.717846,4196.410154,4195.384513,4185.640923
24,0,4209.230666,4234.358871,4211.281948,4219.487076,4218.461435,4216.922974,4228.717845,4175.384513,3662.564013,4193.333231,4205.640923,4191.794769,4195.897333,4191.281949
25,0,4191.281949,4225.128102,4203.07682,4211.794769,4214.871692,4213.846051,4219.999897,4183.589641,3644.615295,4195.897333,4203.589641,4194.871692,4195.384513,4177.948616
26,0,4178.461436,4217.948615,4210.769128,4203.589641,4207.692205,4216.410153,4216.410153,4185.128103,3634.358885,4198.461436,4206.153743,4204.102461,4197.948615,4171.79477
27,0,4191.794769,4222.563999,4217.435794,4208.205025,4207.179384,4218.461435,4224.102461,4189.743487,3625.128116,4204.102461,4213.846051,4204.615282,4202.051179,4185.640923
28,0,4207.179384,4226.153743,4212.82041,4215.384512,4211.281948,4216.410153,4229.230666,4189.743487,3605.640937,4205.128102,4220.512717,4199.999897,4204.102461,4194.871692
29,0,4209.743487,4222.563999,4214.871692,4213.33323,4210.256307,4217.435794,4222.563999,4178.974257,3584.615297,4197.948615,4214.358871,4202.564,4200.512718,4192.82041
30,0,4204.102461,4219.487076,4216.410153,4207.179384,4204.615282,4218.461435,4215.897333,4178.461436,3581.538374,4193.846051,4203.589641,4203.589641,4192.30759,4189.743487
31,0,4190.769128,4219.999897,4212.307589,4203.07682,4208.205025,4216.410153,4223.07682,4198.974256,3603.589655,4197.948615,4208.205025,4202.564,4192.82041,4186.153744
32,0,4183.589641,4220.512717,4210.256307,4201.538359,4220.512717,4216.410153,4234.358871,4213.846051,3636.922988,4204.102461,4218.461435,4203.07682,4201.025538,4184.615282
33,0,4188.717846,4216.922974,4208.205025,4204.102461,4216.410153,4215.897333,4233.84605,4207.179384,3665.128116,4207.692205,4216.410153,4203.07682,4200.512718,4187.179385
34,0,4195.897333,4214.871692,4202.051179,4205.640923,4202.564,4215.897333,4231.794768,4201.538359,3707.179397,4212.82041,4213.33323,4201.025538,4197.948615,4188.717846
35,0,4198.461436,4217.948615,4202.051179,4203.07682,4206.666564,4219.487076,4236.410153,4205.128102,3768.717857,4210.256307,4215.384512,4199.487077,4200.512718,4188.205026
36,0,4198.461436,4221.025538,4202.051179,4201.025538,4215.897333,4221.025538,4234.871691,4198.974256,3822.564009,4204.615282,4216.922974,4199.999897,4202.564,4190.256308
37,0,4196.922974,4221.538358,4198.974256,4202.564,4210.256307,4218.461435,4225.128102,4182.564,3857.948624,4205.128102,4214.358871,4198.974256,4202.051179,4188.205026
38,0,4202.051179,4227.692204,4199.487077,4206.666564,4207.692205,4217.435794,4221.538358,4179.487077,3914.358879,4210.769128,4213.33323,4198.974256,4210.769128,4191.794769
39,0,4216.922974,4244.10246,4210.256307,4213.33323,4216.922974,4219.487076,4223.58964,4193.846051,3996.410159,4221.025538,4219.999897,4209.230666,4225.128102,4212.307589
40,0,4235.384512,4265.128101,4225.128102,4223.07682,4223.58964,4219.999897,4220.512717,4202.564,4055.897337,4226.666563,4233.33323,4228.717845,4234.871691,4235.384512
41,0,4263.076819,4278.974254,4233.84605,4229.743486,4225.128102,4218.461435,4215.384512,4198.461436,4090.769131,4217.435794,4237.948614,4234.871691,4238.974255,4249.743486
42,0,4301.025536,4296.410151,4238.461435,4233.33323,4222.563999,4219.999897,4216.410153,4194.358872,4124.102463,4207.179384,4233.33323,4230.769127,4241.538358,4266.153742
43,0,4329.230663,4320.512715,4245.640922,4239.999896,4222.563999,4221.538358,4217.948615,4194.871692,4153.333232,4210.769128,4233.33323,4237.435794,4248.717845,4289.230664
44,0,4355.384509,4334.871689,4255.897332,4248.717845,4221.538358,4218.974256,4214.358871,4196.410154,4175.897334,4208.205025,4239.487076,4252.307588,4254.35887,4315.89733
45,0,4405.128097,4345.128099,4263.076819,4253.333229,4212.82041,4216.410153,4215.384512,4193.333231,4188.205026,4195.897333,4242.051178,4257.948614,4254.871691,4349.230663
46,0,4453.333224,4363.589637,4265.640921,4250.769127,4205.128102,4217.435794,4215.897333,4182.564,4175.384513,4188.205026,4234.871691,4263.076819,4253.333229,4375.384508
47,0,4467.692198,4376.410149,4264.61528,4250.256306,4204.102461,4215.384512,4205.640923,4171.79477,4149.743488,4176.922975,4226.153743,4267.692203,4251.281947,4379.487072
48,0,4463.076814,4375.897329,4263.589639,4258.461434,4207.692205,4215.384512,4203.589641,4167.179385,4131.28195,4162.05118,4225.640922,4258.461434,4245.128101,4377.43579
49,0,4460.512711,4372.820406,4262.051178,4264.10246,4214.358871,4224.615281,4215.897333,4173.846052,4117.948617,4165.640924,4231.794768,4246.666563,4236.410153,4381.025534
50,0,4448.71784,4361.025534,4261.538357,4256.410152,4221.538358,4227.179384,4220.512717,4184.615282,4095.384515,4178.974257,4231.794768,4241.025537,4232.820409,4370.256303
51,0,4413.846046,4339.487073,4257.948614,4248.205024,4219.999897,4220.512717,4216.922974,4188.717846,4059.48708,4182.564,4223.07682,4234.358871,4229.230666,4344.615278
52,0,4375.384508,4322.051176,4250.769127,4244.615281,4214.871692,4224.615281,4219.487076,4187.179385,4023.589645,4190.256308,4219.999897,4230.256307,4225.640922,4321.025535
53,0,4357.948611,4310.769125,4245.128101,4238.461435,4216.410153,4232.820409,4222.563999,4194.358872,4005.128107,4201.025538,4228.205025,4232.820409,4231.281948,4307.692202
54,0,4334.871689,4292.307587,4237.435794,4231.794768,4209.230666,4222.051179,4217.948615,4200.512718,3992.307595,4204.615282,4234.358871,4230.256307,4233.84605,4289.743485
55,0,4298.974254,4270.256306,4229.230666,4227.179384,4199.999897,4210.769128,4214.358871,4196.922974,3973.333236,4215.384512,4236.410153,4225.640922,4227.692204,4266.666562
56,0,4285.640921,4260.512716,4229.743486,4228.205025,4210.256307,4222.051179,4216.410153,4193.846051,3949.230673,4215.384512,4238.974255,4228.205025,4226.666563,4261.538357
57,0,4284.102459,4263.076819,4236.410153,4229.743486,4225.128102,4232.307589,4220.512717,4195.897333,3931.281955,4204.615282,4235.384512,4227.692204,4233.33323,4264.61528
58,0,4271.281947,4261.538357,4230.256307,4223.07682,4219.487076,4226.153743,4217.948615,4193.333231,3919.999904,4205.640923,4228.717845,4221.538358,4232.820409,4251.794768
59,0,4251.794768,4252.820409,4219.487076,4215.384512,4208.717846,4217.948615,4212.82041,4187.179385,3911.281956,4211.794769,4232.307589,4217.435794,4229.230666,4244.10246
60,0,4240.512717,4246.666563,4221.538358,4217.435794,4209.743487,4218.461435,4214.358871,4192.82041,3920.512725,4209.743487,4238.974255,4219.999897,4232.820409,4252.820409
61,0,4237.948614,4242.563999,4222.563999,4219.999897,4211.281948,4221.538358,4215.897333,4198.974256,3933.333237,4209.743487,4234.358871,4215.897333,4231.281948,4241.538358
62,0,4233.33323,4237.435794,4214.358871,4215.897333,4209.230666,4218.974256,4214.358871,4189.230667,3930.256314,4213.846051,4223.58964,4199.487077,4222.563999,4218.461435
63,0,4221.025538,4239.487076,4214.871692,4213.846051,4214.871692,4216.922974,4215.384512,4185.128103,3941.538365,4211.794769,4223.58964,4195.384513,4223.58964,4219.999897
64,0,4207.692205,4238.974255,4221.538358,4217.435794,4221.538358,4217.948615,4217.435794,4192.82041,3973.846057,4214.871692,4232.820409,4201.538359,4232.307589,4223.58964
65,0,4201.025538,4226.666563,4217.948615,4216.922974,4215.897333,4216.922974,4213.33323,4190.256308,3993.846056,4210.769128,4228.205025,4193.333231,4227.179384,4213.33323
66,0,4200.512718,4222.563999,4214.358871,4215.384512,4214.871692,4218.461435,4212.307589,4187.692205,4017.94862,4202.051179,4219.487076,4181.025539,4222.051179,4212.82041
67,0,4203.07682,4227.179384,4219.999897,4215.897333,4222.563999,4225.640922,4222.563999,4201.538359,4063.589644,4207.179384,4225.128102,4186.666564,4226.666563,4221.025538
68,0,4194.871692,4222.051179,4219.999897,4211.794769,4221.538358,4229.743486,4230.769127,4210.256307,4103.076823,4210.256307,4225.640922,4189.743487,4225.640922,4215.384512
69,0,4182.564,4218.461435,4217.948615,4209.743487,4218.974256,4229.230666,4231.281948,4201.025538,4116.922976,4195.897333,4213.33323,4179.999898,4217.948615,4195.897333
70,0,4175.897334,4221.025538,4217.435794,4217.435794,4225.128102,4229.230666,4228.717845,4198.974256,4130.256309,4196.922974,4212.307589,4176.922975,4215.897333,4184.102462
71,0,4171.281949,4215.384512,4209.743487,4218.461435,4224.102461,4226.666563,4228.717845,4206.153743,4159.487078,4217.948615,4221.025538,4178.974257,4223.07682,4190.256308
72,0,4181.025539,4215.384512,4205.640923,4212.82041,4220.512717,4226.153743,4232.307589,4209.743487,4185.640923,4221.025538,4229.230666,4177.948616,4232.820409,4204.615282
73,0,4188.717846,4226.666563,4210.256307,4214.871692,4225.640922,4227.179384,4229.230666,4208.717846,4184.102462,4209.230666,4230.769127,4177.948616,4235.897332,4205.640923
74,0,4176.410154,4222.051179,4207.692205,4213.33323,4226.666563,4222.051179,4218.461435,4204.102461,4163.076821,4209.743487,4222.563999,4185.128103,4228.717845,4191.281949
75,0,4162.564001,4206.666564,4202.051179,4204.102461,4217.948615,4215.897333,4213.33323,4190.256308,4137.948617,4207.179384,4210.256307,4183.076821,4218.974256,4181.538359
76,0,4157.435796,4203.07682,4202.051179,4202.051179,4211.281948,4215.897333,4215.384512,4183.076821,4114.871694,4188.205026,4205.640923,4169.230667,4216.410153,4184.102462
77,0,4152.820411,4202.051179,4196.922974,4203.589641,4213.846051,4217.435794,4214.871692,4186.153744,4109.230669,4180.512718,4209.743487,4166.666565,4218.461435,4187.692205
78,0,4152.820411,4197.948615,4193.333231,4201.538359,4211.281948,4216.410153,4213.33323,4184.102462,4111.281951,4190.256308,4211.794769,4173.846052,4223.07682,4187.692205
79,0,4154.871693,4195.897333,4197.435795,4199.487077,4201.538359,4215.897333,4215.384512,4182.564,4095.897336,4199.487077,4208.717846,4175.897334,4219.999897,4182.564
80,0,4153.846052,4193.846051,4197.435795,4197.435795,4201.025538,4215.384512,4217.435794,4188.205026,4079.9999,4195.384513,4205.128102,4176.410154,4212.82041,4183.076821
81,0,4151.28195,4189.230667,4194.358872,4197.948615,4208.205025,4216.410153,4217.948615,4192.30759,4084.102464,4190.256308,4208.205025,4183.076821,4215.384512,4194.871692
82,0,4153.846052,4195.384513,4201.538359,4206.666564,4215.897333,4218.461435,4217.948615,4191.794769,4084.615285,4205.128102,4216.410153,4190.256308,4227.692204,4204.615282
83,0,4154.871693,4209.230666,4203.07682,4215.897333,4218.974256,4218.461435,4217.435794,4190.769128,4070.256311,4212.82041,4220.512717,4185.128103,4233.33323,4205.128102
84,0,4150.769129,4210.769128,4195.384513,4214.358871,4217.435794,4218.461435,4216.410153,4184.102462,4059.48708,4202.564,4219.487076,4173.846052,4229.743486,4199.999897
85,0,4152.820411,4208.717846,4192.82041,4206.153743,4218.974256,4219.487076,4216.922974,4174.871693,4049.743491,4199.487077,4215.897333,4173.846052,4230.256307,4191.794769
86,0,4155.897334,4208.717846,4192.82041,4206.153743,4222.051179,4219.999897,4217.948615,4174.358872,4035.384517,4197.435795,4213.846051,4177.435795,4230.769127,4187.179385
87,0,4148.717847,4210.769128,4193.846051,4214.358871,4221.538358,4218.461435,4216.410153,4188.717846,4037.948619,4198.974256,4217.948615,4181.025539,4235.897332,4193.846051
88,0,4143.589642,4217.948615,4201.025538,4217.948615,4221.538358,4217.948615,4215.897333,4199.487077,4043.076824,4217.948615,4229.230666,4190.256308,4250.769127,4197.435795
89,0,4156.922975,4220.512717,4203.589641,4216.922974,4222.051179,4219.999897,4215.384512,4194.871692,4024.102466,4227.692204,4234.871691,4195.384513,4257.948614,4201.025538
90,0,4167.179385,4210.769128,4198.461436,4214.358871,4216.410153,4220.512717,4212.307589,4185.640923,3995.384518,4210.769128,4231.794768,4186.153744,4247.179383,4212.307589
91,0,4159.999898,4205.128102,4198.974256,4208.205025,4218.461435,4218.974256,4213.33323,4189.743487,3991.794774,4206.666564,4229.230666,4183.589641,4241.025537,4210.256307
92,0,4148.717847,4206.153743,4201.025538,4204.615282,4224.615281,4218.974256,4218.461435,4194.358872,3998.974261,4214.358871,4221.538358,4190.769128,4241.538358,4191.794769
93,0,4141.02554,4201.538359,4195.897333,4204.615282,4217.948615,4217.948615,4215.897333,4184.615282,3989.743492,4209.230666,4215.384512,4186.153744,4233.33323,4181.538359
94,0,4134.358873,4196.410154,4190.256308,4204.102461,4209.743487,4217.435794,4211.281948,4176.922975,3980.512723,4201.538359,4216.410153,4173.333231,4227.179384,4185.128103
95,0,4135.897335,4194.871692,4190.769128,4203.07682,4215.384512,4220.512717,4213.846051,4182.05118,3989.230672,4205.128102,4212.82041,4171.79477,4226.666563,4181.538359
96,0,4137.948617,4194.358872,4193.846051,4204.102461,4220.512717,4221.025538,4217.948615,4181.538359,3996.922979,4206.666564,4209.743487,4176.410154,4226.153743,4174.871693
97,0,4128.717848,4192.82041,4191.794769,4202.564,4215.897333,4219.487076,4221.538358,4174.358872,3994.871697,4188.717846,4210.769128,4175.897334,4222.051179,4178.974257
98,0,4119.999899,4189.230667,4184.615282,4199.487077,4209.743487,4223.58964,4223.07682,4179.999898,3999.999902,4173.846052,4206.666564,4176.410154,4218.974256,4189.230667
99,0,4123.589643,4190.256308,4185.640923,4199.487077,4211.794769,4223.07682,4220.512717,4183.589641,4012.307594,4184.615282,4201.025538,4178.461436,4218.974256,4195.897333
100,0,4131.28195,4192.30759,4193.846051,4205.128102,4222.051179,4216.922974,4216.922974,4172.30759,4018.974261,4195.897333,4206.666564,4174.358872,4222.563999,4188.205026
101,0,4132.820412,4193.846051,4199.487077,4208.717846,4226.153743,4215.384512,4215.897333,4169.230667,4028.20503,4188.205026,4212.307589,4178.461436,4227.692204,4179.487077
102,0,4138.974258,4200.512718,4201.025538,4206.153743,4219.999897,4217.435794,4214.871692,4175.384513,4043.589645,4190.769128,4209.743487,4187.692205,4235.384512,4191.794769
103,0,4148.205027,4205.640923,4200.512718,4206.153743,4212.82041,4217.948615,4214.871692,4179.999898,4061.025542,4209.743487,4209.230666,4185.640923,4239.999896,4206.666564
104,0,4147.179386,4204.102461,4201.538359,4211.794769,4215.897333,4219.487076,4218.974256,4188.205026,4080.512721,4215.897333,4216.410153,4184.102462,4237.435794,4201.538359
105,0,4135.897335,4198.461436,4198.461436,4212.307589,4218.974256,4218.974256,4221.025538,4193.846051,4088.717849,4204.615282,4218.974256,4188.717846,4237.435794,4199.487077
106,0,4132.307591,4192.30759,4191.794769,4206.153743,4216.922974,4216.922974,4220.512717,4191.281949,4088.717849,4199.999897,4215.384512,4185.640923,4236.922973,4202.051179
107,0,4135.384514,4193.333231,4196.410154,4200.512718,4221.538358,4219.999897,4220.512717,4190.256308,4096.410156,4205.128102,4213.846051,4185.640923,4231.281948,4188.717846
108,0,4132.820412,4202.564,4202.051179,4201.025538,4228.717845,4222.051179,4218.974256,4189.230667,4104.615284,4198.974256,4211.794769,4189.743487,4231.281948,4186.153744
109,0,4135.384514,4202.051179,4195.384513,4206.666564,4219.487076,4216.922974,4214.871692,4177.948616,4096.922977,4190.769128,4202.051179,4183.589641,4230.256307,4194.871692
110,0,4146.666565,4196.922974,4195.897333,4212.82041,4211.281948,4216.410153,4213.846051,4170.256308,4091.281951,4199.487077,4199.999897,4179.487077,4229.230666,4187.179385
111,0,4156.410155,4208.205025,4208.205025,4216.410153,4225.128102,4225.128102,4219.999897,4176.922975,4095.897336,4204.615282,4210.769128,4189.743487,4236.410153,4188.205026
112,0,4156.922975,4221.025538,4211.794769,4217.435794,4236.922973,4227.692204,4227.692204,4186.153744,4099.487079,4198.461436,4217.948615,4195.897333,4242.051178,4204.102461
113,0,4137.435796,4210.256307,4197.948615,4208.205025,4230.256307,4221.025538,4230.769127,4187.692205,4098.461438,4186.153744,4211.794769,4188.205026,4233.84605,4197.948615
114,0,4117.948617,4193.333231,4185.640923,4197.435795,4223.07682,4218.461435,4228.717845,4183.076821,4098.461438,4178.974257,4202.564,4181.025539,4223.07682,4178.974257
115,0,4131.28195,4193.846051,4190.769128,4204.615282,4228.205025,4218.974256,4227.692204,4179.999898,4104.615284,4190.256308,4204.615282,4180.512718,4228.205025,4185.640923
116,0,4159.487078,4204.102461,4204.615282,4214.871692,4234.358871,4219.999897,4230.769127,4191.281949,4124.615284,4208.205025,4210.769128,4183.589641,4241.025537,4206.666564
117,0,4157.948616,4204.615282,4206.666564,4209.230666,4230.769127,4224.615281,4231.794768,4204.102461,4151.79477,4210.769128,4210.769128,4187.692205,4241.025537,4209.743487
118,0,4135.897335,4198.974256,4198.461436,4200.512718,4223.58964,4223.07682,4228.717845,4198.974256,4158.974257,4209.230666,4209.230666,4185.128103,4230.769127,4191.281949
119,0,4132.307591,4197.948615,4195.897333,4202.564,4226.666563,4218.974256,4229.743486,4194.871692,4158.974257,4215.384512,4215.897333,4182.05118,4232.307589,4186.153744
120,0,4145.640924,4199.487077,4201.025538,4207.692205,4232.307589,4225.128102,4234.358871,4209.743487,4179.487077,4215.897333,4225.128102,4190.256308,4244.615281,4205.640923
121,0,4148.205027,4197.948615,4199.487077,4206.666564,4229.230666,4224.615281,4235.384512,4214.358871,4191.281949,4208.717846,4223.07682,4194.871692,4247.179383,4214.358871
122,0,4142.564001,4195.897333,4193.333231,4206.666564,4224.615281,4215.384512,4228.717845,4192.82041,4179.487077,4200.512718,4213.846051,4189.230667,4242.563999,4205.128102
123,0,4151.79477,4205.128102,4197.435795,4210.769128,4228.717845,4215.897333,4223.07682,4188.205026,4185.640923,4198.461436,4215.897333,4192.30759,4245.128101,4210.769128
124,0,4162.564001,4216.410153,4212.82041,4217.435794,4231.281948,4222.051179,4225.128102,4198.974256,4200.512718,4199.999897,4227.179384,4202.564,4253.333229,4228.717845
125,0,4153.846052,4215.897333,4216.410153,4221.538358,4224.615281,4218.461435,4228.717845,4192.30759,4193.846051,4194.358872,4225.128102,4203.589641,4254.871691,4227.692204
126,0,4148.717847,4206.666564,4206.153743,4212.307589,4219.487076,4215.384512,4229.743486,4179.487077,4191.794769,4190.256308,4213.846051,4198.461436,4243.58964,4205.128102
127,0,4153.846052,4202.051179,4203.589641,4199.999897,4221.025538,4216.922974,4229.743486,4185.128103,4204.615282,4201.025538,4208.205025,4192.30759,4234.358871,4192.82041
128,0,4154.358873,4206.666564,4211.281948,4204.102461,4221.025538,4217.435794,4229.230666,4193.333231,4204.615282,4209.230666,4210.256307,4195.384513,4235.897332,4203.589641
0,0,4157.435796,4210.256307,4215.897333,4216.922974,4219.487076,4217.948615,4228.717845,4194.871692,4194.358872,4204.102461,4216.922974,4209.230666,4238.974255,4213.33323
1,0,4156.922975,4202.564,4212.307589,4215.384512,4215.384512,4216.410153,4228.205025,4191.794769,4174.358872,4186.666564,4212.307589,4201.025538,4230.769127,4204.615282
2,0,4146.666565,4198.461436,4210.769128,4210.256307,4213.846051,4216.922974,4226.153743,4183.589641,4149.230668,4176.922975,4205.640923,4185.640923,4224.102461,4195.384513
3,0,4145.640924,4204.102461,4214.358871,4212.307589,4221.538358,4222.051179,4227.692204,4190.256308,4143.076822,4190.769128,4213.33323,4200.512718,4230.256307,4199.487077
4,0,4154.358873,4207.692205,4216.922974,4212.82041,4225.640922,4222.563999,4232.307589,4208.205025,4145.128104,4208.205025,4221.025538,4214.358871,4237.948614,4207.179384
5,0,4153.333232,4202.564,4212.82041,4215.384512,4216.922974,4215.897333,4232.307589,4205.128102,4134.871694,4209.230666,4214.358871,4204.102461,4237.948614,4205.128102
6,0,4148.717847,4199.999897,4210.256307,4218.974256,4214.358871,4216.922974,4230.769127,4195.384513,4132.820412,4205.640923,4211.281948,4197.948615,4235.384512,4196.410154
7,0,4153.333232,4204.102461,4211.281948,4214.358871,4221.025538,4222.051179,4232.307589,4202.051179,4154.358873,4212.82041,4222.051179,4201.025538,4238.461435,4203.589641
8,0,4158.974257,4210.769128,4209.743487,4213.846051,4222.563999,4222.051179,4233.33323,4205.128102,4174.871693,4219.487076,4230.256307,4200.512718,4249.230665,4226.153743
9,0,4157.435796,4205.640923,4207.692205,4216.410153,4219.999897,4225.640922,4233.33323,4196.410154,4187.692205,4221.538358,4224.102461,4201.538359,4252.307588,4223.58964
10,0,4152.820411,4192.82041,4212.82041,4213.33323,4216.922974,4228.205025,4230.769127,4191.794769,4206.153743,4219.487076,4212.82041,4202.564,4243.076819,4197.948615
11,0,4152.307591,4199.999897,4224.615281,4221.025538,4220.512717,4227.179384,4227.692204,4193.333231,4231.794768,4218.974256,4212.307589,4206.666564,4239.999896,4204.102461
12,0,4160.512719,4212.82041,4228.205025,4233.33323,4225.640922,4225.640922,4228.717845,4202.051179,4257.948614,4223.58964,4215.384512,4214.358871,4247.179383,4229.743486
13,0,4168.717847,4210.769128,4219.999897,4226.666563,4223.58964,4222.051179,4230.769127,4208.205025,4281.025536,4221.025538,4207.179384,4212.307589,4247.692204,4222.563999
14,0,4173.846052,4208.205025,4214.871692,4222.563999,4225.128102,4223.07682,4233.33323,4203.589641,4304.615279,4210.256307,4198.461436,4205.640923,4244.615281,4209.230666
15,0,4170.256308,4208.205025,4218.974256,4228.717845,4232.307589,4230.769127,4234.871691,4204.615282,4335.384509,4212.82041,4202.051179,4202.051179,4247.179383,4215.897333
16,0,4155.384514,4199.999897,4221.025538,4220.512717,4226.666563,4228.205025,4233.84605,4210.256307,4352.307586,4226.153743,4206.153743,4199.487077,4249.230665,4215.384512
17,0,4151.28195,4197.948615,4214.358871,4215.897333,4219.487076,4221.025538,4232.307589,4208.717846,4356.41015,4222.051179,4202.564,4206.153743,4251.281947,4212.82041
18,0,4166.153744,4208.205025,4213.33323,4229.743486,4223.07682,4224.615281,4231.794768,4208.205025,4368.717842,4209.230666,4202.564,4214.358871,4255.384511,4218.461435
19,0,4172.820411,4209.743487,4215.897333,4231.281948,4223.07682,4224.615281,4229.743486,4211.281948,4379.999893,4221.538358,4205.640923,4207.692205,4255.384511,4216.410153
20,0,4156.410155,4199.999897,4216.410153,4222.563999,4218.461435,4221.025538,4229.743486,4207.692205,4371.281944,4236.410153,4202.564,4204.615282,4254.35887,4217.435794
21,0,4152.820411,4201.025538,4222.051179,4228.717845,4222.051179,4227.179384,4230.769127,4207.692205,4355.384509,4224.102461,4201.538359,4216.922974,4254.35887,4226.666563
22,0,4164.102462,4209.230666,4228.717845,4234.358871,4223.58964,4233.33323,4232.307589,4212.82041,4339.487073,4214.358871,4201.538359,4221.538358,4252.820409,4224.615281
23,0,4167.179385,4206.666564,4228.717845,4228.205025,4216.922974,4230.769127,4234.358871,4218.461435,4320.512715,4229.743486,4200.512718,4212.82041,4251.281947,4217.948615
24,0,4172.820411,4203.07682,4220.512717,4230.256307,4219.487076,4228.205025,4234.358871,4218.461435,4297.948613,4231.794768,4201.538359,4205.128102,4252.820409,4219.487076
25,0,4168.205026,4208.717846,4213.33323,4231.794768,4226.153743,4226.153743,4230.256307,4208.717846,4266.153742,4208.717846,4196.922974,4195.384513,4245.128101,4219.999897
26,0,4150.769129,4205.128102,4207.692205,4221.025538,4219.487076,4218.461435,4227.692204,4195.384513,4230.256307,4202.051179,4182.05118,4185.128103,4231.794768,4214.871692
27,0,4156.922975,4196.922974,4209.230666,4222.563999,4213.33323,4219.487076,4224.615281,4195.897333,4217.948615,4215.897333,4182.564,4187.692205,4231.794768,4212.307589
28,0,4170.769129,4202.564,4214.358871,4232.307589,4217.948615,4224.615281,4219.999897,4204.102461,4227.692204,4228.205025,4199.999897,4206.666564,4250.769127,4223.07682
29,0,4158.461437,4203.07682,4212.307589,4222.051179,4218.461435,4221.025538,4222.563999,4203.589641,4224.615281,4227.179384,4204.102461,4214.871692,4260.512716,4235.897332
30,0,4143.589642,4187.692205,4206.666564,4212.307589,4214.871692,4221.025538,4230.256307,4210.256307,4218.461435,4221.025538,4194.358872,4197.435795,4236.410153,4217.948615
31,0,4158.461437,4191.281949,4213.33323,4228.717845,4218.461435,4229.743486,4235.384512,4224.102461,4235.384512,4229.743486,4201.025538,4194.871692,4227.692204,4207.179384
32,0,4181.025539,4203.589641,4222.563999,4237.948614,4220.512717,4231.281948,4236.410153,4228.717845,4257.435793,4242.051178,4218.974256,4221.025538,4261.025537,4238.974255
33,0,4183.076821,4190.256308,4222.051179,4223.58964,4217.435794,4219.487076,4233.84605,4221.025538,4254.35887,4239.999896,4223.07682,4233.33323,4280.512716,4255.897332
34,0,4170.769129,4166.666565,4224.615281,4214.871692,4215.384512,4216.410153,4231.281948,4218.461435,4245.128101,4244.615281,4227.179384,4233.33323,4282.563998,4251.281947
35,0,4171.79477,4152.307591,4233.84605,4216.922974,4211.281948,4224.615281,4233.84605,4224.615281,4250.769127,4251.794768,4239.487076,4243.076819,4301.538356,4265.128101
36,0,4190.256308,4144.102463,4232.820409,4217.948615,4209.230666,4226.153743,4232.820409,4218.974256,4248.717845,4244.10246,4241.025537,4245.640922,4313.333228,4277.948613
37,0,4187.692205,4144.102463,4224.615281,4213.33323,4210.769128,4218.461435,4223.58964,4203.07682,4232.307589,4235.897332,4233.33323,4236.922973,4299.999895,4264.10246
38,0,4169.743488,4146.666565,4219.487076,4204.615282,4206.666564,4214.358871,4217.948615,4197.435795,4222.051179,4237.948614,4229.230666,4227.179384,4290.256305,4249.230665
39,0,4165.640924,4141.53836,4213.846051,4202.564,4202.051179,4214.871692,4215.897333,4198.461436,4220.512717,4231.794768,4224.102461,4213.846051,4287.179382,4244.615281
40,0,4170.769129,4148.717847,4215.384512,4213.33323,4208.205025,4214.871692,4215.384512,4199.487077,4228.205025,4228.717845,4228.717845,4213.846051,4289.230664,4247.692204
41,0,4175.897334,4166.153744,4224.102461,4221.538358,4221.025538,4222.051179,4218.974256,4205.128102,4236.922973,4242.563999,4240.512717,4228.205025,4297.948613,4258.974255
42,0,4182.05118,4167.179385,4224.615281,4219.999897,4225.128102,4227.179384,4219.487076,4210.256307,4235.897332,4255.897332,4236.922973,4232.820409,4298.461433,4258.461434
43,0,4185.128103,4161.025539,4220.512717,4217.948615,4224.102461,4219.999897,4216.922974,4207.179384,4237.948614,4248.717845,4231.794768,4229.230666,4293.333228,4247.692204
44,0,4182.05118,4159.487078,4222.051179,4214.871692,4218.461435,4214.358871,4218.461435,4211.794769,4250.256306,4237.948614,4242.563999,4227.179384,4293.333228,4247.692204
45,0,4182.564,4158.461437,4220.512717,4213.33323,4206.666564,4216.410153,4219.999897,4224.615281,4258.461434,4247.692204,4248.205024,4225.128102,4296.410151,4256.410152
46,0,4180.512718,4163.076821,4218.974256,4218.461435,4204.615282,4221.025538,4220.512717,4228.717845,4253.84605,4256.410152,4245.128101,4228.717845,4296.922972,4255.384511
47,0,4172.820411,4170.769129,4225.640922,4221.538358,4211.794769,4219.999897,4219.487076,4223.07682,4242.563999,4252.820409,4248.717845,4231.794768,4297.435792,4248.717845
48,0,4172.30759,4170.256308,4230.256307,4218.974256,4214.358871,4216.922974,4213.846051,4210.769128,4225.640922,4251.794768,4249.230665,4229.230666,4299.487074,4247.179383
49,0,4185.640923,4171.79477,4225.128102,4218.461435,4217.435794,4218.974256,4215.384512,4211.281948,4224.102461,4254.871691,4244.615281,4232.307589,4303.076818,4250.769127
